Data from hue_260_FLMS001491_00065.txt Node
Date: Tue Feb 07 15:59:24 GMT 2017
User: dcchb
Spectrometer: FLMS00149
Trigger mode: 0
Integration Time (sec): 2.000000E-2
Scans to average: 10
Electric dark correction enabled: true
Nonlinearity correction enabled: false
Boxcar width: 0
XAxis mode: Wavelengths
Number of Pixels in Spectrum: 2048
>>>>>Begin Spectral Data<<<<<
341.393	-14.91
341.776	-14.91
342.16	-14.91
342.543	-64.86
342.927	-77.74
343.31	-74.35
343.693	-67.57
344.077	-41.81
344.46	-38.19
344.843	-59.89
345.226	-50.39
345.61	-19.43
345.993	-15.82
346.376	-8.36
346.759	4.97
347.142	19.43
347.525	44.52
347.908	46.33
348.291	66.89
348.674	98.53
349.057	95.14
349.44	99.43
349.823	143.5
350.206	156.83
350.588	186.21
350.971	188.02
351.354	205.42
351.737	245.42
352.119	244.74
352.502	266.66
352.884	256.49
353.267	280.44
353.65	270.5
354.032	269.82
354.414	310.05
354.797	311.18
355.179	318.41
355.562	298.98
355.944	305.75
356.326	321.35
356.709	324.29
357.091	324.51
357.473	326.55
357.855	313.89
358.238	332.19
358.62	322.7
359.002	331.52
359.384	340.78
359.766	310.05
360.148	332.42
360.53	336.71
360.912	331.74
361.294	328.58
361.676	329.71
362.057	303.27
362.439	324.51
362.821	330.84
363.203	323.38
363.584	329.93
363.966	308.24
364.348	307.11
364.729	306.43
365.111	310.27
365.493	319.54
365.874	308.69
366.256	308.01
366.637	322.93
367.019	316.83
367.4	298.98
367.781	316.15
368.163	347.79
368.544	305.3
368.925	317.96
369.306	316.6
369.688	326.32
370.069	304.62
370.45	312.08
370.831	317.96
371.212	318.64
371.593	298.75
371.974	317.05
372.355	290.39
372.736	292.65
373.117	312.53
373.498	304.17
373.879	300.56
374.26	315.7
374.641	281.8
375.021	308.69
375.402	309.82
375.783	327
376.163	325.64
376.544	316.83
376.925	312.99
377.305	303.49
377.686	314.79
378.066	310.05
378.447	312.31
378.827	321.57
379.208	330.39
379.588	331.06
379.968	319.54
380.349	315.25
380.729	332.65
381.109	305.08
381.489	329.26
381.87	328.58
382.25	334.91
382.63	317.96
383.01	324.96
383.39	325.19
383.77	330.61
384.15	338.75
384.53	319.54
384.91	349.37
385.29	335.58
385.67	353.21
386.049	323.16
386.429	343.04
386.809	357.5
387.189	357.73
387.568	335.13
387.948	341.23
388.328	355.24
388.707	349.37
389.087	368.8
389.466	368.13
389.846	354.11
390.225	362.7
390.605	358.18
390.984	350.05
391.363	359.54
391.743	347.56
392.122	353.21
392.501	371.52
392.881	371.97
393.26	370.16
393.639	376.26
394.018	375.13
394.397	369.03
394.776	376.94
395.155	377.39
395.534	380.1
395.913	366.09
396.292	379.88
396.671	388.24
397.05	389.59
397.429	379.43
397.808	394.57
398.186	411.29
398.565	412.19
398.944	395.7
399.323	398.86
399.701	424.17
400.08	415.36
400.458	422.36
400.837	409.48
401.215	428.69
401.594	399.54
401.972	409.03
402.351	424.62
402.729	410.84
403.107	431.63
403.486	418.75
403.864	421.68
404.242	411.06
404.62	424.85
404.999	419.2
405.377	442.25
405.755	439.08
406.133	446.77
406.511	419.65
406.889	451.97
407.267	455.13
407.645	452.42
408.023	474.56
408.401	470.04
408.779	468.91
409.156	495.81
409.534	478.63
409.912	489.03
410.29	486.99
410.667	503.72
411.045	513.21
411.422	519.08
411.8	532.19
412.178	536.26
412.555	541
412.933	541
413.31	537.84
413.687	560.21
414.065	555.92
414.442	603.6
414.819	576.48
415.197	575.35
415.574	595.24
415.951	585.75
416.328	619.42
416.705	595.92
417.082	620.1
417.46	621.23
417.837	631.62
418.214	623.71
418.591	652.64
418.967	644.05
419.344	647.21
419.721	656.48
420.098	676.37
420.475	685.86
420.852	673.43
421.228	691.51
421.605	695.12
421.982	705.52
422.358	728.79
422.735	729.02
423.111	754.56
423.488	731.51
423.864	753.88
424.241	763.37
424.617	777.83
424.994	783.71
425.37	795.23
425.746	832.75
426.123	827.32
426.499	823.71
426.875	823.48
427.251	832.97
427.627	856.7
428.003	874.1
428.379	878.17
428.756	878.17
429.132	917.94
429.507	921.11
429.883	913.42
430.259	948.9
430.635	915.23
431.011	942.12
431.387	978.05
431.763	973.31
432.138	990.48
432.514	1019.63
432.89	1020.99
433.265	1026.19
433.641	1048.56
434.016	1081.1
434.392	1082.46
434.767	1068.22
435.143	1110.03
435.518	1116.81
435.894	1140.08
436.269	1186.64
436.644	1181.66
437.02	1182.34
437.395	1204.71
437.77	1244.94
438.145	1253.07
438.52	1257.82
438.895	1296.92
439.271	1288.1
439.646	1303.02
440.021	1322.45
440.395	1327.2
440.77	1348.89
441.145	1348.67
441.52	1389.12
441.895	1376.01
442.27	1396.8
442.645	1397.93
443.019	1398.38
443.394	1446.52
443.769	1438.83
444.143	1445.61
444.518	1453.07
444.892	1489.68
445.267	1513.63
445.641	1519.28
446.016	1493.07
446.39	1500.98
446.764	1520.86
447.139	1532.84
447.513	1534.42
447.887	1557.7
448.262	1575.1
448.636	1575.55
449.01	1605.38
449.384	1604.25
449.758	1663.91
450.132	1616
450.506	1652.39
450.88	1660.97
451.254	1644.25
451.628	1697.81
452.002	1698.03
452.376	1738.71
452.75	1729.67
453.123	1742.33
453.497	1759.05
453.871	1762.21
454.244	1806.51
454.618	1803.12
454.992	1805.6
455.365	1834.3
455.739	1879.5
456.112	1892.83
456.486	1903.68
456.859	1925.15
457.232	1946.62
457.606	1937.58
457.979	1978.25
458.352	2005.37
458.725	2026.16
459.099	1999.5
459.472	2065.93
459.845	2084.01
460.218	2117.68
460.591	2136.22
460.964	2107.06
461.337	2184.12
461.71	2213.05
462.083	2239.72
462.456	2247.4
462.829	2239.94
463.201	2298.02
463.574	2303.67
463.947	2329.66
464.32	2337.79
464.692	2394.97
465.065	2373.04
465.438	2433.16
465.81	2458.01
466.183	2473.16
466.555	2500.5
466.928	2561.06
467.3	2546.6
467.672	2582.3
468.045	2614.85
468.417	2642.64
468.789	2628.63
469.161	2657.33
469.534	2718.35
469.906	2785.24
470.278	2769.64
470.65	2814.62
471.022	2870.43
471.394	2907.72
471.766	2938.23
472.138	2925.12
472.51	3008.96
472.882	3024.33
473.253	3060.94
473.625	3159.92
473.997	3149.3
474.369	3172.8
474.74	3222.74
475.112	3258.9
475.484	3316.52
475.855	3370.53
476.227	3400.81
476.598	3444.88
476.97	3490.53
477.341	3551.32
477.713	3578.66
478.084	3603.07
478.455	3678.55
478.827	3748.38
479.198	3782.95
479.569	3833.12
479.94	3910.86
480.311	3952.66
480.682	3979.33
481.053	4092.55
481.424	4151.3
481.795	4213.45
482.166	4222.71
482.537	4264.75
482.908	4416.83
483.279	4395.82
483.65	4442.6
484.021	4506.77
484.391	4547.45
484.762	4589.03
485.133	4631.74
485.503	4682.59
485.874	4762.59
486.244	4801
486.615	4845.07
486.985	4927.33
487.356	5002.13
487.726	5012.07
488.097	5063.82
488.467	5146.08
488.837	5242.35
489.207	5270.6
489.578	5324.61
489.948	5388.56
490.318	5427.88
490.688	5462.68
491.058	5557.59
491.428	5597.37
491.798	5643.69
492.168	5738.83
492.538	5743.13
492.908	5766.85
493.278	5866.06
493.648	5850.02
494.017	5859.05
494.387	5915.78
494.757	5991.25
495.126	6054.53
495.496	6000.07
495.866	6091.14
496.235	6132.04
496.605	6195.54
496.974	6190.12
497.344	6255.2
497.713	6288.87
498.082	6304.02
498.452	6334.97
498.821	6396.22
499.19	6399.61
499.559	6440.28
499.928	6485.25
500.298	6485.03
500.667	6525.03
501.036	6532.71
501.405	6566.16
501.774	6550.79
502.143	6619.26
502.512	6602.54
502.88	6715.3
503.249	6672.82
503.618	6754.17
503.987	6695.64
504.356	6763.21
504.724	6800.27
505.093	6834.85
505.462	6845.92
505.83	6839.59
506.199	6923.89
506.567	6928.18
506.936	6927.28
507.304	6973.83
507.672	6959.59
508.041	6994.39
508.409	7082.53
508.777	7105.35
509.145	7153.03
509.514	7160.49
509.882	7216.76
510.25	7156.87
510.618	7101.73
510.986	7224.44
511.354	7208.85
511.722	7334.95
512.09	7313.71
512.458	7284.1
512.826	7329.75
513.193	7370.88
513.561	7337.89
513.929	7420.6
514.297	7472.57
514.664	7435.96
515.032	7457.66
515.4	7554.15
515.767	7447.04
516.135	7493.59
516.502	7457.88
516.869	7551.44
517.237	7538.11
517.604	7555.51
517.972	7583.53
518.339	7571.33
518.706	7605
519.073	7662.85
519.44	7618.1
519.808	7648.84
520.175	7652.23
520.542	7699.23
520.909	7696.07
521.276	7706.01
521.643	7706.69
522.009	7768.61
522.376	7863.52
522.743	7857.19
523.11	7887.48
523.477	7871.88
523.843	7933.35
524.21	7885.44
524.577	7894.71
524.943	7948.49
525.31	8003.41
525.676	8015.83
526.043	8002.73
526.409	8073.91
526.776	8135.38
527.142	8087.02
527.508	8111.88
527.874	8137.41
528.241	8125.89
528.607	8130.86
528.973	8173.8
529.339	8101.71
529.705	8211.76
530.071	8234.81
530.437	8236.17
530.803	8232.78
531.169	8251.31
531.535	8233.46
531.901	8226.22
532.267	8199.56
532.632	8282.27
532.998	8233.91
533.364	8289.27
533.73	8256.28
534.095	8319.56
534.461	8302.38
534.826	8320.23
535.192	8329.72
535.557	8291.53
535.923	8266.45
536.288	8313.23
536.653	8284.75
537.019	8289.5
537.384	8311.19
537.749	8307.8
538.114	8258.09
538.479	8202.27
538.845	8279.1
539.21	8250.18
539.575	8212.44
539.94	8266
540.305	8287.24
540.67	8233.68
541.034	8157.3
541.399	8223.96
541.764	8254.7
542.129	8223.06
542.494	8217.86
542.858	8237.98
543.223	8165.66
543.587	8230.52
543.952	8275.26
544.316	8219.44
544.681	8220.12
545.045	8220.57
545.41	8205.89
545.774	8223.74
546.138	8164.31
546.503	8190.75
546.867	8149.39
547.231	8178.77
547.595	8165.21
547.959	8136.96
548.324	8148.71
548.688	8125.21
549.052	8152.1
549.416	8174.93
549.779	8078.88
550.143	8091.09
550.507	8106.91
550.871	8143.74
551.235	8054.7
551.599	8085.89
551.962	8112.78
552.326	8144.64
552.689	8150.97
553.053	8079.11
553.417	8133.8
553.78	8219.67
554.143	8113.23
554.507	8105.55
554.87	8101.48
555.234	8208.37
555.597	8115.04
555.96	8120.46
556.323	8153.46
556.686	8049.51
557.05	8148.94
557.413	8179.9
557.776	8137.64
558.139	8214.7
558.502	8157.98
558.865	8098.77
559.228	8107.36
559.59	8196.39
559.953	8190.52
560.316	8240.46
560.679	8269.39
561.041	8289.05
561.404	8246.79
561.767	8276.62
562.129	8257.86
562.492	8321.59
562.854	8292.21
563.217	8325.66
563.579	8319.56
563.941	8348.48
564.304	8343.74
564.666	8395.49
565.028	8404.98
565.39	8412.43
565.753	8379.67
566.115	8440
566.477	8496.95
566.839	8415.82
567.201	8520.45
567.563	8499.44
567.925	8539.21
568.287	8568.81
568.648	8626.21
569.01	8560.9
569.372	8640
569.734	8637.74
570.095	8666.21
570.457	8649.26
570.819	8645.65
571.18	8681.58
571.542	8696.27
571.903	8720.22
572.265	8760.22
572.626	8770.62
572.987	8815.36
573.349	8809.49
573.71	8860.11
574.071	8919.09
574.432	8837.06
574.794	8928.8
575.155	8906.66
575.516	8879.77
575.877	8991.63
576.238	9034.11
576.599	8948.92
576.96	8999.76
577.32	9006.77
577.681	9049.25
578.042	9030.95
578.403	9049.25
578.763	9050.16
579.124	9104.17
579.485	9124.05
579.845	9167.44
580.206	9118.18
580.566	9185.3
580.927	9192.98
581.287	9191.4
581.648	9224.84
582.008	9348.45
582.368	9340.55
582.728	9280.89
583.089	9361.11
583.449	9291.96
583.809	9293.09
584.169	9367.66
584.529	9324.73
584.889	9424.61
585.249	9336.7
585.609	9396.59
585.969	9453.08
586.329	9422.8
586.688	9448.57
587.048	9423.71
587.408	9514.33
587.768	9473.65
588.127	9414.22
588.487	9428
588.846	9533.31
589.206	9422.8
589.565	9511.16
589.925	9576.47
590.284	9538.96
590.643	9543.93
591.003	9574.21
591.362	9630.93
591.721	9586.41
592.08	9616.92
592.44	9583.93
592.799	9690.37
593.158	9655.34
593.517	9653.76
593.876	9707.99
594.235	9684.72
594.593	9649.69
594.952	9734.66
595.311	9658.96
595.67	9666.64
596.029	9758.61
596.387	9812.4
596.746	9752.29
597.104	9726.98
597.463	9747.31
597.822	9837.93
598.18	9731.5
598.538	9767.43
598.897	9800.65
599.255	9765.62
599.613	9867.54
599.972	9756.58
600.33	9842.23
600.688	9806.97
601.046	9783.47
601.404	9897.14
601.762	9863.02
602.12	9917.71
602.478	9939.4
602.836	9938.5
603.194	9803.36
603.552	9845.16
603.91	9799.74
604.268	9934.2
604.625	9825.28
604.983	9886.52
605.341	9874.77
605.698	9964.48
606.056	9912.73
606.413	9883.58
606.771	9976.23
607.128	9952.28
607.485	9874.54
607.843	9912.06
608.2	9981.66
608.557	10042.9
608.914	9972.17
609.272	10012.39
609.629	9992.28
609.986	10019.4
610.343	9942.79
610.7	10107.98
611.057	10087.19
611.414	10011.49
611.771	10104.82
612.127	10046.74
612.484	10086.29
612.841	10133.29
613.198	10081.54
613.554	10096.23
613.911	10140.07
614.267	10110.02
614.624	10117.47
614.98	10159.73
615.337	10195.21
615.693	10170.81
616.05	10149.11
616.406	10182.78
616.762	10145.04
617.118	10176.68
617.475	10200.64
617.831	10121.32
618.187	10190.69
618.543	10197.02
618.899	10239.96
619.255	10196.57
619.611	10193.86
619.967	10254.65
620.323	10239.73
620.678	10259.39
621.034	10291.48
621.39	10244.48
621.746	10241.31
622.101	10307.75
622.457	10230.92
622.812	10282.22
623.168	10228.43
623.523	10320.86
623.879	10296.23
624.234	10288.54
624.589	10266.62
624.945	10254.42
625.3	10320.18
625.655	10206.29
626.01	10223.23
626.365	10302.78
626.72	10270.46
627.075	10206.96
627.43	10207.42
627.785	10213.97
628.14	10197.7
628.495	10190.24
628.85	10136.68
629.205	10216.68
629.559	10285.61
629.914	10221.43
630.269	10222.78
630.623	10151.15
630.978	10120.86
631.332	10149.56
631.687	10161.77
632.041	10123.35
632.396	10152.73
632.75	10087.42
633.104	10130.58
633.459	10024.14
633.813	10071.83
634.167	10125.84
634.521	10051.49
634.875	10056.01
635.229	10083.12
635.583	9963.35
635.937	10027.31
636.291	10048.32
636.645	9990.47
636.999	9977.82
637.352	10025.27
637.706	9947.31
638.06	9984.37
638.413	9931.94
638.767	9895.78
639.121	9938.5
639.474	9793.19
639.828	9824.37
640.181	9807.43
640.534	9850.14
640.888	9845.84
641.241	9842.45
641.594	9825.73
641.947	9867.76
642.301	9808.56
642.654	9773.98
643.007	9731.72
643.36	9794.77
643.713	9782.34
644.066	9813.75
644.419	9737.37
644.771	9628.67
645.124	9663.7
645.477	9545.96
645.83	9586.19
646.182	9463.71
646.535	9465.29
646.888	9470.03
647.24	9388.91
647.593	9426.42
647.945	9472.52
648.298	9422.8
648.65	9393.2
649.002	9370.15
649.355	9422.8
649.707	9397.27
650.059	9468
650.411	9546.42
650.763	9544.83
651.115	9681.55
651.467	9647.66
651.819	9605.17
652.171	9624.83
652.523	9560.2
652.875	9565.62
653.227	9637.71
653.578	9604.04
653.93	9619.63
654.282	9598.39
654.633	9632.52
654.985	9607.88
655.337	9608.56
655.688	9602.01
656.039	9662.8
656.391	9509.81
656.742	9578.51
657.094	9571.05
657.445	9593.19
657.796	9610.59
658.147	9555.45
658.498	9570.37
658.849	9611.5
659.2	9635.68
659.551	9618.73
659.902	9560.88
660.253	9566.3
660.604	9610.59
660.955	9531.5
661.306	9594.1
661.656	9667.09
662.007	9605.85
662.358	9627.54
662.708	9594.55
663.059	9635.45
663.409	9531.5
663.76	9605.62
664.11	9616.92
664.461	9682.23
664.811	9564.72
665.161	9547.77
665.511	9624.83
665.862	9589.8
666.212	9615.11
666.562	9646.53
666.912	9574.44
667.262	9599.52
667.612	9626.64
667.962	9590.71
668.312	9581.89
668.662	9609.46
669.011	9569.92
669.361	9589.58
669.711	9544.61
670.06	9567.88
670.41	9612.4
670.76	9503.93
671.109	9578.51
671.459	9588.45
671.808	9529.47
672.157	9559.07
672.507	9521.11
672.856	9505.06
673.205	9484.27
673.554	9528.34
673.904	9467.1
674.253	9585.51
674.602	9571.05
674.951	9378.74
675.3	9365.4
675.649	9439.98
675.998	9491.05
676.346	9386.19
676.695	9430.49
677.044	9392.97
677.393	9403.14
677.741	9400.88
678.09	9367.89
678.438	9382.13
678.787	9385.97
679.135	9422.8
679.484	9297.83
679.832	9332.41
680.181	9275.91
680.529	9327.89
680.877	9308.68
681.225	9290.83
681.573	9386.19
681.922	9246.54
682.27	9180.78
682.618	9220.1
682.966	9152.08
683.314	9228.01
683.661	9125.18
684.009	9118.63
684.357	9119.53
684.705	9129.93
685.053	9142.81
685.4	9098.07
685.748	9005.41
686.095	8971.06
686.443	8996.15
686.79	8962.02
687.138	8937.62
687.485	8995.02
687.832	8905.75
688.18	8913.21
688.527	8847.22
688.874	8846.55
689.221	8832.08
689.568	8755.02
689.915	8807
690.262	8760
690.609	8728.13
690.956	8677.29
691.303	8698.75
691.65	8689.26
691.997	8654.46
692.344	8568.36
692.69	8603.62
693.037	8624.41
693.383	8508.7
693.73	8588.47
694.077	8484.3
694.423	8491.75
694.769	8433
695.116	8441.81
695.462	8371.31
695.808	8362.49
696.155	8396.39
696.501	8292.44
696.847	8343.74
697.193	8253.12
697.539	8242.95
697.885	8222.61
698.231	8190.52
698.577	8164.53
698.923	8167.92
699.269	8058.32
699.614	8050.41
699.96	7998.43
700.306	7956.85
700.651	7970.41
700.997	7921.83
701.342	7928.38
701.688	7907.81
702.033	7838.44
702.379	7892.45
702.724	7847.25
703.069	7861.94
703.415	7764.99
703.76	7744.43
704.105	7723.64
704.45	7733.13
704.795	7752.79
705.14	7645.9
705.485	7565.22
705.83	7582.63
706.175	7627.37
706.52	7568.39
706.865	7512.57
707.209	7574.94
707.554	7467.15
707.899	7548.73
708.243	7448.17
708.588	7389.64
708.932	7392.57
709.277	7393.25
709.621	7381.95
709.966	7319.58
710.31	7346.02
710.654	7278.68
710.998	7238
711.342	7263.09
711.687	7230.32
712.031	7242.3
712.375	7204.33
712.719	7209.08
713.063	7141.96
713.407	7146.48
713.75	7162.07
714.094	7186.48
714.438	7134.95
714.782	7170.66
715.125	7087.5
715.469	7067.61
715.812	7091.34
716.156	7031.23
716.499	7041.17
716.843	7042.53
717.186	6994.39
717.53	6995.52
717.873	7047.05
718.216	7030.32
718.559	6992.81
718.902	6897.9
719.246	6952.81
719.589	6920.04
719.932	6865.58
720.275	6884.56
720.617	6860.16
720.96	6903.1
721.303	6852.93
721.646	6935.86
721.989	6867.16
722.331	6865.58
722.674	6796.88
723.016	6871.46
723.359	6846.37
723.701	6841.4
724.044	6827.84
724.386	6748.07
724.729	6788.07
725.071	6815.87
725.413	6737.68
725.755	6773.16
726.097	6730.44
726.439	6769.31
726.782	6707.62
727.124	6785.58
727.465	6706.26
727.807	6747.17
728.149	6669.66
728.491	6741.29
728.833	6716.43
729.175	6709.88
729.516	6758.69
729.858	6692.93
730.199	6718.92
730.541	6685.02
730.882	6706.26
731.224	6714.85
731.565	6715.76
731.906	6654.29
732.248	6735.42
732.589	6650.67
732.93	6579.04
733.271	6596.66
733.612	6724.57
733.953	6649.99
734.294	6728.18
734.635	6701.07
734.976	6633.5
735.317	6668.75
735.658	6659.71
735.999	6627.17
736.339	6637.34
736.68	6660.84
737.021	6681.86
737.361	6677.56
737.702	6642.31
738.042	6639.15
738.383	6658.81
738.723	6686.6
739.063	6666.72
739.404	6705.59
739.744	6648.86
740.084	6691.12
740.424	6721.63
740.764	6745.36
741.104	6739.26
741.444	6710.56
741.784	6723.21
742.124	6761.63
742.464	6784
742.804	6784.45
743.143	6767.28
743.483	6807.73
743.823	6819.71
744.162	6809.31
744.502	6839.82
744.841	6834.4
745.181	6901.29
745.52	6929.54
745.86	6920.04
746.199	6897.67
746.538	7022.87
746.877	7030.78
747.216	7038.91
747.556	7087.95
747.895	7052.47
748.234	7122.52
748.573	7140.6
748.911	7204.78
749.25	7216.76
749.589	7269.87
749.928	7285.68
750.267	7338.56
750.605	7369.75
750.944	7515.73
751.283	7596.86
751.621	7630.76
751.96	7651.1
752.298	7701.04
752.636	7842.51
752.975	7861.04
753.313	7936.97
753.651	8000.47
753.989	8088.83
754.327	8207.92
754.666	8185.55
755.004	8296.51
755.342	8394.58
755.679	8558.65
756.017	8575.14
756.355	8735.36
756.693	8817.85
757.031	8923.38
757.368	9044.96
757.706	9129.25
758.044	9187.33
758.381	9273.65
758.719	9435.68
759.056	9614.66
759.394	9724.04
759.731	9827.54
760.068	9846.97
760.405	9986.63
760.743	10110.24
761.08	10250.13
761.417	10389.11
761.754	10490.12
762.091	10590.46
762.428	10663.67
762.765	10799.04
763.102	10934.4
763.438	11104.34
763.775	11126.26
764.112	11307.73
764.449	11476.31
764.785	11550.66
765.122	11631.56
765.458	11730.99
765.795	11765.79
766.131	11925.79
766.467	12000.14
766.804	12180.92
767.14	12227.7
767.476	12231.32
767.812	12373.69
