Data from hue_100_FLMS001491_00098.txt Node
Date: Tue Feb 07 17:03:55 GMT 2017
User: dcchb
Spectrometer: FLMS00149
Trigger mode: 0
Integration Time (sec): 2.000000E-2
Scans to average: 10
Electric dark correction enabled: true
Nonlinearity correction enabled: false
Boxcar width: 0
XAxis mode: Wavelengths
Number of Pixels in Spectrum: 2048
>>>>>Begin Spectral Data<<<<<
341.393	-14.03
341.776	-14.03
342.16	-14.03
342.543	-59.67
342.927	-55.38
343.31	-54.48
343.693	-72.78
344.077	-66.68
344.46	-57.64
344.843	-65.1
345.226	-39.79
345.61	-48.37
345.993	-18.32
346.376	-8.15
346.759	14.45
347.142	27.56
347.525	36.6
347.908	59.87
348.291	77.27
348.674	95.35
349.057	120.21
349.44	117.04
349.823	138.29
350.206	168.57
350.588	177.38
350.971	238.85
351.354	226.65
351.737	226.65
352.119	246.53
352.502	277.27
352.884	283.59
353.267	270.94
353.65	305.51
354.032	284.27
354.414	300.54
354.797	317.94
355.179	301.22
355.562	312.75
355.944	289.92
356.326	325.85
356.709	349.58
357.091	340.09
357.473	352.97
357.855	347.32
358.238	349.13
358.62	338.28
359.002	354.78
359.384	331.73
359.766	336.7
360.148	357.26
360.53	357.26
360.912	361.78
361.294	336.02
361.676	338.28
362.057	338.06
362.439	330.37
362.821	341.22
363.203	324.5
363.584	337.6
363.966	340.54
364.348	329.24
364.729	322.69
365.111	314.1
365.493	318.4
365.874	320.66
366.256	333.31
366.637	317.49
367.019	319.53
367.4	325.4
367.781	321.79
368.163	314.1
368.544	326.3
368.925	320.43
369.306	307.32
369.688	329.69
370.069	300.32
370.45	335.8
370.831	296.02
371.212	308.68
371.593	332.41
371.974	328.79
372.355	340.77
372.736	324.5
373.117	334.21
373.498	329.47
373.879	311.16
374.26	326.76
374.641	332.18
375.021	317.94
375.402	325.85
375.783	342.58
376.163	335.8
376.544	323.82
376.925	330.15
377.305	334.21
377.686	324.72
378.066	326.76
378.447	329.92
378.827	340.09
379.208	336.25
379.588	338.51
379.968	347.1
380.349	348
380.729	342.8
381.109	343.48
381.489	349.58
381.87	361.33
382.25	350.71
382.63	341.67
383.01	363.14
383.39	359.07
383.77	340.54
384.15	354.1
384.53	371.05
384.91	350.26
385.29	353.42
385.67	360.2
386.049	342.35
386.429	344.38
386.809	366.98
387.189	358.62
387.568	363.14
387.948	364.04
388.328	371.95
388.707	379.86
389.087	373.76
389.466	354.55
389.846	375.57
390.225	355.46
390.605	360.88
390.984	371.95
391.363	362.69
391.743	406.75
392.122	390.03
392.501	358.62
392.881	378.28
393.26	363.37
393.639	412.18
394.018	395.23
394.397	387.77
394.776	390.26
395.155	379.86
395.534	402.91
395.913	391.39
396.292	386.42
396.671	396.36
397.05	388.45
397.429	393.2
397.808	390.48
398.186	410.82
398.565	384.16
398.944	399.3
399.323	430.03
399.701	404.27
400.08	418.96
400.458	416.02
400.837	427.77
401.215	431.84
401.594	435.91
401.972	419.86
402.351	441.1
402.729	435.45
403.107	418.96
403.486	418.28
403.864	428.45
404.242	435.23
404.62	424.38
404.999	429.35
405.377	456.92
405.755	460.76
406.133	463.02
406.511	455.57
406.889	450.82
407.267	460.09
407.645	454.21
408.023	456.92
408.401	446.98
408.779	468.9
409.156	455.34
409.534	466.41
409.912	453.99
410.29	483.14
410.667	487.2
411.045	500.09
411.422	492.85
411.8	492.18
412.178	481.78
412.555	510.48
412.933	489.01
413.31	522.23
413.687	519.07
414.065	511.16
414.442	522.91
414.819	514.1
415.197	524.04
415.574	535.11
415.951	497.83
416.328	538.73
416.705	543.02
417.082	545.06
417.46	524.27
417.837	550.71
418.214	543.93
418.591	552.74
418.967	560.2
419.344	550.25
419.721	579.41
420.098	580.08
420.475	578.5
420.852	570.59
421.228	591.38
421.605	582.57
421.982	604.94
422.358	601.78
422.735	586.19
423.111	590.03
423.488	608.33
423.864	611.72
424.241	625.73
424.617	617.82
424.994	620.99
425.37	628.22
425.746	630.7
426.123	623.92
426.499	646.3
426.875	619.86
427.251	652.4
427.627	660.08
428.003	640.2
428.379	643.81
428.756	644.94
429.132	677.48
429.507	659.18
429.883	697.59
430.259	683.13
430.635	695.79
431.011	703.47
431.387	699.4
431.763	706.41
432.138	715
432.514	733.75
432.89	717.93
433.265	745.73
433.641	741.21
434.016	737.59
434.392	721.77
434.767	797.93
435.143	770.36
435.518	752.28
435.894	785.95
436.269	796.12
436.644	783.02
437.02	812.62
437.395	801.77
437.77	823.24
438.145	820.3
438.52	865.05
438.895	844.94
439.271	845.84
439.646	869.34
440.021	851.49
440.395	853.75
440.77	872.96
441.145	889
441.52	904.14
441.895	894.43
442.27	904.37
442.645	910.47
443.019	903.92
443.394	924.71
443.769	906.18
444.143	919.74
444.518	933.97
444.892	932.62
445.267	934.88
445.641	926.97
446.016	967.42
446.39	968.77
446.764	952.96
447.139	964.25
447.513	989.79
447.887	967.19
448.262	973.97
448.636	976.68
449.01	994.99
449.384	996.8
449.758	1015.55
450.132	1021.43
450.506	1007.19
450.88	1041.54
451.254	1021.65
451.628	1075.89
452.002	1072.95
452.376	1054.2
452.75	1070.24
453.123	1095.1
453.497	1125.83
453.871	1108.21
454.244	1134.65
454.618	1145.49
454.992	1142.55
455.365	1147.75
455.739	1193.17
456.112	1193.63
456.486	1203.57
456.859	1238.15
457.232	1231.59
457.606	1228.43
457.979	1275.66
458.352	1297.58
458.725	1294.64
459.099	1288.54
459.472	1344.58
459.845	1352.04
460.218	1343.68
460.591	1373.74
460.964	1368.09
461.337	1404.47
461.71	1450.8
462.083	1441.98
462.456	1474.3
462.829	1463.45
463.201	1516.56
463.574	1486.73
463.947	1511.81
464.32	1559.94
464.692	1556.1
465.065	1596.33
465.438	1598.81
465.81	1610.56
466.183	1623.22
466.555	1699.6
466.928	1665.93
467.3	1709.32
467.672	1733.5
468.045	1780.5
468.417	1815.76
468.789	1811.01
469.161	1831.8
469.534	1881.52
469.906	1924
470.278	1941.18
470.65	1961.97
471.022	2016.43
471.394	2071.12
471.766	2107.05
472.138	2129.42
472.51	2186.37
472.882	2218.23
473.253	2266.82
473.625	2284.45
473.997	2357.89
474.369	2411.22
474.74	2448.06
475.112	2502.52
475.484	2561.27
475.855	2636.53
476.227	2620.48
476.598	2742.06
476.97	2795.39
477.341	2888.5
477.713	2954.94
478.084	2966.01
478.455	3124.2
478.827	3175.27
479.198	3276.28
479.569	3319.22
479.94	3423.4
480.311	3508.82
480.682	3604.18
481.053	3704.52
481.424	3795.82
481.795	3901.13
482.166	4013.21
482.537	4093.44
482.908	4206.65
483.279	4327.33
483.65	4444.84
484.021	4526.19
484.391	4652.29
484.762	4768.9
485.133	4835.56
485.503	4951.95
485.874	5121.89
486.244	5254.99
486.615	5400.07
486.985	5515.32
487.356	5693.85
487.726	5777.46
488.097	5975.65
488.467	6022.88
488.837	6214.51
489.207	6307.84
489.578	6486.82
489.948	6617.44
490.318	6746.7
490.688	6895.62
491.058	7047.71
491.428	7169.74
491.798	7268.04
492.168	7552.56
492.538	7650.18
492.908	7757.3
493.278	8030.96
493.648	8030.28
494.017	8189.83
494.387	8380.1
494.757	8487.9
495.126	8659.19
495.496	8831.62
495.866	8858.28
496.235	8960.65
496.605	9157.03
496.974	9287.65
497.344	9378.95
497.713	9539.17
498.082	9720.41
498.452	9822.78
498.821	9951.36
499.19	10037.01
499.559	10212.82
499.928	10275.65
500.298	10394.51
500.667	10518.35
501.036	10586.83
501.405	10702.08
501.774	10714.96
502.143	10791.79
502.512	10910.43
502.88	11106.59
503.249	11117.89
503.618	11298.45
503.987	11351.1
504.356	11468.38
504.724	11514.94
505.093	11635.61
505.462	11670.19
505.83	11817.53
506.199	11892.55
506.567	12020.23
506.936	12081.25
507.304	12194.02
507.672	12303.17
508.041	12377.97
508.409	12473.56
508.777	12569.82
509.145	12604.4
509.514	12674.45
509.882	12781.8
510.25	12839.42
510.618	12872.64
510.986	12935.69
511.354	13028.8
511.722	13121
512.09	13272.63
512.458	13237.15
512.826	13323.25
513.193	13423.81
513.561	13428.79
513.929	13524.6
514.297	13620.87
514.664	13599.18
515.032	13619.51
515.4	13781.09
515.767	13765.27
516.135	13852.73
516.502	13773.18
516.869	13988.09
517.237	14028.77
517.604	13938.15
517.972	14042.78
518.339	14163
518.706	14122.55
519.073	14156
519.44	14229.89
519.808	14282.1
520.175	14293.4
520.542	14464.01
520.909	14427.63
521.276	14425.82
521.643	14534.52
522.009	14577.23
522.376	14662.88
522.743	14611.81
523.11	14725.7
523.477	14839.82
523.843	14922.98
524.21	14962.53
524.577	15048.18
524.943	15023.55
525.31	15010.21
525.676	15132.02
526.043	15175.86
526.409	15152.36
526.776	15335.85
527.142	15288.62
527.508	15301.96
527.874	15476.42
528.241	15393.71
528.607	15353.03
528.973	15440.26
529.339	15386.47
529.705	15501.73
530.071	15557.32
530.437	15606.36
530.803	15586.24
531.169	15623.08
531.535	15497.88
531.901	15586.47
532.267	15516.64
532.632	15603.42
532.998	15590.08
533.364	15582.4
533.73	15584.21
534.095	15655.85
534.461	15693.58
534.826	15629.63
535.192	15554.38
535.557	15692.91
535.923	15601.16
536.288	15647.03
536.653	15680.7
537.019	15537.88
537.384	15503.53
537.749	15517.09
538.114	15499.47
538.479	15481.61
538.845	15428.51
539.21	15388.96
539.575	15391.45
539.94	15396.64
540.305	15380.82
540.67	15415.17
541.034	15439.35
541.399	15412.46
541.764	15284.56
542.129	15289.08
542.494	15238.23
542.858	15241.62
543.223	15213.15
543.587	15234.39
543.952	15220.6
544.316	15172.69
544.681	15082.3
545.045	15190.77
545.41	15115.97
545.774	15080.95
546.138	15037.56
546.503	14942.42
546.867	14994.17
547.231	14946.03
547.595	14975.41
547.959	14992.13
548.324	14957.56
548.688	14902.64
549.052	14878.24
549.416	14853.61
549.779	14841.4
550.143	14797.79
550.507	14857.9
550.871	14799.82
551.235	14727.96
551.599	14847.96
551.962	14664.46
552.326	14682.54
552.689	14705.59
553.053	14624.91
553.417	14600.28
553.78	14734.29
554.143	14530.45
554.507	14620.39
554.87	14641.63
555.234	14682.54
555.597	14549.89
555.96	14617.91
556.323	14579.49
556.686	14563.9
557.05	14675.98
557.413	14550.79
557.776	14570.9
558.139	14538.13
558.502	14567.29
558.865	14519.15
559.228	14605.7
559.59	14560.73
559.953	14460.17
560.316	14619.26
560.679	14628.98
561.041	14621.07
561.404	14642.99
561.767	14671.24
562.129	14575.2
562.492	14709.66
562.854	14654.74
563.217	14683.44
563.579	14680.05
563.941	14682.09
564.304	14768.64
564.666	14786.26
565.028	14724.12
565.39	14848.41
565.753	14873.72
566.115	14857.67
566.477	14822.65
566.839	14771.12
567.201	14924.79
567.563	14881.85
567.925	14948.29
568.287	14989.2
568.648	14937.67
569.01	14984.68
569.372	15071.68
569.734	14999.82
570.095	15078.01
570.457	15062.64
570.819	15032.81
571.18	15078.01
571.542	15123.66
571.903	15070.78
572.265	15162.07
572.626	15171.79
572.987	15085.01
573.349	15160.27
573.71	15194.61
574.071	15188.74
574.432	15207.95
574.794	15322.75
575.155	15273.26
575.516	15167.72
575.877	15271.67
576.238	15315.29
576.599	15336.08
576.96	15297.21
577.32	15298.57
577.681	15364.1
578.042	15365.91
578.403	15342.63
578.763	15343.99
579.124	15454.72
579.485	15389.19
579.845	15347.6
580.206	15425.79
580.566	15342.86
580.927	15395.29
581.287	15423.54
581.648	15313.48
582.008	15374.95
582.368	15319.81
582.728	15314.39
583.089	15283.88
583.449	15277.55
583.809	15309.64
584.169	15333.59
584.529	15248.85
584.889	15390.77
585.249	15259.92
585.609	15242.75
585.969	15280.71
586.329	15318
586.688	15402.07
587.048	15286.82
587.408	15205.69
587.768	15243.2
588.127	15198.46
588.487	15145.8
588.846	15259.25
589.206	15123.43
589.565	15162.75
589.925	15217.89
590.284	15073.94
590.643	15139.25
591.003	15200.94
591.362	15207.72
591.721	15157.55
592.08	15171.79
592.44	15256.99
592.799	15288.62
593.158	15152.36
593.517	15090.66
593.876	15134.96
594.235	15095.63
594.593	15154.39
594.952	15019.25
595.311	15049.08
595.67	15081.17
596.029	15142.19
596.387	15054.05
596.746	15123.2
597.104	15099.93
597.463	15028.29
597.822	15050.89
598.18	15060.38
598.538	14969.31
598.897	15108.29
599.255	14955.75
599.613	15240.26
599.972	15146.25
600.33	15152.81
600.688	15071.91
601.046	15107.16
601.404	15184.9
601.762	15043.88
602.12	15199.13
602.478	15175.41
602.836	15136.54
603.194	15058.35
603.552	15070.1
603.91	15044.34
604.268	15098.12
604.625	14963.43
604.983	15119.59
605.341	14994.17
605.698	15038.46
606.056	15082.08
606.413	15049.99
606.771	15147.38
607.128	15117.33
607.485	15112.36
607.843	15120.72
608.2	15163.2
608.557	15216.76
608.914	15142.64
609.272	15252.69
609.629	15246.36
609.986	15213.15
610.343	15187.61
610.7	15309.64
611.057	15163.88
611.414	15242.75
611.771	15210.66
612.127	15262.64
612.484	15247.27
612.841	15337.44
613.198	15207.95
613.554	15272.13
613.911	15421.73
614.267	15311.22
614.624	15382.86
614.98	15335.4
615.337	15371.56
615.693	15372.91
616.05	15470.31
616.406	15521.61
616.762	15430.99
617.118	15358
617.475	15369.98
617.831	15471.44
618.187	15444.78
618.543	15414.5
618.899	15563.64
619.255	15574.49
619.611	15440.26
619.967	15629.41
620.323	15564.1
620.678	15556.64
621.034	15470.54
621.39	15500.37
621.746	15531.33
622.101	15625.79
622.457	15558.22
622.812	15551.44
623.168	15550.31
623.523	15599.8
623.879	15579.24
624.234	15472.35
624.589	15567.94
624.945	15485.68
625.3	15541.72
625.655	15487.04
626.01	15550.54
626.365	15472.12
626.72	15443.87
627.075	15463.76
627.43	15526.13
627.785	15459.47
628.14	15546.02
628.495	15498.79
628.85	15415.63
629.205	15413.59
629.559	15611.55
629.914	15425.57
630.269	15513.48
630.623	15398.9
630.978	15433.93
631.332	15462.86
631.687	15526.81
632.041	15361.84
632.396	15401.61
632.75	15420.82
633.104	15397.55
633.459	15272.13
633.813	15332.01
634.167	15358.9
634.521	15299.02
634.875	15328.17
635.229	15228.51
635.583	15134.96
635.937	15108.06
636.291	15125.92
636.645	15166.37
636.999	15116.2
637.352	15200.94
637.706	15045.69
638.06	15115.75
638.413	15120.04
638.767	15028.29
639.121	15051.12
639.474	14927.73
639.828	14988.97
640.181	14940.16
640.534	15058.57
640.888	14908.75
641.241	14886.37
641.594	14902.19
641.947	14997.11
642.301	14841.18
642.654	14918.46
643.007	14937.45
643.36	14913.72
643.713	14873.95
644.066	14825.58
644.419	14849.31
644.771	14759.15
645.124	14634.86
645.477	14560.28
645.83	14467.63
646.182	14488.42
646.535	14381.53
646.888	14419.27
647.24	14402.32
647.593	14395.31
647.945	14377.91
648.298	14315.54
648.65	14311.47
649.002	14323.45
649.355	14316.67
649.707	14391.47
650.059	14457.23
650.411	14600.05
650.763	14628.53
651.115	14803.66
651.467	14693.38
651.819	14720.5
652.171	14593.95
652.523	14642.09
652.875	14593.27
653.227	14512.6
653.578	14675.53
653.93	14647.06
654.282	14576.33
654.633	14614.06
654.985	14539.26
655.337	14607.51
655.688	14594.4
656.039	14698.13
656.391	14594.4
656.742	14676.66
657.094	14623.33
657.445	14724.34
657.796	14624.01
658.147	14636.66
658.498	14660.84
658.849	14758.47
659.2	14672.59
659.551	14574.52
659.902	14654.74
660.253	14661.3
660.604	14675.31
660.955	14594.18
661.306	14735.19
661.656	14670.56
662.007	14766.38
662.358	14715.76
662.708	14719.6
663.059	14745.59
663.409	14609.77
663.76	14683.44
664.11	14729.77
664.461	14760.5
664.811	14737.68
665.161	14755.3
665.511	14704.23
665.862	14716.44
666.212	14757.56
666.562	14687.51
666.912	14742.65
667.262	14682.31
667.612	14731.35
667.962	14757.79
668.312	14679.15
668.662	14708.53
669.011	14750.33
669.361	14706.94
669.711	14687.74
670.06	14628.53
670.41	14623.78
670.76	14568.87
671.109	14681.63
671.459	14585.14
671.808	14654.74
672.157	14654.97
672.507	14576.1
672.856	14527.51
673.205	14566.38
673.554	14647.96
673.904	14563.9
674.253	14646.15
674.602	14546.72
674.951	14405.48
675.3	14284.58
675.649	14533.39
675.998	14524.12
676.346	14470.57
676.695	14490.9
677.044	14479.61
677.393	14395.77
677.741	14509.89
678.09	14479.83
678.438	14346.95
678.787	14419.04
679.135	14322.77
679.484	14331.13
679.832	14332.04
680.181	14295.43
680.529	14244.58
680.877	14228.54
681.225	14134.08
681.573	14265.83
681.922	14119.84
682.27	14147.64
682.618	14123.46
682.966	14089.33
683.314	14091.37
683.661	13974.31
684.009	13943.57
684.357	13904.93
684.705	13933.63
685.053	13977.47
685.4	13906.74
685.748	13840.53
686.095	13819.06
686.443	13787.87
686.79	13742
687.138	13758.95
687.485	13793.97
687.832	13663.36
688.18	13726.18
688.527	13639.18
688.874	13593.98
689.221	13478.73
689.568	13591.04
689.915	13513.08
690.262	13474.66
690.609	13446.41
690.956	13363.7
691.303	13361.22
691.65	13273.31
691.997	13310.82
692.344	13184.5
692.69	13137.49
693.037	13180.88
693.383	12991.06
693.73	13103.82
694.077	13049.36
694.423	12942.7
694.769	12884.39
695.116	12908.57
695.462	12880.33
695.808	12772.08
696.155	12788.35
696.501	12656.38
696.847	12673.55
697.193	12619.32
697.539	12679.2
697.885	12539.54
698.231	12462.71
698.577	12437.62
698.923	12433.78
699.269	12372.32
699.614	12267.01
699.96	12285.09
700.306	12246.9
700.651	12166.45
700.997	12134.58
701.342	12103.17
701.688	12083.96
702.033	12049.61
702.379	12001.03
702.724	11911.54
703.069	11944.3
703.415	11779.56
703.76	11896.85
704.105	11799
704.45	11836.74
704.795	11694.37
705.14	11718.1
705.485	11672
705.83	11525.56
706.175	11627.25
706.52	11607.59
706.865	11542.96
707.209	11546.35
707.554	11442.17
707.899	11433.36
708.243	11348.39
708.588	11391.1
708.932	11229.75
709.277	11294.6
709.621	11291.67
709.966	11181.84
710.31	11220.93
710.654	11205.79
710.998	11173.25
711.342	11131.44
711.687	11091.67
712.031	11041.05
712.375	11015.06
712.719	11031.79
713.063	10991.79
713.407	11012.58
713.75	10923.31
714.094	10951.11
714.438	10958.79
714.782	10869.08
715.125	10851.45
715.469	10893.26
715.812	10797.67
716.156	10741.17
716.499	10772.58
716.843	10757.9
717.186	10623.66
717.53	10735.3
717.873	10720.83
718.216	10723.09
718.559	10668.86
718.902	10601.06
719.246	10609.42
719.589	10568.75
719.932	10525.81
720.275	10563.78
720.617	10563.55
720.96	10492.37
721.303	10567.62
721.646	10499.37
721.989	10522.87
722.331	10444.68
722.674	10511.35
723.016	10455.98
723.359	10443.33
723.701	10466.83
724.044	10342.54
724.386	10371.46
724.729	10395.42
725.071	10363.1
725.413	10358.81
725.755	10375.53
726.097	10291.92
726.439	10304.57
726.782	10268.19
727.124	10286.27
727.465	10279.94
727.807	10320.39
728.149	10286.27
728.491	10216.89
728.833	10270.9
729.175	10149.55
729.516	10232.94
729.858	10223.22
730.199	10231.58
730.541	10239.04
730.882	10212.37
731.224	10295.31
731.565	10098.48
731.906	10132.83
732.248	10245.82
732.589	10173.73
732.93	10113.84
733.271	10198.36
733.612	10208.53
733.953	10239.49
734.294	10134.86
734.635	10162.43
734.976	10245.14
735.317	10221.19
735.658	10209.21
735.999	10149.78
736.339	10175.99
736.68	10142.09
737.021	10140.74
737.361	10170.57
737.702	10209.43
738.042	10165.14
738.383	10201.53
738.723	10245.82
739.063	10271.13
739.404	10235.87
739.744	10228.87
740.084	10194.07
740.424	10142.32
740.764	10228.19
741.104	10238.13
741.444	10327.17
741.784	10208.98
742.124	10300.51
742.464	10300.28
742.804	10344.8
743.143	10397.45
743.483	10360.62
743.823	10338.02
744.162	10353.16
744.502	10483.55
744.841	10419.37
745.181	10560.39
745.52	10483.1
745.86	10558.35
746.199	10548.86
746.538	10618.01
746.877	10717.67
747.216	10718.35
747.556	10720.61
747.895	10807.61
748.234	10846.71
748.573	10942.97
748.911	10947.27
749.25	11073.59
749.589	11050.32
749.928	11102.07
750.267	11245.79
750.605	11363.75
750.944	11302.29
751.283	11380.7
751.621	11446.69
751.96	11633.35
752.298	11730.52
752.636	11800.81
752.975	11759.45
753.313	11926.45
753.651	12138.42
753.989	12168.25
754.327	12243.73
754.666	12336.16
755.004	12487.12
755.342	12578.41
755.679	12675.58
756.017	12808.46
756.355	13123.48
