Data from hue_350_FLMS001491_12.txt Node
Date: Mon Feb 06 15:37:39 GMT 2017
User: dcchb
Spectrometer: FLMS00149
Trigger mode: 0
Integration Time (sec): 2.000000E-2
Scans to average: 10
Electric dark correction enabled: true
Nonlinearity correction enabled: false
Boxcar width: 0
XAxis mode: Wavelengths
Number of Pixels in Spectrum: 2048
>>>>>Begin Spectral Data<<<<<
341.393	-24.82
341.776	-24.82
342.16	-24.82
342.543	-53.52
342.927	-63.01
343.31	-50.35
343.693	-74.98
344.077	-56
344.46	-31.14
344.843	-57.58
345.226	-49.9
345.61	-21.2
345.993	-23.91
346.376	-5.61
346.759	11.34
347.142	20.38
347.525	40.72
347.908	50.89
348.291	77.1
348.674	85.46
349.057	84.79
349.44	125.24
349.823	132.47
350.206	149.42
350.588	195.52
350.971	205.23
351.354	219.02
351.737	219.92
352.119	237.32
352.502	263.99
352.884	264.44
353.267	288.4
353.65	265.35
354.032	285.91
354.414	310.54
354.797	304.44
355.179	318.9
355.562	328.4
355.944	327.27
356.326	312.8
356.709	332.69
357.091	317.1
357.473	346.02
357.855	318.23
358.238	339.24
358.62	327.49
359.002	312.35
359.384	335.17
359.766	336.53
360.148	318.45
360.53	320.26
360.912	327.72
361.294	321.84
361.676	318.45
362.057	320.71
362.439	340.82
362.821	314.38
363.203	316.87
363.584	332.46
363.966	307.38
364.348	314.61
364.729	304.22
365.111	306.47
365.493	324.1
365.874	310.54
366.256	328.4
366.637	312.58
367.019	311.22
367.4	308.96
367.781	305.8
368.163	324.33
368.544	318.68
368.925	301.28
369.306	311.9
369.688	315.06
370.069	303.09
370.45	296.08
370.831	324.33
371.212	312.12
371.593	312.8
371.974	311.45
372.355	315.51
372.736	328.4
373.117	326.36
373.498	303.54
373.879	299.02
374.26	295.4
374.641	291.56
375.021	313.71
375.402	300.6
375.783	328.85
376.163	309.86
376.544	315.29
376.925	326.81
377.305	321.62
377.686	333.14
378.066	327.04
378.447	336.08
378.827	335.17
379.208	335.4
379.588	333.37
379.968	333.37
380.349	327.72
380.729	334.5
381.109	344.89
381.489	325.68
381.87	308.28
382.25	333.37
382.63	320.94
383.01	333.59
383.39	336.76
383.77	326.36
384.15	351.67
384.53	325.46
384.91	325.01
385.29	348.06
385.67	342.41
386.049	329.07
386.429	334.5
386.809	354.61
387.189	326.36
387.568	343.08
387.948	337.89
388.328	344.67
388.707	366.81
389.087	358
389.466	356.64
389.846	367.04
390.225	346.47
390.605	330.43
390.984	356.19
391.363	356.42
391.743	362.07
392.122	348.28
392.501	369.52
392.881	346.02
393.26	374.5
393.639	371.78
394.018	341.73
394.397	389.41
394.776	346.47
395.155	372.69
395.534	365
395.913	374.5
396.292	380.37
396.671	365.23
397.05	372.91
397.429	375.63
397.808	377.43
398.186	379.69
398.565	385.57
398.944	389.41
399.323	390.77
399.701	374.04
400.08	398.9
400.458	401.39
400.837	390.77
401.215	389.18
401.594	413.36
401.972	390.31
402.351	403.2
402.729	400.26
403.107	407.04
403.486	397.32
403.864	416.08
404.242	400.26
404.62	414.27
404.999	406.81
405.377	403.65
405.755	409.52
406.133	392.12
406.511	440.93
406.889	432.35
407.267	433.48
407.645	428.51
408.023	435.29
408.401	446.81
408.779	428.05
409.156	433.25
409.534	451.56
409.912	442.97
410.29	418.34
410.667	450.43
411.045	470.31
411.422	481.61
411.8	460.37
412.178	439.58
412.555	450.88
412.933	445.68
413.31	470.54
413.687	479.58
414.065	454.27
414.442	484.1
414.819	489.52
415.197	482.74
415.574	499.92
415.951	485.45
416.328	485.91
416.705	489.97
417.082	525.45
417.46	505.34
417.837	511.67
418.214	515.06
418.591	526.81
418.967	524.77
419.344	515.28
419.721	525.45
420.098	520.48
420.475	531.33
420.852	541.27
421.228	539.24
421.605	521.61
421.982	546.02
422.358	540.37
422.735	538.56
423.111	545.34
423.488	549.86
423.864	539.92
424.241	560.71
424.617	573.36
424.994	591.89
425.37	593.47
425.746	576.07
426.123	584.66
426.499	565.23
426.875	607.94
427.251	589.18
427.627	602.96
428.003	617.65
428.379	603.87
428.756	607.48
429.132	622.62
429.507	641.38
429.883	618.78
430.259	637.31
430.635	632.79
431.011	625.11
431.387	658.1
431.763	633.02
432.138	659.23
432.514	676.86
432.89	671.44
433.265	690.87
433.641	671.66
434.016	694.49
434.392	682.74
434.767	707.37
435.143	713.7
435.518	706.69
435.894	706.46
436.269	714.15
436.644	730.87
437.02	722.06
437.395	710.76
437.77	752.79
438.145	752.34
438.52	756.18
438.895	755.5
439.271	761.83
439.646	785.78
440.021	771.1
440.395	786.46
440.77	782.85
441.145	775.84
441.52	783.52
441.895	807.25
442.27	805.22
442.645	805.22
443.019	807.48
443.394	810.87
443.769	802.96
444.143	808.38
444.518	824.2
444.892	815.84
445.267	822.17
445.641	836.63
446.016	822.17
446.39	833.24
446.764	841.6
447.139	862.17
447.513	856.74
447.887	820.36
448.262	842.05
448.636	868.72
449.01	885.44
449.384	882.28
449.758	889.51
450.132	894.71
450.506	901.94
450.88	915.5
451.254	919.34
451.628	888.61
452.002	900.58
452.376	934.03
452.75	944.65
453.123	934.71
453.497	941.94
453.871	932.9
454.244	964.31
454.618	952.79
454.992	992.78
455.365	986.23
455.739	994.14
456.112	987.36
456.486	1016.96
456.859	1026
457.232	1023.52
457.606	1034.82
457.979	1025.78
458.352	1075.72
458.725	1066.68
459.099	1058.55
459.472	1087.92
459.845	1103.29
460.218	1110.3
460.591	1100.13
460.964	1130.18
461.337	1124.08
461.71	1136.74
462.083	1152.78
462.456	1168.83
462.829	1184.42
463.201	1183.74
463.574	1209.95
463.947	1193.23
464.32	1234.59
464.692	1244.53
465.065	1243.85
465.438	1249.5
465.81	1284.08
466.183	1275.04
466.555	1281.36
466.928	1301.7
467.3	1311.19
467.672	1364.75
468.045	1351.19
468.417	1369.5
468.789	1382.38
469.161	1379.44
469.534	1403.85
469.906	1456.05
470.278	1465.09
470.65	1441.13
471.022	1462.15
471.394	1501.02
471.766	1521.58
472.138	1533.56
472.51	1570.62
472.882	1582.83
473.253	1621.02
473.625	1639.55
473.997	1670.05
474.369	1681.58
474.74	1680.45
475.112	1711.41
475.484	1754.35
475.855	1802.48
476.227	1781.69
476.598	1864.17
476.97	1870.05
477.341	1903.27
477.713	1907.56
478.084	1942.82
478.455	1989.14
478.827	1989.14
479.198	2030.27
479.569	2069.59
479.94	2102.36
480.311	2124.05
480.682	2188.23
481.053	2225.97
481.424	2263.03
481.795	2296.93
482.166	2332.86
482.537	2403.37
482.908	2409.92
483.279	2418.96
483.65	2478.4
484.021	2508.68
484.391	2567.21
484.762	2602.23
485.133	2627.77
485.503	2652.4
485.874	2743.7
486.244	2721.1
486.615	2791.61
486.985	2820.76
487.356	2883.13
487.726	2886.52
488.097	2946.86
488.467	3009.23
488.837	3040.41
489.207	3111.82
489.578	3094.2
489.948	3186.4
490.318	3147.08
490.688	3167.87
491.058	3244.48
491.428	3306.62
491.798	3330.8
492.168	3390.24
492.538	3430.69
492.908	3457.35
493.278	3508.65
493.648	3522.66
494.017	3570.34
494.387	3594.07
494.757	3627.74
495.126	3685.37
495.496	3666.84
495.866	3769.21
496.235	3752.49
496.605	3800.85
496.974	3794.29
497.344	3849.21
497.713	3857.79
498.082	3926.94
498.452	3975.31
498.821	3971.69
499.19	3960.62
499.559	3963.1
499.928	4013.5
500.298	4048.3
500.667	4095.3
501.036	4053.95
501.405	4104.12
501.774	4140.95
502.143	4152.48
502.512	4155.19
502.88	4236.77
503.249	4259.37
503.618	4268.63
503.987	4243.77
504.356	4309.08
504.724	4333.04
505.093	4346.14
505.462	4351.79
505.83	4389.31
506.199	4413.49
506.567	4473.37
506.936	4475.18
507.304	4493.03
507.672	4538.45
508.041	4549.53
508.409	4513.6
508.777	4563.09
509.145	4571.22
509.514	4620.94
509.882	4571.45
510.25	4644.67
510.618	4689.86
510.986	4679.02
511.354	4742.97
511.722	4726.92
512.09	4772.35
512.458	4780.71
512.826	4813.48
513.193	4780.03
513.561	4826.13
513.929	4867.26
514.297	4863.87
514.664	4882.4
515.032	4927.6
515.4	4961.49
515.767	4939.8
516.135	4975.28
516.502	4956.3
516.869	5046.24
517.237	5054.6
517.604	5010.53
517.972	5098.67
518.339	5088.27
518.706	5105.9
519.073	5125.56
519.44	5151.55
519.808	5194.71
520.175	5163.3
520.542	5167.36
520.909	5222.5
521.276	5235.38
521.643	5286.23
522.009	5302.28
522.376	5260.02
522.743	5325.55
523.11	5340.92
523.477	5412.56
523.843	5437.41
524.21	5470.63
524.577	5519.45
524.943	5492.33
525.31	5547.47
525.676	5591.08
526.043	5570.29
526.409	5600.8
526.776	5682.38
527.142	5664.98
527.508	5727.12
527.874	5744.07
528.241	5730.97
528.607	5794.01
528.973	5821.36
529.339	5822.26
529.705	5921.92
530.071	5964.18
530.437	5944.29
530.803	5946.78
531.169	6038.75
531.535	6002.14
531.901	6054.12
532.267	6038.08
532.632	6086.66
532.998	6116.49
533.364	6132.08
533.73	6145.42
534.095	6204.62
534.461	6226.55
534.826	6259.09
535.192	6290.05
535.557	6314.9
535.923	6322.59
536.288	6327.33
536.653	6401.91
537.019	6402.81
537.384	6404.62
537.749	6448.01
538.114	6498.18
538.479	6523.49
538.845	6495.46
539.21	6510.83
539.575	6579.53
539.94	6605.97
540.305	6675.12
540.67	6695.69
541.034	6681.22
541.399	6689.36
541.764	6707.89
542.129	6809.58
542.494	6768.45
542.858	6800.32
543.223	6838.51
543.587	6857.72
543.952	6886.64
544.316	6866.75
544.681	6895.68
545.045	6959.41
545.41	6963.7
545.774	6948.33
546.138	7013.42
546.503	7064.04
546.867	7047.31
547.231	7163.02
547.595	7131.83
547.959	7207.08
548.324	7191.72
548.688	7225.84
549.052	7239.17
549.416	7252.73
549.779	7310.81
550.143	7263.35
550.507	7346.06
550.871	7357.14
551.235	7349.23
551.599	7461.09
551.962	7421.99
552.326	7465.16
552.689	7513.29
553.053	7486.63
553.417	7513.97
553.78	7603.01
554.143	7587.64
554.507	7621.31
554.87	7681.87
555.234	7679.16
555.597	7683.68
555.96	7748.54
556.323	7730.46
556.686	7732.04
557.05	7759.61
557.413	7812.94
557.776	7828.31
558.139	7832.6
558.502	7834.86
558.865	7870.12
559.228	7963.45
559.59	8020.17
559.953	7955.54
560.316	8106.95
560.679	8101.52
561.041	8146.49
561.404	8107.17
561.767	8164.35
562.129	8181.07
562.492	8274.63
562.854	8239.83
563.217	8212.26
563.579	8311.01
563.941	8274.18
564.304	8381.29
564.666	8414.51
565.028	8388.97
565.39	8449.09
565.753	8416.32
566.115	8535.86
566.477	8492.93
566.839	8453.15
567.201	8596.88
567.563	8555.07
567.925	8643.2
568.287	8676.88
568.648	8708.74
569.01	8759.13
569.372	8838.23
569.734	8757.55
570.095	8814.73
570.457	8892.01
570.819	8942.86
571.18	8907.15
571.542	8979.69
571.903	9002.52
572.265	9082.06
572.626	9095.17
572.987	9170.2
573.349	9224.43
573.71	9233.02
574.071	9288.61
574.432	9390.3
574.794	9411.32
575.155	9452.68
575.516	9505.78
575.877	9559.57
576.238	9572.9
576.599	9672.78
576.96	9734.93
577.32	9842.72
577.681	9904.64
578.042	9951.19
578.403	10057.41
578.763	10055.6
579.124	10260.56
579.485	10352.54
579.845	10484.96
580.206	10478.64
580.566	10601.35
580.927	10842.92
581.287	10891.28
581.648	10996.14
582.008	11158.39
582.368	11287.2
582.728	11373.3
583.089	11530.36
583.449	11656.69
583.809	11827.3
584.169	12021.65
584.529	12128.09
584.889	12432.94
585.249	12486.27
585.609	12657.56
585.969	12870.21
586.329	13018.68
586.688	13269.98
587.048	13495.28
587.408	13619.35
587.768	13848.04
588.127	14024.53
588.487	14321.93
588.846	14625.42
589.206	14879.43
589.565	15017.95
589.925	15322.8
590.284	15617.94
590.643	15804.82
591.003	16094.31
591.362	16344.02
591.721	16624.69
592.08	16858.58
592.44	17095.41
592.799	17467.83
593.158	17633.7
593.517	18002.28
593.876	18307.81
594.235	18389.39
594.593	18840.9
594.952	19036.15
595.311	19345.75
595.67	19622.8
596.029	20033.64
596.387	20320.86
596.746	20642.44
597.104	20787.74
597.463	21070.9
597.822	21401.74
598.18	21688.74
598.538	21985.23
598.897	22441.71
599.255	22402.62
599.613	22993.56
599.972	23299.54
600.33	23456.15
600.688	23571.4
601.046	24023.59
601.404	24417.93
601.762	24593.75
602.12	24955.09
602.478	25152.83
602.836	25504.91
603.194	25607.73
603.552	25851.34
603.91	26125.23
604.268	26461.72
604.625	26724.99
604.983	27060.57
605.341	27078.65
605.698	27542.14
606.056	27736.26
606.413	27897.39
606.771	28356.13
607.128	28608.1
607.485	28698.72
607.843	28932.39
608.2	29202.21
608.557	29582.99
608.914	29712.03
609.272	29991.34
609.629	30207.38
609.986	30545
610.343	30561.72
610.7	31130.3
611.057	31156.06
611.414	31256.62
611.771	31473.57
612.127	31910.62
612.484	31956.49
612.841	32214.79
613.198	32247.1
613.554	32455.01
613.911	32733.42
614.267	32981.77
614.624	33081.43
614.98	33218.83
615.337	33627.86
615.693	33703.34
616.05	33766.84
616.406	34051.58
616.762	34007.96
617.118	34237.56
617.475	34451.11
617.831	34525.91
618.187	34765
618.543	34916.86
618.899	35189.85
619.255	35266.91
619.611	35413.35
619.967	35451.77
620.323	35650.63
620.678	35700.12
621.034	35778.54
621.39	35696.5
621.746	35942.6
622.101	36499.87
622.457	36040.45
622.812	36307.11
623.168	36469.59
623.523	36542.13
623.879	36772.86
624.234	36616.93
624.589	36905.96
624.945	36853.31
625.3	36954.78
625.655	37120.2
626.01	37257.14
626.365	37348.66
626.72	37298.27
627.075	37398.83
627.43	37407.87
627.785	37540.75
628.14	37658.04
628.495	37816
628.85	37659.39
629.205	37594.53
629.559	37889.22
629.914	37694.64
630.269	37818.93
630.623	37942.1
630.978	37824.36
631.332	38105.48
631.687	38031.13
632.041	37975.32
632.396	38084.69
632.75	37945.94
633.104	38115.65
633.459	37944.13
633.813	37923.56
634.167	38053.28
634.521	38023.68
634.875	38118.81
635.229	37962.66
635.583	38039.27
635.937	38094.41
636.291	38004.24
636.645	38044.24
636.999	38009.44
637.352	38194.97
637.706	38051.25
638.06	38042.43
638.413	38121.75
638.767	37913.4
639.121	38133.5
639.474	37898.48
639.828	38005.6
640.181	37945.03
640.534	38043.34
640.888	38029.32
641.241	37832.95
641.594	38105.71
641.947	38040.85
642.301	38024.13
642.654	38027.74
643.007	38035.65
643.36	38054.18
643.713	37907.97
644.066	38093.73
644.419	37686.96
644.771	37632.27
645.124	37352.96
645.477	37209.46
645.83	37098.95
646.182	36966.08
646.535	36785.29
646.888	36903.03
647.24	36734.22
647.593	36901.44
647.945	36764.05
648.298	36797.72
648.65	36757.04
649.002	36716.14
649.355	36785.74
649.707	36661.23
650.059	36907.77
650.411	37137.6
650.763	37416.91
651.115	37696.23
651.467	37714.98
651.819	37640.63
652.171	37531.71
652.523	37451.04
652.875	37407.19
653.227	37331.49
653.578	37562.22
653.93	37470.47
654.282	37370.81
654.633	37266.86
654.985	37327.65
655.337	37411.26
655.688	37386.63
656.039	37548.89
656.391	37289.01
656.742	37189.8
657.094	37208.56
657.445	37332.62
657.796	37296.46
658.147	37218.5
658.498	37152.29
658.849	37363.13
659.2	37219.85
659.551	37147.77
659.902	37196.13
660.253	37119.29
660.604	37343.69
660.955	37042.46
661.306	37306.41
661.656	37128.78
662.007	37265.73
662.358	37246.52
662.708	37163.13
663.059	37174.66
663.409	36989.13
663.76	37306.18
664.11	37112.74
664.461	37132.63
664.811	37203.36
665.161	37162.91
665.511	37134.21
665.862	37183.47
666.212	37009.92
666.562	37109.12
666.912	37132.85
667.262	36963.82
667.612	37041.78
667.962	37050.37
668.312	37053.53
668.662	37154.55
669.011	37080.88
669.361	37003.36
669.711	36930.82
670.06	36932.4
670.41	36880.2
670.76	36964.49
671.109	36940.54
671.459	37028.67
671.808	36906.42
672.157	37065.28
672.507	36762.92
672.856	36785.29
673.205	37049.46
673.554	36919.98
673.904	36749.81
674.253	37067.54
674.602	36865.74
674.951	36342.36
675.3	36157.96
675.649	36688.34
675.998	36711.39
676.346	36756.59
676.695	36710.04
677.044	36619.42
677.393	36603.15
677.741	36649.93
678.09	36543.26
678.438	36480.89
678.787	36526.77
679.135	36613.32
679.484	36389.59
679.832	36407.9
680.181	36304.85
680.529	36402.93
680.877	36263.27
681.225	36294.68
681.573	36406.32
681.922	36118.64
682.27	36000.68
682.618	35956.61
682.966	35928.59
683.314	36086.33
683.661	35725.66
684.009	35810.63
684.357	35833.45
684.705	35656.96
685.053	35553.91
685.4	35652.66
685.748	35529.5
686.095	35524.98
686.443	35375.84
686.79	35353.01
687.138	35497.64
687.485	35373.8
687.832	35251.54
688.18	35224.88
688.527	35077.76
688.874	35216.29
689.221	35049.06
689.568	34991.44
689.915	34851.56
690.262	34879.35
690.609	34712.35
690.956	34622.41
691.303	34592.35
691.65	34489.76
691.997	34517.1
692.344	34278.24
692.69	34220.39
693.037	34181.97
693.383	34168.41
693.73	34120.05
694.077	33940.84
694.423	33934.97
694.769	33813.39
695.116	33740.17
695.462	33793.96
695.808	33543.57
696.155	33726.84
696.501	33345.38
696.847	33466.06
697.193	33212.5
697.539	33310.13
697.885	32941.1
698.231	33052.28
698.577	33038.95
698.923	32852.74
699.269	32660.43
699.614	32581.11
699.96	32450.04
700.306	32574.78
700.651	32457.95
700.997	32262.47
701.342	32294.56
701.688	32306.09
702.033	32070.61
702.379	32049.82
702.724	32080.78
703.069	32044.17
703.415	31746.33
703.76	31790.39
704.105	31728.47
704.45	31679.66
704.795	31503.62
705.14	31442.15
705.485	31392.66
705.83	31282.84
706.175	31372.55
706.52	31176.17
706.865	31119.45
707.209	31080.58
707.554	30934.6
707.899	31037.42
708.243	30839.46
708.588	30761.95
708.932	30657.09
709.277	30557.21
709.621	30666.81
709.966	30367.15
710.31	30475.63
710.654	30130.32
710.998	30183.2
711.342	30273.14
711.687	30181.85
712.031	30066.14
712.375	29991.57
712.719	29973.49
713.063	29980.5
713.407	30062.53
713.75	29838.58
714.094	29725.14
714.438	29685.59
714.782	29764.91
715.125	29556.33
715.469	29714.52
715.812	29379.16
716.156	29336.45
716.499	29295.09
716.843	29402.21
717.186	29205.6
717.53	29426.16
717.873	29305.03
718.216	29139.84
718.559	29082.44
718.902	28795.9
719.246	29073.4
719.589	28857.36
719.932	28751.6
720.275	28738.5
720.617	28761.77
720.96	28710.47
721.303	28564.72
721.646	28493.98
721.989	28440.65
722.331	28620.98
722.674	28427.77
723.016	28446.98
723.359	28413.31
723.701	28408.33
724.044	28148.23
724.386	28015.8
724.729	28251.05
725.071	28112.07
725.413	28158.62
725.755	28100.09
726.097	28011.96
726.439	27917.5
726.782	27847.67
727.124	27997.27
727.465	27774.91
727.807	27863.94
728.149	27634.12
728.491	27693.1
728.833	27669.37
729.175	27585.76
729.516	27486.1
729.858	27403.62
730.199	27578.07
730.541	27425.99
730.882	27421.69
731.224	27483.39
731.565	27300.34
731.906	27363.84
732.248	27424.63
732.589	27185.99
732.93	27021.03
733.271	27173.79
733.612	27238.2
733.953	27147.35
734.294	27051.53
734.635	26997.75
734.976	27112.1
735.317	26933.8
735.658	26863.52
735.999	26745.78
736.339	26838.21
736.68	26870.52
737.021	26689.74
737.361	26705.1
737.702	26764.76
738.042	26687.48
738.383	26621.94
738.723	26685.44
739.063	26459.23
739.404	26589.4
739.744	26394.6
740.084	26355.28
740.424	26406.13
740.764	26365.68
741.104	26325.68
741.444	26206.81
741.784	26158.45
742.124	26118.45
742.464	26159.13
742.804	26011.11
743.143	26055.63
743.483	26055.85
743.823	25878.68
744.162	25933.37
744.502	25951.68
744.841	25768.86
745.181	25859.93
745.52	25737.9
745.86	25812.92
746.199	25726.37
746.538	25808.86
746.877	25802.98
747.216	25728.63
747.556	25626.71
747.895	25634.62
748.234	25427.85
748.573	25551.01
748.911	25475.3
749.25	25339.49
749.589	25317.79
749.928	25284.8
750.267	25345.59
750.605	25240.28
750.944	25118.93
751.283	25102.89
751.621	25218.81
751.96	24923.23
752.298	25046.84
752.636	25090
752.975	24935.21
753.313	24821.08
753.651	24937.69
753.989	24745.38
754.327	24651.37
754.666	24575.89
755.004	24625.16
755.342	24640.75
755.679	24545.39
756.017	24415.22
756.355	24542.67
756.693	24426.97
757.031	24469.68
757.368	24265.17
757.706	24275.56
758.044	24085.74
758.381	24214.77
758.719	24065.62
759.056	24120.09
759.394	24063.36
759.731	23916.93
760.068	23846.42
760.405	23681.23
760.743	23651.4
