Data from hue_260_FLMS001491_00026.txt Node
Date: Tue Feb 07 15:58:47 GMT 2017
User: dcchb
Spectrometer: FLMS00149
Trigger mode: 0
Integration Time (sec): 2.000000E-2
Scans to average: 10
Electric dark correction enabled: true
Nonlinearity correction enabled: false
Boxcar width: 0
XAxis mode: Wavelengths
Number of Pixels in Spectrum: 2048
>>>>>Begin Spectral Data<<<<<
341.393	-24.36
341.776	-24.36
342.16	-24.36
342.543	-43.12
342.927	-78.6
343.31	-67.53
343.693	-51.71
344.077	-60.52
344.46	-58.71
344.843	-62.55
345.226	-46.06
345.61	-38.37
345.993	-34.53
346.376	-6.96
346.759	8.4
347.142	37.33
347.525	57.22
347.908	47.05
348.291	76.42
348.674	106.25
349.057	94.28
349.44	144.67
349.823	131.11
350.206	151.9
350.588	180.15
350.971	197.1
351.354	221.73
351.737	228.74
352.119	245.69
352.502	244.78
352.884	269.41
353.267	277.32
353.65	291.33
354.032	274.61
354.414	278.23
354.797	300.6
355.179	334.95
355.562	323.88
355.944	337.43
356.326	315.97
356.709	339.47
357.091	338.11
357.473	340.37
357.855	321.16
358.238	317.55
358.62	316.42
359.002	332.69
359.384	320.26
359.766	325.91
360.148	333.59
360.53	326.81
360.912	338.79
361.294	326.14
361.676	334.72
362.057	324.33
362.439	322.29
362.821	305.8
363.203	311.9
363.584	320.49
363.966	307.15
364.348	303.76
364.729	311.67
365.111	326.36
365.493	317.32
365.874	308.51
366.256	280.71
366.637	305.57
367.019	272.35
367.4	307.83
367.781	289.07
368.163	322.52
368.544	307.6
368.925	301.05
369.306	310.54
369.688	306.47
370.069	310.54
370.45	314.84
370.831	320.03
371.212	297.21
371.593	282.07
371.974	308.06
372.355	301.73
372.736	291.33
373.117	304.67
373.498	308.73
373.879	303.09
374.26	299.47
374.641	310.77
375.021	335.63
375.402	314.84
375.783	316.19
376.163	336.3
376.544	317.55
376.925	335.85
377.305	333.59
377.686	308.73
378.066	304.67
378.447	326.59
378.827	345.8
379.208	331.11
379.588	324.55
379.968	286.14
380.349	308.28
380.729	321.62
381.109	332.69
381.489	327.27
381.87	321.39
382.25	323.42
382.63	324.1
383.01	323.2
383.39	344.67
383.77	335.63
384.15	325.23
384.53	339.47
384.91	341.05
385.29	329.53
385.67	339.24
386.049	353.48
386.429	345.12
386.809	348.51
387.189	357.32
387.568	343.54
387.948	354.38
388.328	349.19
388.707	337.21
389.087	343.08
389.466	357.32
389.846	344.21
390.225	347.15
390.605	359.35
390.984	365.46
391.363	362.74
391.743	348.73
392.122	372.01
392.501	372.01
392.881	367.94
393.26	377.21
393.639	375.17
394.018	367.04
394.397	387.83
394.776	386.47
395.155	384.67
395.534	390.54
395.913	394.61
396.292	394.38
396.671	390.31
397.05	394.83
397.429	383.54
397.808	374.5
398.186	395.06
398.565	403.87
398.944	408.17
399.323	398.9
399.701	408.62
400.08	398.68
400.458	411.78
400.837	409.07
401.215	413.14
401.594	404.1
401.972	393.48
402.351	421.5
402.729	415.85
403.107	423.76
403.486	427.83
403.864	409.75
404.242	412.01
404.62	449.75
404.999	447.94
405.377	439.35
405.755	453.59
406.133	466.7
406.511	436.64
406.889	489.3
407.267	485.91
407.645	482.74
408.023	471.89
408.401	486.58
408.779	488.62
409.156	478
409.534	492.46
409.912	494.72
410.29	506.7
410.667	502.63
411.045	525.9
411.422	543.98
411.8	556.19
412.178	562.74
412.555	560.71
412.933	581.72
413.31	529.29
413.687	561.38
414.065	588.05
414.442	587.6
414.819	587.37
415.197	590.08
415.574	600.7
415.951	616.75
416.328	622.4
416.705	620.59
417.082	616.3
417.46	630.99
417.837	634.83
418.214	646.81
418.591	644.09
418.967	675.73
419.344	667.37
419.721	682.51
420.098	668.05
420.475	711.44
420.852	710.76
421.228	716.86
421.605	717.54
421.982	745.79
422.358	736.52
422.735	760.02
423.111	728.16
423.488	769.29
423.864	764.54
424.241	788.04
424.617	805.44
424.994	827.37
425.37	849.51
425.746	873.47
426.123	843.41
426.499	852
426.875	873.92
427.251	887.25
427.627	866.01
428.003	904.2
428.379	936.74
428.756	918.44
429.132	949.62
429.507	937.64
429.883	937.87
430.259	964.08
430.635	963.18
431.011	966.57
431.387	976.51
431.763	1002.5
432.138	1013.58
432.514	1036.4
432.89	1058.32
433.265	1077.75
433.641	1092.67
434.016	1107.81
434.392	1134.02
434.767	1143.06
435.143	1136.51
435.518	1137.41
435.894	1212.89
436.269	1213.8
436.644	1244.76
437.02	1238.65
437.395	1273.68
437.77	1258.54
438.145	1282.49
438.52	1301.03
438.895	1324.3
439.271	1324.75
439.646	1359.55
440.021	1362.94
440.395	1361.59
440.77	1392.1
441.145	1365.88
441.52	1446.11
441.895	1420.57
442.27	1455.37
442.645	1452.66
443.019	1474.35
443.394	1475.71
443.769	1519.1
444.143	1492.88
444.518	1537.4
444.892	1532.21
445.267	1540.57
445.641	1537.18
446.016	1567.91
446.39	1582.15
446.764	1584.63
447.139	1597.29
447.513	1587.35
447.887	1614.46
448.262	1617.17
448.636	1630.28
449.01	1635.03
449.384	1659.66
449.758	1665.76
450.132	1693.33
450.506	1679.77
450.88	1687.23
451.254	1749.37
451.628	1765.65
452.002	1766.1
452.376	1790.05
452.75	1788.47
453.123	1783.72
453.497	1830.5
453.871	1826.89
454.244	1852.88
454.618	1863.27
454.992	1893.55
455.365	1891.74
455.739	1924.06
456.112	1961.35
456.486	1967.22
456.859	1970.84
457.232	2000.89
457.606	2019.2
457.979	2056.94
458.352	2098.29
458.725	2114.34
459.099	2116.14
459.472	2155.24
459.845	2165.64
460.218	2191.62
460.591	2210.83
460.964	2252.19
461.337	2262.36
461.71	2276.59
462.083	2333.31
462.456	2311.62
462.829	2348
463.201	2408.11
463.574	2403.82
463.947	2400.88
464.32	2477.49
464.692	2474.33
465.065	2491.28
465.438	2518.85
465.81	2588.67
466.183	2563.59
466.555	2623.7
466.928	2617.37
467.3	2618.05
467.672	2674.1
468.045	2704.6
468.417	2747.77
468.789	2763.59
469.161	2780.99
469.534	2849.68
469.906	2896.69
470.278	2904.82
470.65	2961.09
471.022	2972.85
471.394	3039.51
471.766	3025.27
472.138	3060.53
472.51	3147.98
472.882	3162.22
473.253	3196.57
473.625	3253.74
473.997	3302.33
474.369	3289.67
474.74	3338.49
475.112	3374.87
475.484	3444.47
475.855	3514.98
476.227	3514.3
476.598	3627.29
476.97	3630
477.341	3706.84
477.713	3703
478.084	3748.64
478.455	3813.5
478.827	3872.03
479.198	3958.36
479.569	3962.65
479.94	4045.36
480.311	4126.71
480.682	4186.82
481.053	4219.37
481.424	4305.69
481.795	4337.78
482.166	4400.6
482.537	4380.27
482.908	4507.49
483.279	4583.88
483.65	4626.36
484.021	4706.81
484.391	4747.94
484.762	4747.49
485.133	4832.01
485.503	4868.84
485.874	4947.71
486.244	4994.71
486.615	5064.54
486.985	5099.34
487.356	5192.45
487.726	5219.11
488.097	5335.04
488.467	5344.08
488.837	5408.49
489.207	5450.52
489.578	5471.76
489.948	5544.53
490.318	5625.43
490.688	5667.92
491.058	5736.39
491.428	5856.16
491.798	5832.66
492.168	5924.18
492.538	5944.07
492.908	6029.04
493.278	6070.62
493.648	6076.27
494.017	6165.98
494.387	6211.63
494.757	6220.67
495.126	6295.47
495.496	6315.36
495.866	6347.22
496.235	6379.54
496.605	6421.57
496.974	6466.99
497.344	6461.79
497.713	6514.22
498.082	6555.12
498.452	6570.94
498.821	6626.53
499.19	6601
499.559	6692.3
499.928	6753.76
500.298	6747.89
500.667	6775.46
501.036	6757.83
501.405	6907.66
501.774	6850.48
502.143	6862.46
502.512	6904.04
502.88	6953.98
503.249	6955.79
503.618	6998.73
503.987	7022
504.356	7040.99
504.724	7118.27
505.093	7081.21
505.462	7116.01
505.83	7074.43
506.199	7173.87
506.567	7271.72
506.936	7223.36
507.304	7300.19
507.672	7335.89
508.041	7325.5
508.409	7329.34
508.777	7424.71
509.145	7397.14
509.514	7407.76
509.882	7465.38
510.25	7439.85
510.618	7506.06
510.986	7532.27
511.354	7527.08
511.722	7573.18
512.09	7597.13
512.458	7580.41
512.826	7636.45
513.193	7543.12
513.561	7590.58
513.929	7633.06
514.297	7686.85
514.664	7768.88
515.032	7770.23
515.4	7744.92
515.767	7792.61
516.135	7838.71
516.502	7763.91
516.869	7853.85
517.237	7865.15
517.604	7852.04
517.972	7887.97
518.339	7919.38
518.706	7920.29
519.073	7963
519.44	7996.89
519.808	8017.91
520.175	7955.99
520.542	8062.88
520.909	8104.01
521.276	8028.31
521.643	8119.15
522.009	8106.5
522.376	8188.53
522.743	8158.02
523.11	8210.9
523.477	8235.76
523.843	8219.49
524.21	8247.51
524.577	8240.96
524.943	8298.58
525.31	8313.95
525.676	8323.21
526.043	8360.5
526.409	8344.91
526.776	8408.63
527.142	8385.58
527.508	8482.98
527.874	8445.7
528.241	8534.51
528.607	8508.52
528.973	8552.13
529.339	8481.4
529.705	8564.79
530.071	8508.75
530.437	8527.73
530.803	8587.61
531.169	8647.72
531.535	8581.96
531.901	8625.13
532.267	8664.45
532.632	8622.19
532.998	8633.26
533.364	8652.24
533.73	8638.23
534.095	8690.21
534.461	8602.75
534.826	8654.05
535.192	8632.58
535.557	8633.94
535.923	8703.32
536.288	8699.93
536.653	8691.34
537.019	8661.51
537.384	8615.86
537.749	8589.2
538.114	8689.76
538.479	8627.16
538.845	8636.65
539.21	8576.99
539.575	8572.25
539.94	8615.18
540.305	8631
540.67	8704.22
541.034	8610.21
541.399	8605.69
541.764	8634.84
542.129	8584.45
542.494	8588.29
542.858	8635.07
543.223	8630.78
543.587	8654.05
543.952	8554.17
544.316	8638.69
544.681	8573.15
545.045	8577.9
545.41	8638.69
545.774	8583.09
546.138	8591
546.503	8563.66
546.867	8535.64
547.231	8557.56
547.595	8553.04
547.959	8574.28
548.324	8563.43
548.688	8532.02
549.052	8611.57
549.416	8569.08
549.779	8510.1
550.143	8507.16
550.507	8590.1
550.871	8577.44
551.235	8513.26
551.599	8583.32
551.962	8551.91
552.326	8504.23
552.689	8511.23
553.053	8473.94
553.417	8483.66
553.78	8579.03
554.143	8538.8
554.507	8517.11
554.87	8518.01
555.234	8549.2
555.597	8531.8
555.96	8505.13
556.323	8564.11
556.686	8518.24
557.05	8568.4
557.413	8565.69
557.776	8530.89
558.139	8641.4
558.502	8569.76
558.865	8562.76
559.228	8552.13
559.59	8584.45
559.953	8634.39
560.316	8628.29
560.679	8627.16
561.041	8690.89
561.404	8683.2
561.767	8696.54
562.129	8692.24
562.492	8738.12
562.854	8687.5
563.217	8747.61
563.579	8771.34
563.941	8780.38
564.304	8777.89
564.666	8800.49
565.028	8741.73
565.39	8777.21
565.753	8887.27
566.115	8893.37
566.477	8860.15
566.839	8924.1
567.201	8894.27
567.563	8946.25
567.925	8960.26
568.287	8989.18
568.648	8973.37
569.01	9056.3
569.372	9117.54
569.734	9108.5
570.095	9138.56
570.457	9110.31
570.819	9147.15
571.18	9117.09
571.542	9164.55
571.903	9155.06
572.265	9171.1
572.626	9232.79
572.987	9192.57
573.349	9316.86
573.71	9304.43
574.071	9294.71
574.432	9277.99
574.794	9431.66
575.155	9369.06
575.516	9381.04
575.877	9404.77
576.238	9453.58
576.599	9526.35
576.96	9451.09
577.32	9454.48
577.681	9494.26
578.042	9583.75
578.403	9558.89
578.763	9611.54
579.124	9602.5
579.485	9619.9
579.845	9616.96
580.206	9640.92
580.566	9608.6
580.927	9651.09
581.287	9745.32
581.648	9709.62
582.008	9788.94
582.368	9757.3
582.728	9777.41
583.089	9846.56
583.449	9841.82
583.809	9798.65
584.169	9803.85
584.529	9889.05
584.889	9915.71
585.249	9911.87
585.609	9822.38
585.969	9977.63
586.329	9934.02
586.688	9998.42
587.048	9949.61
587.408	9971.08
587.768	9939.89
588.127	9927.24
588.487	9966.56
588.846	10056.73
589.206	10011.76
589.565	10072.09
589.925	10132.88
590.284	10063.96
590.643	10105.77
591.003	10115.48
591.362	10122.04
591.721	10161.81
592.08	10228.47
592.44	10214.92
592.799	10240.9
593.158	10198.42
593.517	10209.94
593.876	10199.77
594.235	10227.8
594.593	10321.13
594.952	10255.82
595.311	10235.03
595.67	10270.51
596.029	10314.35
596.387	10342.6
596.746	10312.99
597.104	10305.99
597.463	10310.28
597.822	10377.17
598.18	10322.48
598.538	10316.61
598.897	10463.04
599.255	10328.36
599.613	10457.85
599.972	10345.76
600.33	10439.99
600.688	10358.87
601.046	10449.03
601.404	10424.85
601.762	10376.04
602.12	10503.95
602.478	10504.4
602.836	10517.96
603.194	10441.12
603.552	10377.85
603.91	10447.23
604.268	10493.55
604.625	10509.37
604.983	10539.43
605.341	10493.78
605.698	10463.27
606.056	10523.16
606.413	10530.61
606.771	10561.35
607.128	10581.69
607.485	10535.36
607.843	10559.76
608.2	10565.87
608.557	10635.92
608.914	10644.28
609.272	10637.05
609.629	10653.1
609.986	10687.22
610.343	10645.86
610.7	10690.16
611.057	10700.55
611.414	10668.91
611.771	10677.73
612.127	10766.54
612.484	10710.04
612.841	10751.17
613.198	10699.42
613.554	10785.97
613.911	10771.06
614.267	10740.55
614.624	10768.8
614.98	10816.03
615.337	10822.81
615.693	10885.18
616.05	10800.89
616.406	10849.47
616.762	10862.81
617.118	10872.98
617.475	10878.63
617.831	10874.11
618.187	10888.8
618.543	10852.41
618.899	10928.57
619.255	10909.81
619.611	10900.09
619.967	10910.26
620.323	11014.22
620.678	10882.92
621.034	10899.64
621.39	10940.55
621.746	10884.05
622.101	11025.06
622.457	10889.47
622.812	10966.99
623.168	10940.55
623.523	10955.23
623.879	10962.01
624.234	10860.55
624.589	10987.78
624.945	10969.7
625.3	10935.8
625.655	10931.51
626.01	10935.12
626.365	10966.76
626.72	10948.46
627.075	10875.69
627.43	10849.47
627.785	10890.15
628.14	10896.25
628.495	10854.67
628.85	10860.32
629.205	10799.08
629.559	10924.05
629.914	10861.23
630.269	10804.5
630.623	10785.3
630.978	10775.13
631.332	10847.21
631.687	10782.81
632.041	10817.16
632.396	10861.45
632.75	10673.43
633.104	10730.16
633.459	10759.53
633.813	10730.16
634.167	10695.81
634.521	10742.81
634.875	10708.01
635.229	10674.56
635.583	10725.41
635.937	10627.11
636.291	10688.57
636.645	10628.69
636.999	10653.1
637.352	10640.67
637.706	10558.18
638.06	10614.68
638.413	10597.05
638.767	10551.63
639.121	10578.75
639.474	10545.3
639.828	10531.52
640.181	10537.62
640.534	10554.57
640.888	10511.4
641.241	10433.67
641.594	10468.92
641.947	10455.13
642.301	10437.06
642.654	10447.9
643.007	10463.72
643.36	10454
643.713	10367.45
644.066	10453.33
644.419	10394.57
644.771	10308.47
645.124	10164.52
645.477	10244.52
645.83	10129.27
646.182	10116.84
646.535	10102.38
646.888	10029.16
647.24	9986.67
647.593	10095.6
647.945	10003.62
648.298	10074.35
648.65	9990.29
649.002	9974.7
649.355	10058.08
649.707	10035.94
650.059	10118.19
650.411	10262.37
650.763	10237.29
651.115	10266.89
651.467	10347.57
651.819	10256.27
652.171	10284.52
652.523	10163.84
652.875	10311.86
653.227	10244.97
653.578	10271.41
653.93	10230.28
654.282	10192.77
654.633	10178.31
654.985	10207.91
655.337	10231.86
655.688	10271.41
656.039	10288.81
656.391	10280.22
656.742	10225.08
657.094	10256.27
657.445	10278.87
657.796	10221.69
658.147	10271.64
658.498	10219.43
658.849	10209.27
659.2	10238.87
659.551	10219.66
659.902	10233.22
660.253	10259.21
660.604	10288.81
660.955	10162.94
661.306	10162.71
661.656	10261.92
662.007	10271.41
662.358	10254.91
662.708	10269.6
663.059	10286.78
663.409	10230.06
663.76	10243.61
664.11	10304.63
664.461	10296.72
664.811	10303.73
665.161	10313.22
665.511	10312.54
665.862	10287
666.212	10308.47
666.562	10242.03
666.912	10265.54
667.262	10165.2
667.612	10298.75
667.962	10248.59
668.312	10301.92
668.662	10360
669.011	10254.24
669.361	10249.72
669.711	10258.98
670.06	10274.35
670.41	10236.84
670.76	10194.35
671.109	10263.5
671.459	10221.24
671.808	10254.69
672.157	10199.55
672.507	10195.25
672.856	10185.76
673.205	10173.11
673.554	10235.48
673.904	10146.67
674.253	10162.71
674.602	10125.43
674.951	10030.29
675.3	9937.41
675.649	10214.01
675.998	10059.44
676.346	10108.25
676.695	10157.06
677.044	10006.11
677.393	10104.64
677.741	10124.52
678.09	10105.54
678.438	10043.85
678.787	10029.38
679.135	10035.03
679.484	9993.9
679.832	9954.13
680.181	9972.66
680.529	9982.15
680.877	10046.78
681.225	10028.93
681.573	9931.53
681.922	9919.56
682.27	9856.05
682.618	9779.22
682.966	9800.46
683.314	9825.55
683.661	9811.76
684.009	9782.61
684.357	9728.37
684.705	9783.51
685.053	9758.2
685.4	9712.1
685.748	9656.51
686.095	9587.59
686.443	9569.06
686.79	9581.94
687.138	9572.22
687.485	9559.57
687.832	9548.04
688.18	9531.77
688.527	9471.66
688.874	9492.22
689.221	9437.76
689.568	9374.26
689.915	9436.18
690.262	9405.22
690.609	9371.1
690.956	9326.8
691.303	9255.62
691.65	9271.66
691.997	9229.4
692.344	9106.24
692.69	9175.62
693.037	9157.09
693.383	9093.36
693.73	9118.45
694.077	9093.14
694.423	9064.44
694.769	9026.47
695.116	9081.61
695.462	8978.56
695.808	8938.56
696.155	8945.34
696.501	8844.56
696.847	8872.35
697.193	8875.74
697.539	8862.41
697.885	8745.8
698.231	8704.67
698.577	8748.96
698.923	8661.28
699.269	8677.55
699.614	8627.61
699.96	8563.43
700.306	8568.86
700.651	8491.34
700.997	8528.18
701.342	8417.45
701.688	8502.87
702.033	8401.4
702.379	8413.38
702.724	8381.74
703.069	8311.91
703.415	8291.35
703.76	8261.97
704.105	8272.82
704.45	8199.15
704.795	8190.79
705.14	8191.92
705.485	8132.48
705.83	8095.2
706.175	8139.26
706.52	8052.03
706.865	8064.24
707.209	8068.53
707.554	7968.19
707.899	7977.23
708.243	8012.49
708.588	7873.51
708.932	7857.24
709.277	7893.17
709.621	7940.62
709.966	7834.19
710.31	7851.81
710.654	7770.91
710.998	7818.82
711.342	7739.73
711.687	7748.99
712.031	7732.95
712.375	7740.86
712.719	7685.04
713.063	7655.89
713.407	7685.26
713.75	7613.4
714.094	7647.98
714.438	7631.48
714.782	7649.56
715.125	7620.63
715.469	7562.78
715.812	7537.7
716.156	7473.74
716.499	7504.03
716.843	7471.26
717.186	7504.03
717.53	7532.73
717.873	7438.04
718.216	7497.7
718.559	7461.32
718.902	7386.74
719.246	7396.01
719.589	7408.44
719.932	7358.49
720.275	7375.22
720.617	7311.49
720.96	7373.63
721.303	7346.74
721.646	7402.79
721.989	7297.7
722.331	7343.35
722.674	7302
723.016	7249.34
723.359	7291.6
723.701	7286.86
724.044	7262.9
724.386	7256.57
724.729	7297.25
725.071	7238.27
725.413	7177.25
725.755	7194.2
726.097	7199.63
726.439	7170.02
726.782	7166.18
727.124	7221.77
727.465	7177.71
727.807	7190.59
728.149	7207.08
728.491	7168.22
728.833	7185.62
729.175	7171.61
729.516	7165.73
729.858	7171.38
730.199	7177.93
730.541	7145.39
730.882	7178.61
731.224	7146.97
731.565	7121.89
731.906	7126.18
732.248	7085.73
732.589	7127.99
732.93	7103.58
733.271	7140.87
733.612	7126.63
733.953	7140.87
734.294	7104.26
734.635	7032.85
734.976	7132.74
735.317	7099.74
735.658	7151.04
735.999	7100.65
736.339	7073.53
736.68	7187.2
737.021	7145.17
737.361	7076.01
737.702	7139.52
738.042	7144.94
738.383	7117.82
738.723	7174.99
739.063	7082.12
739.404	7106.97
739.744	7137.03
740.084	7149.68
740.424	7147.2
740.764	7097.48
741.104	7186.07
741.444	7217.93
741.784	7117.37
742.124	7175.45
742.464	7224.49
742.804	7205.95
743.143	7233.3
743.483	7249.34
743.823	7221.32
744.162	7262
744.502	7268.55
744.841	7278.5
745.181	7325.95
745.52	7344.93
745.86	7332.28
746.199	7408.21
746.538	7379.06
746.877	7489.79
747.216	7533.18
747.556	7533.4
747.895	7548.54
748.234	7609.33
748.573	7678.94
748.911	7725.94
749.25	7719.84
749.589	7754.41
749.928	7880.97
750.267	7841.87
750.605	7958.03
750.944	7963
751.283	7997.35
751.621	8164.8
751.96	8141.3
752.298	8175.19
752.636	8287.73
752.975	8343.55
753.313	8411.8
753.651	8584
753.989	8567.95
754.327	8698.12
754.666	8755.52
755.004	8884.33
755.342	8991.22
755.679	9061.95
756.017	9205.45
756.355	9296.52
756.693	9314.6
757.031	9451.32
757.368	9582.84
757.706	9630.3
758.044	9776.06
758.381	9938.76
758.719	10030.74
759.056	10134.92
759.394	10184.18
759.731	10384.4
760.068	10453.78
760.405	10583.27
760.743	10765.86
761.08	10843.15
761.417	10952.97
761.754	11068.23
762.091	11253.53
762.428	11284.49
762.765	11400.87
763.102	11646.06
763.438	11714.08
763.775	11796.79
764.112	11930.8
764.449	12062.78
764.785	12138.03
