Data from hue_50_FLMS001491_73.txt Node
Date: Mon Feb 06 15:10:57 GMT 2017
User: dcchb
Spectrometer: FLMS00149
Trigger mode: 0
Integration Time (sec): 2.000000E-2
Scans to average: 10
Electric dark correction enabled: true
Nonlinearity correction enabled: false
Boxcar width: 0
XAxis mode: Wavelengths
Number of Pixels in Spectrum: 2048
>>>>>Begin Spectral Data<<<<<
341.393	-4
341.776	-4
342.16	-4
342.543	-64.56
342.927	-62.98
343.31	-59.36
343.693	-79.93
344.077	-36.31
344.46	-62.07
344.843	-64.11
345.226	-41.51
345.61	-29.99
345.993	-30.89
346.376	-0.16
346.759	5.95
347.142	23.12
347.525	36.68
347.908	62.67
348.291	80.29
348.674	88.66
349.057	106.96
349.44	123.68
349.823	132.95
350.206	148.99
350.588	182.44
350.971	213.85
351.354	232.38
351.737	227.64
352.119	242.78
352.502	248.2
352.884	273.51
353.267	290.23
353.65	314.41
354.032	309.22
354.414	312.6
354.797	308.09
355.179	324.81
355.562	324.36
355.944	328.42
356.326	326.62
356.709	335.2
357.091	324.13
357.473	350.8
357.855	359.38
358.238	330.91
358.62	331.81
359.002	342.66
359.384	339.5
359.766	349.67
360.148	340.4
360.53	351.25
360.912	320.97
361.294	336.11
361.676	329.1
362.057	343.34
362.439	339.5
362.821	341.53
363.203	314.19
363.584	331.59
363.966	334.53
364.348	340.4
364.729	312.83
365.111	334.07
365.493	308.99
365.874	331.14
366.256	335.2
366.637	301.08
367.019	317.35
367.4	345.37
367.781	326.84
368.163	317.58
368.544	315.54
368.925	319.16
369.306	305.37
369.688	302.66
370.069	320.06
370.45	317.58
370.831	323.9
371.212	285.49
371.593	316.22
371.974	307.18
372.355	332.04
372.736	322.32
373.117	311.7
373.498	325.03
373.879	335.2
374.26	335.2
374.641	307.63
375.021	304.47
375.402	323.45
375.783	327.97
376.163	326.84
376.544	322.55
376.925	327.29
377.305	336.78
377.686	334.53
378.066	328.42
378.447	342.21
378.827	337.69
379.208	325.03
379.588	317.58
379.968	306.05
380.349	343.56
380.729	311.47
381.109	323
381.489	339.04
381.87	352.38
382.25	337.46
382.63	350.34
383.01	354.64
383.39	336.33
383.77	338.59
384.15	345.82
384.53	348.31
384.91	328.65
385.29	333.4
385.67	341.3
386.049	368.65
386.429	358.71
386.809	359.38
387.189	346.28
387.568	364.58
387.948	357.35
388.328	340.85
388.707	367.07
389.087	382.66
389.466	361.42
389.846	375.65
390.225	376.78
390.605	338.59
390.984	363.9
391.363	361.64
391.743	375.88
392.122	379.27
392.501	357.35
392.881	375.88
393.26	373.39
393.639	364.13
394.018	400.74
394.397	373.17
394.776	363.45
395.155	377.91
395.534	377.69
395.913	387.86
396.292	369.1
396.671	382.43
397.05	386.73
397.429	390.57
397.808	374.07
398.186	384.69
398.565	379.27
398.944	379.04
399.323	381.53
399.701	388.99
400.08	385.82
400.458	387.41
400.837	381.3
401.215	399.61
401.594	391.02
401.972	388.76
402.351	403.22
402.729	391.7
403.107	407.07
403.486	402.09
403.864	391.47
404.242	428.08
404.62	407.52
404.999	393.96
405.377	401.64
405.755	422.43
406.133	411.59
406.511	401.19
406.889	424.47
407.267	421.75
407.645	432.6
408.023	407.97
408.401	415.43
408.779	425.82
409.156	443.9
409.534	417.91
409.912	448.87
410.29	431.02
410.667	445.71
411.045	441.87
411.422	449.1
411.8	455.43
412.178	443.67
412.555	434.64
412.933	451.13
413.31	462.66
413.687	458.14
414.065	464.69
414.442	452.94
414.819	462.43
415.197	447.29
415.574	469.89
415.951	462.21
416.328	494.75
416.705	466.05
417.082	465.14
417.46	475.31
417.837	490.23
418.214	510.79
418.591	469.89
418.967	491.58
419.344	473.5
419.721	512.6
420.098	476.67
420.475	523.9
420.852	513.5
421.228	496.1
421.605	503.11
421.982	513.05
422.358	504.01
422.735	500.17
423.111	509.66
423.488	521.41
423.864	544.46
424.241	540.85
424.617	538.81
424.994	537.68
425.37	539.94
425.746	532.03
426.123	534.97
426.499	559.15
426.875	562.32
427.251	546.95
427.627	548.98
428.003	553.5
428.379	555.99
428.756	562.09
429.132	567.74
429.507	578.13
429.883	584.91
430.259	565.48
430.635	567.06
431.011	582.43
431.387	572.48
431.763	607.29
432.138	616.1
432.514	616.1
432.89	605.93
433.265	599.38
433.641	606.16
434.016	642.77
434.392	624.69
434.767	630.34
435.143	624.23
435.518	619.94
435.894	646.61
436.269	655.65
436.644	676.21
437.02	634.18
437.395	658.81
437.77	697.91
438.145	655.19
438.52	694.29
438.895	682.76
439.271	684.12
439.646	676.44
440.021	675.76
440.395	694.06
440.77	683.22
441.145	689.32
441.52	719.6
441.895	692.93
442.27	737.9
442.645	717.79
443.019	714.4
443.394	716.44
443.769	737.45
444.143	729.54
444.518	728.41
444.892	729.77
445.267	763.21
445.641	758.47
446.016	754.85
446.39	762.31
446.764	738.81
447.139	764.12
447.513	770.67
447.887	765.93
448.262	779.49
448.636	771.12
449.01	791.01
449.384	772.03
449.758	786.72
450.132	793.5
450.506	798.47
450.88	800.05
451.254	799.37
451.628	795.76
452.002	822.87
452.376	829.2
452.75	831.46
453.123	830.78
453.497	860.84
453.871	844.12
454.244	857.68
454.618	860.61
454.992	863.1
455.365	893.83
455.739	903.78
456.112	906.71
456.486	929.31
456.859	917.11
457.232	924.57
457.606	942.19
457.979	955.3
458.352	958.92
458.725	981.97
459.099	970.21
459.472	1002.98
459.845	1006.6
460.218	996.43
460.591	999.82
460.964	1028.29
461.337	1037.11
461.71	1055.41
462.083	1062.19
462.456	1061.06
462.829	1073.71
463.201	1110.55
463.574	1074.84
463.947	1100.83
464.32	1132.92
464.692	1141.96
465.065	1174.5
465.438	1170.44
465.81	1196.2
466.183	1217.89
466.555	1213.6
466.928	1223.09
467.3	1264.22
467.672	1264.9
468.045	1319.58
468.417	1321.62
468.789	1319.36
469.161	1326.14
469.534	1376.31
469.906	1417.43
470.278	1420.15
470.65	1446.81
471.022	1477.32
471.394	1502.4
471.766	1503.99
472.138	1567.49
472.51	1597.99
472.882	1630.54
473.253	1671.44
473.625	1661.04
473.997	1710.31
474.369	1731.1
474.74	1765.22
475.112	1830.3
475.484	1899.91
475.855	1913.01
476.227	1977.19
476.598	2006.35
476.97	2079.34
477.341	2111.88
477.713	2151.43
478.084	2188.04
478.455	2288.37
478.827	2318.2
479.198	2393.91
479.569	2454.7
479.94	2524.52
480.311	2541.7
480.682	2644.29
481.053	2787.79
481.424	2809.49
481.795	2896.49
482.166	2974.68
482.537	3038.18
482.908	3129.25
483.279	3191.63
483.65	3313.2
484.021	3408.79
484.391	3538.51
484.762	3590.26
485.133	3676.81
485.503	3759.07
485.874	3916.35
486.244	4038.16
486.615	4159.74
486.985	4223.69
487.356	4366.74
487.726	4462.33
488.097	4571.93
488.467	4680.17
488.837	4857.57
489.207	4915.87
489.578	5064.57
489.948	5168.75
490.318	5358.35
490.688	5416.88
491.058	5562.41
491.428	5681.28
491.798	5823.42
492.168	6027.26
492.538	6119.91
492.908	6249.4
493.278	6436.51
493.648	6486.23
494.017	6638.31
494.387	6746.79
494.757	6913.56
495.126	7043.95
495.496	7121.69
495.866	7323.49
496.235	7470.38
496.605	7546.31
496.974	7704.5
497.344	7793.31
497.713	7929.13
498.082	8066.53
498.452	8244.83
498.821	8383.8
499.19	8504.71
499.559	8547.87
499.928	8677.58
500.298	8805.94
500.667	9005.71
501.036	9020.17
501.405	9200.51
501.774	9313.05
502.143	9352.37
502.512	9560.72
502.88	9713.04
503.249	9754.62
503.618	9950.32
503.987	9978.11
504.356	10121.61
504.724	10167.26
505.093	10379.46
505.462	10401.83
505.83	10502.85
506.199	10633.46
506.567	10785.78
506.936	10919.11
507.304	11054.47
507.672	11119.55
508.041	11307.34
508.409	11317.97
508.777	11447.45
509.145	11597.96
509.514	11640.44
509.882	11741.23
510.25	11952.75
510.618	11956.82
510.986	12091.05
511.354	12178.73
511.722	12360.88
512.09	12520.19
512.458	12430.93
512.826	12652.85
513.193	12760.87
513.561	12796.12
513.929	13020.52
514.297	13107.52
514.664	13212.15
515.032	13251.7
515.4	13435.42
515.767	13493.73
516.135	13558.13
516.502	13554.97
516.869	13788.86
517.237	13902.08
517.604	13859.82
517.972	14068.4
518.339	14176.87
518.706	14189.53
519.073	14302.07
519.44	14411.9
519.808	14557.88
520.175	14604.21
520.542	14788.83
520.909	14900.92
521.276	15006.91
521.643	15027.02
522.009	15249.16
522.376	15302.72
522.743	15395.6
523.11	15584.07
523.477	15774.35
523.843	15816.6
524.21	16049.37
524.577	16056.82
524.943	16214.79
525.31	16240.55
525.676	16436.47
526.043	16638.05
526.409	16590.82
526.776	16760.08
527.142	16906.74
527.508	17036.46
527.874	17233.97
528.241	17265.38
528.607	17240.75
528.973	17448.2
529.339	17449.56
529.705	17600.96
530.071	17873.27
530.437	17911.24
530.803	17958.69
531.169	18058.35
531.535	18101.52
531.901	18219.48
532.267	18289.99
532.632	18391
532.998	18341.28
533.364	18666.7
533.73	18636.42
534.095	18871.66
534.461	18816.75
534.826	18945.56
535.192	18948.05
535.557	19162.96
535.923	19132
536.288	19234.14
536.653	19384.87
537.019	19339.22
537.384	19407.7
537.749	19576.96
538.114	19549.16
538.479	19612.89
538.845	19705.09
539.21	19760.68
539.575	19876.61
539.94	19931.75
540.305	20073.44
540.67	20067.11
541.034	20213.1
541.399	20208.58
541.764	20322.25
542.129	20392.98
542.494	20407.22
542.858	20500.32
543.223	20515.24
543.587	20652.18
543.952	20630.71
544.316	20719.53
544.681	20776.02
545.045	20912.74
545.41	20993.42
545.774	21066.64
546.138	21108.89
546.503	21105.96
546.867	21270.7
547.231	21413.74
547.595	21422.11
547.959	21534.19
548.324	21480.64
548.688	21672.04
549.052	21616.9
549.416	21695.32
549.779	21724.47
550.143	21776.22
550.507	22037.68
550.871	21990.9
551.235	21991.58
551.599	22170.34
551.962	22249.66
552.326	22312.7
552.689	22464.11
553.053	22486.26
553.417	22553.15
553.78	22933.25
554.143	22720.83
554.507	22699.13
554.87	22867.49
555.234	23152.68
555.597	22945.68
555.96	23054.83
556.323	23152
556.686	23216.64
557.05	23453.01
557.413	23483.29
557.776	23520.36
558.139	23650.3
558.502	23691.88
558.865	23874.02
559.228	23990.63
559.59	24024.52
559.953	24084.64
560.316	24369.37
560.679	24393.55
561.041	24546.54
561.404	24539.99
561.767	24619.54
562.129	24619.99
562.492	24982.46
562.854	24872.86
563.217	24940.66
563.579	25022.46
563.941	25136.81
564.304	25361.89
564.666	25310.82
565.028	25428.55
565.39	25647.31
565.753	25661.77
566.115	25814.31
566.477	25939.95
566.839	26038.93
567.201	26218.14
567.563	26280.96
567.925	26425.59
568.287	26441.86
568.648	26419.49
569.01	26642.99
569.372	26825.81
569.734	26679.14
570.095	27002.07
570.457	27061.51
570.819	27163.88
571.18	27179.69
571.542	27260.6
571.903	27367.49
572.265	27513.02
572.626	27605.67
572.987	27694.48
573.349	27761.37
573.71	27780.81
574.071	28019.45
574.432	27990.07
574.794	28270.74
575.155	28169.5
575.516	28178.99
575.877	28408.14
576.238	28448.14
576.599	28507.57
576.96	28566.1
577.32	28732.2
577.681	28876.83
578.042	29029.59
578.403	29030.95
578.763	29045.41
579.124	29149.59
579.485	29343.71
579.845	29423.25
580.206	29367.66
580.566	29440.88
580.927	29536.24
581.287	29773.53
581.648	29756.35
582.008	30003.8
582.368	30078.38
582.728	30109.56
583.089	30204.02
583.449	30197.69
583.809	30410.12
584.169	30429.78
584.529	30537.12
584.889	30830.67
585.249	30772.37
585.609	30753.16
585.969	30976.66
586.329	30899.15
586.688	31230.89
587.048	31293.03
587.408	31309.08
587.768	31365.57
588.127	31462.52
588.487	31514.72
588.846	31829.74
589.206	31643.98
589.565	31870.87
589.925	32044.2
590.284	31899.12
590.643	32201.94
591.003	32340.01
591.362	32563.28
591.721	32502.72
592.08	32526.9
592.44	32642.38
592.799	32823.39
593.158	32751.75
593.517	32844.4
593.876	33050.05
594.235	33053.89
594.593	33142.25
594.952	33298.18
595.311	33276.94
595.67	33394.9
596.029	33659.3
596.387	33813.87
596.746	33946.3
597.104	33784.72
597.463	33799.86
597.822	34104.71
598.18	33989.01
598.538	34068.1
598.897	34313.07
599.255	34094.77
599.613	34671.02
599.972	34592.38
600.33	34561.87
600.688	34500.63
601.046	34682.32
601.404	34954.63
601.762	34824.24
602.12	35101.75
602.478	35125.93
602.836	35133.61
603.194	35072.82
603.552	35282.31
603.91	35274.17
604.268	35468.52
604.625	35477.56
604.983	35584.45
605.341	35571.56
605.698	35707.83
606.056	35922.29
606.413	35860.14
606.771	35925.91
607.128	36212
607.485	35911.89
607.843	36051.55
608.2	36359.57
608.557	36508.04
608.914	36417.19
609.272	36630.07
609.629	36575.38
609.986	36803.17
610.343	36677.52
610.7	36980.12
611.057	36936.95
611.414	37007.46
611.771	37025.54
612.127	37160
612.484	37240.22
612.841	37419.88
613.198	37347.34
613.554	37394.57
613.911	37586.65
614.267	37647.67
614.624	37597.05
614.98	37770.38
615.337	37929.24
615.693	37824.16
616.05	37812.64
616.406	38271.61
616.762	37977.83
617.118	38011.05
617.475	38084.94
617.831	38157.26
618.187	38320.42
618.543	38201.78
618.899	38598.83
619.255	38463.69
619.611	38446.74
619.967	38673.63
620.323	38633.63
620.678	38603.12
621.034	38551.6
621.39	38652.84
621.746	38680.18
622.101	39052.83
622.457	38735.78
622.812	38760.86
623.168	39004.24
623.523	38932.61
623.879	38976.9
624.234	38924.47
624.589	39015.09
624.945	39152.94
625.3	39079.72
625.655	39229.32
626.01	39072.72
626.365	39269.77
626.72	39095.09
627.075	39212.6
627.43	39173.73
627.785	39046.05
628.14	39274.97
628.495	39345.93
628.85	39249.66
629.205	39127.86
629.559	39455.53
629.914	39205.37
630.269	39325.36
630.623	39035.65
630.978	39075.88
631.332	39295.99
631.687	39411.46
632.041	39174.86
632.396	39356.55
632.75	39171.7
633.104	39165.82
633.459	39107.29
633.813	39121.98
634.167	39123.79
634.521	39050.8
634.875	39211.02
635.229	39017.58
635.583	38844.02
635.937	38883.57
636.291	38989.78
636.645	38902.32
636.999	38931.7
637.352	38996.33
637.706	38874.53
638.06	38929.22
638.413	38813.51
638.767	38794.3
639.121	38887.18
639.474	38612.61
639.828	38625.5
640.181	38692.84
640.534	38774.87
640.888	38589.79
641.241	38417.37
641.594	38553.63
641.947	38631.37
642.301	38589.34
642.654	38555.89
643.007	38616.91
643.36	38575.55
643.713	38334.66
644.066	38544.37
644.419	38382.34
644.771	38118.62
645.124	37732.19
645.477	37717.27
645.83	37599.76
646.182	37302.82
646.535	37290.16
646.888	37325.64
647.24	37219.66
647.593	37299.2
647.945	37314.34
648.298	37123.16
648.65	37165.65
649.002	36973.34
649.355	37137.85
649.707	37066.21
650.059	37261.69
650.411	37758.17
650.763	37599.08
651.115	38013.76
651.467	38058.96
651.819	38004.27
652.171	37874.55
652.523	37758.63
652.875	37764.95
653.227	37623.26
653.578	37870.26
653.93	37744.61
654.282	37651.06
654.633	37466.88
654.985	37654.22
655.337	37614.45
655.688	37622.13
656.039	37760.66
656.391	37414
656.742	37532.87
657.094	37514.34
657.445	37692.19
657.796	37613.09
658.147	37424.4
658.498	37381.69
658.849	37607.67
659.2	37419.43
659.551	37370.16
659.902	37461.23
660.253	37440.67
660.604	37444.74
660.955	37430.05
661.306	37473.44
661.656	37390.73
662.007	37325.87
662.358	37362.03
662.708	37252.42
663.059	37314.34
663.409	37218.75
663.76	37374.23
664.11	37281.12
664.461	37274.8
664.811	37271.41
665.161	37418.07
665.511	37269.83
665.862	37228.92
666.212	37412.42
666.562	37364.96
666.912	37338.3
667.262	37255.81
667.612	37161.13
667.962	37302.14
668.312	37220.33
668.662	37315.7
669.011	37185.31
669.361	37178.08
669.711	37163.16
670.06	37122.48
670.41	37072.54
670.76	37073.22
671.109	37269.15
671.459	37071.41
671.808	36953
672.157	37071.64
672.507	36851.31
672.856	36936.5
673.205	36981.7
673.554	37035.48
673.904	36846.33
674.253	37120.22
674.602	36924.75
674.951	36414.25
675.3	36132.45
675.649	36823.51
675.998	36808.37
676.346	36863.28
676.695	36940.79
677.044	36578.32
677.393	36784.87
677.741	36790.06
678.09	36716.62
678.438	36579.9
678.787	36693.12
679.135	36627.13
679.484	36458.32
679.832	36654.02
680.181	36357.98
680.529	36532.67
680.877	36414.93
681.225	36444.54
681.573	36551.2
681.922	36250.19
682.27	36207.93
682.618	36321.83
682.966	36109.63
683.314	36107.14
683.661	36192.57
684.009	35928.62
684.357	35864.66
684.705	35744.67
685.053	35934.72
685.4	35885
685.748	35514.62
686.095	35647.72
686.443	35482.75
686.79	35340.16
687.138	35591.9
687.485	35531.57
687.832	35247.28
688.18	35292.02
688.527	35118.24
688.874	35158.24
689.221	35125.47
689.568	35067.4
689.915	34947.63
690.262	34926.38
690.609	34795.54
690.956	34820.85
691.303	34663.57
691.65	34569.33
691.997	34575.66
692.344	34406.85
692.69	34260.19
693.037	34383.8
693.383	34002.34
693.73	34168.66
694.077	34096.35
694.423	33993.75
694.769	33937.03
695.116	33736.58
695.462	33699.3
695.808	33712.86
696.155	33751.73
696.501	33452.75
696.847	33519.42
697.193	33245.07
697.539	33525.97
697.885	33090.05
698.231	33041.24
698.577	33024.51
698.923	32926.44
699.269	32865.42
699.614	32728.93
699.96	32599.44
700.306	32594.47
700.651	32451.42
700.997	32403.74
701.342	32395.38
701.688	32365.77
702.033	32179.56
702.379	32237.19
702.724	32241.48
703.069	32026.12
703.415	31810.76
703.76	31749.07
704.105	31877.42
704.45	31798.1
704.795	31571.22
705.14	31479.92
705.485	31424.33
705.83	31361.05
706.175	31412.8
706.52	31302.3
706.865	31151.79
707.209	31203.32
707.554	30987.96
707.899	31141.62
708.243	30936.21
708.588	30816.89
708.932	30688.76
709.277	30707.74
709.621	30791.58
709.966	30541.64
710.31	30616.67
710.654	30315.88
710.998	30216.9
711.342	30415.77
711.687	30127.64
712.031	30200.41
712.375	29980.53
712.719	30059.17
713.063	29822.56
713.407	30043.57
713.75	29950.7
714.094	29852.84
714.438	29718.61
714.782	29765.39
715.125	29678.16
715.469	29621.21
715.812	29374.67
716.156	29371.73
716.499	29393.65
716.843	29432.74
717.186	29112.07
717.53	29304.38
717.873	29445.4
718.216	29167.44
718.559	28991.62
718.902	29048.57
719.246	28929.71
719.589	28892.64
719.932	28766.77
720.275	28715.93
720.617	28726.09
720.96	28703.27
721.303	28715.25
721.646	28689.94
721.989	28536.72
722.331	28636.15
722.674	28571.3
723.016	28422.15
723.359	28535.59
723.701	28591.41
724.044	28285.65
724.386	28191.65
724.729	28256.28
725.071	28200.69
725.413	28201.36
725.755	28090.41
726.097	28064.87
726.439	27904.87
726.782	27884.99
727.124	28077.07
727.465	27802.05
727.807	27808.15
728.149	27727.03
728.491	27740.13
728.833	27733.8
729.175	27663.52
729.516	27568.84
729.858	27527.03
730.199	27584.66
730.541	27515.05
730.882	27330.2
731.224	27510.53
731.565	27262.18
731.906	27330.88
732.248	27313.48
732.589	27122.97
732.93	27095.63
733.271	27237.77
733.612	27236.64
733.953	27160.03
734.294	27110.54
734.635	27007.27
734.976	27063.09
735.317	26972.02
735.658	26884.11
735.999	26881.17
736.339	26816.77
736.68	26900.38
737.021	26853.15
737.361	26666.26
737.702	26808.63
738.042	26679.6
738.383	26522.54
738.723	26577
739.063	26554.63
739.404	26619.71
739.744	26506.94
740.084	26400.73
740.424	26437.57
740.764	26354.86
741.104	26455.19
741.444	26175.88
741.784	26226.05
742.124	26187.63
742.464	26212.04
742.804	26117.12
743.143	26037.58
743.483	26114.41
743.823	25971.59
744.162	25922.55
744.502	25924.36
744.841	25886.4
745.181	25997.58
745.52	25778.38
745.86	25842.1
746.199	25863.57
746.538	25638.04
746.877	25737.25
747.216	25621.54
747.556	25585.16
747.895	25646.4
748.234	25462.68
748.573	25527.31
748.911	25372.06
749.25	25378.39
749.589	25311.04
749.928	25289.8
750.267	25292.06
750.605	25246.41
750.944	25114.89
751.283	25049.81
751.621	25155.79
751.96	24941.56
752.298	24908.12
752.636	24906.08
752.975	24799.42
753.313	24723.94
753.651	24799.64
753.989	24695.69
754.327	24682.36
754.666	24677.16
755.004	24594.23
755.342	24537.28
755.679	24620.67
756.017	24323.95
756.355	24523.72
756.693	24267.23
757.031	24338.64
757.368	24155.82
