Data from hue_210_FLMS001491_00090.txt Node
Date: Tue Feb 07 16:41:53 GMT 2017
User: dcchb
Spectrometer: FLMS00149
Trigger mode: 0
Integration Time (sec): 2.000000E-2
Scans to average: 10
Electric dark correction enabled: true
Nonlinearity correction enabled: false
Boxcar width: 0
XAxis mode: Wavelengths
Number of Pixels in Spectrum: 2048
>>>>>Begin Spectral Data<<<<<
341.393	-0.62
341.776	-0.62
342.16	-0.62
342.543	-48.3
342.927	-51.24
343.31	-90.11
343.693	-56.21
344.077	-77.68
344.46	-48.08
344.843	-53.05
345.226	-31.58
345.61	-18.7
345.993	-34.97
346.376	-14.18
346.759	14.97
347.142	32.15
347.525	42.54
347.908	46.61
348.291	71.69
348.674	92.94
349.057	123.67
349.44	113.5
349.823	163.89
350.206	138.13
350.588	195.31
350.971	214.51
351.354	222.88
351.737	249.32
352.119	242.99
352.502	271.91
352.884	261.29
353.267	301.07
353.65	273.04
354.032	309.2
354.414	304.23
354.797	308.97
355.179	299.48
355.562	299.03
355.944	323.89
356.326	330.9
356.709	342.87
357.091	348.75
357.473	337.9
357.855	338.35
358.238	335.87
358.62	359.37
359.002	354.4
359.384	344
359.766	330.67
360.148	342.42
360.53	348.52
360.912	342.42
361.294	332.93
361.676	332.93
362.057	343.32
362.439	319.14
362.821	351.69
363.203	323.44
363.584	321.18
363.966	322.99
364.348	339.48
364.729	328.41
365.111	336.32
365.493	348.97
365.874	322.53
366.256	315.08
366.637	316.66
367.019	306.26
367.4	318.92
367.781	309.65
368.163	323.44
368.544	299.48
368.925	308.75
369.306	334.06
369.688	325.02
370.069	313.49
370.45	326.83
370.831	300.39
371.212	332.03
371.593	298.81
371.974	312.14
372.355	313.49
372.736	320.27
373.117	340.84
373.498	298.13
373.879	308.3
374.26	327.73
374.641	305.13
375.021	312.59
375.402	318.24
375.783	327.05
376.163	340.61
376.544	351.69
376.925	344.91
377.305	333.61
377.686	314.85
378.066	339.71
378.447	330.22
378.827	323.21
379.208	317.56
379.588	321.4
379.968	322.76
380.349	333.16
380.729	344
381.109	341.06
381.489	340.16
381.87	329.99
382.25	322.53
382.63	335.41
383.01	326.15
383.39	346.49
383.77	353.95
384.15	341.52
384.53	345.81
384.91	339.93
385.29	332.48
385.67	348.3
386.049	371.35
386.429	363.66
386.809	353.27
387.189	368.18
387.568	377.9
387.948	347.39
388.328	359.37
388.707	378.13
389.087	365.7
389.466	383.1
389.846	361.4
390.225	363.44
390.605	383.78
390.984	386.71
391.363	371.8
391.743	375.64
392.122	349.43
392.501	378.35
392.881	393.04
393.26	374.28
393.639	400.5
394.018	386.71
394.397	367.73
394.776	379.26
395.155	400.5
395.534	410.44
395.913	399.37
396.292	381.52
396.671	418.8
397.05	409.76
397.429	389.88
397.808	394.85
398.186	399.59
398.565	400.95
398.944	435.53
399.323	414.06
399.701	419.25
400.08	429.88
400.458	416.54
400.837	435.53
401.215	421.97
401.594	437.11
401.972	432.14
402.351	457.45
402.729	446.37
403.107	441.63
403.486	448.18
403.864	463.1
404.242	461.29
404.62	424
404.999	454.96
405.377	463.77
405.755	478.91
406.133	480.95
406.511	486.15
406.889	494.28
407.267	493.6
407.645	489.08
408.023	515.98
408.401	517.78
408.779	487.95
409.156	538.35
409.534	498.8
409.912	540.38
410.29	529.08
410.667	549.42
411.045	531.79
411.422	560.49
411.8	594.17
412.178	575.41
412.555	577.44
412.933	568.86
413.31	613.37
413.687	623.99
414.065	629.87
414.442	621.28
414.819	623.54
415.197	643.2
415.574	641.4
415.951	665.12
416.328	648.18
416.705	652.47
417.082	670.55
417.46	701.28
417.837	692.92
418.214	715.07
418.591	729.3
418.967	715.52
419.344	745.35
419.721	745.57
420.098	762.52
420.475	769.98
420.852	791.22
421.228	794.16
421.605	796.87
421.982	808.62
422.358	821.73
422.735	844.1
423.111	870.09
423.488	869.41
423.864	887.04
424.241	898.11
424.617	907.15
424.994	926.81
425.37	931.56
425.746	942.63
426.123	939.47
426.499	979.24
426.875	965
427.251	987.15
427.627	1017.88
428.003	1037.32
428.379	1034.15
428.756	1042.97
429.132	1069.41
429.507	1074.38
429.883	1075.51
430.259	1104.89
430.635	1115.51
431.011	1152.34
431.387	1160.7
431.763	1139.69
432.138	1167.48
432.514	1214.94
432.89	1211.1
433.265	1233.02
433.641	1233.92
434.016	1273.47
434.392	1321.6
434.767	1321.83
435.143	1309.17
435.518	1357.53
435.894	1378.78
436.269	1429.62
436.644	1407.48
437.02	1456.52
437.395	1461.71
437.77	1487.93
438.145	1511.43
438.52	1560.47
438.895	1574.25
439.271	1600.47
439.646	1641.82
440.021	1645.44
440.395	1672.55
440.77	1640.24
441.145	1706.68
441.52	1704.87
441.895	1732.44
442.27	1749.16
442.645	1735.15
443.019	1804.08
443.394	1808.37
443.769	1831.65
444.143	1841.36
444.518	1849.73
444.892	1856.5
445.267	1881.59
445.641	1899.22
446.016	1891.53
446.39	1919.78
446.764	1941.47
447.139	1934.92
447.513	1918.65
447.887	2007.24
448.262	1987.57
448.636	2021.02
449.01	2048.59
449.384	2043.17
449.758	2091.07
450.132	2083.62
450.506	2095.37
450.88	2127.46
451.254	2116.39
451.628	2153.67
452.002	2201.81
452.376	2181.47
452.75	2224.4
453.123	2211.07
453.497	2294.23
453.871	2294.91
454.244	2329.71
454.618	2358.19
454.992	2363.16
455.365	2364.74
455.739	2437.73
456.112	2485.19
456.486	2470.27
456.859	2495.13
457.232	2535.81
457.606	2508.01
457.979	2545.98
458.352	2607.22
458.725	2638.41
459.099	2659.65
459.472	2689.48
459.845	2731.74
460.218	2738.74
460.591	2750.27
460.964	2772.19
461.337	2813.32
461.71	2874.78
462.083	2924.27
462.456	2915.46
462.829	2914.56
463.201	2997.04
463.574	2994.1
463.947	3047.66
464.32	3104.61
464.692	3163.14
465.065	3171.05
465.438	3200.88
465.81	3257.6
466.183	3238.16
466.555	3345.96
466.928	3355.22
467.3	3337.6
467.672	3400.19
468.045	3506.18
468.417	3468.44
468.789	3506.18
469.161	3559.51
469.534	3599.06
469.906	3663.91
470.278	3674.76
470.65	3719.73
471.022	3809.22
471.394	3859.84
471.766	3875.66
472.138	3898.03
472.51	4015.77
472.882	4027.97
473.253	4080.85
473.625	4131.47
473.997	4200.62
474.369	4258.7
474.74	4263.9
475.112	4381.86
475.484	4443.33
475.855	4488.07
476.227	4472.26
476.598	4599.48
476.97	4669.09
477.341	4783.66
477.713	4792.25
478.084	4851
478.455	4945.01
478.827	4946.37
479.198	5113.37
479.569	5108.85
479.94	5256.42
480.311	5253.48
480.682	5404.21
481.053	5495.51
481.424	5556.29
481.795	5556.52
482.166	5651.43
482.537	5765.55
482.908	5881.03
483.279	5962.39
483.65	5992.89
484.021	6076.28
484.391	6147.69
484.762	6193.57
485.133	6237.41
485.503	6295.03
485.874	6447.12
486.244	6462.49
486.615	6639.88
486.985	6687.79
487.356	6737.73
487.726	6819.54
488.097	6905.19
488.467	6934.56
488.837	7057.27
489.207	7148.8
489.578	7179.53
489.948	7269.47
490.318	7354.44
490.688	7410.94
491.058	7515.34
491.428	7558.73
491.798	7671.72
492.168	7761.66
492.538	7712.85
492.908	7840.75
493.278	7917.36
493.648	7928.44
494.017	8053.18
494.387	8112.39
494.757	8146.73
495.126	8195.77
495.496	8194.19
495.866	8294.75
496.235	8323
496.605	8369.78
496.974	8437.8
497.344	8492.94
497.713	8536.33
498.082	8603.45
498.452	8666.95
498.821	8664.69
499.19	8703.1
499.559	8705.82
499.928	8814.74
500.298	8840.5
500.667	8862.2
501.036	8874.4
501.405	8958.24
501.774	8986.03
502.143	8972.48
502.512	9015.64
502.88	9124.79
503.249	9040.04
503.618	9166.82
503.987	9101.96
504.356	9219.93
504.724	9241.62
505.093	9248.4
505.462	9286.14
505.83	9283.65
506.199	9321.17
506.567	9393.26
506.936	9454.27
507.304	9469.86
507.672	9423.09
508.041	9471.45
508.409	9555.96
508.777	9599.8
509.145	9590.31
509.514	9640.25
509.882	9653.59
510.25	9691.55
510.618	9718.67
510.986	9749.86
511.354	9765.9
511.722	9805.22
512.09	9825.11
512.458	9797.76
512.826	9852.23
513.193	9864.66
513.561	9803.41
513.929	9895.39
514.297	9986.69
514.664	9915.73
515.032	10061.03
515.4	10016.97
515.767	10057.19
516.135	10041.83
516.502	9915.95
516.869	10039.57
517.237	10120.92
517.604	10019.45
517.972	10075.27
518.339	10159.79
518.706	10074.14
519.073	10102.84
519.44	10174.93
519.808	10249.5
520.175	10195.27
520.542	10285.66
520.909	10250.18
521.276	10214.7
521.643	10298.77
522.009	10297.41
522.376	10301.71
522.743	10427.58
523.11	10378.77
523.477	10489.72
523.843	10446.79
524.21	10431.19
524.577	10498.99
524.943	10470.74
525.31	10458.09
525.676	10515.03
526.043	10580.12
526.409	10580.12
526.776	10620.34
527.142	10573.79
527.508	10573.11
527.874	10634.81
528.241	10602.04
528.607	10628.93
528.973	10687.01
529.339	10601.81
529.705	10713
530.071	10648.59
530.437	10695.14
530.803	10616.73
531.169	10694.92
531.535	10668.7
531.901	10671.64
532.267	10582.38
532.632	10607.46
532.998	10675.93
533.364	10601.59
533.73	10634.13
534.095	10646.1
534.461	10630.74
534.826	10617.18
535.192	10661.47
535.557	10586.67
535.923	10547.58
536.288	10529.27
536.653	10612.88
537.019	10507.12
537.384	10503.96
537.749	10481.59
538.114	10454.02
538.479	10354.36
538.845	10415.6
539.21	10339.45
539.575	10395.94
539.94	10346.23
540.305	10433.23
540.67	10319.56
541.034	10241.37
541.399	10345.77
541.764	10291.76
542.129	10186.46
542.494	10198.43
542.858	10243.63
543.223	10214.03
543.587	10193.01
543.952	10126.8
544.316	10132.45
544.681	10118.21
545.045	10087.25
545.41	10087.02
545.774	10092.22
546.138	10050.19
546.503	10002.05
546.867	9945.56
547.231	10058.32
547.595	9919.8
547.959	9903.75
548.324	9878.89
548.688	9850.64
549.052	9838.89
549.416	9859.01
549.779	9758.22
550.143	9797.99
550.507	9730.87
550.871	9730.2
551.235	9723.64
551.599	9686.58
551.962	9711.67
552.326	9622.18
552.689	9647.03
553.053	9537.66
553.417	9561.16
553.78	9709.41
554.143	9550.99
554.507	9579.47
554.87	9559.81
555.234	9578.56
555.597	9527.94
555.96	9423.31
556.323	9512.57
556.686	9471.9
557.05	9487.04
557.413	9463.31
557.776	9412.92
558.139	9521.84
558.502	9460.82
558.865	9486.81
559.228	9563.87
559.59	9480.49
559.953	9448.4
560.316	9455.85
560.679	9527.26
561.041	9535.62
561.404	9508.06
561.767	9544.21
562.129	9474.38
562.492	9542.63
562.854	9494.5
563.217	9497.66
563.579	9524.78
563.941	9494.04
564.304	9559.13
564.666	9502.63
565.028	9500.37
565.39	9579.47
565.753	9602.29
566.115	9563.65
566.477	9604.55
566.839	9576.98
567.201	9634.61
567.563	9637.54
567.925	9686.58
568.287	9634.61
568.648	9608.17
569.01	9660.37
569.372	9697.65
569.734	9735.17
570.095	9681.38
570.457	9790.76
570.819	9752.12
571.18	9687.71
571.542	9788.95
571.903	9816.75
572.265	9766.58
572.626	9850.19
572.987	9762.51
573.349	9874.6
573.71	9874.83
574.071	9899.46
574.432	9992.34
574.794	9966.8
575.155	9993.01
575.516	9891.77
575.877	9905.56
576.238	9906.24
576.599	9988.95
576.96	9960.02
577.32	10076.85
577.681	10056.29
578.042	10019.45
578.403	10070.75
578.763	10062.39
579.124	10049.51
579.485	10087.02
579.845	10101.03
580.206	10095.38
580.566	10033.46
580.927	10049.51
581.287	10181.03
581.648	10089.96
582.008	10200.92
582.368	10178.55
582.728	10113.46
583.089	10104.2
583.449	10162.28
583.809	10199.79
584.169	10222.16
584.529	10188.72
584.889	10141.48
585.249	10148.26
585.609	10162.95
585.969	10215.16
586.329	10199.34
586.688	10217.41
587.048	10217.87
587.408	10181.94
587.768	10196.17
588.127	10213.8
588.487	10197.98
588.846	10257.87
589.206	10175.38
589.565	10193.23
589.925	10271.88
590.284	10178.09
590.643	10271.88
591.003	10291.31
591.362	10385.77
591.721	10288.15
592.08	10281.82
592.44	10334.93
592.799	10291.31
593.158	10322.27
593.517	10311.65
593.876	10342.38
594.235	10340.58
594.593	10288.83
594.952	10337.86
595.311	10338.99
595.67	10378.54
596.029	10362.27
596.387	10370.18
596.746	10414.02
597.104	10365.89
597.463	10363.85
597.822	10407.92
598.18	10335.15
598.538	10298.09
598.897	10412.89
599.255	10350.29
599.613	10532.21
599.972	10373.57
600.33	10447.01
600.688	10386.22
601.046	10396.85
601.404	10451.53
601.762	10391.2
602.12	10499.44
602.478	10458.31
602.836	10405.21
603.194	10458.31
603.552	10456.5
603.91	10388.03
604.268	10384.87
604.625	10442.49
604.983	10426.45
605.341	10440.01
605.698	10406.79
606.056	10458.09
606.413	10452.89
606.771	10459.89
607.128	10523.85
607.485	10423.29
607.843	10536.28
608.2	10495.6
608.557	10566.56
608.914	10528.37
609.272	10467.13
609.629	10598.2
609.986	10552.55
610.343	10519.1
610.7	10654.69
611.057	10607.69
611.414	10616.27
611.771	10552.55
612.127	10681.13
612.484	10655.6
612.841	10665.09
613.198	10601.36
613.554	10600
613.911	10707.57
614.267	10712.32
614.624	10637.29
614.98	10719.55
615.337	10703.28
615.693	10685.88
616.05	10708.7
616.406	10764.07
616.762	10682.49
617.118	10771.75
617.475	10689.49
617.831	10748.93
618.187	10783.5
618.543	10726.1
618.899	10766.78
619.255	10806.1
619.611	10722.03
619.967	10810.39
620.323	10800.22
620.678	10742.37
621.034	10770.17
621.39	10789.83
621.746	10727.46
622.101	10812.65
622.457	10802.26
622.812	10786.44
623.168	10815.59
623.523	10811.3
623.879	10836.83
624.234	10756.61
624.589	10855.59
624.945	10800.9
625.3	10807.46
625.655	10783.05
626.01	10830.05
626.365	10842.71
626.72	10762.94
627.075	10778.08
627.43	10717.51
627.785	10789.6
628.14	10694.46
628.495	10797.51
628.85	10728.81
629.205	10719.77
629.559	10706.22
629.914	10683.17
630.269	10684.3
630.623	10733.56
630.978	10636.84
631.332	10766.33
631.687	10686.1
632.041	10641.81
632.396	10685.43
632.75	10616.05
633.104	10565.43
633.459	10564.98
633.813	10629.16
634.167	10580.57
634.521	10593.45
634.875	10599.55
635.229	10528.59
635.583	10488.37
635.937	10564.3
636.291	10486.11
636.645	10512.55
636.999	10433.68
637.352	10454.02
637.706	10379.9
638.06	10522.94
638.413	10398.2
638.767	10395.04
639.121	10381.93
639.474	10366.34
639.828	10313.46
640.181	10380.35
640.534	10380.8
640.888	10355.94
641.241	10297.41
641.594	10325.66
641.947	10343.51
642.301	10309.84
642.654	10311.88
643.007	10306.23
643.36	10263.52
643.713	10317.07
644.066	10293.12
644.419	10282.95
644.771	10164.31
645.124	10153.46
645.477	10084.54
645.83	10006.35
646.182	10000.92
646.535	9944.88
646.888	9972.22
647.24	9904.65
647.593	9906.01
647.945	9915.05
648.298	9843.87
648.65	9842.96
649.002	9857.2
649.355	9921.15
649.707	9921.38
650.059	9927.71
650.411	10093.12
650.763	10129.73
651.115	10116.17
651.467	10108.49
651.819	10132.67
652.171	10084.31
652.523	10058.1
652.875	10084.76
653.227	10107.81
653.578	10148.72
653.93	10143.29
654.282	10036.4
654.633	10037.98
654.985	10128.6
655.337	10068.94
655.688	10023.52
656.039	10184.87
656.391	10050.19
656.742	10048.15
657.094	10128.15
657.445	10102.16
657.796	10100.58
658.147	10084.09
658.498	10023.3
658.849	10018.32
659.2	10133.58
659.551	10075.05
659.902	10107.14
660.253	10109.4
660.604	10103.29
660.955	10076.18
661.306	10115.72
661.656	10079.57
662.007	10097.87
662.358	10151.65
662.708	10163.63
663.059	10106.01
663.409	10082.96
663.76	10141.03
664.11	10119.79
664.461	10097.64
664.811	10133.35
665.161	10169.28
665.511	10098.77
665.862	10121.15
666.212	10205.66
666.562	10106.46
666.912	10116.17
667.262	10061.49
667.612	10104.88
667.962	10214.7
668.312	10128.38
668.662	10226.45
669.011	10080.7
669.361	10134.25
669.711	10134.48
670.06	10086.34
670.41	10073.01
670.76	10083.41
671.109	10056.29
671.459	10048.61
671.808	9975.16
672.157	10105.78
672.507	10021.04
672.856	9960.7
673.205	10059.23
673.554	10062.16
673.904	9951.66
674.253	10039.11
674.602	9997.53
674.951	9822.62
675.3	9738.78
675.649	9980.36
675.998	9977.65
676.346	9941.04
676.695	10066.91
677.044	9875.5
677.393	9892.45
677.741	9898.78
678.09	9989.17
678.438	9870.08
678.787	9860.36
679.135	9895.39
679.484	9796.18
679.832	9956.63
680.181	9799.57
680.529	9797.31
680.877	9834.37
681.225	9762.51
681.573	9760.25
681.922	9787.14
682.27	9693.36
682.618	9716.19
682.966	9708.5
683.314	9780.59
683.661	9649.07
684.009	9617.2
684.357	9604.55
684.705	9636.41
685.053	9622.63
685.4	9573.14
685.748	9570.65
686.095	9526.81
686.443	9493.14
686.79	9445.01
687.138	9433.71
687.485	9482.29
687.832	9490.43
688.18	9415.63
688.527	9341.51
688.874	9275.29
689.221	9347.16
689.568	9231.23
689.915	9240.94
690.262	9271.45
690.609	9241.4
690.956	9216.99
691.303	9133.6
691.65	9109.42
691.997	9093.83
692.344	9105.35
692.69	9064.22
693.037	9099.25
693.383	8935.64
693.73	9047.05
694.077	8941.74
694.423	8894.74
694.769	8906.49
695.116	8929.09
695.462	8829.88
695.808	8774.06
696.155	8824.01
696.501	8767.28
696.847	8753.95
697.193	8728.87
697.539	8716.66
697.885	8612.94
698.231	8578.14
698.577	8610.45
698.923	8534.97
699.269	8494.75
699.614	8432.15
699.96	8396.9
700.306	8500.17
700.651	8391.25
700.997	8373.4
701.342	8393.51
701.688	8347.18
702.033	8330.01
702.379	8277.8
702.724	8218.6
703.069	8235.55
703.415	8163.91
703.76	8154.19
704.105	8144.7
704.45	8109
704.795	8043.46
705.14	8049.56
705.485	8030.58
705.83	7958.04
706.175	7915.78
706.52	7903.35
706.865	7935.89
707.209	7968.89
707.554	7861.32
707.899	7875.56
708.243	7833.3
708.588	7792.85
708.932	7794.65
709.277	7767.76
709.621	7721.44
709.966	7651.83
710.31	7682.79
710.654	7640.08
710.998	7664.94
711.342	7629.01
711.687	7601.66
712.031	7562.57
712.375	7599.4
712.719	7569.8
713.063	7502.46
713.407	7603.92
713.75	7531.61
714.094	7498.84
714.438	7452.52
714.782	7475.79
715.125	7471.95
715.469	7441.89
715.812	7454.78
716.156	7390.82
716.499	7386.98
716.843	7361.67
717.186	7386.98
717.53	7356.25
717.873	7377.49
718.216	7333.2
718.559	7332.75
718.902	7272.18
719.246	7334.55
719.589	7262.92
719.932	7234.44
720.275	7219.53
720.617	7190.38
720.96	7263.14
721.303	7210.94
721.646	7216.59
721.989	7241
722.331	7250.71
722.674	7224.95
723.016	7219.08
723.359	7148.12
723.701	7235.35
724.044	7165.74
724.386	7134.78
724.729	7176.14
725.071	7136.14
725.413	7209.81
725.755	7098.63
726.097	7094.56
726.439	7073.32
726.782	7051.17
727.124	7097.95
727.465	7101.11
727.807	7040.55
728.149	7092.98
728.491	7042.36
728.833	6981.57
729.175	7058.85
729.516	7043.04
729.858	7010.49
730.199	6962.81
730.541	7039.19
730.882	7020.89
731.224	7028.57
731.565	6957.16
731.906	6989.48
732.248	7006.43
732.589	7028.35
732.93	6970.27
733.271	6995.35
733.612	7062.02
733.953	6990.61
734.294	7005.52
734.635	6979.99
734.976	7045.97
735.317	6975.92
735.658	7039.42
735.999	6993.32
736.339	7004.39
736.68	6997.61
737.021	7027.44
737.361	6959.42
737.702	7055.01
738.042	6989.48
738.383	6975.69
738.723	7020.66
739.063	7011.62
739.404	7031.96
739.744	7100.89
740.084	7035.13
740.424	7066.31
740.764	7095.24
741.104	7134.11
741.444	7065.18
741.784	7066.76
742.124	7104.28
742.464	7172.07
742.804	7118.29
743.143	7135.01
743.483	7169.81
743.823	7124.84
744.162	7205.52
744.502	7227.66
744.841	7253.88
745.181	7320.99
745.52	7272.18
745.86	7382.91
746.199	7382.01
746.538	7432.18
746.877	7407.09
747.216	7494.77
747.556	7475.57
747.895	7535.68
748.234	7538.62
748.573	7612.51
748.911	7662.45
749.25	7775.22
749.589	7738.61
749.928	7882.11
750.267	7914.42
750.605	8016.57
750.944	8031.94
751.283	8020.41
751.621	8158.03
751.96	8237.13
752.298	8276.68
752.636	8458.82
752.975	8460.17
753.313	8563.67
753.651	8704.46
753.989	8751.46
754.327	8798.24
754.666	8927.96
755.004	9056.09
755.342	9240.72
755.679	9259.47
756.017	9387.83
756.355	9607.26
756.693	9663.31
757.031	9872.34
757.368	9907.59
757.706	10075.72
758.044	10151.2
758.381	10372.89
758.719	10494.92
759.056	10661.02
759.394	10688.59
759.731	10852.65
760.068	11058.97
760.405	11182.36
760.743	11373.32
761.08	11585.97
761.417	11662.8
761.754	11792.74
762.091	12047.42
