Data from hue_60_FLMS001491_95.txt Node
Date: Mon Feb 06 15:18:13 GMT 2017
User: dcchb
Spectrometer: FLMS00149
Trigger mode: 0
Integration Time (sec): 2.000000E-2
Scans to average: 10
Electric dark correction enabled: true
Nonlinearity correction enabled: false
Boxcar width: 0
XAxis mode: Wavelengths
Number of Pixels in Spectrum: 2048
>>>>>Begin Spectral Data<<<<<
341.393	-3.62
341.776	-3.62
342.16	-3.62
342.543	-52.43
342.927	-59.66
343.31	-64.41
343.693	-62.6
344.077	-76.16
344.46	-53.33
344.843	-66.21
345.226	-54.91
345.61	-18.08
345.993	-9.94
346.376	8.14
346.759	3.62
347.142	29.15
347.525	39.32
347.908	56.95
348.291	65.31
348.674	93.78
349.057	109.38
349.44	117.06
349.823	153.89
350.206	154.57
350.588	182.82
350.971	202.71
351.354	223.27
351.737	256.94
352.119	246.77
352.502	243.61
352.884	294.68
353.267	297.17
353.65	286.77
354.032	291.74
354.414	313.66
354.797	319.54
355.179	328.8
355.562	313.66
355.944	323.38
356.326	331.06
356.709	340.1
357.091	354.79
357.473	365.41
357.855	348.92
358.238	350.5
358.62	356.37
359.002	352.53
359.384	345.53
359.766	316.15
360.148	336.04
360.53	361.57
360.912	338.3
361.294	347.56
361.676	343.49
362.057	327.68
362.439	334.45
362.821	341.23
363.203	323.61
363.584	335.13
363.966	334.23
364.348	342.59
364.729	353.66
365.111	338.52
365.493	336.71
365.874	325.64
366.256	325.87
366.637	332.65
367.019	314.34
367.4	320.67
367.781	342.36
368.163	303.49
368.544	319.99
368.925	310.5
369.306	312.08
369.688	332.19
370.069	311.18
370.45	317.73
370.831	311.18
371.212	321.57
371.593	326.55
371.974	325.87
372.355	301.46
372.736	347.79
373.117	336.49
373.498	326.32
373.879	322.03
374.26	331.97
374.641	336.04
375.021	327.45
375.402	339.65
375.783	339.88
376.163	346.21
376.544	344.62
376.925	314.12
377.305	344.4
377.686	328.35
378.066	327
378.447	327.68
378.827	326.32
379.208	328.58
379.588	335.58
379.968	338.07
380.349	347.11
380.729	347.11
381.109	336.49
381.489	348.92
381.87	354.11
382.25	345.53
382.63	348.69
383.01	337.62
383.39	351.4
383.77	345.53
384.15	362.93
384.53	357.05
384.91	368.58
385.29	357.28
385.67	354.57
386.049	359.99
386.429	366.54
386.809	350.05
387.189	364.74
387.568	380.55
387.948	347.11
388.328	340.56
388.707	370.84
389.087	363.83
389.466	341.23
389.846	349.6
390.225	384.17
390.605	370.39
390.984	382.36
391.363	374.68
391.743	389.82
392.122	364.06
392.501	363.61
392.881	386.43
393.26	378.97
393.639	370.16
394.018	390.05
394.397	390.27
394.776	375.58
395.155	377.62
395.534	381.01
395.913	388.46
396.292	360.22
396.671	407.67
397.05	411.29
397.429	420.1
397.808	405.41
398.186	397.96
398.565	397.96
398.944	400.44
399.323	423.94
399.701	377.62
400.08	404.28
400.458	412.19
400.837	411.74
401.215	412.64
401.594	407.9
401.972	416.71
402.351	408.35
402.729	406.54
403.107	413.32
403.486	418.52
403.864	395.47
404.242	420.78
404.62	422.14
404.999	433.21
405.377	425.75
405.755	432.08
406.133	437.28
406.511	452.87
406.889	461.68
407.267	446.77
407.645	472.76
408.023	435.92
408.401	441.57
408.779	430.95
409.156	457.39
409.534	472.76
409.912	457.39
410.29	446.77
410.667	472.76
411.045	479.76
411.422	468.24
411.8	467.33
412.178	476.82
412.555	490.38
412.933	491.06
413.31	478.18
413.687	492.42
414.065	483.38
414.442	494.22
414.819	509.59
415.197	494.45
415.574	503.72
415.951	501
416.328	517.27
416.705	489.48
417.082	498.52
417.46	503.04
417.837	530.83
418.214	508.01
418.591	521.57
418.967	530.83
419.344	531.51
419.721	510.72
420.098	530.38
420.475	552.75
420.852	534.45
421.228	566.76
421.605	568.8
421.982	550.49
422.358	552.08
422.735	564.5
423.111	563.38
423.488	571.74
423.864	584.62
424.241	579.19
424.617	581.68
424.994	580.78
425.37	574.45
425.746	589.82
426.123	607.44
426.499	603.15
426.875	615.35
427.251	609.02
427.627	618.06
428.003	615.35
428.379	623.94
428.756	636.59
429.132	619.64
429.507	639.98
429.883	654.45
430.259	650.38
430.635	637.27
431.011	644.95
431.387	655.35
431.763	666.65
432.138	681.56
432.514	676.82
432.89	666.88
433.265	677.5
433.641	669.36
434.016	680.89
434.392	695.8
434.767	703.71
435.143	701
435.518	716.37
435.894	739.19
436.269	717.5
436.644	718.4
437.02	743.71
437.395	743.94
437.77	755.69
438.145	765.63
438.52	748.23
438.895	772.18
439.271	749.58
439.646	779.87
440.021	807.89
440.395	804.72
440.77	786.87
441.145	770.6
441.52	782.58
441.895	795.01
442.27	824.16
442.645	791.84
443.019	834.1
443.394	822.13
443.769	814.89
444.143	827.1
444.518	806.31
444.892	817.61
445.267	857.6
445.641	854.67
446.016	837.94
446.39	845.18
446.764	884.95
447.139	853.76
447.513	865.06
447.887	889.24
448.262	878.39
448.636	896.02
449.01	890.82
449.384	903.48
449.758	890.6
450.132	951.16
450.506	917.49
450.88	936.92
451.254	939.64
451.628	919.75
452.002	962.46
452.376	945.51
452.75	956.59
453.123	971.05
453.497	964.49
453.871	986.41
454.244	1009.46
454.618	999.75
454.992	1012.18
455.365	1023.48
455.739	1070.48
456.112	1083.81
456.486	1080.65
456.859	1070.25
457.232	1078.39
457.606	1075.23
457.979	1101.67
458.352	1107.32
458.725	1112.97
459.099	1126.3
459.472	1143.02
459.845	1178.5
460.218	1165.17
460.591	1181.21
460.964	1216.24
461.337	1206.97
461.71	1212.4
462.083	1269.35
462.456	1272.51
462.829	1274.32
463.201	1296.92
463.574	1309.57
463.947	1325.61
464.32	1331.04
464.692	1372.62
465.065	1355.9
465.438	1388.66
465.81	1393.64
466.183	1426.4
466.555	1451.94
466.928	1463.01
467.3	1475.67
467.672	1513.41
468.045	1528.77
468.417	1543.69
468.789	1559.73
469.161	1589.56
469.534	1599.05
469.906	1658.04
470.278	1676.79
470.65	1687.87
471.022	1760.63
471.394	1793.17
471.766	1813.06
472.138	1846.73
472.51	1886.5
472.882	1924.02
473.253	1970.8
473.625	1994.98
473.997	2024.35
474.369	2090.11
474.74	2131.24
475.112	2154.52
475.484	2225.25
475.855	2275.87
476.227	2286.04
476.598	2394.97
476.97	2435.19
477.341	2529.65
477.713	2582.98
478.084	2656.65
478.455	2713.83
478.827	2761.51
479.198	2872.47
479.569	2918.34
479.94	3017.1
480.311	3057.09
480.682	3219.35
481.053	3302.06
481.424	3390.19
481.795	3455.5
482.166	3574.82
482.537	3669.28
482.908	3791.99
483.279	3834.25
483.65	3973
484.021	4100.01
484.391	4190.4
484.762	4273.79
485.133	4416.16
485.503	4551.52
485.874	4665.87
486.244	4805.07
486.615	4938.63
486.985	5090.26
487.356	5236.02
487.726	5311.05
488.097	5537.48
488.467	5591.27
488.837	5784.93
489.207	5948.32
489.578	6125.26
489.948	6292.72
490.318	6437.34
490.688	6491.13
491.058	6697.68
491.428	6888.18
491.798	7040.94
492.168	7266.7
492.538	7375.4
492.908	7567.26
493.278	7755.28
493.648	7884.76
494.017	8131.31
494.387	8260.12
494.757	8386.22
495.126	8593.9
495.496	8722.48
495.866	8874.57
496.235	9063.26
496.605	9223.94
496.974	9392.3
497.344	9586.87
497.713	9767.88
498.082	9931.49
498.452	10065.5
498.821	10221.65
499.19	10331.71
499.559	10586.39
499.928	10731.92
500.298	10910.22
500.667	11092.36
501.036	11201.06
501.405	11362.19
501.774	11533.93
502.143	11708.39
502.512	11840.37
502.88	12000.59
503.249	12142.51
503.618	12283.29
503.987	12520.8
504.356	12645.09
504.724	12840.79
505.093	12862.94
505.462	13059.09
505.83	13170.73
506.199	13377.5
506.567	13642.35
506.936	13634.67
507.304	13920.54
507.672	14052.06
508.041	14162.11
508.409	14368.21
508.777	14541.54
509.145	14684.59
509.514	14682.78
509.882	14905.6
510.25	15054.97
510.618	15218.81
510.986	15352.82
511.354	15558.91
511.722	15777.44
512.09	15866.93
512.458	15957.77
512.826	16116.64
513.193	16304.43
513.561	16379.91
513.929	16620.35
514.297	16804.98
514.664	16955.49
515.032	16987.12
515.4	17272.31
515.767	17265.08
516.135	17446.55
516.502	17463.5
516.869	17837.95
517.237	17887.67
517.604	18002.01
517.972	18182.12
518.339	18316.35
518.706	18482
519.073	18605.16
519.44	18723.8
519.808	18976.9
520.175	18876.34
520.542	19296.67
520.909	19331.02
521.276	19459.15
521.643	19694.62
522.009	19831.34
522.376	19986.37
522.743	20215.51
523.11	20454.15
523.477	20540.7
523.843	20649.63
524.21	20911.54
524.577	21039.22
524.943	21211.19
525.31	21273.79
525.676	21614.35
526.043	21704.74
526.409	21742.71
526.776	22089.14
527.142	22115.8
527.508	22179.3
527.874	22503.14
528.241	22683.92
528.607	22662
528.973	23020.41
529.339	22860.42
529.705	23235.1
530.071	23412.94
530.437	23488.65
530.803	23540.62
531.169	23779.04
531.535	23809.54
531.901	23824.46
532.267	24082.76
532.632	24205.24
532.998	24182.42
533.364	24445.01
533.73	24492.46
534.095	24805.9
534.461	24870.31
534.826	24857.65
535.192	24982.85
535.557	25176.06
535.923	25110.07
536.288	25350.97
536.653	25489.27
537.019	25369.28
537.384	25604.3
537.749	25717.52
538.114	25753
538.479	25840.9
538.845	25890.62
539.21	25959.32
539.575	26123.38
539.94	26215.13
540.305	26456.93
540.67	26384.39
541.034	26366.54
541.399	26493.31
541.764	26594.1
542.129	26764.95
542.494	26748
542.858	26901.21
543.223	26992.28
543.587	27203.35
543.952	27037.03
544.316	27185.27
544.681	27134.43
545.045	27441.09
545.41	27570.35
545.774	27663.23
546.138	27640.18
546.503	27796.33
546.867	27703
547.231	28053.95
547.595	28108.41
547.959	28128.3
548.324	28249.43
548.688	28355.86
549.052	28356.54
549.416	28403.32
549.779	28598.34
550.143	28630.21
550.507	28818.68
550.871	28789.3
551.235	28750.2
551.599	29124.21
551.962	29154.49
552.326	29170.08
552.689	29525.1
553.053	29288.04
553.417	29463.86
553.78	29867.92
554.143	29696.85
554.507	29750.4
554.87	29875.6
555.234	30077.4
555.597	29977.97
555.96	30232.2
556.323	30417.28
556.686	30391.07
557.05	30695.01
557.413	30697.5
557.776	30753.99
558.139	31003.93
558.502	31078.28
558.865	31181.1
559.228	31445.05
559.59	31548.32
559.953	31580.41
560.316	31913.51
560.679	31903.57
561.041	32097.24
561.404	32194.63
561.767	32447.51
562.129	32200.74
562.492	32652.02
562.854	32579.71
563.217	32713.49
563.579	32802.3
563.941	33051.56
564.304	33124.78
564.666	33239.58
565.028	33558.21
565.39	33559.57
565.753	33703.75
566.115	33824.2
566.477	33964.76
566.839	33974.47
567.201	34285.88
567.563	34313
567.925	34465.99
568.287	34544.63
568.648	34800.67
569.01	34952.3
569.372	35172.63
569.734	34984.39
570.095	35146.42
570.457	35387.32
570.819	35396.58
571.18	35450.37
571.542	35676.35
571.903	35686.07
572.265	35958.6
572.626	35903.69
572.987	36040.86
573.349	36277.69
573.71	36369.89
574.071	36338.03
574.432	36492.15
574.794	36713.38
575.155	36771.91
575.516	36721.75
575.877	36775.98
576.238	36958.58
576.599	36973.27
576.96	36971.46
577.32	37056.65
577.681	37200.83
578.042	37418.68
578.403	37408.96
578.763	37403.99
579.124	37449.41
579.485	37800.59
579.845	37632.91
580.206	37665.9
580.566	37601.5
580.927	37647.15
581.287	37891.21
581.648	37793.36
582.008	38013.46
582.368	37842.17
582.728	38002.39
583.089	38020.02
583.449	38066.12
583.809	38001.71
584.169	38040.36
584.529	37956.06
584.889	38241.71
585.249	38061.6
585.609	38003.97
585.969	38241.71
586.329	38206.45
586.688	38112.44
587.048	38104.99
587.408	38125.55
587.768	38227.24
588.127	38155.15
588.487	38187.02
588.846	38506.56
589.206	38149.96
589.565	38196.51
589.925	38347.92
590.284	38175.27
590.643	38473.11
591.003	38412.55
591.362	38673.33
591.721	38516.5
592.08	38391.53
592.44	38513.34
592.799	38574.13
593.158	38662.71
593.517	38565.09
593.876	38544.3
594.235	38467.24
594.593	38599.44
594.952	38756.5
595.311	38599.89
595.67	38730.96
596.029	38894.57
596.387	38908.13
596.746	38907.23
597.104	38792.2
597.463	38851.63
597.822	38987.22
598.18	38801.92
598.538	38870.62
598.897	39083.94
599.255	38777.51
599.613	39473.09
599.972	39187.67
600.33	39157.16
600.688	39081.01
601.046	39290.94
601.404	39312.41
601.762	39255.24
602.12	39623.82
602.478	39440.54
602.836	39556.93
603.194	39462.01
603.552	39517.38
603.91	39357.61
604.268	39619.52
604.625	39549.02
604.983	39765.28
605.341	39475.8
605.698	39759.63
606.056	39891.83
606.413	39850.93
606.771	39939.97
607.128	40039.85
607.485	39878.05
607.843	39990.36
608.2	40309.22
608.557	40323.01
608.914	40146.74
609.272	40344.7
609.629	40470.35
609.986	40633.96
610.343	40433.29
610.7	40730.23
611.057	40758.48
611.414	40742.66
611.771	40894.52
612.127	40927.29
612.484	40999.37
612.841	41103.78
613.198	40898.13
613.554	40902.2
613.911	41339.25
614.267	41312.13
614.624	41198.24
614.98	41443.88
615.337	41494.73
615.693	41469.19
616.05	41476.2
616.406	41686.59
616.762	41519.13
617.118	41621.96
617.475	41612.69
617.831	41868.5
618.187	41714.38
618.543	41853.59
618.899	42089.29
619.255	42005.68
619.611	42058.1
619.967	42100.59
620.323	42274.82
620.678	42154.6
621.034	42109.63
621.39	42188.04
621.746	42084.54
622.101	42594.36
622.457	42209.74
622.812	42318.44
623.168	42424.87
623.523	42444.08
623.879	42586.45
624.234	42286.8
624.589	42381.26
624.945	42595.49
625.3	42662.38
625.655	42425.78
626.01	42752.32
626.365	42709.16
626.72	42702.61
627.075	42587.81
627.43	42614.92
627.785	42595.72
628.14	42613.12
628.495	42809.27
628.85	42705.09
629.205	42550.52
629.559	42826.67
629.914	42610.86
630.269	42721.81
630.623	42516.85
630.978	42549.16
631.332	42648.82
631.687	42826.67
632.041	42544.87
632.396	42795.48
632.75	42575.38
633.104	42633.68
633.459	42468.94
633.813	42566.79
634.167	42420.58
634.521	42497.41
634.875	42574.02
635.229	42425.55
635.583	42276.4
635.937	42362.05
636.291	42325.44
636.645	42366.57
636.999	42327.47
637.352	42363.18
637.706	42175.61
638.06	42320.02
638.413	42218.55
638.767	42076.18
639.121	42175.61
639.474	42019.69
639.828	42126.35
640.181	42127.71
640.534	42219.23
640.888	41979.01
641.241	41797.32
641.594	41855.85
641.947	42052.68
642.301	41891.1
642.654	41854.49
643.007	41814.27
643.36	41788.96
643.713	41781.27
644.066	41937.88
644.419	41626.02
644.771	41421.74
645.124	41011.35
645.477	41048.41
645.83	40790.34
646.182	40523
646.535	40437.13
646.888	40544.92
647.24	40296.57
647.593	40583.11
647.945	40645.03
648.298	40246.63
648.65	40362.55
649.002	40110.36
649.355	40440.29
649.707	40303.35
650.059	40373.18
650.411	40913.05
650.763	40968.87
651.115	41338.8
651.467	41071.69
651.819	41147.84
652.171	41058.81
652.523	41134.29
652.875	41172.93
653.227	40961.86
653.578	41117.79
653.93	41149.65
654.282	40895.65
654.633	40773.84
654.985	40889.09
655.337	40955.99
655.688	40845.03
656.039	40972.93
656.391	40770.68
656.742	40884.57
657.094	40737.01
657.445	40902.2
657.796	40802.09
658.147	40683.45
658.498	40679.61
658.849	40846.84
659.2	40800.51
659.551	40744.47
659.902	40697.69
660.253	40544.02
660.604	40735.65
660.955	40474.87
661.306	40664.69
661.656	40641.64
662.007	40570.23
662.358	40621.08
662.708	40590.57
663.059	40575.2
663.409	40367.3
663.76	40665.6
664.11	40668.08
664.461	40611.81
664.811	40525.71
665.161	40514.87
665.511	40522.32
665.862	40541.76
666.212	40626.73
666.562	40580.4
666.912	40461.08
667.262	40459.95
667.612	40578.14
667.962	40490.23
668.312	40418.37
668.662	40525.71
669.011	40493.17
669.361	40327.75
669.711	40352.61
670.06	40389.9
670.41	40267.19
670.76	40342.67
671.109	40329.79
671.459	40173.18
671.808	40228.09
672.157	40201.65
672.507	39996.69
672.856	39946.29
673.205	40071.94
673.554	40326.17
673.904	40122.33
674.253	40181.99
674.602	40165.72
674.951	39645.29
675.3	39418.4
675.649	40162.56
675.998	40000.08
676.346	40052.51
676.695	40141.32
677.044	39880.99
677.393	39965.28
677.741	40049.12
678.09	40049.34
678.438	39906.97
678.787	39777.26
679.135	39948.55
679.484	39565.06
679.832	39870.14
680.181	39542.01
680.529	39744.94
680.877	39559.41
681.225	39496.59
681.573	39784.72
681.922	39322.81
682.27	39296.82
682.618	39375.69
682.966	39189.48
683.314	39204.17
683.661	39214.11
684.009	39024.74
684.357	38991.29
684.705	38812.99
685.053	38888.69
685.4	38787.45
685.748	38706.78
686.095	38540.23
686.443	38654.8
686.79	38478.31
687.138	38540
687.485	38599.21
687.832	38292.33
688.18	38565.09
688.527	38120.13
688.874	38216.4
689.221	38174.59
689.568	38066.8
689.915	38001.94
690.262	37955.39
690.609	37893.47
690.956	37897.53
691.303	37668.16
691.65	37460.26
691.997	37635.85
692.344	37265.46
692.69	37300.49
693.037	37346.14
693.383	37141.85
693.73	37108.85
694.077	37068.4
694.423	36956.32
694.769	36831.57
695.116	36888.75
695.462	36721.29
695.808	36655.31
696.155	36694.4
696.501	36355.43
696.847	36434.52
697.193	36145.72
697.539	36420.29
697.885	35975.33
698.231	35996.79
698.577	36014.19
698.923	35897.81
699.269	35623.92
699.614	35588.89
699.96	35540.08
700.306	35507.31
700.651	35343.03
700.997	35355
701.342	35200.2
701.688	35177.38
702.033	34888.57
702.379	35009.25
702.724	34910.72
703.069	34907.33
703.415	34614.46
703.76	34570.62
704.105	34567.23
704.45	34623.72
704.795	34271.87
705.14	34264.86
705.485	34214.02
705.83	34042.49
706.175	34042.04
706.52	33923.63
706.865	34001.14
707.209	33765.21
707.554	33812.44
707.899	33848.38
708.243	33649.51
708.588	33618.1
708.932	33353.7
709.277	33369.97
709.621	33423.98
709.966	33156.19
710.31	33210.65
710.654	32945.57
710.998	33092.92
711.342	32952.81
711.687	32862.41
712.031	32696.99
712.375	32783.09
712.719	32800.72
713.063	32615.19
713.407	32718.69
713.75	32455.42
714.094	32479.15
714.438	32325.48
714.782	32469.2
715.125	32193.73
715.469	32289.09
715.812	32155.31
716.156	32016.11
716.499	31962.1
716.843	31991.02
717.186	31694.08
717.53	32060.85
717.873	31851.37
718.216	31787.64
718.559	31618.83
718.902	31489.79
719.246	31453.41
719.589	31504.03
719.932	31339.74
720.275	31398.04
720.617	31303.36
720.96	31096.13
721.303	31239.63
721.646	31227.43
721.989	30920.54
722.331	31165.73
722.674	31051.39
723.016	30935.23
723.359	30883.26
723.701	31015
724.044	30703.83
724.386	30465.19
724.729	30790.15
725.071	30672.19
725.413	30632.19
725.755	30599.65
726.097	30406.21
726.439	30327.56
726.782	30303.84
727.124	30390.39
727.465	30241.69
727.807	30356.72
728.149	30216.38
728.491	30153.11
728.833	30193.56
729.175	30059.55
729.516	29996.05
729.858	29907.46
730.199	30001.92
730.541	29821.59
730.882	29799.67
731.224	29922.38
731.565	29689.84
731.906	29726.45
732.248	29657.53
732.589	29561.03
732.93	29495.72
733.271	29546.79
733.612	29524.65
733.953	29499.56
734.294	29334.37
734.635	29283.52
734.976	29293.47
735.317	29184.54
735.658	29164.2
735.999	29180.93
736.339	29093.7
736.68	29240.14
737.021	29057.77
737.361	28926.02
737.702	29218.67
738.042	28871.33
738.383	28982.74
738.723	29005.57
739.063	28828.17
739.404	28936.41
739.744	28768.74
740.084	28650.77
740.424	28764.44
740.764	28603.77
741.104	28675.86
741.444	28500.95
741.784	28426.6
742.124	28448.07
742.464	28427.5
742.804	28425.47
743.143	28319.03
743.483	28358.8
743.823	28196.09
744.162	28290.1
744.502	28251.46
744.841	27979.15
745.181	28152.93
745.52	28100.05
745.86	28009.21
746.199	27931.92
746.538	27953.62
746.877	28011.47
747.216	28009.88
747.556	27773.28
747.895	27779.61
748.234	27678.14
748.573	27639.95
748.911	27544.36
749.25	27598.6
749.589	27351.82
749.928	27465.94
750.267	27589.78
750.605	27437.47
750.944	27321.99
751.283	27225.05
751.621	27298.49
751.96	27052.4
752.298	27025.96
752.636	27087.65
752.975	26962.68
753.313	26924.49
753.651	27066.18
753.989	26812.18
754.327	26832.51
754.666	26648.34
755.004	26712.74
755.342	26724.04
755.679	26607.44
756.017	26441.11
756.355	26440.43
756.693	26348.91
