Data from hue_100_FLMS001491_00051.txt Node
Date: Tue Feb 07 17:03:21 GMT 2017
User: dcchb
Spectrometer: FLMS00149
Trigger mode: 0
Integration Time (sec): 2.000000E-2
Scans to average: 10
Electric dark correction enabled: true
Nonlinearity correction enabled: false
Boxcar width: 0
XAxis mode: Wavelengths
Number of Pixels in Spectrum: 2048
>>>>>Begin Spectral Data<<<<<
341.393	0.93
341.776	0.93
342.16	0.93
342.543	-57.15
342.927	-80.65
343.31	-55.11
343.693	-91.95
344.077	-61.21
344.46	-69.12
344.843	-72.51
345.226	-23.02
345.61	-33.64
345.993	-4.72
346.376	-12.4
346.759	13.36
347.142	17.2
347.525	33.25
347.908	68.28
348.291	77.54
348.674	108.05
349.057	106.01
349.44	115.28
349.823	149.4
350.206	158.89
350.588	177.88
350.971	203.86
351.354	237.76
351.737	221.27
352.119	256.07
352.502	256.07
352.884	266.91
353.267	292.22
353.65	291.09
354.032	306.46
354.414	298.55
354.797	289.74
355.179	317.08
355.562	333.58
355.944	332.9
356.326	332.67
356.709	315.5
357.091	324.54
357.473	347.59
357.855	323.64
358.238	343.07
358.62	357.31
359.002	338.55
359.384	356.63
359.766	357.53
360.148	327.93
360.53	327.7
360.912	329.06
361.294	326.57
361.676	335.16
362.057	347.14
362.439	322.28
362.821	340.13
363.203	320.7
363.584	322.73
363.966	327.25
364.348	337.65
364.729	321.38
365.111	318.89
365.493	320.92
365.874	306.69
366.256	312.11
366.637	308.95
367.019	320.47
367.4	305.78
367.781	332
368.163	309.62
368.544	310.53
368.925	321.15
369.306	332.45
369.688	333.35
370.069	314.14
370.45	317.53
370.831	324.54
371.212	338.32
371.593	334.48
371.974	308.49
372.355	305.56
372.736	337.65
373.117	334.71
373.498	316.4
373.879	337.87
374.26	335.39
374.641	316.18
375.021	310.53
375.402	317.31
375.783	333.8
376.163	321.15
376.544	327.93
376.925	338.55
377.305	329.74
377.686	313.69
378.066	333.58
378.447	324.09
378.827	332.45
379.208	343.97
379.588	323.64
379.968	341.26
380.349	337.19
380.729	334.03
381.109	322.05
381.489	305.78
381.87	326.57
382.25	366.57
382.63	324.54
383.01	347.14
383.39	354.37
383.77	338.78
384.15	351.43
384.53	342.62
384.91	357.08
385.29	346.23
385.67	364.99
386.049	356.18
386.429	367.7
386.809	360.24
387.189	348.04
387.568	343.3
387.948	363.63
388.328	390.98
388.707	351.88
389.087	346.01
389.466	386.01
389.846	375.61
390.225	367.93
390.605	371.54
390.984	381.04
391.363	364.76
391.743	379
392.122	379.68
392.501	371.09
392.881	377.19
393.26	391.43
393.639	368.38
394.018	366.57
394.397	393.46
394.776	372
395.155	428.94
395.534	370.41
395.913	393.46
396.292	377.87
396.671	387.59
397.05	378.1
397.429	396.18
397.808	394.82
398.186	396.4
398.565	412.67
398.944	414.71
399.323	404.31
399.701	421.94
400.08	394.59
400.458	430.53
400.837	412.9
401.215	416.06
401.594	410.19
401.972	428.72
402.351	417.64
402.729	409.51
403.107	407.48
403.486	426.91
403.864	432.33
404.242	431.66
404.62	426.01
404.999	415.16
405.377	435.05
405.755	435.27
406.133	447.25
406.511	446.57
406.889	468.26
407.267	433.69
407.645	430.75
408.023	459.23
408.401	470.07
408.779	453.58
409.156	462.61
409.534	470.52
409.912	465.78
410.29	470.75
410.667	475.04
411.045	471.43
411.422	467.59
411.8	484.54
412.178	495.38
412.555	488.6
412.933	476.63
413.31	492.44
413.687	507.59
414.065	506.68
414.442	517.3
414.819	500.35
415.197	512.33
415.574	504.2
415.951	506
416.328	520.47
416.705	520.69
417.082	518.43
417.46	526.12
417.837	544.87
418.214	524.99
418.591	534.03
418.967	557.08
419.344	540.13
419.721	547.58
420.098	534.48
420.475	572.89
420.852	564.08
421.228	556.4
421.605	567.24
421.982	576.06
422.358	582.16
422.735	576.51
423.111	599.56
423.488	577.64
423.864	568.83
424.241	610.63
424.617	583.74
424.994	591.65
425.37	578.09
425.746	606.57
426.123	598.88
426.499	603.4
426.875	596.62
427.251	641.59
427.627	631.42
428.003	635.72
428.379	645.21
428.756	631.42
429.132	630.07
429.507	649.95
429.883	660.35
430.259	649.05
430.635	662.38
431.011	661.71
431.387	660.12
431.763	700.8
432.138	692.67
432.514	703.29
432.89	706.45
433.265	717.75
433.641	720.24
434.016	720.01
434.392	730.63
434.767	739.67
435.143	737.86
435.518	746.68
435.894	748.26
436.269	764.75
436.644	761.36
437.02	785.77
437.395	780.57
437.77	799.1
438.145	795.71
438.52	781.7
438.895	784.19
439.271	783.96
439.646	800.91
440.021	827.35
440.395	817.63
440.77	790.97
441.145	836.16
441.52	866.9
441.895	825.32
442.27	862.6
442.645	850.63
443.019	860.34
443.394	856.5
443.769	880.01
444.143	865.32
444.518	873.23
444.892	883.17
445.267	893.79
445.641	909.61
446.016	899.44
446.39	911.87
446.764	914.35
447.139	924.52
447.513	925.88
447.887	909.83
448.262	917.97
448.636	938.76
449.01	941.7
449.384	943.73
449.758	967.01
450.132	965.2
450.506	987.57
450.88	974.24
451.254	989.83
451.628	996.16
452.002	1002.71
452.376	1021.7
452.75	1022.15
453.123	1017.18
453.497	1037.97
453.871	1046.33
454.244	1052.88
454.618	1099.43
454.992	1073.9
455.365	1094.69
455.739	1115.25
456.112	1120.68
456.486	1131.3
456.859	1149.38
457.232	1154.35
457.606	1162.71
457.979	1167.46
458.352	1220.56
458.725	1187.12
459.099	1199.77
459.472	1242.93
459.845	1255.36
460.218	1259.43
460.591	1255.59
460.964	1266.44
461.337	1302.82
461.71	1344.4
462.083	1324.74
462.456	1337.62
462.829	1356.6
463.201	1386.88
463.574	1388.47
463.947	1405.87
464.32	1451.29
464.692	1441.57
465.065	1434.57
465.438	1504.17
465.81	1506.43
466.183	1536.03
466.555	1535.36
466.928	1574.9
467.3	1565.64
467.672	1609.93
468.045	1636.37
468.417	1656.71
468.789	1679.31
469.161	1716.14
469.534	1704.16
469.906	1773.99
470.278	1807.66
470.65	1812.64
471.022	1856.48
471.394	1910.94
471.766	1941.22
472.138	1946.42
472.51	1999.98
472.882	2054.66
473.253	2073.65
473.625	2114.1
473.997	2158.16
474.369	2202
474.74	2265.05
475.112	2302.79
475.484	2360.64
475.855	2393.41
476.227	2464.37
476.598	2554.99
476.97	2573.07
477.341	2643.57
477.713	2723.8
478.084	2710.47
478.455	2809.45
478.827	2946.17
479.198	3006.5
479.569	3078.82
479.94	3185.48
480.311	3253.05
480.682	3284.69
481.053	3449.2
481.424	3522.65
481.795	3611.68
482.166	3700.5
482.537	3730.78
482.908	3916.54
483.279	4012.35
483.65	4097.77
484.021	4208.51
484.391	4313.14
484.762	4399.23
485.133	4497.54
485.503	4604.2
485.874	4830.64
486.244	4881.03
486.615	5008.48
486.985	5091.65
487.356	5249.83
487.726	5383.62
488.097	5496.38
488.467	5637.39
488.837	5783.38
489.207	5928.01
489.578	6097.04
489.948	6204.61
490.318	6427.2
490.688	6419.75
491.058	6600.08
491.428	6773.41
491.798	6889.11
492.168	7126.85
492.538	7201.65
492.908	7336.11
493.278	7431.7
493.648	7559.83
494.017	7804.12
494.387	7875.53
494.757	8030.55
495.126	8182.41
495.496	8302.41
495.866	8371.56
496.235	8534.95
496.605	8700.36
496.974	8855.39
497.344	8913.47
497.713	9003.86
498.082	9124.53
498.452	9320.91
498.821	9342.83
499.19	9465.77
499.559	9657.4
499.928	9753.44
500.298	9925.19
500.667	9968.58
501.036	10054.68
501.405	10140.78
501.774	10265.07
502.143	10399.75
502.512	10470.04
502.88	10597.72
503.249	10609.24
503.618	10712.06
503.987	10847.65
504.356	10920.65
504.724	11085.39
505.093	11117.93
505.462	11154.99
505.83	11278.38
506.199	11399.05
506.567	11519.27
506.936	11497.35
507.304	11677.69
507.672	11689.21
508.041	11800.85
508.409	11918.36
508.777	11972.14
509.145	12139.37
509.514	12074.96
509.882	12079.48
510.25	12185.92
510.618	12301.63
510.986	12327.16
511.354	12364
511.722	12519.93
512.09	12626.36
512.458	12542.75
512.826	12715.4
513.193	12720.37
513.561	12731.44
513.929	12846.02
514.297	12954.04
514.664	12996.97
515.032	13049.63
515.4	13022.96
515.767	13135.73
516.135	13168.95
516.502	13162.62
516.869	13232.45
517.237	13318.32
517.604	13160.81
517.972	13472.67
518.339	13409.17
518.706	13430.18
519.073	13434.03
519.44	13489.62
519.808	13654.13
520.175	13608.03
520.542	13751.53
520.909	13798.99
521.276	13676.28
521.643	13780.91
522.009	13840.79
522.376	13895.93
522.743	13930.06
523.11	13938.64
523.477	14081.92
523.843	14153.55
524.21	14235.81
524.577	14251.63
524.943	14282.36
525.31	14333.21
525.676	14248.92
526.043	14308.35
526.409	14340.22
526.776	14483.94
527.142	14458.41
527.508	14494.79
527.874	14569.59
528.241	14572.98
528.607	14508.57
528.973	14574.11
529.339	14534.56
529.705	14636.25
530.071	14589.48
530.437	14651.62
530.803	14731.17
531.169	14736.82
531.535	14628.8
531.901	14557.39
532.267	14660.43
532.632	14693.43
532.998	14627.67
533.364	14643.71
533.73	14731.17
534.095	14719.19
534.461	14668.12
534.826	14732.97
535.192	14667.44
535.557	14741.56
535.923	14634.67
536.288	14698.85
536.653	14636.93
537.019	14615.92
537.384	14577.05
537.749	14587.67
538.114	14491.17
538.479	14543.6
538.845	14563.94
539.21	14398.52
539.575	14454.79
539.94	14465.18
540.305	14462.7
540.67	14423.83
541.034	14402.81
541.399	14359.65
541.764	14314.68
542.129	14358.52
542.494	14310.84
542.858	14274.23
543.223	14182.25
543.587	14325.08
543.952	14170.5
544.316	14164.18
544.681	14143.39
545.045	14157.85
545.41	14079.21
545.774	14034.69
546.138	14098.41
546.503	13930.74
546.867	13970.73
547.231	14013.9
547.595	13904.75
547.959	13960.79
548.324	13863.39
548.688	13918.76
549.052	13830.4
549.416	13842.6
549.779	13851.42
550.143	13794.69
550.507	13838.99
550.871	13766.9
551.235	13697.07
551.599	13684.64
551.962	13665.66
552.326	13688.48
552.689	13715.6
553.053	13633.34
553.417	13623.85
553.78	13703.17
554.143	13558.09
554.507	13589.73
554.87	13554.47
555.234	13678.99
555.597	13591.08
555.96	13500.01
556.323	13561.93
556.686	13439.45
557.05	13532.78
557.413	13481.48
557.776	13483.74
558.139	13546.11
558.502	13460.69
558.865	13437.64
559.228	13488.71
559.59	13571.65
559.953	13556.51
560.316	13573.23
560.679	13545.43
561.041	13511.99
561.404	13570.52
561.767	13634.47
562.129	13562.16
562.492	13676.05
562.854	13494.59
563.217	13531.88
563.579	13575.94
563.941	13594.7
564.304	13586.34
564.666	13647.58
565.028	13640.35
565.39	13698.43
565.753	13739.1
566.115	13728.93
566.477	13794.24
566.839	13752.66
567.201	13797.86
567.563	13820.23
567.925	13737.75
568.287	13844.86
568.648	13810.96
569.01	13811.64
569.372	13890.51
569.734	13810.96
570.095	13820.46
570.457	13931.87
570.819	13892.09
571.18	13903.62
571.542	13988.36
571.903	13977.51
572.265	14053.9
572.626	14018.19
572.987	14008.47
573.349	13996.72
573.71	14055.25
574.071	14082.14
574.432	14053.22
574.794	14091.64
575.155	14113.56
575.516	14062.03
575.877	14111.07
576.238	14106.55
576.599	14081.47
576.96	14128.92
577.32	14113.33
577.681	14127.79
578.042	14102.26
578.403	14118.53
578.763	14121.24
579.124	14157.62
579.485	14197.85
579.845	14281.46
580.206	14172.76
580.566	14176.6
580.927	14136.61
581.287	14193.1
581.648	14125.98
582.008	14154.01
582.368	14153.1
582.728	14167.79
583.089	14086.89
583.449	14120.33
583.809	14156.72
584.169	14088.7
584.529	14130.5
584.889	14169.15
585.249	14110.17
585.609	14052.99
585.969	14142.26
586.329	14103.61
586.688	14119.88
587.048	14109.49
587.408	14030.39
587.768	14023.16
588.127	14073.78
588.487	14002.15
588.846	14086.89
589.206	13925.31
589.565	13965.54
589.925	14069.71
590.284	13940.45
590.643	14035.37
591.003	14045.76
591.362	14040.79
591.721	13986.55
592.08	14021.13
592.44	14016.38
592.799	13983.84
593.158	13913.79
593.517	13918.31
593.876	13994.69
594.235	14020.45
594.593	13919.89
594.952	13918.31
595.311	13923.05
595.67	13942.94
596.029	13989.49
596.387	14042.6
596.746	13972.32
597.104	13902.49
597.463	13872.43
597.822	13923.96
598.18	13788.59
598.538	13875.82
598.897	13936.61
599.255	13739.55
599.613	13987.23
599.972	13910.62
600.33	13896.84
600.688	13901.36
601.046	13889.38
601.404	13917.63
601.762	13857.07
602.12	13911.75
602.478	13935.03
602.836	13891.41
603.194	13839.66
603.552	13900
603.91	13839.21
604.268	13895.26
604.625	13882.38
604.983	13863.62
605.341	13846.9
605.698	13944.29
606.056	13885.54
606.413	13910.17
606.771	13974.58
607.128	13977.06
607.485	13887.12
607.843	13953.56
608.2	13935.71
608.557	13976.84
608.914	13923.96
609.272	14023.39
609.629	14029.72
609.986	14060.68
610.343	14053.9
610.7	13997.63
611.057	14023.16
611.414	14039.89
611.771	14057.96
612.127	14115.14
612.484	14045.99
612.841	14166.66
613.198	14152.2
613.554	14048.25
613.911	14205.76
614.267	14228.13
614.624	14169.83
614.98	14198.07
615.337	14225.87
615.693	14192.65
616.05	14195.36
616.406	14244.17
616.762	14181.8
617.118	14144.97
617.475	14196.94
617.831	14279.88
618.187	14193.55
618.543	14290.95
618.899	14329.37
619.255	14341.57
619.611	14261.8
619.967	14363.49
620.323	14316.94
620.678	14249.15
621.034	14243.04
621.39	14240.78
621.746	14244.17
622.101	14479.87
622.457	14257.51
622.812	14377.73
623.168	14342.02
623.523	14403.27
623.879	14470.38
624.234	14324.17
624.589	14348.8
624.945	14284.85
625.3	14296.15
625.655	14351.52
626.01	14347.22
626.365	14304.06
626.72	14352.19
627.075	14239.65
627.43	14383.38
627.785	14182.71
628.14	14264.51
628.495	14311.29
628.85	14278.52
629.205	14226.55
629.559	14290.05
629.914	14195.14
630.269	14267.9
630.623	14261.35
630.978	14186.1
631.332	14331.85
631.687	14274.68
632.041	14170.5
632.396	14223.38
632.75	14153.33
633.104	14210.95
633.459	14062.26
633.813	14094.35
634.167	14125.31
634.521	14070.17
634.875	14161.69
635.229	14076.04
635.583	13993.56
635.937	13995.37
636.291	13947.23
636.645	14037.85
636.999	13970.06
637.352	13912.2
637.706	13907.91
638.06	13889.38
638.413	13982.49
638.767	13904.52
639.121	13919.21
639.474	13820.23
639.828	13761.02
640.181	13850.74
640.534	13869.04
640.888	13871.75
641.241	13759.67
641.594	13785.43
641.947	13753.34
642.301	13785.88
642.654	13775.71
643.007	13749.95
643.36	13740.68
643.713	13678.09
644.066	13766.67
644.419	13614.81
644.771	13608.94
645.124	13535.49
645.477	13417.53
645.83	13365.1
646.182	13359.23
646.535	13265.67
646.888	13300.24
647.24	13201.26
647.593	13340.69
647.945	13259.34
648.298	13189.06
648.65	13189.06
649.002	13206.91
649.355	13299.79
649.707	13305.67
650.059	13316.51
650.411	13436.51
650.763	13485.32
651.115	13663.62
651.467	13535.27
651.819	13495.94
652.171	13560.35
652.523	13516.73
652.875	13479.45
653.227	13524.64
653.578	13561.25
653.93	13577.3
654.282	13488.71
654.633	13481.26
654.985	13548.6
655.337	13509.05
655.688	13514.25
656.039	13604.42
656.391	13477.19
656.742	13524.42
657.094	13490.52
657.445	13535.72
657.796	13538.66
658.147	13503.85
658.498	13449.62
658.849	13569.61
659.2	13464.08
659.551	13415.72
659.902	13535.04
660.253	13483.29
660.604	13503.4
660.955	13508.6
661.306	13573.46
661.656	13600.57
662.007	13599.67
662.358	13607.13
662.708	13645.77
663.059	13544.76
663.409	13527.58
663.76	13546.34
664.11	13551.76
664.461	13619.56
664.811	13576.85
665.161	13659.78
665.511	13492.1
665.862	13580.69
666.212	13586.11
666.562	13717.63
666.912	13537.07
667.262	13519.45
667.612	13539.11
667.962	13634.02
668.312	13594.93
668.662	13627.69
669.011	13565.32
669.361	13555.15
669.711	13580.69
670.06	13530.07
670.41	13507.24
670.76	13489.84
671.109	13565.55
671.459	13537.07
671.808	13495.72
672.157	13486.23
672.507	13466.34
672.856	13431.77
673.205	13390.64
673.554	13459.11
673.904	13349.96
674.253	13464.31
674.602	13439.67
674.951	13312.67
675.3	13194.03
675.649	13445.1
675.998	13343.18
676.346	13416.85
676.695	13385.66
677.044	13296.18
677.393	13349.51
677.741	13341.82
678.09	13352.22
678.438	13291.66
678.787	13272
679.135	13301.6
679.484	13215.73
679.832	13266.57
680.181	13201.94
680.529	13144.99
680.877	13204.2
681.225	13118.1
681.573	13120.36
681.922	13108.61
682.27	13067.03
682.618	13014.38
682.966	13041.27
683.314	13120.81
683.661	13009.86
684.009	12877.66
684.357	12872.01
684.705	12958.56
685.053	12865
685.4	12791.33
685.748	12790.88
686.095	12775.06
686.443	12698.9
686.79	12721.73
687.138	12705.91
687.485	12776.87
687.832	12662.75
688.18	12652.8
688.527	12582.07
688.874	12560.15
689.221	12514.95
689.568	12511.34
689.915	12488.51
690.262	12498.68
690.609	12425.69
690.956	12386.37
691.303	12341.17
691.65	12272.47
691.997	12300.72
692.344	12175.53
692.69	12197.45
693.037	12179.14
693.383	12015.31
693.73	12030.22
694.077	12044.01
694.423	11943.44
694.769	11858.93
695.116	11908.42
695.462	11776.44
695.808	11807.63
696.155	11852.15
696.501	11773.96
696.847	11733.73
697.193	11634.52
697.539	11672.94
697.885	11573.74
698.231	11582.1
698.577	11546.62
698.923	11470.46
699.269	11438.15
699.614	11415.77
699.96	11361.09
700.306	11327.87
700.651	11222.56
700.997	11291.93
701.342	11180.98
701.688	11155.22
702.033	11064.82
702.379	11121.77
702.724	11077.48
703.069	11098.49
703.415	10935.33
703.76	10936.69
704.105	10910.93
704.45	10890.14
704.795	10811.5
705.14	10777.6
705.485	10762.91
705.83	10749.8
706.175	10743.25
706.52	10721.55
706.865	10689.01
707.209	10659.63
707.554	10648.56
707.899	10631.84
708.243	10523.59
708.588	10566.76
708.932	10467.78
709.277	10460.09
709.621	10406.99
709.966	10361.56
710.31	10341.68
710.654	10385.74
710.998	10299.42
711.342	10364.5
711.687	10286.99
712.031	10217.39
712.375	10195.69
712.719	10254
713.063	10121.34
713.407	10213.55
713.75	10112.08
714.094	10096.03
714.438	10050.39
714.782	10099.88
715.125	10053.55
715.469	10007
715.812	9966.55
716.156	9940.78
716.499	9940.33
716.843	9973.55
717.186	9872.76
717.53	9965.64
717.873	9939.88
718.216	9905.08
718.559	9864.63
718.902	9820.34
719.246	9837.51
719.589	9769.26
719.932	9785.53
720.275	9732.88
720.617	9720.45
720.96	9730.39
721.303	9759.55
721.646	9725.2
721.989	9706.21
722.331	9741.47
722.674	9746.89
723.016	9755.93
723.359	9669.6
723.701	9709.15
724.044	9637.29
724.386	9612.43
724.729	9652.2
725.071	9618.98
725.413	9628.25
725.755	9626.89
726.097	9598.42
726.439	9539.21
726.782	9489.95
727.124	9599.1
727.465	9557.97
727.807	9527.46
728.149	9473
728.491	9477.97
728.833	9569.72
729.175	9549.61
729.516	9461.47
729.858	9478.88
730.199	9500.12
730.541	9510.96
730.882	9451.76
731.224	9529.27
731.565	9403.17
731.906	9499.89
732.248	9468.93
732.589	9397.75
732.93	9388.03
733.271	9426.9
733.612	9414.47
733.953	9448.14
734.294	9430.51
734.635	9392.32
734.976	9410.4
735.317	9370.4
735.658	9412.89
735.999	9438.2
736.339	9376.05
736.68	9436.62
737.021	9437.07
737.361	9401.14
737.702	9428.48
738.042	9503.06
738.383	9471.64
738.723	9463.73
739.063	9442.04
739.404	9574.47
739.744	9491.3
740.084	9467.58
740.424	9548.7
740.764	9510.06
741.104	9482.94
741.444	9504.19
741.784	9497.86
742.124	9570.17
742.464	9474.13
742.804	9548.93
743.143	9675.25
743.483	9607.91
743.823	9627.8
744.162	9680.23
744.502	9770.17
744.841	9734.01
745.181	9802.93
745.52	9774.91
745.86	9861.24
746.199	9868.47
746.538	9792.99
746.877	9973.1
747.216	10023.95
747.556	10054.45
747.895	10082.7
748.234	10120.89
748.573	10103.04
748.911	10275.01
749.25	10217.39
749.589	10333.09
749.928	10496.93
750.267	10494.89
750.605	10571.95
750.944	10591.61
751.283	10687.2
751.621	10792.29
751.96	10812.63
752.298	10843.81
752.636	11050.59
752.975	11117.93
753.313	11216.91
753.651	11349.11
753.989	11378.49
754.327	11549.56
754.666	11553.85
755.004	11770.11
755.342	11893.95
755.679	11967.62
756.017	12048.07
756.355	12261.4
756.693	12357.22
757.031	12502.07
757.368	12629.98
757.706	12793.14
758.044	12947.03
