Data from hue_190_FLMS001491_00006.txt Node
Date: Tue Feb 07 16:44:43 GMT 2017
User: dcchb
Spectrometer: FLMS00149
Trigger mode: 0
Integration Time (sec): 2.000000E-2
Scans to average: 10
Electric dark correction enabled: true
Nonlinearity correction enabled: false
Boxcar width: 0
XAxis mode: Wavelengths
Number of Pixels in Spectrum: 2048
>>>>>Begin Spectral Data<<<<<
341.393	-8.39
341.776	-8.39
342.16	-8.39
342.543	-57.88
342.927	-77.09
343.31	-64.66
343.693	-63.08
344.077	-94.04
344.46	-74.15
344.843	-41.61
345.226	-38.45
345.61	-46.58
345.993	-7.26
346.376	-0.71
346.759	12.85
347.142	40.65
347.525	23.25
347.908	65.51
348.291	89.91
348.674	97.6
349.057	100.76
349.44	128.56
349.823	142.11
350.206	169.68
350.588	183.02
350.971	217.59
351.354	225.95
351.737	234.09
352.119	243.36
352.502	253.3
352.884	254.88
353.267	273.18
353.65	302.79
354.032	290.13
354.414	296.91
354.797	296.69
355.179	331.94
355.562	314.09
355.944	317.25
356.326	328.78
356.709	321.32
357.091	320.19
357.473	343.01
357.855	338.27
358.238	345.95
358.62	336.46
359.002	340.53
359.384	333.97
359.766	338.27
360.148	333.52
360.53	331.26
360.912	338.72
361.294	331.26
361.676	327.19
362.057	321.55
362.439	320.87
362.821	339.17
363.203	327.87
363.584	307.53
363.966	298.27
364.348	317.93
364.729	328.1
365.111	311.83
365.493	316.12
365.874	317.48
366.256	310.7
366.637	302.79
367.019	305.73
367.4	306.86
367.781	322
368.163	312.73
368.544	311.6
368.925	308.66
369.306	307.76
369.688	297.37
370.069	305.05
370.45	317.25
370.831	305.05
371.212	309.79
371.593	315.44
371.974	295.78
372.355	293.98
372.736	291.94
373.117	293.98
373.498	311.38
373.879	289.68
374.26	298.95
374.641	317.48
375.021	323.35
375.402	308.66
375.783	330.58
376.163	322.9
376.544	331.49
376.925	329.23
377.305	320.64
377.686	311.38
378.066	330.13
378.447	329.45
378.827	327.19
379.208	327.19
379.588	322.9
379.968	319.06
380.349	319.29
380.729	305.95
381.109	320.42
381.489	340.75
381.87	326.52
382.25	327.19
382.63	346.18
383.01	335.56
383.39	352.28
383.77	325.16
384.15	337.14
384.53	336.23
384.91	339.62
385.29	319.51
385.67	339.85
386.049	333.75
386.429	334.43
386.809	343.24
387.189	334.88
387.568	339.62
387.948	360.41
388.328	346.18
388.707	344.14
389.087	339.17
389.466	344.82
389.846	340.53
390.225	374.43
390.605	357.02
390.984	361.09
391.363	352.05
391.743	373.97
392.122	345.05
392.501	382.11
392.881	354.09
393.26	363.35
393.639	382.33
394.018	374.65
394.397	350.7
394.776	371.49
395.155	367.65
395.534	378.49
395.913	351.83
396.292	374.65
396.671	367.42
397.05	387.76
397.429	381.88
397.808	386.4
398.186	399.96
398.565	399.96
398.944	384.14
399.323	387.08
399.701	411.49
400.08	387.53
400.458	398.83
400.837	392.96
401.215	399.51
401.594	418.72
401.972	405.61
402.351	400.64
402.729	428.44
403.107	432.5
403.486	419.17
403.864	420.98
404.242	402.9
404.62	435.89
404.999	438.15
405.377	422.79
405.755	436.12
406.133	455.55
406.511	459.17
406.889	465.95
407.267	450.58
407.645	459.39
408.023	465.27
408.401	459.85
408.779	471.82
409.156	482.67
409.534	510.01
409.912	484.93
410.29	509.34
410.667	508.66
411.045	521.77
411.422	516.34
411.8	520.64
412.178	540.75
412.555	538.94
412.933	571.26
413.31	565.38
413.687	576.23
414.065	578.26
414.442	571.48
414.819	580.52
415.197	607.87
415.574	595.21
415.951	600.41
416.328	632.05
416.705	626.62
417.082	637.92
417.46	638.37
417.837	659.84
418.214	661.2
418.591	667.52
418.967	701.42
419.344	684.47
419.721	697.13
420.098	693.51
420.475	718.14
420.852	724.02
421.228	707.3
421.605	755.43
421.982	771.7
422.358	790.69
422.735	779.39
423.111	787.07
423.488	819.61
423.864	808.31
424.241	843.34
424.617	862.55
424.994	863.45
425.37	883.56
425.746	883.56
426.123	904.13
426.499	918.59
426.875	915.43
427.251	949.1
427.627	958.36
428.003	975.99
428.379	985.48
428.756	985.93
429.132	1014.86
429.507	982.32
429.883	1060.06
430.259	1029.32
430.635	1045.59
431.011	1069.32
431.387	1070.68
431.763	1095.54
432.138	1105.03
432.514	1095.76
432.89	1113.61
433.265	1170.11
433.641	1180.96
434.016	1187.51
434.392	1232.48
434.767	1251.24
435.143	1276.1
435.518	1253.5
435.894	1296.21
436.269	1346.83
436.644	1328.52
437.02	1360.39
437.395	1370.33
437.77	1379.37
438.145	1436.77
438.52	1470.67
438.895	1495.07
439.271	1480.84
439.646	1506.6
440.021	1549.08
440.395	1590.89
440.77	1584.79
441.145	1580.95
441.52	1626.6
441.895	1612.81
442.27	1661.62
442.645	1709.31
443.019	1690.55
443.394	1701.62
443.769	1718.57
444.143	1682.87
444.518	1775.97
444.892	1737.33
445.267	1818.68
445.641	1784.33
446.016	1816.65
446.39	1842.18
446.764	1870.66
447.139	1839.92
447.513	1846.48
447.887	1878.11
448.262	1891.67
448.636	1929.64
449.01	1929.41
449.384	1934.61
449.758	1964.21
450.132	1994.04
450.506	2018.22
450.88	2014.83
451.254	2014.83
451.628	2034.95
452.002	2090.54
452.376	2108.84
452.75	2133.93
453.123	2152.01
453.497	2209.86
453.871	2174.15
454.244	2217.09
454.618	2257.09
454.992	2289.63
455.365	2283.98
455.739	2383.41
456.112	2370.3
456.486	2379.8
456.859	2394.49
457.232	2432.68
457.606	2416.18
457.979	2480.58
458.352	2549.06
458.725	2568.49
459.099	2572.56
459.472	2615.5
459.845	2637.64
460.218	2680.35
460.591	2723.52
460.964	2711.31
461.337	2743.4
461.71	2833.57
462.083	2850.97
462.456	2848.26
462.829	2903.17
463.201	2923.51
463.574	2933.68
463.947	2988.14
464.32	3026.56
464.692	3061.13
465.065	3123.73
465.438	3173.67
465.81	3228.59
466.183	3200.57
466.555	3328.47
466.928	3315.14
467.3	3313.1
467.672	3360.34
468.045	3495.02
468.417	3485.76
468.789	3551.97
469.161	3567.34
469.534	3616.37
469.906	3726.2
470.278	3751.74
470.65	3752.64
471.022	3814.56
471.394	3933.65
471.766	3947.89
472.138	3975.01
472.51	4063.14
472.882	4142.69
473.253	4191.95
473.625	4245.06
473.997	4320.54
474.369	4356.02
474.74	4439.4
475.112	4476.92
475.484	4582.9
475.855	4653.18
476.227	4700.41
476.598	4879.84
476.97	4861.76
477.341	4981.99
477.713	5041.2
478.084	5085.71
478.455	5271.25
478.827	5275.99
479.198	5440.96
479.569	5428.3
479.94	5552.82
480.311	5661.29
480.682	5762.76
481.053	5927.5
481.424	6027.84
481.795	6079.59
482.166	6098.57
482.537	6223.99
482.908	6309.86
483.279	6367.26
483.65	6539.91
484.021	6639.8
484.391	6730.87
484.762	6807.93
485.133	6829.4
485.503	6940.35
485.874	7120.69
486.244	7153.91
486.615	7257.63
486.985	7378.08
487.356	7554.58
487.726	7619.88
488.097	7741.92
488.467	7755.93
488.837	7950.5
489.207	8017.84
489.578	8150.72
489.948	8201.34
490.318	8311.84
490.688	8369.47
491.058	8493.08
491.428	8574.44
491.798	8637.48
492.168	8790.7
492.538	8837.93
492.908	8891.94
493.278	9032.28
493.648	9089.22
494.017	9153.18
494.387	9239.95
494.757	9343
495.126	9388.88
495.496	9327.86
495.866	9499.16
496.235	9481.3
496.605	9708.42
496.974	9673.62
497.344	9747.29
497.713	9755.87
498.082	9793.16
498.452	9923.1
498.821	9957.68
499.19	9932.14
499.559	10004.23
499.928	10145.24
500.298	10139.14
500.667	10220.27
501.036	10106.37
501.405	10310.89
501.774	10240.15
502.143	10266.82
502.512	10390.88
502.88	10386.82
503.249	10401.73
503.618	10458.68
503.987	10539.58
504.356	10485.8
504.724	10592.24
505.093	10644.21
505.462	10568.06
505.83	10585.46
506.199	10639.47
506.567	10756.75
506.936	10707.26
507.304	10809.86
507.672	10765.56
508.041	10869.29
508.409	10862.51
508.777	10962.4
509.145	10935.28
509.514	10928.95
509.882	10968.27
510.25	10982.28
510.618	11033.81
510.986	11003.3
511.354	11043.52
511.722	11047.82
512.09	11165.33
512.458	11082.17
512.826	11167.36
513.193	11156.06
513.561	11117.87
513.929	11256.17
514.297	11206.68
514.664	11288.94
515.032	11258.21
515.4	11220.02
515.767	11319.67
516.135	11315.15
516.502	11262.73
516.869	11345.89
517.237	11357.41
517.604	11263.4
517.972	11394.47
518.339	11280.13
518.706	11327.58
519.073	11281.26
519.44	11364.87
519.808	11426.11
520.175	11358.09
520.542	11456.62
520.909	11398.32
521.276	11373.46
521.643	11453.68
522.009	11488.26
522.376	11501.59
522.743	11445.77
523.11	11496.84
523.477	11518.54
523.843	11497.52
524.21	11547.24
524.577	11555.15
524.943	11527.8
525.31	11516.73
525.676	11529.84
526.043	11630.17
526.409	11550.4
526.776	11558.54
527.142	11471.99
527.508	11436.73
527.874	11504.3
528.241	11491.65
528.607	11490.74
528.973	11446.68
529.339	11434.25
529.705	11492.78
530.071	11467.69
530.437	11451.2
530.803	11389.28
531.169	11424.76
531.535	11327.36
531.901	11301.14
532.267	11301.6
532.632	11254.37
532.998	11203.74
533.364	11178.21
533.73	11146.8
534.095	11198.55
534.461	11218.89
534.826	11125.78
535.192	11060.92
535.557	11106.8
535.923	10966.92
536.288	10847.82
536.653	10961.27
537.019	10897.54
537.384	10851.66
537.749	10778.67
538.114	10654.83
538.479	10643.99
538.845	10691.22
539.21	10521.73
539.575	10560.6
539.94	10487.38
540.305	10425.69
540.67	10376.87
541.034	10350.66
541.399	10317.89
541.764	10283.54
542.129	10304.56
542.494	10134.85
542.858	10089.88
543.223	10090.33
543.587	10114.06
543.952	10052.81
544.316	9928.07
544.681	9850.56
545.045	9826.38
545.41	9816.44
545.774	9725.37
546.138	9689.21
546.503	9702.09
546.867	9538.48
547.231	9582.32
547.595	9543
547.959	9441.53
548.324	9409.67
548.688	9356.79
549.052	9286.28
549.416	9282.67
549.779	9169.22
550.143	9219.62
550.507	9157.25
550.871	9103.69
551.235	9078.6
551.599	9055.55
551.962	8987.31
552.326	8927.19
552.689	8900.98
553.053	8863.92
553.417	8744.15
553.78	8882.45
554.143	8745.28
554.507	8706.64
554.87	8757.03
555.234	8748.44
555.597	8569.69
555.96	8567.66
556.323	8605.4
556.686	8543.02
557.05	8524.27
557.413	8487.43
557.776	8450.37
558.139	8473.2
558.502	8432.52
558.865	8438.17
559.228	8429.58
559.59	8336.93
559.953	8308.23
560.316	8340.54
560.679	8336.93
561.041	8316.14
561.404	8313.88
561.767	8329.7
562.129	8244.5
562.492	8283.14
562.854	8202.47
563.217	8179.64
563.579	8193.2
563.941	8188.23
564.304	8192.52
564.666	8210.38
565.028	8134
565.39	8125.86
565.753	8143.03
566.115	8188.23
566.477	8177.61
566.839	8139.87
567.201	8180.77
567.563	8136.48
567.925	8173.99
568.287	8192.3
568.648	8153.43
569.01	8146.88
569.372	8197.27
569.734	8104.62
570.095	8148.23
570.457	8152.07
570.819	8173.99
571.18	8178.51
571.542	8119.53
571.903	8103.04
572.265	8140.1
572.626	8138.06
572.987	8137.61
573.349	8040.66
573.71	8139.42
574.071	8054
574.432	8089.93
574.794	8163.37
575.155	8125.18
575.516	8033.21
575.877	8094.45
576.238	8079.08
576.599	8145.52
576.96	8141.68
577.32	8063.04
577.681	8119.98
578.042	8071.17
578.403	8049.48
578.763	8110.72
579.124	8043.15
579.485	8092.41
579.845	8069.82
580.206	8092.41
580.566	8072.08
580.927	8141.9
581.287	8120.89
581.648	8044.51
582.008	8088.35
582.368	8036.37
582.728	8029.59
583.089	7975.13
583.449	8017.61
583.809	7992.76
584.169	8017.39
584.529	8020.33
584.889	7988.24
585.249	7933.55
585.609	7893.78
585.969	7921.57
586.329	7939.65
586.688	7945.75
587.048	7936.94
587.408	7889.03
587.768	7851.29
588.127	7886.77
588.487	7811.29
588.846	7869.37
589.206	7793.67
589.565	7771.07
589.925	7810.16
590.284	7823.04
590.643	7853.32
591.003	7872.99
591.362	7812.42
591.721	7774.46
592.08	7856.71
592.44	7809.94
592.799	7799.54
593.158	7707.11
593.517	7752.08
593.876	7774.46
594.235	7779.88
594.593	7712.76
594.952	7725.42
595.311	7704.18
595.67	7727.68
596.029	7777.85
596.387	7735.36
596.746	7731.29
597.104	7678.87
597.463	7651.3
597.822	7672.99
598.18	7607.46
598.538	7641.35
598.897	7647.68
599.255	7588.7
599.613	7713.44
599.972	7664.85
600.33	7613.1
600.688	7642.48
601.046	7651.75
601.404	7653.56
601.762	7600.45
602.12	7625.53
602.478	7654.91
602.836	7596.38
603.194	7609.94
603.552	7655.82
603.91	7491.75
604.268	7604.74
604.625	7529.27
604.983	7607.46
605.341	7558.64
605.698	7605.65
606.056	7639.54
606.413	7536.5
606.771	7594.35
607.128	7662.82
607.485	7563.84
607.843	7545.54
608.2	7629.6
608.557	7583.05
608.914	7625.99
609.272	7528.14
609.629	7632.77
609.986	7623.73
610.343	7576.27
610.7	7654.46
611.057	7590.05
611.414	7607
611.771	7595.03
612.127	7687.68
612.484	7732.65
612.841	7678.87
613.198	7673.89
613.554	7676.61
613.911	7696.94
614.267	7642.26
614.624	7717.28
614.98	7595.93
615.337	7723.38
615.693	7668.02
616.05	7651.07
616.406	7711.18
616.762	7671.18
617.118	7660.56
617.475	7650.39
617.831	7677.96
618.187	7741.46
618.543	7747.56
618.899	7754.12
619.255	7722.25
619.611	7741.92
619.967	7747.56
620.323	7756.15
620.678	7743.27
621.034	7680.9
621.39	7661.24
621.746	7678.41
622.101	7801.8
622.457	7731.75
622.812	7668.24
623.168	7767.23
623.523	7693.33
623.879	7807.22
624.234	7731.29
624.589	7724.06
624.945	7765.19
625.3	7769.48
625.655	7730.39
626.01	7721.35
626.365	7718.64
626.72	7702.59
627.075	7709.83
627.43	7722.03
627.785	7656.04
628.14	7679.77
628.495	7706.44
628.85	7673.22
629.205	7679.77
629.559	7675.93
629.914	7682.71
630.269	7666.21
630.623	7687.68
630.978	7644.74
631.332	7627.79
631.687	7637.51
632.041	7617.17
632.396	7708.24
632.75	7576.72
633.104	7596.38
633.459	7542.82
633.813	7630.51
634.167	7590.51
634.521	7565.65
634.875	7550.73
635.229	7571.07
635.583	7466.89
635.937	7478.87
636.291	7517.74
636.645	7526.1
636.999	7440.23
637.352	7498.76
637.706	7450.62
638.06	7501.24
638.413	7476.39
638.767	7542.82
639.121	7468.25
639.474	7418.08
639.828	7405.88
640.181	7431.64
640.534	7444.52
640.888	7412.21
641.241	7404.52
641.594	7442.49
641.947	7354.81
642.301	7380.34
642.654	7357.29
643.007	7380.12
643.36	7382.15
643.713	7323.62
644.066	7356.61
644.419	7311.42
644.771	7277.29
645.124	7191.2
645.477	7180.35
645.83	7180.8
646.182	7123.63
646.535	7100.8
646.888	7159.56
647.24	7114.81
647.593	7134.7
647.945	7158.65
648.298	7101.03
648.65	7107.58
649.002	7116.62
649.355	7165.66
649.707	7135.6
650.059	7163.85
650.411	7202.72
650.763	7170.86
651.115	7308.25
651.467	7258.76
651.819	7306.45
652.171	7313.9
652.523	7310.74
652.875	7303.73
653.227	7211.53
653.578	7335.6
653.93	7273.68
654.282	7282.94
654.633	7235.94
654.985	7265.09
655.337	7269.84
655.688	7315.49
656.039	7295.37
656.391	7248.14
656.742	7257.18
657.094	7289.27
657.445	7326.33
657.796	7364.98
658.147	7248.59
658.498	7281.59
658.849	7277.29
659.2	7275.26
659.551	7310.97
659.902	7333.79
660.253	7353
660.604	7300.12
660.955	7343.73
661.306	7340.34
661.656	7354.13
662.007	7354.35
662.358	7354.58
662.708	7349.38
663.059	7363.85
663.409	7276.62
663.76	7406.78
664.11	7423.96
664.461	7330.4
664.811	7376.27
665.161	7357.52
665.511	7368.59
665.862	7363.85
666.212	7412.21
666.562	7430.74
666.912	7372.89
667.262	7368.37
667.612	7372.89
667.962	7357.52
668.312	7354.35
668.662	7403.17
669.011	7366.56
669.361	7384.86
669.711	7354.13
670.06	7360.46
670.41	7322.49
670.76	7327.69
671.109	7298.08
671.459	7353.9
671.808	7327.24
672.157	7333.11
672.507	7340.12
672.856	7296.5
673.205	7323.4
673.554	7311.64
673.904	7329.04
674.253	7408.36
674.602	7275.71
674.951	7259.44
675.3	7107.58
675.649	7320.91
675.998	7277.52
676.346	7296.05
676.695	7264.41
677.044	7247.01
677.393	7282.27
677.741	7313.45
678.09	7206.11
678.438	7222.61
678.787	7239.1
679.135	7240.23
679.484	7154.13
679.832	7166.11
680.181	7140.8
680.529	7188.94
680.877	7099.67
681.225	7123.85
681.573	7159.56
681.922	7078.2
682.27	7101.03
682.618	7095.83
682.966	7100.58
683.314	7131.54
683.661	7005.89
684.009	6995.49
684.357	7009.96
684.705	7052.67
685.053	6996.62
685.4	6983.52
685.748	6897.19
686.095	6914.14
686.443	6845.67
686.79	6895.84
687.138	6903.07
687.485	6901.26
687.832	6846.8
688.18	6869.85
688.527	6807.93
688.874	6805.89
689.221	6736.52
689.568	6740.81
689.915	6760.25
690.262	6743.3
690.609	6679.8
690.956	6706.01
691.303	6653.36
691.65	6594.37
691.997	6714.82
692.344	6608.84
692.69	6621.94
693.037	6578.1
693.383	6489.74
693.73	6534.72
694.077	6460.82
694.423	6479.35
694.769	6496.75
695.116	6389.41
695.462	6385.11
695.808	6399.58
696.155	6446.13
696.501	6333.59
696.847	6318.9
697.193	6281.61
697.539	6252.46
697.885	6280.94
698.231	6266.47
698.577	6161.62
698.923	6189.64
699.269	6175.18
699.614	6110.32
699.96	6138.79
700.306	6117.33
700.651	6064.67
700.997	5967.05
701.342	6000.27
701.688	6037.55
702.033	6023.32
702.379	5979.48
702.724	5956.43
703.069	5961.17
703.415	5894.51
703.76	5842.3
704.105	5861.96
704.45	5837.78
704.795	5800.05
705.14	5816.99
705.485	5777.45
705.83	5779.93
706.175	5780.16
706.52	5716.88
706.865	5700.61
707.209	5741.97
707.554	5694.06
707.899	5693.83
708.243	5621.07
708.588	5648.64
708.932	5632.37
709.277	5572.25
709.621	5584.23
709.966	5542.88
710.31	5584.23
710.654	5508.75
710.998	5528.41
711.342	5495.19
711.687	5514.63
712.031	5459.49
712.375	5449.09
712.719	5465.36
713.063	5439.6
713.407	5461.75
713.75	5439.15
714.094	5420.39
714.438	5377.23
714.782	5429.21
715.125	5359.15
715.469	5367.97
715.812	5341.07
716.156	5346.95
716.499	5318.25
716.843	5387.85
717.186	5313.5
717.53	5362.99
717.873	5360.06
718.216	5307.85
718.559	5287.52
718.902	5277.12
719.246	5314.63
719.589	5272.38
719.932	5234.64
720.275	5206.16
720.617	5248.2
720.96	5219.72
721.303	5237.35
721.646	5235.77
721.989	5207.97
722.331	5255.88
722.674	5242.09
723.016	5160.74
723.359	5211.59
723.701	5209.78
724.044	5132.49
724.386	5163.45
724.729	5244.58
725.071	5243.68
725.413	5203.68
725.755	5184.24
726.097	5187.63
726.439	5159.84
726.782	5165.03
727.124	5203.22
727.465	5183.11
727.807	5151.93
728.149	5183.34
728.491	5136.11
728.833	5192.15
729.175	5143.11
729.516	5149.67
729.858	5127.97
730.199	5161.87
730.541	5123.23
730.882	5188.08
731.224	5146.28
731.565	5093.85
731.906	5168.88
732.248	5143.34
732.589	5122.55
732.93	5124.81
733.271	5128.65
733.612	5207.07
733.953	5161.42
734.294	5133.17
734.635	5175.65
734.976	5210.91
735.317	5205.71
735.658	5181.76
735.999	5164.58
736.339	5193.96
736.68	5213.39
737.021	5184.02
737.361	5162.77
737.702	5190.12
738.042	5186.95
738.383	5188.99
738.723	5215.43
739.063	5207.97
739.404	5251.59
739.744	5270.57
740.084	5288.19
740.424	5286.84
740.764	5318.48
741.104	5327.74
741.444	5297.01
741.784	5326.84
742.124	5334.75
742.464	5363.22
742.804	5366.38
743.143	5392.6
743.483	5367.74
743.823	5398.25
744.162	5466.95
744.502	5492.26
744.841	5488.19
745.181	5509.66
745.52	5525.93
745.86	5603.89
746.199	5609.32
746.538	5607.28
746.877	5693.16
747.216	5741.74
747.556	5762.76
747.895	5836.65
748.234	5862.42
748.573	5927.73
748.911	5922.3
749.25	5991.45
749.589	6029.42
749.928	6127.04
750.267	6197.55
750.605	6285.46
750.944	6324.78
751.283	6349.86
751.621	6517.09
751.96	6541.95
752.298	6620.36
752.636	6729.06
752.975	6842.5
753.313	6906
753.651	7085.21
753.989	7111.2
754.327	7216.73
754.666	7297.86
755.004	7415.82
755.342	7588.7
755.679	7692.42
756.017	7752.99
756.355	7979.65
756.693	8072.75
757.031	8255.12
757.368	8338.28
757.706	8540.31
758.044	8665.73
758.381	8827.54
758.719	8912.73
759.056	9113.63
759.394	9286.73
759.731	9387.52
760.068	9560.4
760.405	9705.48
760.743	9844.23
761.08	10137.56
761.417	10200.16
761.754	10498
762.091	10576.64
762.428	10731.89
762.765	10942.06
763.102	11175.72
763.438	11267.47
763.775	11496.17
764.112	11653.22
764.449	11881.24
764.785	11938.41
765.122	12172.08
765.458	12307.67
765.795	12508.8
766.131	12673.54
766.467	12823.14
