Data from hue_300_FLMS001491_00072.txt Node
Date: Tue Feb 07 15:51:11 GMT 2017
User: dcchb
Spectrometer: FLMS00149
Trigger mode: 0
Integration Time (sec): 2.000000E-2
Scans to average: 10
Electric dark correction enabled: true
Nonlinearity correction enabled: false
Boxcar width: 0
XAxis mode: Wavelengths
Number of Pixels in Spectrum: 2048
>>>>>Begin Spectral Data<<<<<
341.393	-21.61
341.776	-21.61
342.16	-21.61
342.543	-49.63
342.927	-79.46
343.31	-74.26
343.693	-68.61
344.077	-92.57
344.46	-60.25
344.843	-36.3
345.226	-36.98
345.61	-19.35
345.993	7.09
346.376	-13.02
346.759	3.02
347.142	26.52
347.525	35.79
347.908	63.59
348.291	80.99
348.674	83.47
349.057	100.87
349.44	129.12
349.823	129.12
350.206	150.59
350.588	189.01
350.971	218.61
351.354	221.32
351.737	233.75
352.119	242.56
352.502	232.17
352.884	276.01
353.267	262.68
353.65	293.18
354.032	272.62
354.414	285.5
354.797	307.65
355.179	308.78
355.562	313.07
355.944	328.44
356.326	334.77
356.709	324.14
357.091	344.03
357.473	326.86
357.855	341.32
358.238	324.82
358.62	345.61
359.002	302.45
359.384	328.44
359.766	338.15
360.148	339.28
360.53	332.96
360.912	330.25
361.294	329.12
361.676	344.48
362.057	313.97
362.439	317.36
362.821	309.23
363.203	329.34
363.584	325.27
363.966	318.49
364.348	318.04
364.729	322.34
365.111	330.92
365.493	316.46
365.874	320.08
366.256	332.05
366.637	308.78
367.019	296.12
367.4	290.92
367.781	312.62
368.163	295.67
368.544	312.84
368.925	320.3
369.306	322.79
369.688	319.62
370.069	304.71
370.45	300.87
370.831	317.59
371.212	301.32
371.593	288.21
371.974	309.68
372.355	312.84
372.736	314.43
373.117	304.71
373.498	302
373.879	303.81
374.26	316.69
374.641	324.6
375.021	309.46
375.402	318.04
375.783	311.26
376.163	302.9
376.544	299.51
376.925	325.95
377.305	327.08
377.686	334.31
378.066	318.04
378.447	324.14
378.827	340.87
379.208	323.69
379.588	313.75
379.968	336.57
380.349	343.13
380.729	320.98
381.109	352.39
381.489	324.37
381.87	323.92
382.25	350.36
382.63	327.31
383.01	329.79
383.39	326.86
383.77	331.6
384.15	329.12
384.53	330.92
384.91	341.09
385.29	322.34
385.67	332.73
386.049	345.16
386.429	319.17
386.809	342.67
387.189	334.09
387.568	328.21
387.948	340.64
388.328	357.14
388.707	346.97
389.087	360.53
389.466	345.61
389.846	362.11
390.225	363.92
390.605	359.85
390.984	356.23
391.363	357.82
391.743	380.87
392.122	352.62
392.501	367.08
392.881	374.54
393.26	385.84
393.639	381.32
394.018	379.96
394.397	367.76
394.776	363.24
395.155	368.21
395.534	387.87
395.913	374.09
396.292	391.94
396.671	374.99
397.05	386.52
397.429	384.93
397.808	390.58
398.186	432.62
398.565	394.2
398.944	420.86
399.323	400.3
399.701	410.47
400.08	407.31
400.458	395.33
400.837	388.78
401.215	402.56
401.594	408.21
401.972	426.29
402.351	439.17
402.729	427.87
403.107	414.76
403.486	432.84
403.864	426.74
404.242	445.95
404.62	442.56
404.999	454.31
405.377	424.48
405.755	453.41
406.133	462.45
406.511	452.28
406.889	454.76
407.267	458.15
407.645	466.97
408.023	465.84
408.401	473.97
408.779	504.7
409.156	523.69
409.534	501.31
409.912	506.74
410.29	505.16
410.667	519.17
411.045	532.95
411.422	528.43
411.8	537.7
412.178	552.84
412.555	547.64
412.933	570.01
413.31	562.1
413.687	544.25
414.065	560.3
414.442	581.54
414.819	611.59
415.197	610.01
415.574	626.06
415.951	626.96
416.328	617.47
416.705	666.96
417.082	637.36
417.46	657.02
417.837	664.93
418.214	677.58
418.591	693.17
418.967	685.26
419.344	702.21
419.721	709.22
420.098	707.64
420.475	737.92
420.852	728.2
421.228	724.59
421.605	737.69
421.982	769.78
422.358	781.53
422.735	764.58
423.111	794.41
423.488	800.29
423.864	798.71
424.241	810.68
424.617	808.65
424.994	828.99
425.37	839.16
425.746	835.32
426.123	843.9
426.499	885.26
426.875	868.08
427.251	885.26
427.627	878.25
428.003	906.73
428.379	919.38
428.756	933.62
429.132	909.67
429.507	940.17
429.883	970
430.259	950.34
430.635	971.13
431.011	974.52
431.387	1021.53
431.763	1012.94
432.138	1022.88
432.514	1047.06
432.89	1048.19
433.265	1081.86
433.641	1086.84
434.016	1088.64
434.392	1109.89
434.767	1103.56
435.143	1126.38
435.518	1127.74
435.894	1122.77
436.269	1157.57
436.644	1176.1
437.02	1177.45
437.395	1195.53
437.77	1199.38
438.145	1192.37
438.52	1221.52
438.895	1215.87
439.271	1214.74
439.646	1265.59
440.021	1251.58
440.395	1258.13
440.77	1244.8
441.145	1282.08
441.52	1276.89
441.895	1308.75
442.27	1301.75
442.645	1310.56
443.019	1319.6
443.394	1312.59
443.769	1329.32
444.143	1331.12
444.518	1347.62
444.892	1332.25
445.267	1372.03
445.641	1361.18
446.016	1355.53
446.39	1378.81
446.764	1374.06
447.139	1369.09
447.513	1383.1
447.887	1399.37
448.262	1404.12
448.636	1406.83
449.01	1418.13
449.384	1420.16
449.758	1413.83
450.132	1426.49
450.506	1463.55
450.88	1458.13
451.254	1425.81
451.628	1458.8
452.002	1451.35
452.376	1474.85
452.75	1488.41
453.123	1457.22
453.497	1506.94
453.871	1503.55
454.244	1529.08
454.618	1547.39
454.992	1529.54
455.365	1529.76
455.739	1557.11
456.112	1551.46
456.486	1577.44
456.859	1596.43
457.232	1604.56
457.606	1627.16
457.979	1616.77
458.352	1636.65
458.725	1672.13
459.099	1660.83
459.472	1734.73
459.845	1699.93
460.218	1702.86
460.591	1722.07
460.964	1739.7
461.337	1740.83
461.71	1739.93
462.083	1781.73
462.456	1805.46
462.829	1769.08
463.201	1802.52
463.574	1846.82
463.947	1814.27
464.32	1835.06
464.692	1878.91
465.065	1855.18
465.438	1861.28
465.81	1913.93
466.183	1914.84
466.555	1917.55
466.928	1948.51
467.3	1970.65
467.672	1974.04
468.045	1989.18
468.417	2006.59
468.789	2010.2
469.161	2031.9
469.534	2034.61
469.906	2085.45
470.278	2104.66
470.65	2136.3
471.022	2132.46
471.394	2148.5
471.766	2164.1
472.138	2161.61
472.51	2197.32
472.882	2253.36
473.253	2217.43
473.625	2296.3
473.997	2297.88
474.369	2329.74
474.74	2310.98
475.112	2382.85
475.484	2413.13
475.855	2444.54
476.227	2430.53
476.598	2455.61
476.97	2474.37
477.341	2534.71
477.713	2546.23
478.084	2580.36
478.455	2594.59
478.827	2657.87
479.198	2700.8
479.569	2639.34
479.94	2730.41
480.311	2753.01
480.682	2783.97
481.053	2853.34
481.424	2866.9
481.795	2909.61
482.166	2920.23
482.537	2920.69
482.908	2943.74
483.279	2969.27
483.65	3017.41
484.021	3066.67
484.391	3068.03
484.762	3071.87
485.133	3109.38
485.503	3145.31
485.874	3205.88
486.244	3221.69
486.615	3248.81
486.985	3285.65
487.356	3317.51
487.726	3328.13
488.097	3383.95
488.467	3392.09
488.837	3421.69
489.207	3452.88
489.578	3527.9
489.948	3505.76
490.318	3525.19
490.688	3546.43
491.058	3631.63
491.428	3621.23
491.798	3652.64
492.168	3705.52
492.538	3727.44
492.908	3723.83
493.278	3788.01
493.648	3791.4
494.017	3822.36
494.387	3859.87
494.757	3882.24
495.126	3872.53
495.496	3916.14
495.866	3925.41
496.235	3940.32
496.605	3996.14
496.974	4009.24
497.344	4043.82
497.713	4057.38
498.082	4059.41
498.452	4049.02
498.821	4094.67
499.19	4109.36
499.559	4171.73
499.928	4128.11
500.298	4156.81
500.667	4172.86
501.036	4198.39
501.405	4159.52
501.774	4245.85
502.143	4248.33
502.512	4226.64
502.88	4248.79
503.249	4250.59
503.618	4274.32
503.987	4321.33
504.356	4301.67
504.724	4327.88
505.093	4337.15
505.462	4397.03
505.83	4370.59
506.199	4441.78
506.567	4458.72
506.936	4441.1
507.304	4483.58
507.672	4449.69
508.041	4495.56
508.409	4504.15
508.777	4560.87
509.145	4560.87
509.514	4600.42
509.882	4562.22
510.25	4593.41
510.618	4594.77
510.986	4594.77
511.354	4646.06
511.722	4645.84
512.09	4692.39
512.458	4682.67
512.826	4644.48
513.193	4718.83
513.561	4701.66
513.929	4716.8
514.297	4754.76
514.664	4784.59
515.032	4759.06
515.4	4795.89
515.767	4808.32
516.135	4759.28
516.502	4804.03
516.869	4819.62
517.237	4814.87
517.604	4844.03
517.972	4863.46
518.339	4881.99
518.706	4883.12
519.073	4894.19
519.44	4932.84
519.808	4963.8
520.175	4900.52
520.542	4995.89
520.909	5044.7
521.276	4963.12
521.643	4971.93
522.009	5059.16
522.376	5061.65
522.743	5084.24
523.11	5098.71
523.477	5168.54
523.843	5183.68
524.21	5213.51
524.577	5254.86
524.943	5241.3
525.31	5260.29
525.676	5308.87
526.043	5328.08
526.409	5358.59
526.776	5360.85
527.142	5383.22
527.508	5436.78
527.874	5432.26
528.241	5487.17
528.607	5453.95
528.973	5518.81
529.339	5514.52
529.705	5532.37
530.071	5629.09
530.437	5594.29
530.803	5651.91
531.169	5650.11
531.535	5607.62
531.901	5683.78
532.267	5681.07
532.632	5747.5
532.998	5811.46
533.364	5812.81
533.73	5831.34
534.095	5838.8
534.461	5850.33
534.826	5880.38
535.192	5933.26
535.557	5952.7
535.923	5954.5
536.288	5937.33
536.653	6001.96
537.019	5984.56
537.384	6043.32
537.749	6063.2
538.114	6077.44
538.479	6093.03
538.845	6133.71
539.21	6108.4
539.575	6132.35
539.94	6177.55
540.305	6195.18
540.67	6210.09
541.034	6155.4
541.399	6285.57
541.764	6276.53
542.129	6296.87
542.494	6345
542.858	6413.48
543.223	6385.23
543.587	6426.58
543.952	6413.7
544.316	6505.45
544.681	6498.22
545.045	6498.9
545.41	6568.5
545.774	6597.88
546.138	6576.63
546.503	6559.23
546.867	6623.87
547.231	6682.39
547.595	6715.61
547.959	6686.69
548.324	6704.77
548.688	6691.21
549.052	6808.27
549.416	6749.51
549.779	6714.71
550.143	6852.11
550.507	6803.52
550.871	6871.09
551.235	6865.89
551.599	6905.67
551.962	6904.76
552.326	6946.12
552.689	6992.44
553.053	6932.33
553.417	7003.74
553.78	7055.72
554.143	7024.76
554.507	7131.2
554.87	7046.68
555.234	7157.64
555.597	7115.15
555.96	7152.67
556.323	7182.27
556.686	7114.7
557.05	7273.34
557.413	7245.32
557.776	7259.78
558.139	7276.05
558.502	7262.27
558.865	7253.45
559.228	7345.88
559.59	7370.51
559.953	7375.71
560.316	7429.49
560.679	7417.52
561.041	7435.14
561.404	7530.73
561.767	7558.98
562.129	7514.01
562.492	7664.74
562.854	7535.03
563.217	7544.52
563.579	7607.57
563.941	7634.69
564.304	7668.13
564.666	7762.37
565.028	7693.22
565.39	7729.6
565.753	7714.46
566.115	7806.66
566.477	7797.39
566.839	7880.78
567.201	7871.52
567.563	7898.63
567.925	7924.85
568.287	7966.65
568.648	8015.92
569.01	7987.67
569.372	8103.6
569.734	8062.47
570.095	8154.9
570.457	8135.01
570.819	8110.38
571.18	8194.22
571.542	8245.74
571.903	8304.5
572.265	8384.5
572.626	8389.02
572.987	8378.62
573.349	8456.59
573.71	8557.83
574.071	8542.46
574.432	8615.68
574.794	8679.4
575.155	8732.06
575.516	8735.45
575.877	8849.57
576.238	8926.86
576.599	9020.86
576.96	9016.12
577.32	9120.07
577.681	9213.18
578.042	9282.33
578.403	9430.8
578.763	9381.76
579.124	9538.59
579.485	9678.7
579.845	9823.56
580.206	9873.5
580.566	10042.98
580.927	10120.72
581.287	10285.01
581.648	10342.86
582.008	10561.16
582.368	10666.7
582.728	10835.28
583.089	10999.12
583.449	11150.3
583.809	11354.81
584.169	11496.05
584.529	11680.68
584.889	11937.85
585.249	12096.94
585.609	12300.33
585.969	12531.05
586.329	12618.06
586.688	12916.13
587.048	13199.96
587.408	13399.96
587.768	13531.93
588.127	13832.72
588.487	14112.93
588.846	14373.04
589.206	14509.53
589.565	14825.46
589.925	15163.08
590.284	15361.94
590.643	15664.31
591.003	15942.49
591.362	16258.87
591.721	16549.25
592.08	16795.12
592.44	17114.21
592.799	17471.94
593.158	17664.25
593.517	18052.72
593.876	18285.71
594.235	18548.98
594.593	18861.06
594.952	19214.27
595.311	19439.8
595.67	19770.86
596.029	20141.7
596.387	20341.7
596.746	20836.83
597.104	20917.5
597.463	21223.03
597.822	21489.92
598.18	21742.11
598.538	22134.42
598.897	22460.06
599.255	22558.59
599.613	23156.31
599.972	23363.09
600.33	23583.65
600.688	23938.89
601.046	24330.97
601.404	24573.9
601.762	24803.5
602.12	25186.32
602.478	25397.84
602.836	25759.86
603.194	25765.51
603.552	26223.35
603.91	26252.28
604.268	26819.27
604.625	26790.79
604.983	27292.47
605.341	27351
605.698	27779.47
606.056	27956.86
606.413	28077.54
606.771	28505.1
607.128	28703.96
607.485	28901.25
607.843	29090.62
608.2	29358.63
608.557	29689.7
608.914	29905.74
609.272	30078.16
609.629	30351.6
609.986	30678.6
610.343	30734.87
610.7	31114.07
611.057	31218.7
611.414	31498.92
611.771	31580.27
612.127	31846.48
612.484	31936.42
612.841	32218.45
613.198	32197.2
613.554	32522.62
613.911	32889.39
614.267	33025.21
614.624	33039.22
614.98	33336.84
615.337	33585.64
615.693	33451.41
616.05	33767.78
616.406	33991.96
616.762	34131.62
617.118	34087.1
617.475	34221.11
617.831	34522.79
618.187	34681.43
618.543	34784.48
618.899	35053.85
619.255	35170.23
619.611	35236.67
619.967	35279.84
620.323	35509.43
620.678	35620.17
621.034	35626.94
621.39	35663.55
621.746	35819.26
622.101	36223.09
622.457	35890.89
622.812	36304.44
623.168	36425.57
623.523	36591.89
623.879	36592.12
624.234	36493.36
624.589	36711.21
624.945	36788.27
625.3	36984.65
625.655	36934.25
626.01	36951.2
626.365	37193.23
626.72	37101.71
627.075	37173.8
627.43	37181.03
627.785	37044.76
628.14	37265.55
628.495	37471.64
628.85	37467.8
629.205	37391.87
629.559	37624.41
629.914	37548.25
630.269	37677.51
630.623	37635.25
630.978	37492.66
631.332	37640.9
631.687	37752.31
632.041	37698.3
632.396	37836.15
632.75	37488.59
633.104	37811.29
633.459	37661.02
633.813	37764.97
634.167	37661.02
634.521	37780.79
634.875	37960.22
635.229	37871.86
635.583	37632.32
635.937	37799.54
636.291	37641.35
636.645	37819.88
636.999	37760.45
637.352	37806.77
637.706	37653.56
638.06	37854.68
638.413	37734.01
638.767	37820.33
639.121	37820.79
639.474	37501.7
639.828	37572.66
640.181	37895.36
640.534	37697.62
640.888	37653.11
641.241	37477.52
641.594	37541.7
641.947	37572.43
642.301	37615.59
642.654	37752.09
643.007	37682.26
643.36	37712.54
643.713	37665.99
644.066	37850.16
644.419	37534.24
644.771	37357.75
645.124	37058.77
645.477	36930.41
645.83	36824.43
646.182	36707.59
646.535	36476.19
646.888	36718.89
647.24	36401.61
647.593	36601.38
647.945	36560.25
648.298	36587.6
648.65	36475.74
649.002	36315.06
649.355	36582.4
649.707	36493.14
650.059	36699.23
650.411	37060.35
650.763	37028.04
651.115	37368.59
651.467	37318.43
651.819	37312.55
652.171	37262.38
652.523	37279.78
652.875	37379.67
653.227	37077.3
653.578	37380.12
653.93	37244.08
654.282	37127.92
654.633	36993.01
654.985	37190.75
655.337	37121.14
655.688	37015.38
656.039	37352.32
656.391	36990.52
656.742	37068.04
657.094	37129.5
657.445	37172.89
657.796	37047.47
658.147	37040.01
658.498	37052.67
658.849	37218.32
659.2	36954.82
659.551	37026
659.902	37166.79
660.253	37041.82
660.604	37120.01
660.955	36922.05
661.306	36998.66
661.656	36937.19
662.007	36955.27
662.358	37153.91
662.708	36902.39
663.059	37040.24
663.409	36818.55
663.76	37010.64
664.11	36994.14
664.461	36924.76
664.811	36888.38
665.161	36895.84
665.511	36960.02
665.862	36971.09
666.212	36991.88
666.562	37020.35
666.912	37011.09
667.262	37096.28
667.612	36947.14
667.962	37004.31
668.312	36983.29
668.662	37110.97
669.011	36951.88
669.361	36967.25
669.711	36927.93
670.06	36898.55
670.41	36714.37
670.76	36826.01
671.109	36919.57
671.459	36775.61
671.808	36723.41
672.157	36830.53
672.507	36606.58
672.856	36451.56
673.205	36718.44
673.554	36870.3
673.904	36686.13
674.253	36845.67
674.602	36772
674.951	36311.22
675.3	35918.91
675.649	36577.88
675.998	36513.7
676.346	36509.41
676.695	36603.19
677.044	36381.95
677.393	36577.88
677.741	36581.04
678.09	36468.28
678.438	36456.53
678.787	36420.82
679.135	36453.36
679.484	36082.98
679.832	36363.65
680.181	36055.86
680.529	36206.59
680.877	36068.06
681.225	36099.02
681.573	36369.52
681.922	36022.64
682.27	36024.9
682.618	35925.92
682.966	35833.72
683.314	35968.86
683.661	35923.89
684.009	35722.99
684.357	35567.29
684.705	35602.31
685.053	35703.55
685.4	35575.87
685.748	35350.34
686.095	35365.48
686.443	35279.16
686.79	35179.95
687.138	35375.43
687.485	35173.85
687.832	35084.36
688.18	35264.24
688.527	34856.8
688.874	34917.58
689.221	34774.31
689.568	34814.99
689.915	34629.91
690.262	34622.9
690.609	34518.27
690.956	34478.05
691.303	34376.13
691.65	34357.83
691.997	34348.11
692.344	34155.12
692.69	34014.33
693.037	34142.24
693.383	33865.86
693.73	33949.25
694.077	33795.35
694.423	33831.74
694.769	33645.08
695.116	33668.58
695.462	33473.1
695.808	33445.76
696.155	33478.98
696.501	33283.5
696.847	33203.05
697.193	33003.96
697.539	33107.46
697.885	32813.46
698.231	32767.13
698.577	32760.13
698.923	32746.57
699.269	32523.75
699.614	32362.62
699.96	32315.39
700.306	32295.05
700.651	32312
700.997	32138.67
701.342	32045.12
701.688	31971.22
702.033	31962.63
702.379	31938.45
702.724	31683.77
703.069	31760.15
703.415	31425.02
703.76	31562.64
704.105	31502.99
704.45	31343.22
704.795	31124.46
705.14	31137.8
705.485	31103.67
705.83	31020.51
706.175	31014.86
706.52	30775.09
706.865	30859.39
707.209	30766.28
707.554	30540.07
707.899	30735.77
708.243	30606.06
708.588	30567.64
708.932	30296.92
709.277	30467.31
709.621	30377.14
709.966	30188.9
710.31	30307.31
710.654	29968.79
710.998	30131.04
711.342	30082.68
711.687	29994.55
712.031	29879.3
712.375	29711.85
712.719	29817.83
713.063	29599.53
713.407	29823.26
713.75	29563.38
714.094	29617.61
714.438	29539.65
714.782	29423.72
715.125	29335.13
715.469	29396.37
715.812	29313.66
716.156	29117.74
716.499	29185.53
716.843	29149.37
717.186	28906.44
717.53	29090.62
717.873	29153.44
718.216	29001.81
718.559	28839.78
718.902	28629.61
719.246	28801.36
719.589	28582.16
719.932	28710.74
720.275	28565.89
720.617	28631.42
720.96	28460.81
721.303	28442.5
721.646	28441.14
721.989	28293.13
722.331	28320.02
722.674	28245.44
723.016	28323.63
723.359	28200.02
723.701	28200.25
724.044	28076.18
724.386	27843.42
724.729	28025.56
725.071	28050.19
725.413	28017.65
725.755	27875.28
726.097	27795.74
726.439	27675.06
726.782	27744.89
727.124	27854.95
727.465	27670.32
727.807	27689.53
728.149	27566.59
728.491	27501.96
728.833	27585.12
729.175	27516.88
729.516	27506.03
729.858	27325.24
730.199	27440.49
730.541	27314.17
730.882	27426.71
731.224	27422.87
731.565	27177.22
731.906	27187.39
732.248	27195.3
732.589	27159.6
732.93	27003.67
733.271	27056.1
733.612	27049.54
733.953	27049.99
734.294	26878.93
734.635	26904.91
734.976	26834.63
735.317	26813.84
735.658	26800.51
735.999	26753.73
736.339	26679.84
736.68	26733.62
737.021	26677.58
737.361	26575.88
737.702	26608.88
738.042	26602.32
738.383	26484.36
738.723	26626.96
739.063	26549.22
739.404	26563.45
739.744	26501.53
740.084	26459.28
740.424	26496.56
740.764	26344.48
741.104	26511.03
741.444	26287.76
741.784	26146.06
742.124	26231.49
742.464	26197.36
742.804	26157.36
743.143	26021.32
743.483	26117.59
743.823	26063.13
744.162	26048.89
744.502	26017.03
744.841	25834.21
745.181	26016.8
745.52	25797.82
745.86	25925.28
746.199	25925.05
746.538	25794.21
746.877	25873.08
747.216	25813.19
747.556	25773.64
747.895	25702.69
748.234	25667.21
748.573	25597.15
748.911	25526.42
749.25	25553.09
749.589	25654.1
749.928	25528.68
750.267	25608.22
750.605	25623.59
750.944	25443.94
751.283	25326.88
751.621	25611.84
751.96	25326.88
752.298	25314.67
752.636	25284.62
752.975	25214.56
753.313	25220.66
753.651	25326.65
753.989	25107.9
754.327	25101.35
754.666	25005.53
755.004	25097.73
755.342	25095.7
755.679	24930.28
756.017	24811.64
756.355	25087.56
756.693	24966.21
757.031	24975.93
757.368	24830.39
757.706	24814.12
758.044	24733.45
758.381	24686.89
758.719	24521.93
759.056	24706.55
