Data from hue_38_FLMS001491_00093.txt Node
Date: Tue Feb 07 17:32:14 GMT 2017
User: dcchb
Spectrometer: FLMS00149
Trigger mode: 0
Integration Time (sec): 2.000000E-2
Scans to average: 10
Electric dark correction enabled: true
Nonlinearity correction enabled: false
Boxcar width: 0
XAxis mode: Wavelengths
Number of Pixels in Spectrum: 2048
>>>>>Begin Spectral Data<<<<<
341.393	-15.27
341.776	-15.27
342.16	-15.27
342.543	-54.36
342.927	-66.57
343.31	-78.09
343.693	-74.48
344.077	-59.11
344.46	-54.81
344.843	-49.39
345.226	-41.71
345.61	-29.28
345.993	-23.63
346.376	-27.7
346.759	6.43
347.142	28.8
347.525	60.89
347.908	67.44
348.291	61.34
348.674	93.88
349.057	119.42
349.44	107.21
349.823	151.96
350.206	157.16
350.588	215.46
350.971	190.15
351.354	237.83
351.737	238.06
352.119	244.39
352.502	259.3
352.884	286.42
353.267	290.94
353.65	293.2
354.032	310.37
354.414	306.98
354.797	327.77
355.179	311.5
355.562	343.14
355.944	335.01
356.326	348.11
356.709	343.14
357.091	331.84
357.473	336.81
357.855	340.2
358.238	360.09
358.62	350.15
359.002	347.89
359.384	342.01
359.766	341.11
360.148	370.71
360.53	355.34
360.912	348.79
361.294	357.15
361.676	351.73
362.057	349.92
362.439	339.07
362.821	325.74
363.203	338.4
363.584	328.45
363.966	354.89
364.348	334.55
364.729	322.35
365.111	328.68
365.493	318.28
365.874	324.16
366.256	321.67
366.637	318.51
367.019	325.74
367.4	308.34
367.781	325.06
368.163	318.28
368.544	330.71
368.925	310.37
369.306	323.71
369.688	314.21
370.069	325.97
370.45	310.37
370.831	330.49
371.212	337.04
371.593	345.63
371.974	318.96
372.355	327.55
372.736	318.06
373.117	326.64
373.498	344.04
373.879	339.98
374.26	328.68
374.641	331.62
375.021	320.32
375.402	315.34
375.783	332.97
376.163	339.75
376.544	335.68
376.925	332.97
377.305	332.97
377.686	316.47
378.066	349.24
378.447	337.49
378.827	326.19
379.208	341.78
379.588	363.25
379.968	327.32
380.349	330.71
380.729	331.39
381.109	338.62
381.489	351.28
381.87	349.69
382.25	342.46
382.63	348.79
383.01	356.47
383.39	347.89
383.77	354.21
384.15	366.19
384.53	350.82
384.91	351.73
385.29	352.63
385.67	362.12
386.049	374.55
386.429	330.94
386.809	352.18
387.189	386.3
387.568	366.87
387.948	388.34
388.328	352.86
388.707	368.68
389.087	373.65
389.466	397.83
389.846	387.66
390.225	381.33
390.605	379.07
390.984	375.91
391.363	366.64
391.743	384.27
392.122	379.75
392.501	402.12
392.881	376.81
393.26	386.76
393.639	380.2
394.018	388.79
394.397	388.56
394.776	402.8
395.155	401.44
395.534	387.89
395.913	389.47
396.292	399.64
396.671	408.68
397.05	374.78
397.429	390.37
397.808	410.71
398.186	395.12
398.565	394.21
398.944	400.77
399.323	404.61
399.701	402.57
400.08	392.63
400.458	397.15
400.837	423.82
401.215	427.43
401.594	416.13
401.972	433.31
402.351	427.43
402.729	426.3
403.107	424.95
403.486	424.04
403.864	438.28
404.242	426.08
404.62	433.53
404.999	435.34
405.377	431.05
405.755	449.13
406.133	429.24
406.511	427.66
406.889	442.35
407.267	450.26
407.645	462.46
408.023	455.91
408.401	462.46
408.779	452.29
409.156	460.65
409.534	452.97
409.912	459.3
410.29	476.92
410.667	484.61
411.045	472.63
411.422	509.24
411.8	479.86
412.178	510.59
412.555	503.81
412.933	510.37
413.31	504.72
413.687	514.89
414.065	521.89
414.442	523.25
414.819	507.43
415.197	508.11
415.574	502.91
415.951	526.19
416.328	504.49
416.705	518.5
417.082	530.93
417.46	523.7
417.837	541.55
418.214	523.7
418.591	539.75
418.967	523.93
419.344	539.97
419.721	557.6
420.098	540.42
420.475	557.82
420.852	584.04
421.228	577.94
421.605	552.4
421.982	579.29
422.358	569.35
422.735	611.16
423.111	562.57
423.488	593.3
423.864	586.3
424.241	593.76
424.617	589.46
424.994	618.61
425.37	605.96
425.746	596.47
426.123	611.61
426.499	611.16
426.875	640.31
427.251	633.75
427.627	647.77
428.003	622.68
428.379	635.79
428.756	629.46
429.132	648.9
429.507	678.5
429.883	643.25
430.259	671.04
430.635	645.96
431.011	671.27
431.387	691.61
431.763	696.58
432.138	680.31
432.514	682.11
432.89	689.57
433.265	680.53
433.641	702.45
434.016	731.61
434.392	721.21
434.767	723.47
435.143	727.76
435.518	740.42
435.894	759.85
436.269	761.21
436.644	767.76
437.02	775.45
437.395	755.79
437.77	784.03
438.145	779.06
438.52	793.3
438.895	804.15
439.271	788.33
439.646	831.04
440.021	810.47
440.395	844.37
440.77	824.03
441.145	829.68
441.52	836.46
441.895	857.03
442.27	841.66
442.645	862.45
443.019	874.88
443.394	854.54
443.769	838.27
444.143	877.59
444.518	888.21
444.892	853.18
445.267	881.66
445.641	899.06
446.016	879.17
446.39	883.24
446.764	889.12
447.139	887.99
447.513	926.4
447.887	930.02
448.262	939.28
448.636	918.04
449.01	934.54
449.384	921.43
449.758	924.59
450.132	953.75
450.506	970.24
450.88	958.94
451.254	965.72
451.628	993.29
452.002	995.55
452.376	1017.93
452.75	996
453.123	1010.24
453.497	1060.86
453.871	1030.58
454.244	1036.23
454.618	1059.28
454.992	1075.78
455.365	1066.06
455.739	1075.1
456.112	1125.72
456.486	1141.99
456.859	1130.69
457.232	1128.2
457.606	1129.79
457.979	1123.01
458.352	1162.78
458.725	1168.43
459.099	1200.07
459.472	1223.34
459.845	1219.5
460.218	1232.16
460.591	1226.96
460.964	1254.76
461.337	1254.98
461.71	1297.24
462.083	1309.67
462.456	1307.86
462.829	1355.32
463.201	1347.41
463.574	1352.38
463.947	1346.05
464.32	1411.36
464.692	1410.23
465.065	1448.65
465.438	1445.71
465.81	1445.94
466.183	1486.61
466.555	1480.96
466.928	1532.49
467.3	1537.46
467.672	1566.16
468.045	1605.48
468.417	1606.38
468.789	1624.91
469.161	1626.27
469.534	1702.43
469.906	1705.14
470.278	1735.87
470.65	1756.44
471.022	1774.29
471.394	1806.83
471.766	1817.68
472.138	1862.42
472.51	1931.57
472.882	1936.77
473.253	1958.92
473.625	2005.92
473.997	2047.5
474.369	2121.63
474.74	2117.56
475.112	2135.86
475.484	2224.45
475.855	2263.77
476.227	2270.55
476.598	2353.26
476.97	2368.85
477.341	2445.68
477.713	2493.37
478.084	2503.76
478.455	2590.99
478.827	2645.68
479.198	2739.46
479.569	2797.31
479.94	2816.97
480.311	2885.45
480.682	3000.25
481.053	3104.88
481.424	3151.88
481.795	3252.67
482.166	3305.77
482.537	3379.45
482.908	3450.86
483.279	3526.11
483.65	3593.9
484.021	3708.7
484.391	3776.27
484.762	3835.48
485.133	3886.78
485.503	4013.33
485.874	4117.96
486.244	4211.74
486.615	4340.1
486.985	4340.78
487.356	4537.15
487.726	4622.12
488.097	4738.96
488.467	4807.2
488.837	4926.52
489.207	5023.24
489.578	5154.99
489.948	5215.55
490.318	5316.34
490.688	5377.81
491.058	5537.81
491.428	5655.32
491.798	5706.84
492.168	5870
492.538	5929.66
492.908	6039.04
493.278	6211.01
493.648	6222.08
494.017	6395.86
494.387	6508.4
494.757	6552.24
495.126	6757.44
495.496	6754.27
495.866	6819.35
496.235	6968.5
496.605	7074.49
496.974	7112
497.344	7271.32
497.713	7363.75
498.082	7369.17
498.452	7587.92
498.821	7647.36
499.19	7661.37
499.559	7811.87
499.928	7887.35
500.298	8003.05
500.667	8046.44
501.036	8074.91
501.405	8250.5
501.774	8321.24
502.143	8368.92
502.512	8386.32
502.88	8579.99
503.249	8546.31
503.618	8660.21
503.987	8706.76
504.356	8808
504.724	8914.44
505.093	8945.17
505.462	8994.21
505.83	9171.38
506.199	9180.42
506.567	9391.72
506.936	9392.17
507.304	9442.34
507.672	9586.51
508.041	9652.73
508.409	9659.51
508.777	9828.54
509.145	9917.13
509.514	9854.53
509.882	9977.69
510.25	10035.77
510.618	10094.97
510.986	10094.97
511.354	10258.13
511.722	10339.26
512.09	10517.56
512.458	10371.8
512.826	10540.61
513.193	10593.49
513.561	10679.59
513.929	10706.03
514.297	10864.67
514.664	10943.31
515.032	10937.44
515.4	11046.36
515.767	11136.98
516.135	11207.71
516.502	11135.4
516.869	11324.32
517.237	11292.46
517.604	11356.86
517.972	11483.64
518.339	11572.45
518.706	11549.17
519.073	11687.7
519.44	11747.59
519.808	11901.03
520.175	11854.25
520.542	12038.88
520.909	12061.93
521.276	12101.02
521.643	12245.65
522.009	12219.44
522.376	12350.51
522.743	12390.96
523.11	12573.78
523.477	12697.62
523.843	12683.38
524.21	12910.95
524.577	12883.38
524.943	12997.05
525.31	13130.83
525.676	13141.9
526.043	13243.37
526.409	13235.23
526.776	13434.55
527.142	13364.04
527.508	13542.12
527.874	13566.97
528.241	13719.29
528.607	13777.59
528.973	13871.37
529.339	13898.04
529.705	13991.82
530.071	14169.44
530.437	14154.3
530.803	14169.9
531.169	14366.73
531.535	14296.22
531.901	14380.29
532.267	14430.91
532.632	14528.53
532.998	14613.5
533.364	14708.64
533.73	14746.83
534.095	14943.89
534.461	14896.43
534.826	15018.69
535.192	15077.22
535.557	15061.4
535.923	15148.63
536.288	15237.66
536.653	15254.84
537.019	15250.55
537.384	15449.86
537.749	15462.29
538.114	15491.44
538.479	15580.71
538.845	15624.09
539.21	15630.65
539.575	15651.21
539.94	15614.38
540.305	15840.59
540.67	15873.13
541.034	16004.65
541.399	15990.86
541.764	15994.25
542.129	16152.44
542.494	16150.41
542.858	16247.58
543.223	16302.04
543.587	16412.32
543.952	16429.72
544.316	16456.62
544.681	16441.25
545.045	16582.49
545.41	16796.72
545.774	16720.56
546.138	16712.43
546.503	16840.56
546.867	16884.63
547.231	17050.5
547.595	16941.57
547.959	17123.04
548.324	17099.08
548.688	17118.74
549.052	17189.93
549.416	17270.38
549.779	17213.66
550.143	17296.82
550.507	17500.66
550.871	17492.75
551.235	17490.26
551.599	17673.98
551.962	17752.4
552.326	17740.2
552.689	17878.5
553.053	17864.49
553.417	17802.79
553.78	18089.11
554.143	17991.26
554.507	18028.55
554.87	18102.22
555.234	18366.62
555.597	18218.6
555.96	18282.33
556.323	18412.5
556.686	18411.37
557.05	18554.64
557.413	18679.83
557.776	18664.01
558.139	18759.61
558.502	18829.66
558.865	18809.77
559.228	18927.06
559.59	19014.97
559.953	19075.53
560.316	19187.84
560.679	19302.87
561.041	19456.76
561.404	19339.03
561.767	19501.06
562.129	19490.89
562.492	19691.11
562.854	19601.84
563.217	19569.53
563.579	19692.46
563.941	19918.9
564.304	19958.22
564.666	20081.15
565.028	20088.38
565.39	20148.95
565.753	20254.03
566.115	20349.17
566.477	20381.71
566.839	20449.96
567.201	20580.57
567.563	20626
567.925	20710.51
568.287	20710.51
568.648	20778.76
569.01	20967.91
569.372	21063.27
569.734	21075.02
570.095	21136.94
570.457	21223.04
570.819	21288.58
571.18	21321.57
571.542	21546.2
571.903	21517.95
572.265	21720.66
572.626	21792.97
572.987	21827.77
573.349	21853.08
573.71	21990.71
574.071	22151.38
574.432	22215.11
574.794	22314.77
575.155	22409.91
575.516	22401.54
575.877	22574.65
576.238	22678.6
576.599	22900.29
576.96	22985.94
577.32	22942.09
577.681	23126.5
578.042	23475.19
578.403	23390.9
578.763	23595.18
579.124	23735.75
579.485	23977.32
579.845	24156.07
580.206	24144.1
580.566	24280.14
580.927	24452.56
581.287	24774.14
581.648	24707.47
582.008	24923.29
582.368	25064.75
582.728	25305.2
583.089	25288.93
583.449	25423.39
583.809	25702.47
584.169	25883.49
584.529	26012.75
584.889	26360.54
585.249	26375
585.609	26414.09
585.969	26792.39
586.329	26941.76
586.688	27174.98
587.048	27414.75
587.408	27559.83
587.768	27849.76
588.127	27849.54
588.487	28115.97
588.846	28560.7
589.206	28463.98
589.565	28707.37
589.925	29054.93
590.284	29277.07
590.643	29513.22
591.003	29763.38
591.362	29944.85
591.721	30174.22
592.08	30210.6
592.44	30650.14
592.799	30619.86
593.158	30872.28
593.517	31095.33
593.876	31316.56
594.235	31430.68
594.593	31718.36
594.952	31991.12
595.311	32080.39
595.67	32348.17
596.029	32757.66
596.387	32880.82
596.746	33130.98
597.104	33033.13
597.463	33192.67
597.822	33616.62
598.18	33742.04
598.538	33827.46
598.897	34174.79
599.255	34150.84
599.613	34724.84
599.972	34605.06
600.33	34936.36
600.688	35011.61
601.046	35269.68
601.404	35464.93
601.762	35678.48
602.12	35975.88
602.478	36082.99
602.836	36165.25
603.194	36097
603.552	36330.67
603.91	36408.63
604.268	36680.72
604.625	36687.04
604.983	36898.34
605.341	37042.74
605.698	37252.23
606.056	37486.8
606.413	37696.06
606.771	37922.27
607.128	38064.41
607.485	37957.74
607.843	38201.13
608.2	38354.34
608.557	38530.84
608.914	38461.69
609.272	38777.16
609.629	38903.71
609.986	39101.22
610.343	39096.7
610.7	39421.89
611.057	39503.69
611.414	39459.4
611.771	39667.98
612.127	39940.97
612.484	39961.31
612.841	40038.14
613.198	39999.95
613.554	40220.28
613.911	40567.17
614.267	40555.64
614.624	40470.67
614.98	40800.83
615.337	40924.67
615.693	40941.85
616.05	40975.07
616.406	41278.11
616.762	41239.47
617.118	41329.86
617.475	41302.52
617.831	41569.18
618.187	41479.69
618.543	41761.94
618.899	41969.84
619.255	41800.36
619.611	41953.57
619.967	42026.79
620.323	42241.02
620.678	42313.56
621.034	42175.49
621.39	42302.72
621.746	42226.56
622.101	42642.82
622.457	42332.09
622.812	42595.14
623.168	42621.58
623.523	42741.35
623.879	42909.48
624.234	42569.83
624.589	42874.68
624.945	42925.52
625.3	43009.14
625.655	42917.16
626.01	43066.76
626.365	43134.56
626.72	42979.53
627.075	43177.95
627.43	43145.18
627.785	43021.79
628.14	43119.42
628.495	43284.61
628.85	43241.45
629.205	43229.02
629.559	43393.53
629.914	43211.62
630.269	43286.64
630.623	43191.96
630.978	43069.7
631.332	43395.79
631.687	43433.76
632.041	43290.49
632.396	43475.57
632.75	43294.1
633.104	43306.98
633.459	43193.09
633.813	43224.05
634.167	43208.68
634.521	43409.58
634.875	43365.29
635.229	43269.7
635.583	43068.57
635.937	42998.97
636.291	43129.59
636.645	43205.74
636.999	42986.31
637.352	43292.52
637.706	43014.56
638.06	43152.18
638.413	43062.92
638.767	42936.82
639.121	43026.09
639.474	42730.27
639.828	42781.57
640.181	42889.14
640.534	42871.29
640.888	42776.6
641.241	42611.86
641.594	42883.94
641.947	42900.89
642.301	42865.86
642.654	42951.51
643.007	42792.19
643.36	42648.24
643.713	42627
644.066	42821.57
644.419	42441.69
644.771	42133.68
645.124	42034.47
645.477	41894.59
645.83	41724.65
646.182	41621.15
646.535	41395.17
646.888	41608.5
647.24	41319.69
647.593	41588.84
647.945	41495.96
648.298	41248.73
648.65	41282.63
649.002	41187.04
649.355	41462.96
649.707	41414.15
650.059	41533.92
650.411	41982.05
650.763	42007.36
651.115	42357.18
651.467	42167.13
651.819	42199.22
652.171	42080.8
652.523	42096.85
652.875	42159.22
653.227	41930.07
653.578	42101.14
653.93	42034.47
654.282	41951.09
654.633	41836.29
654.985	42017.07
655.337	41953.12
655.688	42062.27
656.039	42156.28
656.391	41816.63
656.742	41859.11
657.094	41975.04
657.445	42087.13
657.796	41907.47
658.147	41794.48
658.498	41760.13
658.849	41821.6
659.2	41743.86
659.551	41682.39
659.902	41834.71
660.253	41720.36
660.604	41851.88
660.955	41689.62
661.306	41802.62
661.656	41791.99
662.007	41675.61
662.358	41721.49
662.708	41753.35
663.059	41753.35
663.409	41569.18
663.76	41845.78
664.11	41772.11
664.461	41797.19
664.811	41829.96
665.161	41852.78
665.511	41627.48
665.862	41731.66
666.212	41663.86
666.562	41748.61
666.912	41606.24
667.262	41562.4
667.612	41548.84
667.962	41650.08
668.312	41596.75
668.662	41947.92
669.011	41650.98
669.361	41558.55
669.711	41432.23
670.06	41491.21
670.41	41481.27
670.76	41348.62
671.109	41582.73
671.459	41514.26
671.808	41238.56
672.157	41504.32
672.507	41222.52
672.856	41271.1
673.205	41289.18
673.554	41473.13
673.904	41285.34
674.253	41448.5
674.602	41413.02
674.951	40844.45
675.3	40597.9
675.649	41237.43
675.998	41232.91
676.346	41270.88
676.695	41306.58
677.044	41088.96
677.393	41127.61
677.741	41320.37
678.09	41059.81
678.438	40934.62
678.787	40969.19
679.135	40973.03
679.484	40789.76
679.832	41062.3
680.181	40714.28
680.529	40916.54
680.877	40668.86
681.225	40658.69
681.573	40733.27
681.922	40541.63
682.27	40598.35
682.618	40611.69
682.966	40342.99
683.314	40468.41
683.661	40380.73
684.009	40238.14
684.357	40156.33
684.705	40158.82
685.053	40174.86
685.4	40126.28
685.748	39872.27
686.095	39869.33
686.443	39749.11
686.79	39664.59
687.138	39870.91
687.485	39781.2
687.832	39663.91
688.18	39560.41
688.527	39395.45
688.874	39397.93
689.221	39209.24
689.568	39313.64
689.915	39117.04
690.262	39039.07
690.609	39193.42
690.956	38939.41
691.303	38847.44
691.65	38742.58
691.997	38745.52
692.344	38589.37
692.69	38530.61
693.037	38504.62
693.383	38236.38
693.73	38426.21
694.077	38135.37
694.423	38152.99
694.769	38106.44
695.116	37893.79
695.462	37844.3
695.808	37747.35
696.155	37828.03
696.501	37530.64
696.847	37491.09
697.193	37292.68
697.539	37365.22
697.885	37149.63
698.231	37139.91
698.577	37104.21
698.923	37059.46
699.269	36851.79
699.614	36643.66
699.96	36581.28
700.306	36663.99
700.651	36613.37
700.997	36385.13
701.342	36251.8
701.688	36264.46
702.033	36202.31
702.379	36238.02
702.724	35989.44
703.069	36020.85
703.415	35592.16
703.76	35735.43
704.105	35676
704.45	35573.4
704.795	35401.88
705.14	35522.78
705.485	35367.98
705.83	35199.17
706.175	35134.32
706.52	35132.96
706.865	35018.61
707.209	34974.09
707.554	34786.08
707.899	34921.89
708.243	34731.84
708.588	34673.54
708.932	34446.65
709.277	34509.47
709.621	34470.83
709.966	34142.7
710.31	34359.65
710.654	34063.61
710.998	34083.72
711.342	34132.08
711.687	34092.31
712.031	33932.54
712.375	33729.38
712.719	33876.72
713.063	33776.61
713.407	33766.67
713.75	33630.18
714.094	33498.43
714.438	33400.12
714.782	33378.88
715.125	33338.66
715.469	33323.97
715.812	33099.79
716.156	33039.68
716.499	33074.71
716.843	33033.81
717.186	32756.07
717.53	32874.94
717.873	32910.65
718.216	32811.89
718.559	32701.84
718.902	32595.17
719.246	32686.92
719.589	32573.93
719.932	32273.15
720.275	32419.59
720.617	32368.97
720.96	32389.53
721.303	32370.55
721.646	32347.95
721.989	32129.88
722.331	32131.23
722.674	32102.53
723.016	31996.32
723.359	32004
723.701	32085.36
724.044	31840.39
724.386	31788.64
724.729	31950.67
725.071	31741.64
725.413	31804.23
725.755	31621.19
726.097	31499.38
726.439	31419.84
726.782	31407.41
727.124	31589.78
727.465	31350.01
727.807	31441.31
728.149	31281.31
728.491	31205.38
728.833	31403.34
729.175	31078.83
729.516	31097.81
729.858	31209.45
730.199	30918.16
730.541	30861.43
730.882	30967.65
731.224	30932.17
731.565	30828.67
731.906	30706.41
732.248	30735.11
732.589	30651.27
732.93	30605.17
733.271	30548.9
733.612	30604.94
733.953	30626.86
734.294	30439.98
734.635	30399.3
734.976	30380.99
735.317	30264.61
735.658	30275.69
735.999	30219.87
736.339	30156.59
736.68	30204.05
737.021	30161.57
737.361	29959.54
737.702	30102.58
738.042	30030.04
738.383	29937.39
738.723	30095.13
739.063	29802.48
739.404	29894.91
739.744	29787.34
740.084	29582.37
740.424	29670.73
740.764	29606.1
741.104	29695.36
741.444	29558.19
741.784	29520.23
742.124	29515.26
742.464	29532.43
742.804	29517.97
743.143	29374.02
743.483	29321.14
743.823	29258.99
744.162	29358.2
744.502	29306.45
744.841	29120.24
745.181	29401.59
745.52	29146.45
745.86	29193
746.199	29125.89
746.538	28947.81
746.877	29206.11
747.216	29089.96
747.556	29061.93
747.895	28901.03
748.234	28819.23
748.573	28848.15
748.911	28742.39
749.25	28709.85
749.589	28661.72
749.928	28624.88
750.267	28703.98
750.605	28574.04
750.944	28555.05
751.283	28450.88
751.621	28501.5
751.96	28223.31
752.298	28383.99
752.636	28301.73
752.975	28198.23
753.313	28065.35
753.651	28112.35
753.989	28014.05
754.327	27886.37
754.666	27769.09
755.004	27906.03
755.342	27922.53
755.679	27785.58
756.017	27683.44
756.355	27701.97
