Data from hue_120_FLMS001491_00093.txt Node
Date: Tue Feb 07 17:00:16 GMT 2017
User: dcchb
Spectrometer: FLMS00149
Trigger mode: 0
Integration Time (sec): 2.000000E-2
Scans to average: 10
Electric dark correction enabled: true
Nonlinearity correction enabled: false
Boxcar width: 0
XAxis mode: Wavelengths
Number of Pixels in Spectrum: 2048
>>>>>Begin Spectral Data<<<<<
341.393	-9.17
341.776	-9.17
342.16	-9.17
342.543	-71.76
342.927	-77.19
343.31	-64.08
343.693	-68.6
344.077	-60.69
344.46	-59.11
344.843	-66.79
345.226	-52.78
345.61	-20.92
345.993	-16.4
346.376	-16.17
346.759	-1.03
347.142	25.18
347.525	46.65
347.908	56.37
348.291	85.52
348.674	92.07
349.057	120.77
349.44	125.75
349.823	132.75
350.206	160.55
350.588	184.05
350.971	197.38
351.354	206.87
351.737	240.54
352.119	236.93
352.502	250.26
352.884	251.84
353.267	264.95
353.65	286.87
354.032	295.01
354.414	286.87
354.797	309.24
355.179	335.46
355.562	315.12
355.944	308.34
356.326	313.76
356.709	295.91
357.091	329.36
357.473	324.38
357.855	360.32
358.238	350.37
358.62	334.1
359.002	339.07
359.384	325.51
359.766	334.78
360.148	338.62
360.53	327.1
360.912	325.51
361.294	347.66
361.676	330.03
362.057	326.42
362.439	331.16
362.821	341.56
363.203	319.41
363.584	315.8
363.966	338.4
364.348	339.98
364.729	321.9
365.111	309.92
365.493	332.97
365.874	320.32
366.256	316.7
366.637	286.87
367.019	300.43
367.4	326.42
367.781	304.72
368.163	318.06
368.544	289.81
368.925	305.4
369.306	320.77
369.688	306.08
370.069	291.84
370.45	320.09
370.831	312.63
371.212	317.15
371.593	318.06
371.974	307.89
372.355	308.79
372.736	328.9
373.117	302.69
373.498	324.61
373.879	326.64
374.26	308.11
374.641	297.94
375.021	290.71
375.402	280.77
375.783	316.25
376.163	321.22
376.544	309.7
376.925	335.46
377.305	316.25
377.686	324.61
378.066	330.49
378.447	326.87
378.827	334.33
379.208	346.98
379.588	329.58
379.968	310.37
380.349	333.88
380.729	353.31
381.109	337.27
381.489	340.2
381.87	347.21
382.25	339.07
382.63	347.21
383.01	324.61
383.39	322.58
383.77	328
384.15	348.34
384.53	354.67
384.91	331.39
385.29	346.98
385.67	361.67
386.049	368.9
386.429	333.2
386.809	362.35
387.189	381.33
387.568	338.4
387.948	358.06
388.328	353.08
388.707	366.19
389.087	353.76
389.466	350.15
389.846	352.63
390.225	362.35
390.605	367.55
390.984	364.61
391.363	355.8
391.743	377.72
392.122	358.28
392.501	372.74
392.881	377.49
393.26	362.35
393.639	371.61
394.018	398.51
394.397	400.99
394.776	358.28
395.155	387.66
395.534	375
395.913	388.11
396.292	391.28
396.671	401.22
397.05	404.38
397.429	398.96
397.808	375.46
398.186	390.6
398.565	416.81
398.944	377.72
399.323	384.04
399.701	388.56
400.08	389.02
400.458	417.26
400.837	415.68
401.215	396.25
401.594	392.4
401.972	401.22
402.351	396.25
402.729	403.48
403.107	416.59
403.486	431.27
403.864	398.05
404.242	419.52
404.62	432.18
404.999	416.81
405.377	429.92
405.755	428.56
406.133	426.75
406.511	437.38
406.889	437.38
407.267	451.16
407.645	431.5
408.023	442.35
408.401	437.6
408.779	457.26
409.156	457.94
409.534	463.36
409.912	459.3
410.29	451.16
410.667	439.86
411.045	445.96
411.422	472.4
411.8	468.56
412.178	486.87
412.555	464.04
412.933	485.06
413.31	468.11
413.687	493.65
414.065	492.74
414.442	486.87
414.819	492.06
415.197	500.65
415.574	495.91
415.951	508.56
416.328	506.75
416.705	528.45
417.082	518.05
417.46	506.07
417.837	516.7
418.214	532.74
418.591	504.94
418.967	515.34
419.344	518.28
419.721	541.55
420.098	514.21
420.475	533.19
420.852	551.27
421.228	539.07
421.605	533.64
421.982	551.72
422.358	546.07
422.735	538.62
423.111	567.09
423.488	567.99
423.864	591.27
424.241	563.47
424.617	590.59
424.994	580.42
425.37	583.59
425.746	606.86
426.123	589.91
426.499	588.78
426.875	602.79
427.251	607.09
427.627	633.75
428.003	609.35
428.379	609.12
428.756	636.01
429.132	638.5
429.507	655.9
429.883	632.85
430.259	647.31
430.635	635.34
431.011	677.14
431.387	676.24
431.763	660.65
432.138	667.43
432.514	677.6
432.89	675.79
433.265	680.31
433.641	692.28
434.016	692.06
434.392	720.53
434.767	709.46
435.143	727.76
435.518	726.41
435.894	722.11
436.269	749.23
436.644	754.66
437.02	767.08
437.395	742.45
437.77	739.29
438.145	772.96
438.52	765.05
438.895	797.59
439.271	786.07
439.646	813.18
440.021	815.9
440.395	807.08
440.77	827.2
441.145	802.56
441.52	839.17
441.895	822
442.27	808.21
442.645	836.24
443.019	819.96
443.394	851.6
443.769	830.81
444.143	859.29
444.518	881.21
444.892	856.8
445.267	866.29
445.641	872.39
446.016	866.06
446.39	877.36
446.764	890.47
447.139	896.35
447.513	880.08
447.887	898.38
448.262	903.8
448.636	887.99
449.01	908.1
449.384	916.01
449.758	924.82
450.132	926.4
450.506	934.09
450.88	958.49
451.254	953.52
451.628	975.89
452.002	1006.17
452.376	997.59
452.75	1010.47
453.123	986.06
453.497	1015.89
453.871	1026.74
454.244	1035.78
454.618	1045.72
454.992	1054.53
455.365	1073.52
455.739	1081.65
456.112	1098.15
456.486	1082.78
456.859	1122.1
457.232	1118.94
457.606	1138.6
457.979	1151.03
458.352	1161.42
458.725	1158.94
459.099	1217.47
459.472	1203.68
459.845	1212.95
460.218	1219.73
460.591	1247.75
460.964	1264.92
461.337	1283.45
461.71	1290.69
462.083	1305.83
462.456	1307.18
462.829	1341.98
463.201	1366.62
463.574	1372.04
463.947	1389.21
464.32	1369.78
464.692	1430.8
465.065	1464.24
465.438	1434.64
465.81	1477.35
466.183	1509.21
466.555	1539.95
466.928	1538.14
467.3	1553.05
467.672	1576.78
468.045	1622.43
468.417	1642.99
468.789	1645.93
469.161	1680.96
469.534	1732.48
469.906	1746.04
470.278	1762.54
470.65	1804.12
471.022	1856.1
471.394	1854.29
471.766	1880.95
472.138	1917.11
472.51	1987.84
472.882	2026.71
473.253	2091.34
473.625	2077.11
473.997	2157.78
474.369	2185.13
474.74	2221.06
475.112	2249.31
475.484	2320.04
475.855	2368.17
476.227	2432.35
476.598	2530.65
476.97	2563.2
477.341	2639.35
477.713	2684.32
478.084	2737.43
478.455	2831.89
478.827	2840.02
479.198	2965.67
479.569	3000.7
479.94	3119.56
480.311	3169.73
480.682	3264.87
481.053	3382.38
481.424	3469.16
481.795	3535.6
482.166	3653.79
482.537	3720.45
482.908	3830.73
483.279	3894.46
483.65	3984.4
484.021	4204.06
484.391	4236.37
484.762	4324.96
485.133	4408.34
485.503	4543.26
485.874	4651.73
486.244	4843.14
486.615	4941.89
486.985	5033.41
487.356	5206.29
487.726	5229.57
488.097	5449.22
488.467	5568.99
488.837	5681.53
489.207	5860.06
489.578	5949.09
489.948	6074.52
490.318	6253.27
490.688	6267.96
491.058	6499.36
491.428	6622.07
491.798	6821.16
492.168	6936.87
492.538	7084.43
492.908	7211.43
493.278	7312.45
493.648	7388.83
494.017	7580.92
494.387	7670.86
494.757	7837.63
495.126	7998.76
495.496	8076.95
495.866	8209.83
496.235	8308.13
496.605	8460.67
496.974	8580.21
497.344	8725.29
497.713	8847.32
498.082	8903.59
498.452	9099.97
498.821	9164.38
499.19	9229.23
499.559	9402.34
499.928	9561.43
500.298	9566.4
500.667	9732.72
501.036	9692.27
501.405	9956
501.774	9969.33
502.143	10098.59
502.512	10158.93
502.88	10241.64
503.249	10302.88
503.618	10385.59
503.987	10518.47
504.356	10661.74
504.724	10692.25
505.093	10737.22
505.462	10821.51
505.83	10891.79
506.199	11061.28
506.567	11166.81
506.936	11132.69
507.304	11264.21
507.672	11383.75
508.041	11411.1
508.409	11466.46
508.777	11575.39
509.145	11666.01
509.514	11665.33
509.882	11818.77
510.25	11703.29
510.618	11880.01
510.986	11943.97
511.354	12050.4
511.722	12163.17
512.09	12168.14
512.458	12198.2
512.826	12300.11
513.193	12358.19
513.561	12409.04
513.929	12422.6
514.297	12548.92
514.664	12595.02
515.032	12588.69
515.4	12620.33
515.767	12717.05
516.135	12727
516.502	12550.5
516.869	12914.56
517.237	12952.98
517.604	12801.57
517.972	12956.82
518.339	13000.21
518.706	12984.62
519.073	12963.83
519.44	13119.3
519.808	13143.93
520.175	13083.14
520.542	13288.79
520.909	13308.68
521.276	13373.98
521.643	13337.38
522.009	13362.91
522.376	13394.1
522.743	13431.84
523.11	13492.4
523.477	13574.43
523.843	13673.86
524.21	13699.63
524.577	13734.2
524.943	13764.26
525.31	13753.41
525.676	13832.73
526.043	13849
526.409	13943.91
526.776	14016
527.142	13992.27
527.508	13971.93
527.874	14050.58
528.241	14073.85
528.607	14023.68
528.973	14132.83
529.339	14083.57
529.705	14157.69
530.071	14108.65
530.437	14117.02
530.803	14182.78
531.169	14236.79
531.535	14100.07
531.901	14178.94
532.267	14149.11
532.632	14202.44
532.998	14226.62
533.364	14211.25
533.73	14152.5
534.095	14211.48
534.461	14276.56
534.826	14194.75
535.192	14190.91
535.557	14205.38
535.923	14121.99
536.288	14147.3
536.653	14189.33
537.019	14121.76
537.384	14061.42
537.749	14041.54
538.114	14023.01
538.479	14045.38
538.845	14048.32
539.21	13943.91
539.575	13944.82
539.94	13938.49
540.305	13952.27
540.67	13877.47
541.034	13897.81
541.399	13887.87
541.764	13808.32
542.129	13835.44
542.494	13808.78
542.858	13787.98
543.223	13703.47
543.587	13731.94
543.952	13744.82
544.316	13654.66
544.681	13651.49
545.045	13670.47
545.41	13673.41
545.774	13634.09
546.138	13603.13
546.503	13538.5
546.867	13542.79
547.231	13486.75
547.595	13502.34
547.959	13484.49
548.324	13460.31
548.688	13357.49
549.052	13376.92
549.416	13265.51
549.779	13266.64
550.143	13237.72
550.507	13282.46
550.871	13250.37
551.235	13165.4
551.599	13257.15
551.962	13175.57
552.326	13215.57
552.689	13177.15
553.053	13096.48
553.417	13141.67
553.78	13195.01
554.143	13047.89
554.507	13045.41
554.87	13067.78
555.234	13127.66
555.597	13036.14
555.96	12996.37
556.323	13018.29
556.686	12993.88
557.05	13018.51
557.413	13108.45
557.776	13029.36
558.139	13083.6
558.502	13067.55
558.865	12933.09
559.228	13003.6
559.59	13058.74
559.953	12997.95
560.316	13116.59
560.679	13022.58
561.041	13017.16
561.404	13096.03
561.767	13217.15
562.129	13028.23
562.492	13186.64
562.854	13005.63
563.217	13051.73
563.579	13131.73
563.941	13108.91
564.304	13072.75
564.666	13151.17
565.028	13160.43
565.39	13162.46
565.753	13117.27
566.115	13183.48
566.477	13239.75
566.839	13249.92
567.201	13323.14
567.563	13240.2
567.925	13293.08
568.287	13264.38
568.648	13380.99
569.01	13345.96
569.372	13394.77
569.734	13286.3
570.095	13360.88
570.457	13345.96
570.819	13402.68
571.18	13352.52
571.542	13400.65
571.903	13416.92
572.265	13396.58
572.626	13441.1
572.987	13427.09
573.349	13496.47
573.71	13564.49
574.071	13500.31
574.432	13564.49
574.794	13607.2
575.155	13606.52
575.516	13491.27
575.877	13544.83
576.238	13537.37
576.599	13646.52
576.96	13583.92
577.32	13609.01
577.681	13574.21
578.042	13613.3
578.403	13582.11
578.763	13583.7
579.124	13650.14
579.485	13643.58
579.845	13715.67
580.206	13556.58
580.566	13609.46
580.927	13613.53
581.287	13674.32
581.648	13628.22
582.008	13687.87
582.368	13648.33
582.728	13646.52
583.089	13620.08
583.449	13624.6
583.809	13625.96
584.169	13653.53
584.529	13511.83
584.889	13741.88
585.249	13534.43
585.609	13515.68
585.969	13556.35
586.329	13571.04
586.688	13539.18
587.048	13572.4
587.408	13466.41
587.768	13549.57
588.127	13483.13
588.487	13429.58
588.846	13564.49
589.206	13406.07
589.565	13494.21
589.925	13485.62
590.284	13453.98
590.643	13515.45
591.003	13438.84
591.362	13515.9
591.721	13464.83
592.08	13400.88
592.44	13498.28
592.799	13436.81
593.158	13393.42
593.517	13390.26
593.876	13477.48
594.235	13385.51
594.593	13451.95
594.952	13296.7
595.311	13382.12
595.67	13357.49
596.029	13363.59
596.387	13444.04
596.746	13368.33
597.104	13356.81
597.463	13305.51
597.822	13339.64
598.18	13303.7
598.538	13244.04
598.897	13307.09
599.255	13335.34
599.613	13413.53
599.972	13300.09
600.33	13358.84
600.688	13329.47
601.046	13366.75
601.404	13413.53
601.762	13352.06
602.12	13395.68
602.478	13402.91
602.836	13465.51
603.194	13389.8
603.552	13391.84
603.91	13335.34
604.268	13320.43
604.625	13296.02
604.983	13364.27
605.341	13306.19
605.698	13375.79
606.056	13378.05
606.413	13330.37
606.771	13313.2
607.128	13443.81
607.485	13360.65
607.843	13398.84
608.2	13412.18
608.557	13442.01
608.914	13490.14
609.272	13488.56
609.629	13469.12
609.986	13523.81
610.343	13463.02
610.7	13513.42
611.057	13481.78
611.414	13582.34
611.771	13540.53
612.127	13594.09
612.484	13463.7
612.841	13522.91
613.198	13569.23
613.554	13534.88
613.911	13559.29
614.267	13640.64
614.624	13578.72
614.98	13624.37
615.337	13650.36
615.693	13613.53
616.05	13720.42
616.406	13729.46
616.762	13610.59
617.118	13613.75
617.475	13645.84
617.831	13743.69
618.187	13673.64
618.543	13779.17
618.899	13786.4
619.255	13776.46
619.611	13711.38
619.967	13844.48
620.323	13814.2
620.678	13669.8
621.034	13641.77
621.39	13725.16
621.746	13729.68
622.101	13873.18
622.457	13735.33
622.812	13809.45
623.168	13761.77
623.523	13875.89
623.879	13845.38
624.234	13701.43
624.589	13727.87
624.945	13796.8
625.3	13775.56
625.655	13820.53
626.01	13770.36
626.365	13840.64
626.72	13801.09
627.075	13738.72
627.43	13724.03
627.785	13748.66
628.14	13769.91
628.495	13720.87
628.85	13831.83
629.205	13675.67
629.559	13774.88
629.914	13661.66
630.269	13665.05
630.623	13664.15
630.978	13684.48
631.332	13724.94
631.687	13741.88
632.041	13613.07
632.396	13616.24
632.75	13695.33
633.104	13743.47
633.459	13613.75
633.813	13554.32
634.167	13580.76
634.521	13571.27
634.875	13599.29
635.229	13501.21
635.583	13499.86
635.937	13528.33
636.291	13414.89
636.645	13466.41
636.999	13369.92
637.352	13393.42
637.706	13373.53
638.06	13394.77
638.413	13396.81
638.767	13316.13
639.121	13325.17
639.474	13252.63
639.828	13289.24
640.181	13247.89
640.534	13365.17
640.888	13275
641.241	13198.17
641.594	13275.23
641.947	13291.05
642.301	13220.09
642.654	13217.15
643.007	13229.13
643.36	13281.56
643.713	13252.63
644.066	13270.71
644.419	13136.93
644.771	13140.32
645.124	13004.28
645.477	13018.29
645.83	12907.78
646.182	12810.38
646.535	12787.56
646.888	12857.16
647.24	12703.04
647.593	12826.65
647.945	12738.3
648.298	12765.86
648.65	12705.53
649.002	12646.55
649.355	12769.48
649.707	12798.18
650.059	12799.08
650.411	12997.95
650.763	12963.37
651.115	13050.6
651.467	12944.17
651.819	13065.07
652.171	12960.21
652.523	12932.87
652.875	12974.45
653.227	12898.52
653.578	13028.68
653.93	12969.25
654.282	12940.1
654.633	12916.37
654.985	12996.14
655.337	12976.25
655.688	13004.5
656.039	13026.65
656.391	12821.46
656.742	12952.98
657.094	12957.5
657.445	12975.12
657.796	13024.62
658.147	12968.57
658.498	12951.4
658.849	12979.42
659.2	13007.21
659.551	12968.35
659.902	13035.69
660.253	13048.8
660.604	13117.72
660.955	12980.77
661.306	13061
661.656	13022.36
662.007	13045.18
662.358	12991.62
662.708	12968.12
663.059	12954.79
663.409	12932.64
663.76	13077.04
664.11	13097.83
664.461	13023.03
664.811	13100.32
665.161	13025.29
665.511	13052.64
665.862	13019.19
666.212	13075.24
666.562	13054.67
666.912	13011.96
667.262	13025.07
667.612	13044.5
667.962	12990.04
668.312	13048.57
668.662	13056.25
669.011	13014.9
669.361	12926.76
669.711	13058.06
670.06	12938.29
670.41	12898.74
670.76	12913.66
671.109	12999.31
671.459	12933.54
671.808	12869.59
672.157	13007.67
672.507	12931.51
672.856	12841.57
673.205	12943.71
673.554	12978.97
673.904	12845.64
674.253	12992.53
674.602	12905.52
674.951	12739.2
675.3	12601.58
675.649	12852.42
675.998	12802.47
676.346	12900.1
676.695	12873.43
677.044	12842.93
677.393	12858.97
677.741	12847.9
678.09	12782.59
678.438	12745.3
678.787	12817.84
679.135	12785.75
679.484	12671.18
679.832	12732.19
680.181	12621.46
680.529	12696.71
680.877	12640.9
681.225	12610.39
681.573	12662.36
681.922	12540.79
682.27	12523.39
682.618	12499.88
682.966	12606.32
683.314	12527.45
683.661	12360.45
684.009	12402.71
684.357	12338.53
684.705	12307.8
685.053	12425.53
685.4	12346.67
685.748	12216.95
686.095	12241.36
686.443	12228.25
686.79	12252.43
687.138	12234.35
687.485	12243.62
687.832	12156.39
688.18	12148.71
688.527	12117.75
688.874	12037.07
689.221	11998.43
689.568	12040.23
689.915	11894.25
690.262	11966.56
690.609	11922.5
690.956	11821.71
691.303	11868.49
691.65	11797.98
691.997	11821.26
692.344	11650.19
692.69	11694.48
693.037	11623.3
693.383	11588.04
693.73	11657.87
694.077	11539.23
694.423	11525.45
694.769	11462.17
695.116	11394.6
695.462	11477.54
695.808	11497.88
696.155	11422.4
696.501	11220.59
696.847	11320.25
697.193	11178.34
697.539	11141.05
697.885	11097.89
698.231	11015.18
698.577	11002.52
698.923	10976.99
699.269	11015.63
699.614	10896.08
699.96	10892.02
700.306	10905.12
700.651	10805.69
700.997	10746.26
701.342	10805.24
701.688	10782.19
702.033	10668.07
702.379	10695.86
702.724	10640.72
703.069	10684.56
703.415	10509.2
703.76	10469.65
704.105	10548.3
704.45	10466.72
704.795	10345.59
705.14	10335.19
705.485	10341.07
705.83	10314.4
706.175	10316.89
706.52	10229.66
706.865	10249.32
707.209	10160.51
707.554	10215.88
707.899	10205.25
708.243	10101.98
708.588	10121.19
708.932	10004.36
709.277	10010.68
709.621	10008.42
709.966	9977.24
710.31	9945.15
710.654	9823.34
710.998	9873.29
711.342	9940.85
711.687	9865.83
712.031	9802.78
712.375	9776.79
712.719	9812.04
713.063	9752.61
713.407	9775.21
713.75	9715.32
714.094	9705.83
714.438	9683.01
714.782	9691.6
715.125	9596.46
715.469	9651.6
715.812	9652.5
716.156	9553.07
716.499	9528.66
716.843	9556.01
717.186	9520.98
717.53	9544.25
717.873	9541.54
718.216	9561.66
718.559	9470.13
718.902	9436.01
719.246	9479.62
719.589	9462
719.932	9382.45
720.275	9409.57
720.617	9381.55
720.96	9388.1
721.303	9377.93
721.646	9412.05
721.989	9323.24
722.331	9391.26
722.674	9336.8
723.016	9284.6
723.359	9295
723.701	9306.97
724.044	9254.54
724.386	9213.64
724.729	9240.08
725.071	9280.98
725.413	9256.35
725.755	9182.68
726.097	9253.19
726.439	9116.47
726.782	9048.22
727.124	9210.7
727.465	9172.97
727.807	9178.16
728.149	9160.99
728.491	9153.98
728.833	9124.38
729.175	9127.32
729.516	9112.85
729.858	9125.51
730.199	9144.04
730.541	9042.35
730.882	9104.94
731.224	9101.78
731.565	9104.27
731.906	9024.95
732.248	9051.16
732.589	9098.84
732.93	9066.75
733.271	9002.8
733.612	9139.52
733.953	9088.9
734.294	9011.61
734.635	9057.94
734.976	9108.11
735.317	9068.56
735.658	9087.77
735.999	9062.46
736.339	9033.08
736.68	9060.88
737.021	9052.52
737.361	9055.91
737.702	9151.5
738.042	9125.73
738.383	9076.24
738.723	9095.23
739.063	9061.56
739.404	9225.17
739.744	9126.19
740.084	9099.52
740.424	9153.53
740.764	9170.93
741.104	9156.02
741.444	9106.3
741.784	9192.4
742.124	9198.28
742.464	9222.68
742.804	9237.37
743.143	9199.86
743.483	9233.75
743.823	9242.12
744.162	9276.01
744.502	9339.06
744.841	9295.45
745.181	9355.11
745.52	9371.15
745.86	9424.94
746.199	9499.74
746.538	9515.78
746.877	9583.35
747.216	9646.17
747.556	9622.44
747.895	9659.28
748.234	9657.25
748.573	9824.93
748.911	9777.24
749.25	9906.05
749.589	9953.06
749.928	9977.92
750.267	10073.28
750.605	10119.38
750.944	10215.2
751.283	10189.44
751.621	10344.46
751.96	10422.88
752.298	10520.5
752.636	10652.93
752.975	10662.42
753.313	10682.98
753.651	10873.94
753.989	10913.26
754.327	11042.75
754.666	11190.31
755.004	11274.83
755.342	11444.32
755.679	11479.35
756.017	11636.86
756.355	11779.22
756.693	11936.28
757.031	12094.47
757.368	12148.48
757.706	12241.13
758.044	12392.09
758.381	12531.75
758.719	12730.16
