Data from hue_160_FLMS001491_00009.txt Node
Date: Tue Feb 07 16:50:41 GMT 2017
User: dcchb
Spectrometer: FLMS00149
Trigger mode: 0
Integration Time (sec): 2.000000E-2
Scans to average: 10
Electric dark correction enabled: true
Nonlinearity correction enabled: false
Boxcar width: 0
XAxis mode: Wavelengths
Number of Pixels in Spectrum: 2048
>>>>>Begin Spectral Data<<<<<
341.393	-8.59
341.776	-8.59
342.16	-8.59
342.543	-50.39
342.927	-36.38
343.31	-58.76
343.693	-70.05
344.077	-61.24
344.46	-50.39
344.843	-54.24
345.226	-53.11
345.61	-28.7
345.993	-21.69
346.376	-12.66
346.759	-8.36
347.142	17.85
347.525	56.5
347.908	61.92
348.291	72.54
348.674	103.95
349.057	106.44
349.44	102.14
349.823	146.89
350.206	172.42
350.588	185.53
350.971	218.75
351.354	215.59
351.737	231.18
352.119	255.81
352.502	258.3
352.884	276.6
353.267	289.48
353.65	290.84
354.032	289.94
354.414	306.66
354.797	309.14
355.179	313.44
355.562	305.08
355.944	314.34
356.326	315.92
356.709	325.64
357.091	339.65
357.473	329.03
357.855	329.48
358.238	339.2
358.62	323.83
359.002	349.82
359.384	330.61
359.766	336.26
360.148	364.96
360.53	352.31
360.912	334
361.294	333.55
361.676	353.44
362.057	343.27
362.439	332.65
362.821	330.16
363.203	328.58
363.584	345.08
363.966	307.79
364.348	328.13
364.729	321.8
365.111	310.05
365.493	317.05
365.874	309.37
366.256	314.57
366.637	319.31
367.019	313.21
367.4	308.01
367.781	308.47
368.163	317.73
368.544	307.79
368.925	315.25
369.306	322.03
369.688	317.73
370.069	329.03
370.45	316.38
370.831	301.24
371.212	298.75
371.593	323.61
371.974	315.47
372.355	299.65
372.736	309.37
373.117	309.14
373.498	320.22
373.879	317.73
374.26	329.48
374.641	319.31
375.021	339.2
375.402	299.65
375.783	336.71
376.163	333.32
376.544	318.41
376.925	320.44
377.305	335.58
377.686	306.88
378.066	332.42
378.447	347.56
378.827	339.43
379.208	332.19
379.588	337.39
379.968	330.61
380.349	334.45
380.729	326.55
381.109	347.11
381.489	331.52
381.87	337.62
382.25	338.52
382.63	343.27
383.01	331.52
383.39	332.65
383.77	331.06
384.15	330.84
384.53	349.14
384.91	330.84
385.29	328.8
385.67	340.1
386.049	361.57
386.429	357.96
386.809	329.48
387.189	346.88
387.568	335.81
387.948	367
388.328	330.84
388.707	380.33
389.087	387.56
389.466	354.79
389.846	341.23
390.225	342.14
390.605	364.06
390.984	369.93
391.363	364.28
391.743	370.39
392.122	376.71
392.501	366.54
392.881	366.54
393.26	356.6
393.639	362.93
394.018	390.72
394.397	367.22
394.776	383.27
395.155	396.37
395.534	385.07
395.913	382.14
396.292	414.23
396.671	373.78
397.05	375.58
397.429	397.73
397.808	391.63
398.186	394.11
398.565	402.7
398.944	372.42
399.323	393.21
399.701	392.08
400.08	411.51
400.458	389.37
400.837	407.9
401.215	405.87
401.594	403.15
401.972	393.89
402.351	410.38
402.729	411.29
403.107	401.57
403.486	414.45
403.864	422.14
404.242	408.58
404.62	395.47
404.999	398.86
405.377	401.8
405.755	424.85
406.133	423.94
406.511	431.4
406.889	429.59
407.267	421.23
407.645	450.84
408.023	447.45
408.401	437.5
408.779	420.33
409.156	440.44
409.534	456.49
409.912	436.6
410.29	447.67
410.667	422.81
411.045	463.94
411.422	458.52
411.8	468.01
412.178	467.11
412.555	471.85
412.933	480.67
413.31	468.69
413.687	492.87
414.065	487.44
414.442	482.25
414.819	474.11
415.197	490.83
415.574	500.1
415.951	489.25
416.328	488.57
416.705	510.5
417.082	497.61
417.46	507.11
417.837	515.47
418.214	509.14
418.591	530.83
418.967	551.4
419.344	526.99
419.721	531.29
420.098	511.85
420.475	535.35
420.852	514.79
421.228	529.93
421.605	553.66
421.982	563.15
422.358	563.38
422.735	546.65
423.111	558.18
423.488	592.07
423.864	552.3
424.241	578.52
424.617	594.11
424.994	572.87
425.37	568.12
425.746	612.64
426.123	603.6
426.499	602.02
426.875	596.59
427.251	621
427.627	611.51
428.003	623.94
428.379	637.72
428.756	629.14
429.132	619.19
429.507	652.41
429.883	635.01
430.259	662.36
430.635	655.12
431.011	678.4
431.387	666.88
431.763	688.34
432.138	691.06
432.514	700.77
432.89	674.78
433.265	699.19
433.641	707.55
434.016	694.9
434.392	733.31
434.767	717.95
435.143	716.82
435.518	747.55
435.894	771.28
436.269	762.01
436.644	777.61
437.02	763.14
437.395	773.76
437.77	789.58
438.145	799.3
438.52	777.38
438.895	788
439.271	810.15
439.646	830.49
440.021	812.63
440.395	835.01
440.77	839.98
441.145	833.2
441.52	834.55
441.895	885.63
442.27	857.83
442.645	869.13
443.019	876.14
443.394	872.29
443.769	888.56
444.143	870.26
444.518	888.79
444.892	869.58
445.267	878.85
445.641	895.57
446.016	913.42
446.39	924.04
446.764	909.13
447.139	923.37
447.513	910.03
447.887	940.54
448.262	965.85
448.636	943.48
449.01	955.23
449.384	939.18
449.758	990.93
450.132	996.81
450.506	990.26
450.88	997.94
451.254	988.67
451.628	1008.56
452.002	1020.76
452.376	1028.9
452.75	1058.96
453.123	1043.81
453.497	1041.1
453.871	1065.96
454.244	1102.12
454.618	1075.9
454.992	1113.87
455.365	1134.21
455.739	1145.05
456.112	1162.46
456.486	1167.65
456.859	1160.87
457.232	1182.34
457.606	1217.82
457.979	1185.28
458.352	1211.04
458.725	1237.71
459.099	1255.56
459.472	1252.17
459.845	1252.4
460.218	1288.55
460.591	1296.92
460.964	1329.23
461.337	1331.72
461.71	1371.49
462.083	1359.06
462.456	1400.87
462.829	1409
463.201	1424.37
463.574	1418.04
463.947	1449.68
464.32	1500.98
464.692	1485.38
465.065	1530.58
465.438	1560.41
465.81	1568.09
466.183	1575.78
466.555	1620.75
466.928	1643.57
467.3	1645.15
467.672	1680.63
468.045	1720.63
468.417	1710.01
468.789	1751.14
469.161	1747.98
469.534	1853.06
469.906	1866.84
470.278	1888.54
470.65	1900.74
471.022	1970.8
471.394	1999.04
471.766	2022.77
472.138	2054.86
472.51	2091.7
472.882	2149.77
473.253	2184.58
473.625	2202.43
473.997	2301.63
474.369	2306.61
474.74	2339.83
475.112	2396.55
475.484	2470.9
475.855	2540.5
476.227	2537.79
476.598	2645.81
476.97	2717.44
477.341	2758.8
477.713	2851.9
478.084	2884.67
478.455	2985.91
478.827	3030.43
479.198	3174.83
479.569	3172.35
479.94	3307.26
480.311	3330.31
480.682	3493.47
481.053	3576.18
481.424	3618.66
481.795	3699.11
482.166	3796.74
482.537	3895.26
482.908	4048.93
483.279	4088.25
483.65	4182.04
484.021	4324.18
484.391	4406.66
484.762	4506.32
485.133	4613.21
485.503	4693.89
485.874	4871.96
486.244	4923.03
486.615	5068.34
486.985	5191.05
487.356	5339.75
487.726	5442.57
488.097	5560.98
488.467	5633.07
488.837	5825.84
489.207	5934.99
489.578	6080.52
489.948	6215.2
490.318	6319.61
490.688	6468.76
491.058	6605.25
491.428	6692.48
491.798	6889.31
492.168	7031.91
492.538	7089.98
492.908	7175.86
493.278	7372.46
493.648	7490.88
494.017	7575.17
494.387	7765.67
494.757	7826.23
495.126	7923.63
495.496	8075.49
495.866	8183.51
496.235	8329.27
496.605	8393.23
496.974	8517.06
497.344	8683.61
497.713	8776.94
498.082	8911.4
498.452	8971.74
498.821	8998.86
499.19	9144.84
499.559	9276.82
499.928	9359.75
500.298	9409.24
500.667	9525.17
501.036	9562.46
501.405	9699.63
501.774	9754.55
502.143	9981.66
502.512	10015.78
502.88	10020.3
503.249	10102.11
503.618	10251.93
503.987	10244.7
504.356	10393.4
504.724	10427.07
505.093	10526.05
505.462	10593.39
505.83	10603.79
506.199	10762.65
506.567	10836.33
506.936	10897.57
507.304	10974.63
507.672	11065.25
508.041	11083.55
508.409	11184.11
508.777	11260.72
509.145	11309.08
509.514	11319.02
509.882	11427.5
510.25	11353.83
510.618	11507.95
510.986	11530.77
511.354	11580.26
511.722	11746.13
512.09	11757.43
512.458	11808.05
512.826	11910.65
513.193	11972.57
513.561	11903.87
513.929	11927.6
514.297	12035.84
514.664	12129.85
515.032	12111.09
515.4	12176.18
515.767	12174.6
516.135	12289.39
516.502	12200.36
516.869	12400.58
517.237	12448.71
517.604	12337.3
517.972	12441.48
518.339	12473.12
518.706	12412.1
519.073	12480.58
519.44	12549.95
519.808	12585.66
520.175	12593.12
520.542	12723.06
520.909	12723.96
521.276	12647.58
521.643	12778.65
522.009	12831.3
522.376	12781.81
522.743	12844.18
523.11	12991.52
523.477	12969.6
523.843	13052.09
524.21	13025.19
524.577	13119.66
524.943	13094.12
525.31	13082.59
525.676	13133.44
526.043	13173.44
526.409	13177.28
526.776	13319.42
527.142	13184.74
527.508	13211.63
527.874	13316.49
528.241	13190.39
528.607	13282.59
528.973	13401.46
529.339	13272.87
529.705	13307.9
530.071	13350.61
530.437	13321.46
530.803	13329.59
531.169	13360.1
531.535	13292.31
531.901	13275.36
532.267	13253.44
532.632	13342.7
532.998	13251.4
533.364	13248.24
533.73	13285.53
534.095	13347.9
534.461	13383.15
534.826	13290.5
535.192	13323.72
535.557	13241.46
535.923	13173.89
536.288	13180.67
536.653	13204.85
537.019	13139.32
537.384	13085.76
537.749	13087.34
538.114	13090.28
538.479	13036.95
538.845	13047.57
539.21	12941.35
539.575	13029.71
539.94	12912.88
540.305	12936.83
540.67	12780.68
541.034	12893.45
541.399	12792.43
541.764	12763.05
542.129	12677.18
542.494	12722.38
542.858	12749.72
543.223	12613.91
543.587	12683.96
543.952	12646.67
544.316	12585.43
544.681	12570.29
545.045	12504.08
545.41	12493.46
545.774	12519.67
546.138	12439.45
546.503	12415.27
546.867	12401.26
547.231	12387.02
547.595	12289.62
547.959	12316.74
548.324	12220.47
548.688	12174.82
549.052	12129.62
549.416	12182.73
549.779	12014.37
550.143	12067.48
550.507	12013.02
550.871	12049.4
551.235	11978.67
551.599	11977.76
551.962	11924.88
552.326	11835.4
552.689	11917.88
553.053	11908.84
553.417	11828.84
553.78	11834.94
554.143	11853.02
554.507	11849.86
554.87	11856.19
555.234	11915.84
555.597	11705.68
555.96	11747.71
556.323	11734.83
556.686	11703.87
557.05	11783.42
557.413	11707.26
557.776	11668.62
558.139	11664.33
558.502	11649.86
558.865	11603.76
559.228	11653.93
559.59	11659.13
559.953	11595.63
560.316	11694.38
560.679	11616.42
561.041	11717.21
561.404	11662.52
561.767	11748.84
562.129	11693.7
562.492	11713.59
562.854	11667.26
563.217	11658.68
563.579	11614.38
563.941	11724.21
564.304	11671.11
564.666	11658.22
565.028	11725.12
565.39	11698.9
565.753	11738.22
566.115	11772.8
566.477	11746.36
566.839	11729.86
567.201	11770.76
567.563	11764.21
567.925	11801.95
568.287	11801.27
568.648	11840.14
569.01	11801.95
569.372	11906.58
569.734	11846.24
570.095	11842.63
570.457	11895.05
570.819	11848.73
571.18	11832.46
571.542	11848.28
571.903	11896.86
572.265	11879.01
572.626	11944.32
572.987	11937.54
573.349	11959.01
573.71	11985.45
574.071	11903.87
574.432	11999.46
574.794	12083.75
575.155	12055.28
575.516	11900.25
575.877	11910.2
576.238	12034.49
576.599	11975.05
576.96	11969.63
577.32	11997.2
577.681	12093.69
578.042	12032.9
578.403	11986.13
578.763	11981.15
579.124	12077.87
579.485	12092.79
579.845	12114.03
580.206	12002.62
580.566	12038.1
580.927	12048.72
581.287	12054.6
581.648	12013.92
582.008	12101.83
582.368	12044.88
582.728	12046.24
583.089	12074.03
583.449	12050.3
583.809	11982.28
584.169	12007.59
584.529	11909.74
584.889	12086.01
585.249	11954.49
585.609	11996.07
585.969	11974.15
586.329	11892.57
586.688	11961.49
587.048	11909.29
587.408	11836.75
587.768	11925.79
588.127	11828.84
588.487	11887.82
588.846	11932.79
589.206	11822.74
589.565	11828.39
589.925	11959.91
590.284	11851.89
590.643	11826.13
591.003	11888.95
591.362	11894.15
591.721	11855.51
592.08	11837.2
592.44	11819.12
592.799	11838.78
593.158	11802.18
593.517	11842.63
593.876	11750.65
594.235	11788.39
594.593	11773.7
594.952	11765.11
595.311	11729.41
595.67	11774.38
596.029	11810.54
596.387	11749.97
596.746	11772.8
597.104	11731.67
597.463	11716.75
597.822	11764.89
598.18	11763.31
598.538	11715.17
598.897	11665.46
599.255	11617.32
599.613	11775.28
599.972	11737.09
600.33	11719.24
600.688	11629.3
601.046	11755.17
601.404	11821.38
601.762	11692.12
602.12	11799.92
602.478	11801.27
602.836	11778.45
603.194	11730.76
603.552	11729.86
603.91	11762.4
604.268	11789.97
604.625	11645.34
604.983	11724.89
605.341	11707.26
605.698	11727.15
606.056	11740.48
606.413	11686.02
606.771	11716.98
607.128	11803.31
607.485	11641.5
607.843	11756.98
608.2	11826.58
608.557	11796.07
608.914	11704.78
609.272	11808.28
609.629	11758.56
609.986	11799.69
610.343	11792.23
610.7	11853.02
611.057	11753.59
611.414	11765.34
611.771	11854.15
612.127	11843.98
612.484	11876.07
612.841	11889.63
613.198	11882.4
613.554	11822.29
613.911	11907.48
614.267	11845.79
614.624	11927.82
614.98	11887.37
615.337	11947.26
615.693	11936.86
616.05	11891.66
616.406	11981.83
616.762	11913.81
617.118	11984.77
617.475	11956.97
617.831	11950.19
618.187	11973.02
618.543	11996.75
618.899	12005.33
619.255	11949.97
619.611	12006.01
619.967	12031.1
620.323	12088.04
620.678	11995.62
621.034	12013.92
621.39	12024.32
621.746	12045.78
622.101	12069.06
622.457	12061.6
622.812	12066.12
623.168	12122.62
623.523	12113.81
623.879	12041.27
624.234	12014.6
624.589	12090.76
624.945	12067.25
625.3	12079
625.655	12031.77
626.01	12035.16
626.365	11999.01
626.72	12054.15
627.075	12090.76
627.43	12009.63
627.785	12050.08
628.14	12023.19
628.495	11992.68
628.85	12062.73
629.205	12017.99
629.559	12028.38
629.914	11893.7
630.269	11946.35
630.623	12000.81
630.978	11887.15
631.332	11954.94
631.687	11911.78
632.041	11884.21
632.396	11957.88
632.75	11933.7
633.104	11919.23
633.459	11808.5
633.813	11815.96
634.167	11811.44
634.521	11851.89
634.875	11853.93
635.229	11855.51
635.583	11816.86
635.937	11764.21
636.291	11760.14
636.645	11710.2
636.999	11775.06
637.352	11675.4
637.706	11717.88
638.06	11687.38
638.413	11706.58
638.767	11656.64
639.121	11716.98
639.474	11581.84
639.828	11614.61
640.181	11591.11
640.534	11578.45
640.888	11561.73
641.241	11497.1
641.594	11517.89
641.947	11646.25
642.301	11538.91
642.654	11495.06
643.007	11528.28
643.36	11578.45
643.713	11495.74
644.066	11545.23
644.419	11522.63
644.771	11395.18
645.124	11346.14
645.477	11308.4
645.83	11285.8
646.182	11195.41
646.535	11255.3
646.888	11176.66
647.24	11091.46
647.593	11223.89
647.945	11170.33
648.298	11112.93
648.65	11078.35
649.002	11087.39
649.355	11137.56
649.707	11119.93
650.059	11148.63
650.411	11328.97
650.763	11333.26
651.115	11394.05
651.467	11362.41
651.819	11319.48
652.171	11415.75
652.523	11311.79
652.875	11342.98
653.227	11400.15
653.578	11444.44
653.93	11386.37
654.282	11331.68
654.633	11318.12
654.985	11296.2
655.337	11385.01
655.688	11391.11
656.039	11368.74
656.391	11284.9
656.742	11375.97
657.094	11301.4
657.445	11409.64
657.796	11330.78
658.147	11338.46
658.498	11248.29
658.849	11396.54
659.2	11391.56
659.551	11397.21
659.902	11346.37
660.253	11420.94
660.604	11401.06
660.955	11351.57
661.306	11413.49
661.656	11388.85
662.007	11418.46
662.358	11384.56
662.708	11402.64
663.059	11372.13
663.409	11347.95
663.76	11397.21
664.11	11477.66
664.461	11471.79
664.811	11471.11
665.161	11409.64
665.511	11332.36
665.862	11425.91
666.212	11483.31
666.562	11382.75
666.912	11431.11
667.262	11400.83
667.612	11383.43
667.962	11401.51
668.312	11415.75
668.662	11486.25
669.011	11375.97
669.361	11411.9
669.711	11384.33
670.06	11422.3
670.41	11366.48
670.76	11351.11
671.109	11352.7
671.459	11394.73
671.808	11338.46
672.157	11342.75
672.507	11286.03
672.856	11321.74
673.205	11279.25
673.554	11403.77
673.904	11281.29
674.253	11355.63
674.602	11298.23
674.951	11219.14
675.3	11142.76
675.649	11286.93
675.998	11266.82
676.346	11268.4
676.695	11273.38
677.044	11157.67
677.393	11202.42
677.741	11241.29
678.09	11115.19
678.438	11179.82
678.787	11137.11
679.135	11173.04
679.484	11102.31
679.832	11118.58
680.181	11085.36
680.529	11095.08
680.877	11040.61
681.225	11018.02
681.573	11078.58
681.922	11018.24
682.27	10992.71
682.618	10994.97
682.966	10914.29
683.314	10978.02
683.661	10969.66
684.009	10851.92
684.357	10801.75
684.705	10928.07
685.053	10810.79
685.4	10867.28
685.748	10807.17
686.095	10764.69
686.443	10746.84
686.79	10690.57
687.138	10706.16
687.485	10765.14
687.832	10738.47
688.18	10653.05
688.527	10581.87
688.874	10567.63
689.221	10509.55
689.568	10499.61
689.915	10481.31
690.262	10553.17
690.609	10474.53
690.956	10429.56
691.303	10418.48
691.65	10341.65
691.997	10244.93
692.344	10267.98
692.69	10171.71
693.037	10248.09
693.383	10172.39
693.73	10123.35
694.077	10071.15
694.423	10059.17
694.769	10062.56
695.116	9925.16
695.462	10026.63
695.808	9934.2
696.155	9970.81
696.501	9897.82
696.847	9901.66
697.193	9831.38
697.539	9844.94
697.885	9751.16
698.231	9715
698.577	9706.41
698.923	9730.14
699.269	9644.72
699.614	9557.71
699.96	9596.81
700.306	9549.35
700.651	9506.87
700.997	9479.98
701.342	9437.27
701.688	9389.58
702.033	9365.18
702.379	9323.14
702.724	9298.96
703.069	9243.82
703.415	9211.74
703.76	9190.04
704.105	9176.03
704.45	9135.8
704.795	9091.29
705.14	9082.47
705.485	9103.26
705.83	8985.53
706.175	8982.81
706.52	8938.52
706.865	8933.55
707.209	8883.61
707.554	8952.76
707.899	8925.19
708.243	8836.38
708.588	8801.12
708.932	8767.45
709.277	8761.8
709.621	8790.5
709.966	8728.36
710.31	8710.28
710.654	8655.14
710.998	8689.04
711.342	8687
711.687	8565.42
712.031	8596.16
712.375	8574.24
712.719	8601.13
713.063	8579.89
713.407	8593.9
713.75	8530.85
714.094	8470.29
714.438	8458.76
714.782	8444.98
715.125	8471.19
715.469	8403.39
715.812	8472.55
716.156	8400.23
716.499	8348.48
716.843	8417.63
717.186	8272.78
717.53	8382.15
717.873	8370.63
718.216	8374.47
718.559	8319.1
718.902	8217.19
719.246	8302.61
719.589	8226.22
719.932	8228.94
720.275	8223.29
720.617	8175.83
720.96	8176.96
721.303	8205.43
721.646	8158.88
721.989	8150.52
722.331	8190.75
722.674	8130.18
723.016	8097.41
723.359	8122.05
723.701	8179.9
724.044	8110.07
724.386	8042.73
724.729	8160.92
725.071	8113.23
725.413	8100.8
725.755	8065.1
726.097	8034.59
726.439	7998.43
726.782	8041.6
727.124	8048.15
727.465	8040.24
727.807	8063.97
728.149	8101.48
728.491	8046.57
728.833	8070.75
729.175	8075.72
729.516	8016.06
729.858	7975.38
730.199	8043.18
730.541	8001.15
730.882	8019.9
731.224	8009.51
731.565	8005.44
731.906	8024.65
732.248	8060.58
732.589	7953.46
732.93	7959.11
733.271	7953.01
733.612	8003.63
733.953	7969.06
734.294	8023.52
734.635	7992.78
734.976	7974.03
735.317	7906.23
735.658	7963.86
735.999	7971.09
736.339	7960.69
736.68	7942.62
737.021	8081.6
737.361	7981.03
737.702	8034.37
738.042	7992.33
738.383	8008.38
738.723	8055.83
739.063	7899.91
739.404	8031.88
739.744	8059.22
740.084	8071.88
740.424	8105.78
740.764	8049.73
741.104	8099
741.444	8056.96
741.784	8064.65
742.124	8098.54
742.464	8095.83
742.804	8202.27
743.143	8072.78
743.483	8233.46
743.823	8220.35
744.162	8196.62
744.502	8217.64
744.841	8275.71
745.181	8330.4
745.52	8296.73
745.86	8433.68
746.199	8414.24
746.538	8398.88
746.877	8475.94
747.216	8579.66
747.556	8558.87
747.895	8634.8
748.234	8662.15
748.573	8738.08
748.911	8766.55
749.25	8782.37
749.589	8823.04
749.928	8945.08
750.267	8997.28
750.605	9025.07
750.944	9083.6
751.283	9091.06
751.621	9290.83
751.96	9331.96
752.298	9451.5
752.636	9530.37
752.975	9648.33
753.313	9679.75
753.651	9891.72
753.989	9952.96
754.327	10020.08
754.666	10089
755.004	10225.95
755.342	10389.33
755.679	10511.36
756.017	10524.47
756.355	10750
756.693	10774.63
757.031	11052.59
757.368	11140.72
757.706	11289.65
758.044	11400.6
758.381	11592.92
758.719	11688.73
759.056	11871.55
759.394	11969.4
759.731	12066.12
