Data from hue_250_FLMS001491_00017.txt Node
Date: Tue Feb 07 16:00:37 GMT 2017
User: dcchb
Spectrometer: FLMS00149
Trigger mode: 0
Integration Time (sec): 2.000000E-2
Scans to average: 10
Electric dark correction enabled: true
Nonlinearity correction enabled: false
Boxcar width: 0
XAxis mode: Wavelengths
Number of Pixels in Spectrum: 2048
>>>>>Begin Spectral Data<<<<<
341.393	-11.86
341.776	-11.86
342.16	-11.86
342.543	-69.94
342.927	-59.32
343.31	-75.59
343.693	-77.4
344.077	-66.55
344.46	-59.55
344.843	-41.92
345.226	-37.4
345.61	-28.81
345.993	-22.49
346.376	-8.47
346.759	1.69
347.142	26.55
347.525	17.97
347.908	77.4
348.291	78.98
348.674	98.87
349.057	116.72
349.44	121.01
349.823	137.28
350.206	160.79
350.588	208.7
350.971	189.71
351.354	218.64
351.737	217.96
352.119	234.91
352.502	253.21
352.884	246.66
353.267	276.49
353.65	277.39
354.032	304.74
354.414	274.91
354.797	315.13
355.179	321.23
355.562	298.64
355.944	309.03
356.326	324.85
356.709	326.43
357.091	334.57
357.473	326.88
357.855	339.99
358.238	317.39
358.62	335.7
359.002	325.53
359.384	345.41
359.766	334.12
360.148	314.91
360.53	327.79
360.912	344.28
361.294	342.02
361.676	321.01
362.057	324.4
362.439	348.8
362.821	315.81
363.203	305.87
363.584	315.36
363.966	311.74
364.348	317.17
364.729	321.01
365.111	306.32
365.493	310.84
365.874	297.73
366.256	312.87
366.637	321.46
367.019	285.08
367.4	294.34
367.781	279.43
368.163	309.94
368.544	295.47
368.925	292.08
369.306	322.14
369.688	327.34
370.069	309.71
370.45	293.89
370.831	308.81
371.212	303.16
371.593	309.26
371.974	300.67
372.355	324.17
372.736	315.13
373.117	293.66
373.498	297.96
373.879	302.03
374.26	309.94
374.641	322.59
375.021	319.88
375.402	303.38
375.783	315.13
376.163	308.81
376.544	308.35
376.925	325.3
377.305	332.31
377.686	329.6
378.066	333.89
378.447	323.72
378.827	305.87
379.208	330.95
379.588	320.33
379.968	317.84
380.349	331.86
380.729	347
381.109	315.58
381.489	340.67
381.87	329.6
382.25	318.3
382.63	331.4
383.01	345.19
383.39	331.63
383.77	338.86
384.15	339.31
384.53	347.45
384.91	332.76
385.29	346.09
385.67	331.86
386.049	338.64
386.429	351.74
386.809	334.57
387.189	361.91
387.568	348.35
387.948	327.11
388.328	343.38
388.707	343.61
389.087	352.19
389.466	357.62
389.846	347
390.225	359.65
390.605	352.19
390.984	369.14
391.363	355.58
391.743	362.36
392.122	374.11
392.501	368.46
392.881	364.4
393.26	362.82
393.639	362.59
394.018	351.52
394.397	378.86
394.776	365.98
395.155	381.12
395.534	358.75
395.913	358.3
396.292	350.16
396.671	389.71
397.05	390.84
397.429	375.47
397.808	359.2
398.186	370.95
398.565	389.03
398.944	384.28
399.323	381.12
399.701	405.98
400.08	409.37
400.458	406.88
400.837	403.49
401.215	401.23
401.594	405.53
401.972	409.59
402.351	409.82
402.729	421.57
403.107	399.88
403.486	396.71
403.864	413.44
404.242	425.41
404.62	427.9
404.999	422.93
405.377	430.38
405.755	420.89
406.133	439.2
406.511	463.83
406.889	459.76
407.267	438.75
407.645	463.6
408.023	455.02
408.401	460.44
408.779	451.63
409.156	484.39
409.534	469.71
409.912	492.76
410.29	496.6
410.667	486.43
411.045	494.34
411.422	503.83
411.8	507.22
412.178	509.93
412.555	538.63
412.933	510.38
413.31	554.67
413.687	550.16
414.065	535.47
414.442	551.51
414.819	535.24
415.197	566.43
415.574	556.48
415.951	567.1
416.328	581.11
416.705	587.67
417.082	593.77
417.46	603.94
417.837	619.98
418.214	619.76
418.591	610.27
418.967	613.88
419.344	637.16
419.721	624.28
420.098	634.67
420.475	648.46
420.852	662.24
421.228	651.85
421.605	664.95
421.982	670.15
422.358	681.45
422.735	707.89
423.111	707.44
423.488	726.2
423.864	729.13
424.241	757.83
424.617	742.92
424.994	754.9
425.37	729.59
425.746	770.49
426.123	794.89
426.499	797.15
426.875	810.49
427.251	844.61
427.627	856.81
428.003	850.26
428.379	834.44
428.756	843.03
429.132	867.89
429.507	881.9
429.883	884.38
430.259	870.37
430.635	893.87
431.011	910.82
431.387	936.81
431.763	933.87
432.138	935.23
432.514	943.59
432.89	984.04
433.265	1018.84
433.641	1001.89
434.016	981.33
434.392	1019.97
434.767	1060.65
435.143	1044.83
435.518	1084.83
435.894	1114.21
436.269	1118.28
436.644	1114.43
437.02	1113.08
437.395	1132.74
437.77	1145.85
438.145	1196.69
438.52	1180.42
438.895	1220.65
439.271	1204.83
439.646	1247.54
440.021	1217.48
440.395	1280.08
440.77	1238.95
441.145	1275.56
441.52	1288.21
441.895	1305.39
442.27	1322.56
442.645	1326.86
443.019	1337.03
443.394	1350.36
443.769	1343.13
444.143	1361.21
444.518	1383.81
444.892	1385.61
445.267	1393.75
445.641	1433.75
446.016	1423.13
446.39	1422
446.764	1407.31
447.139	1462.45
447.513	1442.79
447.887	1466.06
448.262	1483.01
448.636	1482.79
449.01	1510.58
449.384	1514.88
449.758	1497.47
450.132	1541.77
450.506	1534.54
450.88	1555.1
451.254	1563.01
451.628	1584.48
452.002	1612.73
452.376	1618.38
452.75	1628.09
453.123	1658.37
453.497	1666.06
453.871	1666.28
454.244	1671.03
454.618	1702.89
454.992	1737.24
455.365	1716.23
455.739	1771.37
456.112	1767.3
456.486	1778.37
456.859	1773.4
457.232	1789.67
457.606	1836.22
457.979	1840.29
458.352	1891.59
458.725	1939.72
459.099	1911.7
459.472	1926.84
459.845	1938.82
460.218	2023.34
460.591	2034.64
460.964	2009.33
461.337	2054.3
461.71	2075.31
462.083	2085.26
462.456	2081.87
462.829	2133.16
463.201	2151.47
463.574	2154.18
463.947	2179.72
464.32	2226.27
464.692	2200.96
465.065	2247.96
465.438	2272.37
465.81	2302.43
466.183	2324.57
466.555	2330.22
466.928	2362.08
467.3	2398.24
467.672	2436.66
468.045	2463.78
468.417	2458.81
468.789	2478.47
469.161	2522.08
469.534	2579.25
469.906	2596.65
470.278	2625.58
470.65	2663.09
471.022	2664.45
471.394	2741.06
471.766	2737.22
472.138	2795.07
472.51	2843.65
472.882	2862.64
473.253	2887.72
473.625	2918
473.997	2955.29
474.369	2997.77
474.74	3024.21
475.112	3058.56
475.484	3124.1
475.855	3140.14
476.227	3151.22
476.598	3247.49
476.97	3273.47
477.341	3363.19
477.713	3387.82
478.084	3393.24
478.455	3478.44
478.827	3507.14
479.198	3631.66
479.569	3628.72
479.94	3670.52
480.311	3656.06
480.682	3776.28
481.053	3823.06
481.424	3878.88
481.795	3906.68
482.166	3975.15
482.537	4044.53
482.908	4076.84
483.279	4122.26
483.65	4204.07
484.021	4265.09
484.391	4310.06
484.762	4324.07
485.133	4321.36
485.503	4357.06
485.874	4507.34
486.244	4475.02
486.615	4577.17
486.985	4599.31
487.356	4711.18
487.726	4721.12
488.097	4792.53
488.467	4833.43
488.837	4901
489.207	4944.84
489.578	5014.22
489.948	5053.77
490.318	5105.29
490.688	5105.29
491.058	5172.63
491.428	5225.96
491.798	5266.87
492.168	5366.98
492.538	5433.87
492.908	5397.71
493.278	5415.79
493.648	5495.11
494.017	5587.08
494.387	5616.69
494.757	5624.82
495.126	5645.39
495.496	5705.5
495.866	5750.7
496.235	5770.13
496.605	5796.34
496.974	5798.83
497.344	5831.37
497.713	5874.76
498.082	5952.5
498.452	5967.41
498.821	5998.83
499.19	5996.34
499.559	6070.46
499.928	6079.73
500.298	6082.21
500.667	6138.71
501.036	6146.62
501.405	6217.35
501.774	6204.92
502.143	6263.45
502.512	6271.81
502.88	6291.47
503.249	6324.01
503.618	6397.01
503.987	6371.24
504.356	6354.75
504.724	6364.69
505.093	6381.64
505.462	6434.07
505.83	6471.13
506.199	6486.72
506.567	6599.71
506.936	6522.2
507.304	6648.53
507.672	6625.48
508.041	6695.98
508.409	6674.29
508.777	6710.45
509.145	6739.37
509.514	6677
509.882	6758.13
510.25	6724.23
510.618	6743.66
510.986	6754.96
511.354	6839.71
511.722	6893.49
512.09	6905.02
512.458	6858.24
512.826	6954.73
513.193	6904.79
513.561	6924
513.929	6990.44
514.297	7030.66
514.664	7008.06
515.032	7030.89
515.4	7082.41
515.767	7025.92
516.135	7062.75
516.502	7031.34
516.869	7171
517.237	7125.8
517.604	7081.51
517.972	7240.37
518.339	7167.16
518.706	7186.14
519.073	7132.13
519.44	7178.91
519.808	7245.8
520.175	7240.6
520.542	7269.53
520.909	7340.71
521.276	7292.8
521.643	7291.9
522.009	7341.84
522.376	7421.16
522.743	7411.9
523.11	7451.44
523.477	7446.47
523.843	7488.96
524.21	7507.94
524.577	7461.16
524.943	7594.94
525.31	7565.79
525.676	7593.13
526.043	7542.74
526.409	7636.3
526.776	7612.34
527.142	7588.39
527.508	7699.8
527.874	7640.59
528.241	7753.13
528.607	7686.01
528.973	7752.23
529.339	7716.29
529.705	7755.16
530.071	7783.64
530.437	7835.84
530.803	7832.45
531.169	7847.82
531.535	7759.91
531.901	7852.34
532.267	7748.16
532.632	7789.06
532.998	7864.54
533.364	7854.37
533.73	7782.51
534.095	7834.26
534.461	7841.71
534.826	7869.51
535.192	7913.13
535.557	7869.06
535.923	7801.72
536.288	7815.27
536.653	7783.19
537.019	7808.72
537.384	7884.88
537.749	7804.65
538.114	7811.21
538.479	7766.46
538.845	7853.47
539.21	7784.32
539.575	7816.4
539.94	7818.66
540.305	7817.08
540.67	7786.35
541.034	7800.13
541.399	7806.91
541.764	7780.93
542.129	7772.56
542.494	7735.95
542.858	7732.11
543.223	7760.59
543.587	7796.29
543.952	7761.26
544.316	7711.77
544.681	7727.82
545.045	7694.6
545.41	7712.45
545.774	7705
546.138	7775.5
546.503	7677.65
546.867	7659.57
547.231	7700.48
547.595	7707.71
547.959	7738.67
548.324	7697.76
548.688	7643.53
549.052	7655.96
549.416	7687.82
549.779	7648.27
550.143	7624.32
550.507	7694.83
550.871	7615.28
551.235	7602.85
551.599	7671.55
551.962	7664.77
552.326	7594.04
552.689	7657.54
553.053	7640.82
553.417	7588.39
553.78	7631.32
554.143	7590.87
554.507	7683.07
554.87	7649.86
555.234	7636.07
555.597	7615.05
555.96	7607.6
556.323	7683.07
556.686	7644.21
557.05	7652.79
557.413	7620.25
557.776	7591.1
558.139	7659.12
558.502	7662.96
558.865	7627.94
559.228	7671.1
559.59	7635.39
559.953	7687.37
560.316	7746.58
560.679	7625.22
561.041	7723.3
561.404	7789.51
561.767	7786.57
562.129	7740.7
562.492	7764.65
562.854	7791.55
563.217	7756.75
563.579	7795.84
563.941	7787.7
564.304	7784.32
564.666	7862.28
565.028	7811.43
565.39	7827.7
565.753	7902.5
566.115	7936.63
566.477	7964.88
566.839	7942.73
567.201	7951.77
567.563	7983.18
567.925	8009.62
568.287	7996.74
568.648	7953.12
569.01	8015.5
569.372	8071.77
569.734	8059.11
570.095	8110.41
570.457	8120.13
570.819	8159.45
571.18	8140.69
571.542	8133.68
571.903	8092.33
572.265	8172.1
572.626	8214.59
572.987	8212.1
573.349	8182.04
573.71	8191.99
574.071	8258.43
574.432	8331.87
574.794	8327.13
575.155	8307.01
575.516	8352.66
575.877	8355.6
576.238	8397.41
576.599	8382.94
576.96	8401.25
577.32	8458.2
577.681	8489.61
578.042	8486.22
578.403	8419.78
578.763	8472.66
579.124	8465.43
579.485	8414.81
579.845	8578.64
580.206	8609.38
580.566	8540.45
580.927	8565.31
581.287	8610.06
581.648	8630.39
582.008	8594.01
582.368	8628.81
582.728	8657.96
583.089	8622.94
583.449	8641.69
583.809	8714.46
584.169	8731.18
584.529	8674.69
584.889	8684.63
585.249	8674.91
585.609	8696.38
585.969	8755.14
586.329	8666.1
586.688	8819.99
587.048	8772.31
587.408	8789.94
587.768	8738.64
588.127	8807.79
588.487	8737.06
588.846	8807.34
589.206	8787
589.565	8822.03
589.925	8893.21
590.284	8793.33
590.643	8900.22
591.003	8885.3
591.362	8950.16
591.721	8861.8
592.08	8885.53
592.44	8929.14
592.799	8979.31
593.158	8986.32
593.517	8964.4
593.876	8917.39
594.235	8911.74
594.593	8880.56
594.952	8968.46
595.311	9012.31
595.67	9047.11
596.029	9014.34
596.387	9007.33
596.746	9062.47
597.104	8990.16
597.463	9029.03
597.822	9076.03
598.18	9008.24
598.538	9015.02
598.897	9053.66
599.255	9044.39
599.613	9113.09
599.972	9035.58
600.33	9064.51
600.688	9085.98
601.046	9073.77
601.404	9167.78
601.762	9045.75
602.12	9219.76
602.478	9200.1
602.836	9171.85
603.194	9057.73
603.552	9128.23
603.91	9096.15
604.268	9108.57
604.625	9110.83
604.983	9141.34
605.341	9104.51
605.698	9166.43
606.056	9184.05
606.413	9175.01
606.771	9197.39
607.128	9172.3
607.485	9104.51
607.843	9181.79
608.2	9228.12
608.557	9269.93
608.914	9190.61
609.272	9227.22
609.629	9247.78
609.986	9226.54
610.343	9262.92
610.7	9272.19
611.057	9298.63
611.414	9304.28
611.771	9363.71
612.127	9384.5
612.484	9390.37
612.841	9401.45
613.198	9394.22
613.554	9369.81
613.911	9406.65
614.267	9376.59
614.624	9285.97
614.98	9373.43
615.337	9350.83
615.693	9413.42
616.05	9380.88
616.406	9495.46
616.762	9449.13
617.118	9421.33
617.475	9382.92
617.831	9418.85
618.187	9455.68
618.543	9498.62
618.899	9514.67
619.255	9459.53
619.611	9489.36
619.967	9480.99
620.323	9524.16
620.678	9492.07
621.034	9482.58
621.39	9440.54
621.746	9436.48
622.101	9599.41
622.457	9445.06
622.812	9461.79
623.168	9459.3
623.523	9524.83
623.879	9555.34
624.234	9520.77
624.589	9484.16
624.945	9538.62
625.3	9497.72
625.655	9483.71
626.01	9507.21
626.365	9467.43
626.72	9469.69
627.075	9462.69
627.43	9408.91
627.785	9530.48
628.14	9418.62
628.495	9483.25
628.85	9403.03
629.205	9379.3
629.559	9445.29
629.914	9444.61
630.269	9478.28
630.623	9413.65
630.978	9379.75
631.332	9422.01
631.687	9462.92
632.041	9379.3
632.396	9387.89
632.75	9373.43
633.104	9370.26
633.459	9307.44
633.813	9374.1
634.167	9344.05
634.521	9297.04
634.875	9287.33
635.229	9247.55
635.583	9288.68
635.937	9305.86
636.291	9286.42
636.645	9245.52
636.999	9255.01
637.352	9263.6
637.706	9168.69
638.06	9191.74
638.413	9217.05
638.767	9213.66
639.121	9192.87
639.474	9133.43
639.828	9132.98
640.181	9152.19
640.534	9100.44
640.888	9135.69
641.241	9097.73
641.594	9075.81
641.947	9180.44
642.301	9084.62
642.654	9142.92
643.007	9073.09
643.36	9031.51
643.713	9065.64
644.066	9063.83
644.419	8964.62
644.771	8992.19
645.124	8895.47
645.477	8907.9
645.83	8890.27
646.182	8797.62
646.535	8790.62
646.888	8794.68
647.24	8707.23
647.593	8812.31
647.945	8718.08
648.298	8690.05
648.65	8763.27
649.002	8693.9
649.355	8740
649.707	8726.21
650.059	8780.45
650.411	8916.71
650.763	8921.69
651.115	8994
651.467	8904.29
651.819	8917.17
652.171	8930.5
652.523	8893.21
652.875	8936.6
653.227	8835.36
653.578	8985.41
653.93	8916.26
654.282	8874.68
654.633	8918.97
654.985	8945.41
655.337	8917.39
655.688	8910.84
656.039	8904.74
656.391	8869.26
656.742	8871.97
657.094	8862.48
657.445	8942.7
657.796	8908.58
658.147	8862.25
658.498	8938.41
658.849	8957.84
659.2	8912.2
659.551	8859.09
659.902	8885.08
660.253	8871.07
660.604	8937.28
660.955	8914
661.306	8879.43
661.656	8845.98
662.007	8894.34
662.358	8891.18
662.708	8970.95
663.059	8884.63
663.409	8836.04
663.76	8934.12
664.11	8897.73
664.461	8848.24
664.811	8915.36
665.161	8937.51
665.511	8839.2
665.862	8949.71
666.212	8942.93
666.562	8912.42
666.912	8867.9
667.262	8909.03
667.612	8904.29
667.962	9015.47
668.312	8933.21
668.662	8983.38
669.011	8912.65
669.361	8873.55
669.711	8887.79
670.06	8893.44
670.41	8863.83
670.76	8814.57
671.109	8888.01
671.459	8879.65
671.808	8888.92
672.157	8879.88
672.507	8788.81
672.856	8812.99
673.205	8812.08
673.554	8864.96
673.904	8764.63
674.253	8831.52
674.602	8837.39
674.951	8709.94
675.3	8652.99
675.649	8753.1
675.998	8764.85
676.346	8798.53
676.695	8844.85
677.044	8741.13
677.393	8700.68
677.741	8768.47
678.09	8710.62
678.438	8659.32
678.787	8681.92
679.135	8690.96
679.484	8664.07
679.832	8718.53
680.181	8586.55
680.529	8687.79
680.877	8602.82
681.225	8638.3
681.573	8603.28
681.922	8622.71
682.27	8530.51
682.618	8517.4
682.966	8467.23
683.314	8523.05
683.661	8474.24
684.009	8466.33
684.357	8371.42
684.705	8457.52
685.053	8448.48
685.4	8399.44
685.748	8340.46
686.095	8393.34
686.443	8312.89
686.79	8310.18
687.138	8330.97
687.485	8359.67
687.832	8332.55
688.18	8263.62
688.527	8266.56
688.874	8180.01
689.221	8244.42
689.568	8164.87
689.915	8194.02
690.262	8114.7
690.609	8179.33
690.956	8089.62
691.303	8116.74
691.65	8064.08
691.997	8094.14
692.344	8018.89
692.69	7997.42
693.037	8006.23
693.383	7923.52
693.73	7888.27
694.077	7871.77
694.423	7904.09
694.769	7866.57
695.116	7779.12
695.462	7834.26
695.808	7805.11
696.155	7811.88
696.501	7709.06
696.847	7705.45
697.193	7731.44
697.539	7629.74
697.885	7583.64
698.231	7534.38
698.577	7616.18
698.923	7562.63
699.269	7542.97
699.614	7470.2
699.96	7450.54
700.306	7450.99
700.651	7435.62
700.997	7389.3
701.342	7363.31
701.688	7337.1
702.033	7343.2
702.379	7316.53
702.724	7275.85
703.069	7290.99
703.415	7210.77
703.76	7217.32
704.105	7165.12
704.45	7170.77
704.795	7119.02
705.14	7033.83
705.485	7044.67
705.83	7033.15
706.175	7069.31
706.52	7033.37
706.865	7005.13
707.209	6970.78
707.554	6959.93
707.899	6974.17
708.243	6911.8
708.588	6921.74
708.932	6884.45
709.277	6875.41
709.621	6837.45
709.966	6779.82
710.31	6840.39
710.654	6782.53
710.998	6770.56
711.342	6799.71
711.687	6764.45
712.031	6724.23
712.375	6661.41
712.719	6695.76
713.063	6693.27
713.407	6719.48
713.75	6737.34
714.094	6659.82
714.438	6661.63
714.782	6656.66
715.125	6622.09
715.469	6556.55
715.812	6622.99
716.156	6533.05
716.499	6564.69
716.843	6594.97
717.186	6512.71
717.53	6532.14
717.873	6577.34
718.216	6552.48
718.559	6479.72
718.902	6467.74
719.246	6433.39
719.589	6487.4
719.932	6417.57
720.275	6438.36
720.617	6427.74
720.96	6421.41
721.303	6435.2
721.646	6437.01
721.989	6374.63
722.331	6347.74
722.674	6364.01
723.016	6365.37
723.359	6417.35
723.701	6403.11
724.044	6372.83
724.386	6379.61
724.729	6324.92
725.071	6324.47
725.413	6275.2
725.755	6348.42
726.097	6345.71
726.439	6288.99
726.782	6285.82
727.124	6295.54
727.465	6306.39
727.807	6273.85
728.149	6239.5
728.491	6290.34
728.833	6284.69
729.175	6224.81
729.516	6255.99
729.858	6235.2
730.199	6231.59
730.541	6186.39
730.882	6212.83
731.224	6303.45
731.565	6280.85
731.906	6237.46
732.248	6196.11
732.589	6173.51
732.93	6184.81
733.271	6263.9
733.612	6244.02
733.953	6191.81
734.294	6190.01
734.635	6237.69
734.976	6178.71
735.317	6160.63
735.658	6167.63
735.999	6194.53
736.339	6154.53
736.68	6202.66
737.021	6200.18
737.361	6194.53
737.702	6168.99
738.042	6199.27
738.383	6244.24
738.723	6211.48
739.063	6201.08
739.404	6255.09
739.744	6219.84
740.084	6223.45
740.424	6258.25
740.764	6288.31
741.104	6251.7
741.444	6232.04
741.784	6260.97
742.124	6297.35
742.464	6280.63
742.804	6255.77
743.143	6306.39
743.483	6315.88
743.823	6284.47
744.162	6334.18
744.502	6353.62
744.841	6319.72
745.181	6353.62
745.52	6409.44
745.86	6456.44
746.199	6414.86
746.538	6420.74
746.877	6510.22
747.216	6520.85
747.556	6552.94
747.895	6560.84
748.234	6589.09
748.573	6684.46
748.911	6644.01
749.25	6745.47
749.589	6733.04
749.928	6780.73
750.267	6864.34
750.605	6923.77
750.944	6925.58
751.283	6984.11
751.621	7027.95
751.96	6992.7
752.298	7144.33
752.636	7183.2
752.975	7223.2
753.313	7323.54
753.651	7340.26
753.989	7417.32
754.327	7481.95
754.666	7592
755.004	7728.05
755.342	7758.1
755.679	7836.74
756.017	7898.21
756.355	7989.96
756.693	8077.64
757.031	8201.71
757.368	8205.77
757.706	8398.99
758.044	8417.07
758.381	8565.99
758.719	8634.01
759.056	8767.57
759.394	8807.34
759.731	8898.64
760.068	8998.52
760.405	9045.75
760.743	9196.03
761.08	9371.39
761.417	9328.46
761.754	9502.46
762.091	9607.54
762.428	9687.32
762.765	9788.33
763.102	9846.41
763.438	10057.48
763.775	10084.37
764.112	10109.23
764.449	10334.53
764.785	10399.61
765.122	10426.96
765.458	10541.98
765.795	10629.89
766.131	10756.89
766.467	10792.37
766.804	10887.96
767.14	10933.38
767.476	11000.5
767.812	11049.99
768.148	11268.97
768.485	11249.53
768.821	11238.01
769.157	11445.69
769.492	11466.7
