Data from hue_230_FLMS001491_00017.txt Node
Date: Tue Feb 07 16:36:52 GMT 2017
User: dcchb
Spectrometer: FLMS00149
Trigger mode: 0
Integration Time (sec): 2.000000E-2
Scans to average: 10
Electric dark correction enabled: true
Nonlinearity correction enabled: false
Boxcar width: 0
XAxis mode: Wavelengths
Number of Pixels in Spectrum: 2048
>>>>>Begin Spectral Data<<<<<
341.393	-23.18
341.776	-23.18
342.16	-23.18
342.543	-72.44
342.927	-61.82
343.31	-82.38
343.693	-90.75
344.077	-80.13
344.46	-46.23
344.843	-54.81
345.226	-55.27
345.61	-34.25
345.993	-19.34
346.376	-0.81
346.759	27.89
347.142	31.28
347.525	47.33
347.908	62.02
348.291	72.41
348.674	90.72
349.057	132.3
349.44	113.77
349.823	134.56
350.206	140.21
350.588	176.59
350.971	207.1
351.354	214.78
351.737	242.8
352.119	223.14
352.502	252.97
352.884	254.1
353.267	272.86
353.65	278.06
354.032	277.38
354.414	283.26
354.797	285.52
355.179	314.89
355.562	347.21
355.944	334.33
356.326	324.84
356.709	316.93
357.091	332.75
357.473	332.07
357.855	318.06
358.238	339.52
358.62	327.1
359.002	322.8
359.384	345.17
359.766	346.76
360.148	339.75
360.53	325.29
360.912	344.27
361.294	306.98
361.676	316.02
362.057	348.79
362.439	342.91
362.821	330.03
363.203	328
363.584	315.57
363.966	313.99
364.348	302.46
364.729	320.99
365.111	297.94
365.493	302.24
365.874	320.99
366.256	305.4
366.637	306.98
367.019	294.33
367.4	304.5
367.781	299.98
368.163	316.25
368.544	312.18
368.925	302.01
369.306	320.77
369.688	309.47
370.069	297.72
370.45	294.78
370.831	320.77
371.212	300.2
371.593	290.26
371.974	297.72
372.355	285.97
372.736	307.21
373.117	301.11
373.498	287.77
373.879	312.18
374.26	302.01
374.641	313.54
375.021	309.47
375.402	310.15
375.783	320.54
376.163	316.7
376.544	309.47
376.925	303.82
377.305	323.48
377.686	319.64
378.066	315.12
378.447	328.9
378.827	304.5
379.208	325.06
379.588	334.33
379.968	335.01
380.349	302.01
380.729	322.58
381.109	338.4
381.489	313.99
381.87	339.07
382.25	321.9
382.63	320.99
383.01	341.33
383.39	338.62
383.77	339.07
384.15	321.67
384.53	342.69
384.91	338.85
385.29	349.02
385.67	322.8
386.049	331.16
386.429	350.37
386.809	351.73
387.189	360.99
387.568	304.27
387.948	330.49
388.328	364.16
388.707	340.43
389.087	354.44
389.466	354.67
389.846	376.81
390.225	361.9
390.605	359.64
390.984	370.48
391.363	364.84
391.743	368.9
392.122	390.15
392.501	363.71
392.881	378.85
393.26	373.65
393.639	358.28
394.018	359.41
394.397	358.06
394.776	381.56
395.155	382.01
395.534	384.27
395.913	382.01
396.292	402.8
396.671	378.85
397.05	374.33
397.429	395.57
397.808	391.05
398.186	401.67
398.565	380.88
398.944	378.39
399.323	396.47
399.701	403.03
400.08	408.45
400.458	414.78
400.837	393.08
401.215	405.96
401.594	401.67
401.972	419.97
402.351	410.03
402.729	422.46
403.107	423.36
403.486	423.59
403.864	416.81
404.242	421.78
404.62	436.25
404.999	431.27
405.377	441.67
405.755	429.01
406.133	425.85
406.511	449.13
406.889	459.07
407.267	463.36
407.645	457.71
408.023	469.24
408.401	477.15
408.779	489.8
409.156	480.54
409.534	487.09
409.912	503.59
410.29	504.72
410.667	511.72
411.045	515.34
411.422	513.31
411.8	512.18
412.178	512.4
412.555	535.9
412.933	546.53
413.31	539.29
413.687	573.64
414.065	581.78
414.442	570.03
414.819	581.1
415.197	604.6
415.574	600.31
415.951	578.61
416.328	612.74
416.705	599.18
417.082	589.01
417.46	631.49
417.837	630.14
418.214	634.88
418.591	633.98
418.967	652.96
419.344	650.93
419.721	666.3
420.098	678.05
420.475	666.52
420.852	695.67
421.228	727.31
421.605	718.05
421.982	732.06
422.358	694.77
422.735	732.28
423.111	726.18
423.488	748.78
423.864	766.63
424.241	777.25
424.617	792.85
424.994	796.69
425.37	808.67
425.746	811.15
426.123	821.09
426.499	828.78
426.875	860.87
427.251	876.23
427.627	890.24
428.003	884.82
428.379	880.3
428.756	895.22
429.132	924.37
429.507	913.52
429.883	920.3
430.259	950.81
430.635	934.31
431.011	935.44
431.387	956.46
431.763	966.18
432.138	981.77
432.514	1016.57
432.89	1004.14
433.265	1026.29
433.641	1065.61
434.016	1071.94
434.392	1093.4
434.767	1124.82
435.143	1120.07
435.518	1123.69
435.894	1139.05
436.269	1156.23
436.644	1186.96
437.02	1188.77
437.395	1219.73
437.77	1231.03
438.145	1249.11
438.52	1258.14
438.895	1291.36
439.271	1291.14
439.646	1330.91
440.021	1344.47
440.395	1334.98
440.77	1336.56
441.145	1360.06
441.52	1411.81
441.895	1389.21
442.27	1420.17
442.645	1406.39
443.019	1427.86
443.394	1461.98
443.769	1483
444.143	1445.26
444.518	1484.35
444.892	1484.35
445.267	1492.04
445.641	1537.91
446.016	1488.2
446.39	1525.71
446.764	1583.79
447.139	1531.58
447.513	1552.15
447.887	1599.15
448.262	1556.44
448.636	1589.66
449.01	1606.16
449.384	1630.11
449.758	1646.16
450.132	1687.06
450.506	1676.44
450.88	1691.35
451.254	1689.32
451.628	1709.21
452.002	1718.25
452.376	1733.16
452.75	1753.05
453.123	1759.15
453.497	1795.08
453.871	1818.13
454.244	1845.7
454.618	1815.42
454.992	1825.36
455.365	1868.52
455.739	1889.09
456.112	1903.33
456.486	1942.65
456.859	1951.23
457.232	1976.77
457.606	1962.08
457.979	1995.07
458.352	1998.24
458.725	2070.33
459.099	2064.68
459.472	2087.73
459.845	2087.5
460.218	2134.96
460.591	2199.36
460.964	2134.28
461.337	2213.15
461.71	2221.51
462.083	2265.8
462.456	2284.11
462.829	2299.7
463.201	2331.79
463.574	2346.03
463.947	2371.11
464.32	2409.3
464.692	2420.37
465.065	2429.64
465.438	2472.12
465.81	2506.7
466.183	2541.05
466.555	2553.93
466.928	2576.98
467.3	2583.53
467.672	2631.44
468.045	2689.75
468.417	2687.71
468.789	2716.41
469.161	2735.62
469.534	2777.88
469.906	2820.82
470.278	2822.17
470.65	2881.83
471.022	2904.43
471.394	2943.3
471.766	2977.2
472.138	2998.44
472.51	3079.57
472.882	3126.12
473.253	3168.15
473.625	3176.06
473.997	3230.75
474.369	3235.95
474.74	3316.17
475.112	3342.16
475.484	3385.77
475.855	3451.99
476.227	3427.58
476.598	3532.44
476.97	3577.41
477.341	3634.58
477.713	3726.78
478.084	3713
478.455	3803.16
478.827	3792.09
479.198	3917.28
479.569	3900.11
479.94	4058.75
480.311	4046.55
480.682	4150.27
481.053	4151.63
481.424	4250.16
481.795	4312.08
482.166	4327.89
482.537	4351.17
482.908	4463.26
483.279	4478.85
483.65	4582.35
484.021	4604.5
484.391	4720.88
484.762	4737.38
485.133	4769.01
485.503	4846.98
485.874	4876.35
486.244	4929.23
486.615	4990.25
486.985	5072.73
487.356	5144.37
487.726	5171.26
488.097	5289.9
488.467	5288.55
488.837	5413.97
489.207	5408.54
489.578	5484.47
489.948	5508.2
490.318	5629.78
490.688	5625.04
491.058	5697.8
491.428	5776.67
491.798	5761.08
492.168	5909.77
492.538	5929.21
492.908	6011.69
493.278	6074.06
493.648	6021.18
494.017	6045.36
494.387	6149.77
494.757	6142.31
495.126	6277.22
495.496	6235.42
495.866	6298.46
496.235	6288.52
496.605	6339.82
496.974	6409.42
497.344	6462.08
497.713	6516.76
498.082	6507.27
498.452	6565.58
498.821	6621.85
499.19	6631.11
499.559	6632.69
499.928	6671.11
500.298	6721.73
500.667	6814.61
501.036	6729.64
501.405	6839.47
501.774	6815.51
502.143	6843.53
502.512	6821.39
502.88	6930.09
503.249	6940.03
503.618	6983.19
503.987	6926.7
504.356	7014.15
504.724	7020.93
505.093	7021.61
505.462	7028.16
505.83	7091.66
506.199	7105.67
506.567	7238.33
506.936	7178.44
507.304	7272.22
507.672	7292.79
508.041	7302.51
508.409	7279.23
508.777	7298.66
509.145	7317.65
509.514	7377.76
509.882	7399.68
510.25	7396.97
510.618	7436.29
510.986	7442.84
511.354	7507.47
511.722	7520.81
512.09	7600.13
512.458	7551.99
512.826	7629.5
513.193	7597.64
513.561	7595.38
513.929	7681.93
514.297	7734.13
514.664	7732.32
515.032	7685.32
515.4	7747.47
515.767	7802.61
516.135	7797.63
516.502	7746.11
516.869	7889.61
517.237	7804.41
517.604	7801.93
517.972	7872.66
518.339	7869.95
518.706	7866.78
519.073	7919.66
519.44	7875.37
519.808	8024.75
520.175	7895.48
520.542	8041.7
520.909	7987.91
521.276	7997.85
521.643	8019.32
522.009	8025.65
522.376	8122.82
522.743	8122.37
523.11	8175.93
523.477	8180.9
523.843	8197.17
524.21	8259.09
524.577	8218.64
524.943	8223.84
525.31	8300.9
525.676	8264.06
526.043	8316.94
526.409	8342.93
526.776	8401.46
527.142	8315.81
527.508	8301.8
527.874	8452.08
528.241	8451.18
528.607	8350.16
528.973	8414.57
529.339	8443.94
529.705	8452.53
530.071	8497.28
530.437	8458.41
530.803	8453.21
531.169	8502.25
531.535	8489.59
531.901	8462.93
532.267	8470.84
532.632	8534.79
532.998	8505.64
533.364	8460.22
533.73	8509.93
534.095	8485.75
534.461	8536.82
534.826	8559.42
535.192	8506.77
535.557	8610.04
535.923	8579.76
536.288	8507.67
536.653	8548.57
537.019	8553.09
537.384	8527.33
537.749	8496.37
538.114	8537.28
538.479	8445.98
538.845	8446.66
539.21	8471.74
539.575	8442.36
539.94	8455.7
540.305	8438.52
540.67	8473.55
541.034	8452.08
541.399	8405.98
541.764	8444.17
542.129	8480.78
542.494	8397.84
542.858	8372.53
543.223	8331.41
543.587	8449.14
543.952	8362.82
544.316	8436.49
544.681	8351.52
545.045	8382.7
545.41	8370.73
545.774	8371.63
546.138	8301.35
546.503	8336.6
546.867	8264.29
547.231	8336.6
547.595	8337.05
547.959	8265.64
548.324	8236.94
548.688	8248.92
549.052	8191.07
549.416	8214.57
549.779	8287.34
550.143	8276.27
550.507	8278.3
550.871	8308.35
551.235	8183.61
551.599	8243.72
551.962	8175.48
552.326	8219.77
552.689	8239.43
553.053	8173.44
553.417	8203.95
553.78	8245.98
554.143	8157.17
554.507	8194.01
554.87	8171.41
555.234	8176.16
555.597	8127.79
555.96	8199.66
556.323	8159.66
556.686	8157.17
557.05	8197.85
557.413	8167.79
557.776	8158.08
558.139	8159.21
558.502	8209.15
558.865	8194.91
559.228	8188.36
559.59	8215.7
559.953	8148.13
560.316	8250.28
560.679	8272.2
561.041	8271.75
561.404	8352.87
561.767	8238.75
562.129	8265.64
562.492	8345.64
562.854	8323.5
563.217	8254.8
563.579	8335.02
563.941	8360.33
564.304	8366.21
564.666	8397.17
565.028	8410.27
565.39	8424.74
565.753	8423.83
566.115	8462.93
566.477	8477.84
566.839	8477.39
567.201	8461.57
567.563	8534.79
567.925	8566.88
568.287	8591.51
568.648	8571.17
569.01	8577.73
569.372	8628.12
569.734	8603.71
570.095	8637.84
570.457	8738.4
570.819	8664.5
571.18	8682.81
571.542	8689.36
571.903	8693.43
572.265	8754.9
572.626	8731.85
572.987	8739.08
573.349	8723.26
573.71	8775.46
574.071	8805.97
574.432	8824.05
574.794	8899.98
575.155	8847.32
575.516	8921.9
575.877	8901.11
576.238	8938.85
576.599	8953.31
576.96	8931.84
577.32	8952.18
577.681	9036.7
578.042	9013.2
578.403	8995.12
578.763	9007.55
579.124	8979.07
579.485	9069.01
579.845	9128.9
580.206	9143.14
580.566	9149.24
580.927	9185.39
581.287	9146.53
581.648	9129.58
582.008	9207.54
582.368	9159.63
582.728	9280.53
583.089	9285.5
583.449	9187.88
583.809	9229.91
584.169	9247.99
584.529	9260.19
584.889	9353.98
585.249	9291.83
585.609	9204.6
585.969	9286.18
586.329	9336.35
586.688	9300.87
587.048	9341.1
587.408	9307.65
587.768	9304.49
588.127	9324.6
588.487	9384.94
588.846	9428.55
589.206	9404.37
589.565	9297.71
589.925	9415.44
590.284	9392.39
590.643	9451.6
591.003	9466.74
591.362	9438.72
591.721	9427.65
592.08	9480.53
592.44	9514.88
592.799	9461.77
593.158	9487.76
593.517	9459.29
593.876	9511.26
594.235	9513.3
594.593	9467.87
594.952	9557.14
595.311	9496.57
595.67	9587.19
596.029	9636.23
596.387	9545.61
596.746	9581.99
597.104	9543.58
597.463	9609.79
597.822	9586.74
598.18	9561.2
598.538	9594.2
598.897	9637.59
599.255	9556.68
599.613	9693.86
599.972	9623.57
600.33	9667.87
600.688	9671.93
601.046	9719.17
601.404	9743.57
601.762	9663.8
602.12	9701.31
602.478	9739.96
602.836	9716.68
603.194	9640.07
603.552	9632.84
603.91	9632.84
604.268	9789.9
604.625	9708.54
604.983	9730.92
605.341	9706.96
605.698	9764.59
606.056	9749.9
606.413	9693.63
606.771	9815.66
607.128	9776.56
607.485	9756
607.843	9773.4
608.2	9844.81
608.557	9867.18
608.914	9900.18
609.272	9814.76
609.629	9945.15
609.986	9893.4
610.343	9853.4
610.7	9941.53
611.057	9910.57
611.414	9871.93
611.771	9892.04
612.127	9915.09
612.484	9890.23
612.841	9976.79
613.198	9952.15
613.554	9923.91
613.911	9949.22
614.267	9980.63
614.624	9983.57
614.98	9975.88
615.337	10001.64
615.693	9931.36
616.05	10028.31
616.406	10096.56
616.762	9982.89
617.118	10033.96
617.475	10014.07
617.831	10054.07
618.187	10085.48
618.543	10110.12
618.899	10163
619.255	10074.41
619.611	10092.26
619.967	10108.31
620.323	10115.77
620.678	10174.52
621.034	10092.49
621.39	10085.48
621.746	10045.48
622.101	10191.47
622.457	10149.89
622.812	10040.96
623.168	10080.96
623.523	10080.96
623.879	10080.29
624.234	10149.89
624.589	10112.38
624.945	10146.05
625.3	10141.08
625.655	10034.86
626.01	10042.77
626.365	10144.24
626.72	10115.09
627.075	10000.06
627.43	10087.74
627.785	10050.91
628.14	10090.91
628.495	10079.38
628.85	10061.3
629.205	10074.41
629.559	10080.96
629.914	10027.41
630.269	10080.06
630.623	9973.62
630.978	10022.21
631.332	10067.86
631.687	9986.73
632.041	10024.92
632.396	10063.79
632.75	9965.26
633.104	9897.92
633.459	9926.84
633.813	9934.53
634.167	9919.39
634.521	9913.28
634.875	9907.41
635.229	9945.15
635.583	9868.77
635.937	9888.2
636.291	9800.75
636.645	9899.05
636.999	9935.88
637.352	9845.49
637.706	9811.82
638.06	9828.32
638.413	9817.02
638.767	9737.92
639.121	9781.54
639.474	9735.44
639.828	9732.27
640.181	9693.86
640.534	9743.35
640.888	9713.74
641.241	9690.69
641.594	9640.52
641.947	9775.89
642.301	9723.23
642.654	9689.34
643.007	9692.05
643.36	9699.5
643.713	9681.88
644.066	9652.05
644.419	9658.6
644.771	9586.06
645.124	9525.27
645.477	9451.15
645.83	9401.89
646.182	9411.38
646.535	9341.55
646.888	9328.44
647.24	9327.54
647.593	9333.86
647.945	9365.73
648.298	9302.68
648.65	9288.89
649.002	9240.08
649.355	9294.54
649.707	9325.28
650.059	9358.5
650.411	9416.8
650.763	9509.68
651.115	9509.23
651.467	9529.57
651.819	9514.65
652.171	9544.48
652.523	9421.77
652.875	9410.25
653.227	9481.43
653.578	9517.81
653.93	9529.79
654.282	9432.39
654.633	9444.6
654.985	9490.24
655.337	9501.32
655.688	9515.55
656.039	9554.2
656.391	9485.73
656.742	9419.96
657.094	9487.31
657.445	9498.38
657.796	9511.71
658.147	9429.68
658.498	9471.94
658.849	9483.47
659.2	9477.59
659.551	9453.86
659.902	9492.73
660.253	9512.84
660.604	9455.67
660.955	9411.15
661.306	9508.32
661.656	9434.65
662.007	9431.94
662.358	9476.46
662.708	9468.55
663.059	9491.15
663.409	9393.3
663.76	9473.52
664.11	9484.37
664.461	9544.48
664.811	9525.27
665.161	9503.58
665.511	9518.94
665.862	9473.07
666.212	9442.34
666.562	9542.22
666.912	9462
667.262	9422.22
667.612	9469
667.962	9499.51
668.312	9491.83
668.662	9502.45
669.011	9503.13
669.361	9444.6
669.711	9440.75
670.06	9421.09
670.41	9424.03
670.76	9382.45
671.109	9440.3
671.459	9461.09
671.808	9431.26
672.157	9382.23
672.507	9379.06
672.856	9385.84
673.205	9353.75
673.554	9419.29
673.904	9363.69
674.253	9385.39
674.602	9377.25
674.951	9249.35
675.3	9198.5
675.649	9389.23
675.998	9374.77
676.346	9325.05
676.695	9324.6
677.044	9302.68
677.393	9295.45
677.741	9342
678.09	9320.76
678.438	9319.18
678.787	9323.92
679.135	9322.79
679.484	9180.42
679.832	9237.6
680.181	9237.6
680.529	9185.17
680.877	9158.73
681.225	9172.29
681.573	9231.04
681.922	9108.11
682.27	9057.04
682.618	9136.13
682.966	9079.86
683.314	9078.5
683.661	9008.45
684.009	9018.62
684.357	9044.38
684.705	8975
685.053	8960.54
685.4	8968.22
685.748	8916.02
686.095	8886.87
686.443	8897.49
686.79	8857.04
687.138	8953.54
687.485	8885.74
687.832	8898.62
688.18	8843.03
688.527	8742.69
688.874	8771.17
689.221	8780.21
689.568	8731.17
689.915	8729.81
690.262	8668.35
690.609	8657.72
690.956	8669.48
691.303	8689.36
691.65	8599.87
691.997	8563.26
692.344	8552.64
692.69	8529.37
693.037	8533.89
693.383	8453.89
693.73	8478.07
694.077	8432.19
694.423	8423.61
694.769	8388.8
695.116	8361.91
695.462	8297.28
695.808	8321.46
696.155	8341.35
696.501	8206.89
696.847	8231.75
697.193	8167.79
697.539	8225.65
697.885	8148.36
698.231	8160.11
698.577	8123.05
698.923	8004.18
699.269	8025.65
699.614	8036.95
699.96	7989.27
700.306	8002.6
700.651	7930.29
700.997	7885.32
701.342	7872.21
701.688	7843.96
702.033	7831.31
702.379	7746.56
702.724	7748.82
703.069	7766.45
703.415	7668.6
703.76	7696.39
704.105	7645.55
704.45	7657.52
704.795	7613.01
705.14	7604.19
705.485	7537.75
705.83	7530.75
706.175	7566.45
706.52	7528.94
706.865	7512.9
707.209	7468.15
707.554	7430.86
707.899	7459.79
708.243	7388.83
708.588	7387.48
708.932	7309.96
709.277	7360.36
709.621	7293.69
709.966	7293.01
710.31	7266.57
710.654	7193.81
710.998	7236.74
711.342	7215.28
711.687	7233.13
712.031	7168.05
712.375	7203.75
712.719	7126.01
713.063	7118.1
713.407	7195.84
713.75	7158.55
714.094	7126.47
714.438	7087.14
714.782	7081.27
715.125	7109.52
715.469	7083.98
715.812	7003.98
716.156	6954.04
716.499	6948.84
716.843	7032.23
717.186	6986.81
717.53	6943.42
717.873	6996.75
718.216	6917.43
718.559	6900.03
718.902	6862.07
719.246	6963.53
719.589	6880.82
719.932	6866.58
720.275	6832.91
720.617	6867.94
720.96	6828.62
721.303	6810.32
721.646	6858
721.989	6839.02
722.331	6846.92
722.674	6775.74
723.016	6849.18
723.359	6789.52
723.701	6823.87
724.044	6795.4
724.386	6738.68
724.729	6776.64
725.071	6758.34
725.413	6744.55
725.755	6764.44
726.097	6713.59
726.439	6758.34
726.782	6673.82
727.124	6726.02
727.465	6744.78
727.807	6738.9
728.149	6716.08
728.491	6733.03
728.833	6699.58
729.175	6681.96
729.516	6695.97
729.858	6672.47
730.199	6635.86
730.541	6650.09
730.882	6667.95
731.224	6712.46
731.565	6604.22
731.906	6721.96
732.248	6695.29
732.589	6605.57
732.93	6640.83
733.271	6636.31
733.612	6640.38
733.953	6692.13
734.294	6708.85
734.635	6656.87
734.976	6640.83
735.317	6580.26
735.658	6636.31
735.999	6654.84
736.339	6602.41
736.68	6665.46
737.021	6659.81
737.361	6568.51
737.702	6681.96
738.042	6686.7
738.383	6677.89
738.723	6715.63
739.063	6675.86
739.404	6722.86
739.744	6672.47
740.084	6688.74
740.424	6748.17
740.764	6680.38
741.104	6740.71
741.444	6762.63
741.784	6700.71
742.124	6739.13
742.464	6773.93
742.804	6721.05
743.143	6707.95
743.483	6797.66
743.823	6751.11
744.162	6765.8
744.502	6869.97
744.841	6841.95
745.181	6885.57
745.52	6869.75
745.86	6897.09
746.199	6946.58
746.538	6936.87
746.877	7008.5
747.216	7037.88
747.556	7026.13
747.895	7076.97
748.234	7098.9
748.573	7125.79
748.911	7139.35
749.25	7227.93
749.589	7254.37
749.928	7255.5
750.267	7360.36
750.605	7382.05
750.944	7461.37
751.283	7432.9
751.621	7562.39
751.96	7508.15
752.298	7672.67
752.636	7688.94
752.975	7842.83
753.313	7831.31
753.651	7945.65
753.989	8046.67
754.327	8044.86
754.666	8144.07
755.004	8217.51
755.342	8322.82
755.679	8379.54
756.017	8466.99
756.355	8564.85
756.693	8661.79
757.031	8832.18
757.368	8852.3
757.706	8999.64
758.044	9028.79
758.381	9217.71
758.719	9291.38
759.056	9443.47
759.394	9438.27
759.731	9566.63
760.068	9747.19
760.405	9769.11
760.743	9965.03
761.08	10096.1
761.417	10115.99
761.754	10319.6
762.091	10385.36
762.428	10529.54
762.765	10608.18
763.102	10775.86
763.438	10840.49
763.775	10902.19
764.112	11090.65
764.449	11214.72
764.785	11277.09
765.122	11350.99
765.458	11455.16
765.795	11541.26
766.131	11670.07
766.467	11770.86
766.804	11825.78
767.14	11917.07
767.476	12096.05
767.812	12125.88
768.148	12270.28
