Data from hue_70_FLMS001491_62.txt Node
Date: Mon Feb 06 15:21:15 GMT 2017
User: dcchb
Spectrometer: FLMS00149
Trigger mode: 0
Integration Time (sec): 2.000000E-2
Scans to average: 10
Electric dark correction enabled: true
Nonlinearity correction enabled: false
Boxcar width: 0
XAxis mode: Wavelengths
Number of Pixels in Spectrum: 2048
>>>>>Begin Spectral Data<<<<<
341.393	-8.63
341.776	-8.63
342.16	-8.63
342.543	-65.13
342.927	-45.69
343.31	-75.29
343.693	-73.03
344.077	-56.76
344.46	-71.23
344.843	-64
345.226	-39.82
345.61	-21.74
345.993	-25.35
346.376	-30.78
346.759	14.65
347.142	18.26
347.525	48.77
347.908	60.75
348.291	92.84
348.674	99.16
349.057	123.57
349.44	124.25
349.823	138.71
350.206	137.13
350.588	185.72
350.971	193.85
351.354	221.87
351.737	222.32
352.119	265.49
352.502	269.1
352.884	279.27
353.267	271.59
353.65	274.98
354.032	278.14
354.414	323.34
354.797	324.02
355.179	300.74
355.562	328.76
355.944	316.79
356.326	309.55
356.709	344.36
357.091	319.27
357.473	326.28
357.855	342.77
358.238	337.8
358.62	347.07
359.002	346.16
359.384	339.38
359.766	329.21
360.148	341.64
360.53	337.35
360.912	333.28
361.294	335.77
361.676	340.51
362.057	339.84
362.439	340.97
362.821	320.18
363.203	315.66
363.584	325.82
363.966	316.79
364.348	323.11
364.729	328.76
365.111	306.62
365.493	324.69
365.874	317.69
366.256	311.59
366.637	313.62
367.019	323.11
367.4	309.33
367.781	310.23
368.163	322.44
368.544	324.47
368.925	295.32
369.306	333.51
369.688	329.89
370.069	307.75
370.45	293.06
370.831	321.08
371.212	308.65
371.593	312.94
371.974	303
372.355	317.92
372.736	304.36
373.117	309.33
373.498	311.59
373.879	302.1
374.26	319.72
374.641	321.76
375.021	321.53
375.402	319.95
375.783	313.17
376.163	340.97
376.544	305.71
376.925	309.33
377.305	324.92
377.686	312.04
378.066	305.94
378.447	330.57
378.827	325.6
379.208	320.63
379.588	330.34
379.968	312.27
380.349	322.66
380.729	341.42
381.109	315.43
381.489	314.98
381.87	333.51
382.25	327.18
382.63	352.04
383.01	329.21
383.39	339.84
383.77	341.87
384.15	330.8
384.53	340.74
384.91	337.8
385.29	334.64
385.67	352.26
386.049	347.07
386.429	346.39
386.809	337.8
387.189	358.82
387.568	353.17
387.948	350.91
388.328	369.89
388.707	354.98
389.087	350.46
389.466	335.77
389.846	354.3
390.225	373.96
390.605	365.6
390.984	370.12
391.363	372.15
391.743	363.34
392.122	381.64
392.501	358.14
392.881	374.19
393.26	360.63
393.639	351.36
394.018	387.52
394.397	367.63
394.776	345.26
395.155	360.63
395.534	379.16
395.913	375.09
396.292	360.63
396.671	391.13
397.05	377.35
397.429	367.86
397.808	383.9
398.186	373.06
398.565	390.46
398.944	389.55
399.323	388.2
399.701	391.36
400.08	383.68
400.458	379.38
400.837	429.78
401.215	379.16
401.594	389.78
401.972	385.03
402.351	398.82
402.729	397.91
403.107	385.71
403.486	403.79
403.864	398.37
404.242	398.59
404.62	416.67
404.999	411.47
405.377	403.11
405.755	397.69
406.133	413.05
406.511	421.42
406.889	434.75
407.267	438.14
407.645	419.61
408.023	431.58
408.401	414.86
408.779	432.26
409.156	414.86
409.534	454.18
409.912	425.26
410.29	416.22
410.667	425.48
411.045	421.64
411.422	436.78
411.8	452.83
412.178	448.31
412.555	454.86
412.933	457.57
413.31	446.95
413.687	448.31
414.065	464.13
414.442	445.37
414.819	469.78
415.197	476.33
415.574	463.9
415.951	476.33
416.328	482.2
416.705	462.09
417.082	483.11
417.46	482.2
417.837	489.89
418.214	496.89
418.591	493.96
418.967	473.84
419.344	497.12
419.721	512.26
420.098	521.75
420.475	502.54
420.852	494.41
421.228	520.4
421.605	505.71
421.982	514.07
422.358	519.04
422.735	533.95
423.111	514.97
423.488	530.57
423.864	534.63
424.241	537.12
424.617	533.28
424.994	535.08
425.37	552.71
425.746	553.62
426.123	539.83
426.499	538.47
426.875	549.1
427.251	571.47
427.627	598.59
428.003	558.81
428.379	576.21
428.756	555.42
429.132	569.21
429.507	578.47
429.883	599.72
430.259	589.09
430.635	585.25
431.011	618.92
431.387	629.09
431.763	612.6
432.138	591.81
432.514	608.76
432.89	633.61
433.265	622.77
433.641	618.02
434.016	647.62
434.392	631.13
434.767	648.3
435.143	646.72
435.518	657.57
435.894	689.21
436.269	653.27
436.644	660.05
437.02	667.74
437.395	678.81
437.77	685.14
438.145	679.71
438.52	672.93
438.895	690.11
439.271	700.28
439.646	710.67
440.021	698.02
440.395	709.09
440.77	707.28
441.145	726.49
441.52	742.31
441.895	745.93
442.27	738.47
442.645	730.11
443.019	741.18
443.394	742.54
443.769	764.91
444.143	766.27
444.518	750.45
444.892	766.72
445.267	782.08
445.641	772.14
446.016	765.81
446.39	773.04
446.764	804.91
447.139	788.64
447.513	801.07
447.887	779.82
448.262	802.42
448.636	789.77
449.01	800.16
449.384	820.28
449.758	831.35
450.132	834.96
450.506	844.91
450.88	827.96
451.254	836.32
451.628	829.77
452.002	857.34
452.376	880.16
452.75	859.82
453.123	849.2
453.497	873.61
453.871	892.14
454.244	905.7
454.618	898.47
454.992	923.55
455.365	914.96
455.739	944.11
456.112	945.7
456.486	946.15
456.859	935.98
457.232	967.16
457.606	961.51
457.979	976.2
458.352	1003.32
458.725	1034.28
459.099	1025.69
459.472	1026.82
459.845	1053.26
460.218	1029.99
460.591	1045.35
460.964	1055.07
461.337	1057.56
461.71	1095.75
462.083	1105.24
462.456	1107.27
462.829	1123.09
463.201	1156.76
463.574	1129.19
463.947	1156.54
464.32	1222.98
464.692	1207.16
465.065	1219.81
465.438	1220.49
465.81	1259.59
466.183	1263.65
466.555	1282.18
466.928	1279.02
467.3	1309.53
467.672	1323.31
468.045	1348.17
468.417	1385.46
468.789	1382.97
469.161	1375.74
469.534	1448.51
469.906	1476.75
470.278	1470.2
470.65	1518.11
471.022	1528.73
471.394	1595.4
471.766	1581.16
472.138	1622.06
472.51	1652.12
472.882	1670.2
473.253	1717.43
473.625	1769.18
473.997	1806.46
474.369	1858.89
474.74	1884.88
475.112	1892.79
475.484	1971.66
475.855	1989.96
476.227	2028.38
476.598	2088.49
476.97	2139.11
477.341	2178.88
477.713	2249.16
478.084	2280.35
478.455	2372.78
478.827	2410.29
479.198	2470.85
479.569	2567.57
479.94	2639.21
480.311	2692.54
480.682	2789.26
481.053	2881.24
481.424	2930.5
481.795	3016.38
482.166	3103.38
482.537	3142.93
482.908	3263.6
483.279	3314.67
483.65	3463.14
484.021	3638.51
484.391	3648.22
484.762	3759.63
485.133	3829.91
485.503	3881.89
485.874	4071.04
486.244	4150.13
486.615	4321.2
486.985	4409.56
487.356	4554.64
487.726	4564.81
488.097	4771.58
488.467	4887.29
488.837	5003.44
489.207	5121.86
489.578	5263.77
489.948	5415.18
490.318	5535.86
490.688	5627.38
491.058	5811.78
491.428	5919.58
491.798	6097.65
492.168	6228.27
492.538	6307.59
492.908	6484.31
493.278	6616.96
493.648	6723.85
494.017	6840
494.387	6992.99
494.757	7168.13
495.126	7323.15
495.496	7395.02
495.866	7541.91
496.235	7647.67
496.605	7825.74
496.974	7948.9
497.344	8103.7
497.713	8240.64
498.082	8419.17
498.452	8575.55
498.821	8659.39
499.19	8763.79
499.559	8880.63
499.928	9060.74
500.298	9171.02
500.667	9306.61
501.036	9339.15
501.405	9544.11
501.774	9608.74
502.143	9723.54
502.512	9824.78
502.88	9986.14
503.249	10080.6
503.618	10246.24
503.987	10299.8
504.356	10451.21
504.724	10559.23
505.093	10659.34
505.462	10718.77
505.83	10886.9
506.199	11086.45
506.567	11178.87
506.936	11243.73
507.304	11339.55
507.672	11530.95
508.041	11517.85
508.409	11662.48
508.777	11864.73
509.145	11984.73
509.514	11975.01
509.882	12093.42
510.25	12221.78
510.618	12336.36
510.986	12423.59
511.354	12562.34
511.722	12698.15
512.09	12799.17
512.458	12876.91
512.826	12928.21
513.193	13056.11
513.561	13122.32
513.929	13200.97
514.297	13425.59
514.664	13515.99
515.032	13555.08
515.4	13675.53
515.767	13698.58
516.135	13826.71
516.502	13764.79
516.869	14088.85
517.237	14129.76
517.604	14043.66
517.972	14225.57
518.339	14417.43
518.706	14348.28
519.073	14543.53
519.44	14584.66
519.808	14761.38
520.175	14783.3
520.542	14947.81
520.909	15007.02
521.276	15009.05
521.643	15176.96
522.009	15307.35
522.376	15381.93
522.743	15477.52
523.11	15597.51
523.477	15652.88
523.843	15835.02
524.21	15956.6
524.577	16086.09
524.943	16141.23
525.31	16122.7
525.676	16363.37
526.043	16456.7
526.409	16414.22
526.776	16605.17
527.142	16608.11
527.508	16620.09
527.874	16822.11
528.241	16883.36
528.607	16908.21
528.973	17114.31
529.339	17052.39
529.705	17188.66
530.071	17364.7
530.437	17352.72
530.803	17394.75
531.169	17469.78
531.535	17449.22
531.901	17569.67
532.267	17599.27
532.632	17715.42
532.998	17731.69
533.364	17888.53
533.73	17782.31
534.095	17882.88
534.461	17981.86
534.826	18051.46
535.192	18028.41
535.557	18223.89
535.923	18124.23
536.288	18266.14
536.653	18186.82
537.019	18185.92
537.384	18235.86
537.749	18382.53
538.114	18360.15
538.479	18331
538.845	18441.51
539.21	18387.95
539.575	18439.92
539.94	18483.54
540.305	18514.5
540.67	18429.3
541.034	18579.13
541.399	18611.9
541.764	18605.12
542.129	18699.35
542.494	18620.26
542.858	18715.62
543.223	18670.2
543.587	18831.33
543.952	18792.23
544.316	18880.37
544.681	18746.13
545.045	18917.65
545.41	18896.64
545.774	18942.74
546.138	18944.32
546.503	18911.32
546.867	18859.35
547.231	19100.7
547.595	19035.84
547.959	19040.36
548.324	19020.02
548.688	19059.57
549.052	19099.34
549.416	19054.15
549.779	19065.22
550.143	19088.27
550.507	19145.44
550.871	19279.22
551.235	19127.36
551.599	19307.02
551.962	19319.9
552.326	19358.54
552.689	19397.64
553.053	19289.17
553.417	19360.35
553.78	19504.98
554.143	19514.02
554.507	19583.85
554.87	19540.46
555.234	19763.96
555.597	19596.05
555.96	19610.06
556.323	19675.15
556.686	19657.52
557.05	19740.68
557.413	19786.33
557.776	19822.94
558.139	19969.83
558.502	19930.28
558.865	20042.14
559.228	20172.31
559.59	20072.42
559.953	20219.09
560.316	20314.23
560.679	20305.19
561.041	20421.12
561.404	20536.82
561.767	20542.92
562.129	20428.57
562.492	20678.06
562.854	20625.63
563.217	20543.15
563.579	20649.36
563.941	20738.4
564.304	20761.22
564.666	20923.25
565.028	20841.44
565.39	20932.29
565.753	21126.63
566.115	21132.96
566.477	21139.51
566.839	21130.7
567.201	21315.56
567.563	21283.69
567.925	21391.26
568.287	21481.88
568.648	21424.93
569.01	21659.05
569.372	21771.36
569.734	21650.46
570.095	21798.93
570.457	21819.72
570.819	21810.91
571.18	21965.71
571.542	21936.78
571.903	21967.97
572.265	22045.71
572.626	22106.95
572.987	22122.77
573.349	22104.91
573.71	22153.05
574.071	22199.6
574.432	22209.77
574.794	22492.02
575.155	22448.18
575.516	22221.29
575.877	22439.82
576.238	22452.7
576.599	22528.4
576.96	22494.51
577.32	22648.18
577.681	22672.36
578.042	22764.78
578.403	22742.86
578.763	22798.45
579.124	22641.17
579.485	22796.19
579.845	22789.64
580.206	22776.31
580.566	22704.22
580.927	22772.47
581.287	22933.59
581.648	22841.39
582.008	22940.82
582.368	22959.81
582.728	22842.75
583.089	22987.38
583.449	22923.87
583.809	22918
584.169	22983.31
584.529	22833.03
584.889	23067.37
585.249	22882.29
585.609	22907.15
585.969	23080.48
586.329	22874.61
586.688	22943.08
587.048	22919.35
587.408	22903.76
587.768	22941.95
588.127	22865.8
588.487	22979.01
588.846	23001.84
589.206	22939.02
589.565	22913.93
589.925	23040.03
590.284	22906.93
590.643	23008.17
591.003	22935.4
591.362	23041.39
591.721	22899.92
592.08	22999.13
592.44	23014.04
592.799	23030.99
593.158	22906.7
593.517	22910.99
593.876	23009.97
594.235	22974.72
594.593	22944.67
594.952	22973.14
595.311	22815.85
595.67	23023.76
596.029	23101.5
596.387	23072.12
596.746	23051.78
597.104	23004.1
597.463	23095.4
597.822	23090.2
598.18	22979.69
598.538	23020.6
598.897	23107.82
599.255	23003.42
599.613	23247.03
599.972	23207.48
600.33	23158.9
600.688	23119.8
601.046	23242.06
601.404	23294.26
601.762	23242.96
602.12	23355.05
602.478	23437.76
602.836	23310.76
603.194	23212.68
603.552	23341.72
603.91	23117.09
604.268	23287.48
604.625	23235.05
604.983	23326.58
605.341	23242.51
605.698	23332.23
606.056	23253.58
606.413	23443.63
606.771	23468.27
607.128	23505.55
607.485	23377.42
607.843	23375.39
608.2	23479.11
608.557	23656.96
608.914	23449.96
609.272	23660.13
609.629	23594.14
609.986	23736.28
610.343	23590.98
610.7	23833.91
611.057	23715.04
611.414	23703.06
611.771	23794.36
612.127	23845.88
612.484	23814.02
612.841	23920.01
613.198	23787.58
613.554	23911.65
613.911	23978.76
614.267	23947.35
614.624	24024.64
614.98	23980.57
615.337	24135.14
615.693	24036.16
616.05	24103.05
616.406	24209.72
616.762	24035.48
617.118	24070.51
617.475	24134.01
617.831	24237.74
618.187	24214.91
618.543	24328.58
618.899	24448.58
619.255	24345.53
619.611	24348.02
619.967	24465.98
620.323	24489.48
620.678	24332.43
621.034	24341.46
621.39	24369.49
621.746	24336.04
622.101	24607.45
622.457	24378.07
622.812	24557.5
623.168	24605.64
623.523	24491.29
623.879	24744.62
624.234	24497.39
624.589	24601.57
624.945	24562.93
625.3	24588.46
625.655	24537.39
626.01	24635.92
626.365	24571.74
626.72	24624.62
627.075	24532.65
627.43	24529.48
627.785	24511.63
628.14	24595.7
628.495	24570.84
628.85	24587.56
629.205	24380.11
629.559	24618.97
629.914	24573.55
630.269	24584.62
630.623	24449.94
630.978	24458.07
631.332	24612.87
631.687	24721.57
632.041	24482.25
632.396	24511.86
632.75	24487.45
633.104	24468.24
633.459	24335.59
633.813	24338.53
634.167	24320.67
634.521	24339.66
634.875	24392.31
635.229	24289.71
635.583	24262.37
635.937	24226.89
636.291	24212.88
636.645	24278.64
636.999	24197.29
637.352	24415.36
637.706	24161.13
638.06	24227.8
638.413	24182.37
638.767	24136.95
639.121	24158.19
639.474	24053.11
639.828	24061.47
640.181	23985.54
640.534	23945.99
640.888	24000.68
641.241	23801.37
641.594	23855.38
641.947	24006.33
642.301	23905.77
642.654	23964.07
643.007	23958.88
643.36	23860.57
643.713	23837.52
644.066	23978.99
644.419	23803.17
644.771	23677.75
645.124	23445.67
645.477	23423.97
645.83	23241.61
646.182	23121.38
646.535	23165.22
646.888	23128.84
647.24	22990.09
647.593	23171.78
647.945	23083.19
648.298	22939.02
648.65	22982.63
649.002	22958.22
649.355	22963.65
649.707	22989.86
650.059	23049.3
650.411	23331.1
650.763	23318.67
651.115	23611.54
651.467	23474.59
651.819	23492
652.171	23557.3
652.523	23534.93
652.875	23466.01
653.227	23296.07
653.578	23571.77
653.93	23500.13
654.282	23371.32
654.633	23383.98
654.985	23422.39
655.337	23457.65
655.688	23464.65
656.039	23511.2
656.391	23260.59
656.742	23225.34
657.094	23335.16
657.445	23391.88
657.796	23364.99
658.147	23315.05
658.498	23246.58
658.849	23453.35
659.2	23248.39
659.551	23254.71
659.902	23398.21
660.253	23310.31
660.604	23392.56
660.955	23289.74
661.306	23360.47
661.656	23296.75
662.007	23364.09
662.358	23376.29
662.708	23386.46
663.059	23438.89
663.409	23255.62
663.76	23401.15
664.11	23324.99
664.461	23360.93
664.811	23402.05
665.161	23326.12
665.511	23287.93
665.862	23298.55
666.212	23333.36
666.562	23486.57
666.912	23334.71
667.262	23363.86
667.612	23277.99
667.962	23418.55
668.312	23252.23
668.662	23377.42
669.011	23296.52
669.361	23243.19
669.711	23341.04
670.06	23287.48
670.41	23157.99
670.76	23191.89
671.109	23279.8
671.459	23279.57
671.808	23111.21
672.157	23256.75
672.507	23087.71
672.856	23099.24
673.205	23120.48
673.554	23242.28
673.904	23134.72
674.253	23192.34
674.602	23126.58
674.951	22814.5
675.3	22699.7
675.649	22953.25
675.998	23103.53
676.346	23141.95
676.695	23132.91
677.044	22865.8
677.393	23072.12
677.741	22962.07
678.09	22888.62
678.438	22860.83
678.787	22849.53
679.135	22868.06
679.484	22858.79
679.832	22788.06
680.181	22651.79
680.529	22768.85
680.877	22656.31
681.225	22629.42
681.573	22731.79
681.922	22654.28
682.27	22582.87
682.618	22581.28
682.966	22504.68
683.314	22540.16
683.661	22411.8
684.009	22259.03
684.357	22238.69
684.705	22184.69
685.053	22329.54
685.4	22234.4
685.748	22099.04
686.095	22065.14
686.443	22138.13
686.79	21873.51
687.138	22060.62
687.485	22034.63
687.832	21908.76
688.18	21981.75
688.527	21769.1
688.874	21794.86
689.221	21758.48
689.568	21728.88
689.915	21656.79
690.262	21659.95
690.609	21526.62
690.956	21451.37
691.303	21459.73
691.65	21338.38
691.997	21359.4
692.344	21192.85
692.69	21122.57
693.037	21150.36
693.383	20951.5
693.73	21013.64
694.077	20976.58
694.423	20938.16
694.769	20862.69
695.116	20806.64
695.462	20789.02
695.808	20673.09
696.155	20678.51
696.501	20598.74
696.847	20503.37
697.193	20355.58
697.539	20403.71
697.885	20364.17
698.231	20231.06
698.577	20185.87
698.923	20158.52
699.269	20020.9
699.614	20009.15
699.96	19847.35
700.306	19829.27
700.651	19752.43
700.997	19867.91
701.342	19598.99
701.688	19580.23
702.033	19572.1
702.379	19516.28
702.724	19452.55
703.069	19513.57
703.415	19209.17
703.76	19213.24
704.105	19197.19
704.45	19239
704.795	19135.5
705.14	19070.87
705.485	19052.56
705.83	18993.13
706.175	18935.05
706.52	18894.38
706.865	18808.95
707.209	18851.89
707.554	18730.09
707.899	18712.23
708.243	18670.65
708.588	18662.74
708.932	18482.86
709.277	18510.66
709.621	18448.06
709.966	18333.94
710.31	18447.16
710.654	18166.94
710.998	18253.71
711.342	18197.22
711.687	18195.64
712.031	18025.25
712.375	18082.65
712.719	18102.31
713.063	17979.37
713.407	18068.64
713.75	17954.06
714.094	17860.73
714.438	17928.3
714.782	17852.6
715.125	17754.29
715.469	17740.51
715.812	17699.38
716.156	17618.48
716.499	17644.92
716.843	17613.51
717.186	17470.23
717.53	17585.26
717.873	17584.35
718.216	17494.64
718.559	17446.05
718.902	17376.68
719.246	17294.64
719.589	17354.3
719.932	17256.68
720.275	17341.2
720.617	17246.28
720.96	17279.5
721.303	17287.19
721.646	17159.05
721.989	17088.55
722.331	17059.17
722.674	17164.93
723.016	17253.52
723.359	17099.62
723.701	17173.07
724.044	16910.02
724.386	16973.52
724.729	17017.82
725.071	16926.97
725.413	16998.61
725.755	16998.38
726.097	16929.68
726.439	16854.43
726.782	16773.53
727.124	16930.59
727.465	16791.15
727.807	16764.26
728.149	16748.9
728.491	16792.96
728.833	16764.49
729.175	16724.49
729.516	16627.09
729.858	16687.2
730.199	16644.04
730.541	16637.26
730.882	16661.89
731.224	16690.59
731.565	16621.89
731.906	16569.92
732.248	16448.11
732.589	16570.14
732.93	16500.99
733.271	16435.23
733.612	16493.08
733.953	16529.69
734.294	16414.67
734.635	16454.67
734.976	16501.22
735.317	16529.92
735.658	16459.64
735.999	16393.65
736.339	16410.15
736.68	16432.97
737.021	16417.15
737.361	16291.96
737.702	16424.84
738.042	16317.04
738.383	16360.21
738.723	16441.56
739.063	16270.72
739.404	16376.25
739.744	16312.98
740.084	16277.72
740.424	16424.16
740.764	16373.99
741.104	16329.25
741.444	16299.87
741.784	16233.43
742.124	16282.92
742.464	16310.04
742.804	16340.77
743.143	16273.43
743.483	16395.46
743.823	16233.66
744.162	16298.29
744.502	16324.05
744.841	16358.17
745.181	16395.91
745.52	16435.46
745.86	16430.26
746.199	16492.63
746.538	16463.48
746.877	16421.45
747.216	16546.19
747.556	16376.7
747.895	16467.32
748.234	16510.26
748.573	16607.43
748.911	16509.81
749.25	16743.92
749.589	16512.74
749.928	16655.11
750.267	16780.31
750.605	16702.34
750.944	16842
751.283	16793.19
751.621	16998.38
751.96	16872.28
752.298	16904.15
752.636	17042.67
752.975	17046.52
753.313	17105.27
753.651	17196.34
753.989	17169.22
754.327	17141.43
754.666	17229.11
755.004	17425.04
755.342	17451.93
755.679	17387.75
756.017	17511.59
756.355	17602.66
