Data from hue_80_FLMS001491_45.txt Node
Date: Mon Feb 06 15:23:03 GMT 2017
User: dcchb
Spectrometer: FLMS00149
Trigger mode: 0
Integration Time (sec): 2.000000E-2
Scans to average: 10
Electric dark correction enabled: true
Nonlinearity correction enabled: false
Boxcar width: 0
XAxis mode: Wavelengths
Number of Pixels in Spectrum: 2048
>>>>>Begin Spectral Data<<<<<
341.393	-17.17
341.776	-17.17
342.16	-17.17
342.543	-49.04
342.927	-56.04
343.31	-51.07
343.693	-71.41
344.077	-70.96
344.46	-76.83
344.843	-79.77
345.226	-33.45
345.61	-23.28
345.993	-13.11
346.376	-10.17
346.759	-5.65
347.142	22.37
347.525	51.3
347.908	69.15
348.291	77.06
348.674	105.31
349.057	110.51
349.44	116.83
349.823	148.24
350.206	164.06
350.588	167.23
350.971	212.42
351.354	231.86
351.737	251.52
352.119	256.26
352.502	260.56
352.884	268.24
353.267	283.83
353.65	302.59
354.032	310.95
354.414	300.56
354.797	324.96
355.179	333.32
355.562	327.22
355.944	317.51
356.326	349.37
356.709	343.72
357.091	352.08
357.473	353.44
357.855	332.87
358.238	346.88
358.62	339.43
359.002	333.1
359.384	332.87
359.766	341.91
360.148	338.07
360.53	302.14
360.912	350.73
361.294	332.87
361.676	331.97
362.057	336.04
362.439	335.36
362.821	336.49
363.203	338.07
363.584	322.7
363.966	308.01
364.348	332.19
364.729	296.94
365.111	336.71
365.493	329.93
365.874	336.04
366.256	302.14
366.637	320.44
367.019	311.18
367.4	323.16
367.781	327.9
368.163	333.55
368.544	316.15
368.925	296.72
369.306	316.83
369.688	320.9
370.069	305.75
370.45	334.91
370.831	319.54
371.212	322.03
371.593	300.56
371.974	314.79
372.355	325.19
372.736	305.75
373.117	306.66
373.498	328.13
373.879	329.71
374.26	307.79
374.641	312.76
375.021	320.67
375.402	324.74
375.783	325.42
376.163	309.6
376.544	332.65
376.925	323.16
377.305	341.01
377.686	323.83
378.066	308.24
378.447	336.49
378.827	346.88
379.208	335.58
379.588	322.93
379.968	348.24
380.349	322.7
380.729	301.69
381.109	327.22
381.489	334.68
381.87	333.1
382.25	342.36
382.63	346.21
383.01	339.2
383.39	347.79
383.77	347.56
384.15	340.56
384.53	349.37
384.91	344.85
385.29	362.25
385.67	341.69
386.049	361.12
386.429	337.84
386.809	348.24
387.189	377.62
387.568	354.34
387.948	356.83
388.328	359.99
388.707	367.45
389.087	341.01
389.466	358.41
389.846	362.93
390.225	352.53
390.605	352.08
390.984	360.67
391.363	373.78
391.743	361.8
392.122	364.06
392.501	363.61
392.881	370.61
393.26	368.58
393.639	363.61
394.018	376.71
394.397	387.11
394.776	365.41
395.155	386.43
395.534	381.46
395.913	386.43
396.292	383.49
396.671	380.78
397.05	398.86
397.429	387.56
397.808	391.85
398.186	383.04
398.565	380.1
398.944	396.15
399.323	396.6
399.701	404.28
400.08	407.22
400.458	381.01
400.837	402.25
401.215	416.26
401.594	413.77
401.972	387.56
402.351	404.51
402.729	412.87
403.107	409.71
403.486	423.49
403.864	396.37
404.242	399.09
404.62	409.03
404.999	412.19
405.377	416.71
405.755	418.75
406.133	431.63
406.511	419.2
406.889	418.07
407.267	421.23
407.645	438.18
408.023	438.41
408.401	442.47
408.779	444.73
409.156	449.25
409.534	457.16
409.912	450.61
410.29	446.99
410.667	450.84
411.045	444.96
411.422	431.85
411.8	442.25
412.178	484.51
412.555	486.77
412.933	477.05
413.31	477.5
413.687	460.78
414.065	462.81
414.442	491.51
414.819	476.82
415.197	465.98
415.574	486.54
415.951	501
416.328	485.18
416.705	522.7
417.082	511.62
417.46	512.3
417.837	492.64
418.214	510.95
418.591	505.52
418.967	532.19
419.344	500.78
419.721	522.92
420.098	540.78
420.475	512.08
420.852	512.53
421.228	530.38
421.605	525.64
421.982	521.57
422.358	558.63
422.735	554.79
423.111	552.3
423.488	553.88
423.864	534
424.241	564.5
424.617	569.48
424.994	574.67
425.37	561.79
425.746	559.31
426.123	567.22
426.499	561.34
426.875	561.57
427.251	571.74
427.627	607.89
428.003	593.43
428.379	580.1
428.756	602.7
429.132	606.76
429.507	603.15
429.883	635.24
430.259	614
430.635	634.11
431.011	617.38
431.387	628.91
431.763	654.9
432.138	629.36
432.514	677.72
432.89	653.99
433.265	689.47
433.641	651.96
434.016	667.55
434.392	663.03
434.767	702.13
435.143	678.63
435.518	703.94
435.894	698.96
436.269	687.44
436.644	682.92
437.02	722.69
437.395	720.43
437.77	710.26
438.145	734.67
438.52	730.15
438.895	733.09
439.271	729.47
439.646	764.5
440.021	746.42
440.395	747.1
440.77	750.49
441.145	765.86
441.52	776.25
441.895	747.32
442.27	776.7
442.645	801.79
443.019	788
443.394	805.85
443.769	790.49
444.143	791.17
444.518	801.33
444.892	803.59
445.267	824.39
445.641	812.41
446.016	810.83
446.39	810.37
446.764	854.67
447.139	840.2
447.513	846.08
447.887	858.96
448.262	855.57
448.636	848.11
449.01	857.15
449.384	881.56
449.758	886.76
450.132	861.67
450.506	901.9
450.88	897.6
451.254	905.51
451.628	906.64
452.002	933.99
452.376	929.47
452.75	917.26
453.123	944.38
453.497	938.73
453.871	946.42
454.244	980.09
454.618	984.15
454.992	1000.2
455.365	1007.21
455.739	1015.79
456.112	1025.96
456.486	1021.22
456.859	1053.98
457.232	1059.63
457.606	1061.22
457.979	1055.34
458.352	1109.35
458.725	1107.09
459.099	1105.73
459.472	1120.65
459.845	1117.26
460.218	1114.1
460.591	1147.77
460.964	1157.48
461.337	1182.57
461.71	1200.42
462.083	1198.16
462.456	1242.23
462.829	1235.67
463.201	1252.17
463.574	1252.17
463.947	1282.45
464.32	1305.95
464.692	1343.92
465.065	1334.2
465.438	1370.81
465.81	1377.14
466.183	1366.07
466.555	1386.4
466.928	1438.15
467.3	1422.79
467.672	1466.4
468.045	1494.2
468.417	1510.47
468.789	1506.63
469.161	1578.94
469.534	1566.96
469.906	1580.07
470.278	1639.96
470.65	1648.09
471.022	1717.24
471.394	1716.57
471.766	1749.78
472.138	1767.64
472.51	1813.96
472.882	1863.68
473.253	1908.65
473.625	1946.62
473.997	1976.45
474.369	1999.95
474.74	2014.41
475.112	2083.34
475.484	2131.47
475.855	2173.73
476.227	2189.55
476.598	2283.1
476.97	2334.63
477.341	2404
477.713	2447.62
478.084	2513.83
478.455	2591.34
478.827	2631.8
479.198	2723.54
479.569	2752.92
479.94	2873.82
480.311	2949.53
480.682	2995.63
481.053	3126.47
481.424	3180.26
481.795	3251.44
482.166	3359.01
482.537	3450.08
482.908	3540.92
483.279	3639.23
483.65	3728.49
484.021	3825.89
484.391	3949.95
484.762	4013
485.133	4085.09
485.503	4212.77
485.874	4328.7
486.244	4478.98
486.615	4574.34
486.985	4693.66
487.356	4798.74
487.726	4904.73
488.097	5083.26
488.467	5155.8
488.837	5311.72
489.207	5418.39
489.578	5579.97
489.948	5654.77
490.318	5850.24
490.688	5943.57
491.058	6074.87
491.428	6208.88
491.798	6327.29
492.168	6488.42
492.538	6674.63
492.908	6806.6
493.278	6979.25
493.648	7023.54
494.017	7196.19
494.387	7309.64
494.757	7355.06
495.126	7585.79
495.496	7704.66
495.866	7839.12
496.235	7981.94
496.605	8152.33
496.974	8220.8
497.344	8361.81
497.713	8476.16
498.082	8594.35
498.452	8764.52
498.821	8854.46
499.19	8994.11
499.559	9126.99
499.928	9280.43
500.298	9347.32
500.667	9483.59
501.036	9523.37
501.405	9676.81
501.774	9694.43
502.143	9946.18
502.512	9959.29
502.88	10077.93
503.249	10195.66
503.618	10241.31
503.987	10430.69
504.356	10422.32
504.724	10554.75
505.093	10720.17
505.462	10779.83
505.83	10861.64
506.199	11017.56
506.567	11066.15
506.936	11162.42
507.304	11347.5
507.672	11381.62
508.041	11509.75
508.409	11642.18
508.777	11685.34
509.145	11777.32
509.514	11867.48
509.882	12005.11
510.25	12020.47
510.618	12146.8
510.986	12171.88
511.354	12338.43
511.722	12499.78
512.09	12500.91
512.458	12555.15
512.826	12657.75
513.193	12700.23
513.561	12789.49
513.929	12906.55
514.297	12987
514.664	13116.94
515.032	13171.63
515.4	13251.4
515.767	13242.82
516.135	13357.39
516.502	13315.13
516.869	13542.02
517.237	13652.3
517.604	13515.12
517.972	13680.09
518.339	13786.98
518.706	13772.07
519.073	13908.56
519.44	13997.37
519.808	14126.86
520.175	14119.63
520.542	14278.49
520.909	14291.15
521.276	14306.74
521.643	14367.98
522.009	14502.22
522.376	14530.69
522.743	14636.9
523.11	14697.47
523.477	14831.93
523.843	14872.83
524.21	14970.68
524.577	15052.49
524.943	15069.66
525.31	15188.3
525.676	15301.29
526.043	15349.65
526.409	15349.43
526.776	15595.07
527.142	15486.15
527.508	15546.71
527.874	15668.51
528.241	15663.99
528.607	15729.98
528.973	15778.12
529.339	15777.44
529.705	15830.32
530.071	15909.41
530.437	15873.03
530.803	16002.52
531.169	16121.38
531.535	16003.2
531.901	16141.27
532.267	16061.5
532.632	16235.73
532.998	16208.39
533.364	16177.65
533.73	16258.1
534.095	16328.61
534.461	16321.83
534.826	16400.7
535.192	16519.57
535.557	16482.28
535.923	16373.81
536.288	16464.2
536.653	16489.96
537.019	16431.21
537.384	16478.89
537.749	16508.27
538.114	16442.51
538.479	16419
538.845	16474.37
539.21	16511.88
539.575	16490.64
539.94	16482.05
540.305	16569.96
540.67	16457.42
541.034	16668.49
541.399	16604.54
541.764	16600.24
542.129	16538.55
542.494	16586.46
542.858	16640.01
543.223	16609.73
543.587	16641.6
543.952	16613.8
544.316	16617.87
544.681	16543.07
545.045	16609.05
545.41	16621.48
545.774	16634.59
546.138	16628.49
546.503	16555.04
546.867	16549.85
547.231	16664.87
547.595	16579.9
547.959	16610.41
548.324	16617.87
548.688	16736.28
549.052	16629.62
549.416	16609.28
549.779	16616.29
550.143	16584.87
550.507	16722.95
550.871	16618.09
551.235	16672.56
551.599	16730.18
551.962	16661.03
552.326	16723.4
552.689	16820.12
553.053	16638.66
553.417	16630.75
553.78	16759.33
554.143	16741.48
554.507	16700.35
554.87	16757.07
555.234	16820.35
555.597	16677.75
555.96	16728.83
556.323	16721.59
556.686	16736.51
557.05	16897.18
557.413	16780.35
557.776	16824.87
558.139	16904.19
558.502	16896.73
558.865	16877.97
559.228	16983.73
559.59	17037.97
559.953	16948.93
560.316	17161.58
560.679	17122.04
561.041	17197.29
561.404	17201.58
561.767	17275.03
562.129	17284.52
562.492	17291.52
562.854	17256.72
563.217	17162.49
563.579	17241.81
563.941	17409.71
564.304	17362.71
564.666	17472.76
565.028	17542.59
565.39	17438.41
565.753	17439.99
566.115	17515.02
566.477	17669.14
566.839	17630.72
567.201	17771.06
567.563	17753.21
567.925	17809.48
568.287	17767.22
568.648	17853.32
569.01	17903.26
569.372	17974.67
569.734	17955.23
570.095	17971.73
570.457	18064.84
570.819	17958.85
571.18	18058.06
571.542	18055.8
571.903	18117.04
572.265	18114.55
572.626	18066.19
572.987	18183.25
573.349	18220.09
573.71	18233.64
574.071	18310.7
574.432	18293.3
574.794	18499.17
575.155	18339.86
575.516	18348.67
575.877	18435.22
576.238	18390.02
576.599	18522.45
576.96	18472.28
577.32	18483.81
577.681	18448.78
578.042	18498.95
578.403	18615.1
578.763	18572.84
579.124	18569.23
579.485	18696.23
579.845	18625.27
580.206	18645.16
580.566	18664.59
580.927	18607.42
581.287	18741.2
581.648	18555.9
582.008	18645.61
582.368	18685.84
582.728	18719.06
583.089	18698.27
583.449	18606.97
583.809	18694.65
584.169	18608.1
584.529	18530.13
584.889	18736
585.249	18611.94
585.609	18556.12
585.969	18736
586.329	18570.36
586.688	18615.1
587.048	18573.97
587.408	18571.72
587.768	18608.55
588.127	18489.23
588.487	18489.68
588.846	18709.11
589.206	18384.6
589.565	18543.69
589.925	18555.44
590.284	18507.99
590.643	18479.29
591.003	18511.6
591.362	18612.39
591.721	18453.53
592.08	18584.82
592.44	18649.68
592.799	18545.5
593.158	18564.03
593.517	18506.63
593.876	18574.2
594.235	18560.19
594.593	18468.67
594.952	18504.82
595.311	18470.7
595.67	18518.38
596.029	18618.27
596.387	18617.82
596.746	18529.68
597.104	18512.51
597.463	18471.38
597.822	18537.59
598.18	18529.91
598.538	18518.84
598.897	18562
599.255	18387.99
599.613	18682.67
599.972	18626.18
600.33	18559.51
600.688	18631.83
601.046	18561.55
601.404	18691.94
601.762	18580.75
602.12	18704.14
602.478	18563.35
602.836	18744.82
603.194	18490.59
603.552	18572.39
603.91	18597.7
604.268	18645.84
604.625	18583.69
604.983	18754.99
605.341	18663.24
605.698	18677.47
606.056	18680.19
606.413	18616.69
606.771	18766.74
607.128	18783.46
607.485	18606.97
607.843	18705.72
608.2	18724.03
608.557	18705.04
608.914	18731.48
609.272	18851.26
609.629	18824.59
609.986	18852.84
610.343	18786.4
610.7	18926.73
611.057	19031.82
611.414	18939.84
611.771	18918.37
612.127	18990.24
612.484	18957.02
612.841	19020.74
613.198	19020.97
613.554	18993.85
613.911	19084.24
614.267	19099.84
614.624	19086.05
614.98	19071.14
615.337	19268.19
615.693	19142.32
616.05	19169.21
616.406	19248.53
616.762	19201.53
617.118	19279.49
617.475	19166.5
617.831	19146.62
618.187	19288.53
618.543	19359.26
618.899	19358.81
619.255	19311.58
619.611	19273.62
619.967	19479.94
620.323	19509.77
620.678	19386.16
621.034	19342.54
621.39	19342.32
621.746	19310.23
622.101	19425.03
622.457	19287.85
622.812	19464.12
623.168	19509.54
623.523	19414.63
623.879	19413.05
624.234	19364.91
624.589	19409.43
624.945	19477.23
625.3	19464.8
625.655	19491.92
626.01	19450.11
626.365	19518.58
626.72	19491.92
627.075	19432.94
627.43	19370.79
627.785	19401.3
628.14	19441.75
628.495	19432.03
628.85	19421.64
629.205	19411.47
629.559	19444.69
629.914	19435.42
630.269	19397
630.623	19388.87
630.978	19329.89
631.332	19371.69
631.687	19328.53
632.041	19323.56
632.396	19313.39
632.75	19241.75
633.104	19293.73
633.459	19214.41
633.813	19187.52
634.167	19244.01
634.521	19217.8
634.875	19180.74
635.229	19199.27
635.583	19048.54
635.937	19067.52
636.291	19070.69
636.645	19016.68
636.999	18976.45
637.352	19138.25
637.706	18944.59
638.06	19085.37
638.413	19053.06
638.767	18957.24
639.121	19010.8
639.474	18840.18
639.828	18889.67
640.181	18853.52
640.534	18909.11
640.888	18758.6
641.241	18754.08
641.594	18812.39
641.947	18885.61
642.301	18793.18
642.654	18883.8
643.007	18768.09
643.36	18799.05
643.713	18714.08
644.066	18765.16
644.419	18667.08
644.771	18515.67
645.124	18360.65
645.477	18471.38
645.83	18234.32
646.182	18163.14
646.535	18209.46
646.888	18168.79
647.24	18139.86
647.593	18210.14
647.945	18104.61
648.298	18096.25
648.65	17991.62
649.002	18048.56
649.355	18084.27
649.707	18038.62
650.059	18183.48
650.411	18260.54
650.763	18468.44
651.115	18576.01
651.467	18494.43
651.819	18388.67
652.171	18517.71
652.523	18474.77
652.875	18434.54
653.227	18360.87
653.578	18521.09
653.93	18363.13
654.282	18348.9
654.633	18364.49
654.985	18517.03
655.337	18358.39
655.688	18374.88
656.039	18585.73
656.391	18332.63
656.742	18560.64
657.094	18495.78
657.445	18480.64
657.796	18497.14
658.147	18461.66
658.498	18383.92
658.849	18516.58
659.2	18438.84
659.551	18376.01
659.902	18515.45
660.253	18382.34
660.604	18489.91
660.955	18377.14
661.306	18484.03
661.656	18397.03
662.007	18529.68
662.358	18434.32
662.708	18520.64
663.059	18438.16
663.409	18326.07
663.76	18489.68
664.11	18527.2
664.461	18531.72
664.811	18493.75
665.161	18471.38
665.511	18557.7
665.862	18484.03
666.212	18592.73
666.562	18514.09
666.912	18546.41
667.262	18486.29
667.612	18528.33
667.962	18468.89
668.312	18434.09
668.662	18479.29
669.011	18524.48
669.361	18538.27
669.711	18430.7
670.06	18379.86
670.41	18388.22
670.76	18373.3
671.109	18398.61
671.459	18382.34
671.808	18385.28
672.157	18435
672.507	18345.05
672.856	18199.75
673.205	18262.57
673.554	18434.32
673.904	18215.11
674.253	18426.63
674.602	18307.99
674.951	18050.15
675.3	17930.83
675.649	18267.99
675.998	18275.23
676.346	18205.17
676.695	18278.16
677.044	18142.8
677.393	18215.57
677.741	18271.84
678.09	18193.19
678.438	18192.29
678.787	18103.93
679.135	18136.25
679.484	18004.5
679.832	18089.92
680.181	17868
680.529	18051.95
680.877	17955.69
681.225	17952.52
681.573	17978.96
681.922	17843.82
682.27	17870.72
682.618	17814.9
682.966	17808.12
683.314	17768.12
683.661	17667.56
684.009	17606.54
684.357	17578.75
684.705	17447.45
685.053	17556.37
685.4	17525.64
685.748	17467.56
686.095	17419.2
686.443	17388.47
686.79	17291.97
687.138	17393.44
687.485	17382.82
687.832	17361.8
688.18	17291.97
688.527	17189.38
688.874	17066.9
689.221	17126.33
689.568	17119.55
689.915	16972.44
690.262	16915.04
690.609	16909.16
690.956	16861.25
691.303	16904.19
691.65	16765.43
691.997	16768.15
692.344	16680.47
692.69	16635.72
693.037	16671.2
693.383	16521.6
693.73	16574.93
694.077	16374.26
694.423	16453.8
694.769	16306.69
695.116	16314.6
695.462	16248.61
695.808	16228.27
696.155	16254.71
696.501	16121.61
696.847	16070.99
697.193	15975.63
697.539	16044.1
697.885	15944.44
698.231	15801.62
698.577	15851.56
698.923	15749.87
699.269	15672.13
699.614	15658.12
699.96	15668.51
700.306	15584
700.651	15435.07
700.997	15461.74
701.342	15428.75
701.688	15338.58
702.033	15287.96
702.379	15261.97
702.724	15174.97
703.069	15233.27
703.415	15041.41
703.76	15071.24
704.105	15027.63
704.45	14998.7
704.795	14933.39
705.14	14796
705.485	14793.96
705.83	14717.58
706.175	14742.89
706.52	14732.72
706.865	14645.94
707.209	14617.24
707.554	14562.55
707.899	14633.06
708.243	14439.85
708.588	14420.86
708.932	14385.16
709.277	14396.46
709.621	14391.03
709.966	14276.46
710.31	14315.33
710.654	14186.52
710.998	14116.01
711.342	14155.56
711.687	14123.7
712.031	14125.28
712.375	14022.46
712.719	14002.8
713.063	13939.75
713.407	13996.92
713.75	13938.62
714.094	13977.03
714.438	13819.75
714.782	13882.35
715.125	13829.24
715.469	13800.77
715.812	13674.22
716.156	13680.09
716.499	13686.42
716.843	13681.22
717.186	13675.35
717.53	13617.72
717.873	13651.17
718.216	13638.06
718.559	13598.06
718.902	13455.01
719.246	13586.76
719.589	13458.63
719.932	13440.1
720.275	13494.79
720.617	13380.89
720.96	13426.09
721.303	13378.41
721.646	13463.6
721.989	13309.25
722.331	13426.99
722.674	13324.62
723.016	13313.77
723.359	13220.44
723.701	13316.94
724.044	13225.19
724.386	13231.29
724.729	13226.77
725.071	13115.36
725.413	13143.16
725.755	13097.96
726.097	13191.97
726.439	13085.08
726.782	13066.78
727.124	13207.79
727.465	13132.54
727.807	13049.6
728.149	12982.48
728.491	12975.7
728.833	13054.57
729.175	12991.97
729.516	12967.79
729.858	12994.01
730.199	12941.13
730.541	13005.08
730.882	12903.84
731.224	13017.28
731.565	12890.73
731.906	12958.08
732.248	12909.49
732.589	12874.92
732.93	12841.92
733.271	12878.53
733.612	12925.31
733.953	12920.79
734.294	12802.15
734.635	12864.52
734.976	12950.85
735.317	12827.01
735.658	12869.27
735.999	12856.84
736.339	12864.97
736.68	12957.17
737.021	12885.54
737.361	12840.57
737.702	12835.82
738.042	12962.37
738.383	12787.91
738.723	12936.61
739.063	12872.66
739.404	12987
739.744	12898.64
740.084	12868.14
740.424	12880.34
740.764	12933.9
741.104	12987.23
741.444	12866.1
741.784	12885.76
742.124	13014.35
742.464	12863.84
742.804	13000.56
743.143	13012.09
743.483	12982.48
743.823	12968.02
744.162	13036.04
744.502	12974.12
744.841	12984.74
745.181	13175.25
745.52	13048.02
745.86	13088.92
746.199	13137.06
746.538	13222.25
746.877	13241.23
747.216	13339.99
747.556	13296.15
747.895	13366.2
748.234	13311.51
748.573	13400.33
748.911	13432.87
749.25	13494.33
749.589	13485.97
749.928	13557.38
750.267	13674.89
750.605	13743.59
750.944	13795.8
751.283	13775.23
751.621	14014.77
751.96	13803.48
752.298	13967.32
752.636	14103.36
752.975	14183.58
753.313	14219.74
753.651	14298.83
753.989	14467.42
754.327	14483.01
754.666	14473.52
755.004	14659.95
755.342	14781.08
755.679	14891.13
756.017	14860.63
756.355	15027.4
756.693	15072.15
757.031	15263.33
