Data from hue_280_FLMS001491_00025.txt Node
Date: Tue Feb 07 15:55:03 GMT 2017
User: dcchb
Spectrometer: FLMS00149
Trigger mode: 0
Integration Time (sec): 2.000000E-2
Scans to average: 10
Electric dark correction enabled: true
Nonlinearity correction enabled: false
Boxcar width: 0
XAxis mode: Wavelengths
Number of Pixels in Spectrum: 2048
>>>>>Begin Spectral Data<<<<<
341.393	-1.53
341.776	-1.53
342.16	-1.53
342.543	-49.21
342.927	-72.94
343.31	-63.22
343.693	-77.46
344.077	-58.93
344.46	-45.59
344.843	-62.77
345.226	-34.52
345.61	-25.71
345.993	-20.51
346.376	-4.92
346.759	27.17
347.142	18.81
347.525	46.38
347.908	34.41
348.291	60.17
348.674	88.42
349.057	118.25
349.44	115.31
349.823	138.13
350.206	155.53
350.588	191.24
350.971	217.68
351.354	218.36
351.737	219.03
352.119	233.5
352.502	261.29
352.884	282.08
353.267	289.09
353.65	282.53
354.032	295.64
354.414	306.72
354.797	304
355.179	304.23
355.562	329.99
355.944	293.61
356.326	310.1
356.709	331.12
357.091	348.07
357.473	313.49
357.855	325.02
358.238	332.7
358.62	321.63
359.002	322.76
359.384	331.35
359.766	333.16
360.148	342.42
360.53	359.37
360.912	343.1
361.294	327.96
361.676	341.29
362.057	338.13
362.439	298.35
362.821	332.7
363.203	339.26
363.584	327.28
363.966	311.23
364.348	322.31
364.729	331.8
365.111	317.56
365.493	317.56
365.874	308.52
366.256	297.68
366.637	315.53
367.019	313.27
367.4	323.21
367.781	302.87
368.163	315.75
368.544	297.22
368.925	293.38
369.306	315.98
369.688	326.83
370.069	304.23
370.45	314.62
370.831	311.69
371.212	317.79
371.593	307.62
371.974	327.28
372.355	318.01
372.736	316.21
373.117	299.26
373.498	324.57
373.879	310.78
374.26	316.21
374.641	312.36
375.021	316.66
375.402	317.56
375.783	307.62
376.163	322.31
376.544	319.37
376.925	331.57
377.305	321.4
377.686	326.15
378.066	330.67
378.447	343.55
378.827	341.74
379.208	338.35
379.588	301.97
379.968	326.6
380.349	322.53
380.729	328.86
381.109	343.55
381.489	337.67
381.87	320.73
382.25	346.26
382.63	352.82
383.01	330.9
383.39	335.41
383.77	353.95
384.15	360.95
384.53	348.3
384.91	348.07
385.29	349.43
385.67	344
386.049	352.14
386.429	345.36
386.809	360.27
387.189	362.31
387.568	346.26
387.948	362.98
388.328	360.05
388.707	371.57
389.087	366.37
389.466	377.22
389.846	389.88
390.225	375.64
390.605	354.4
390.984	355.53
391.363	394.4
391.743	378.8
392.122	365.02
392.501	378.58
392.881	381.29
393.26	376.09
393.639	360.05
394.018	383.55
394.397	367.96
394.776	384.68
395.155	390.55
395.534	378.58
395.913	376.09
396.292	395.98
396.671	407.73
397.05	387.84
397.429	400.72
397.808	414.06
398.186	408.86
398.565	406.15
398.944	399.82
399.323	391.91
399.701	413.38
400.08	404.57
400.458	414.96
400.837	405.02
401.215	426.03
401.594	407.5
401.972	407.28
402.351	416.77
402.729	424.9
403.107	428.29
403.486	445.92
403.864	459.03
404.242	425.81
404.62	448.41
404.999	437.79
405.377	461.97
405.755	456.32
406.133	462.87
406.511	487.95
406.889	450.67
407.267	471.68
407.645	493.83
408.023	473.26
408.401	490.67
408.779	482.76
409.156	463.1
409.534	492.47
409.912	513.72
410.29	510.78
410.667	496.99
411.045	524.56
411.422	520.49
411.8	527.27
412.178	554.39
412.555	544.9
412.933	550.32
413.31	560.49
413.687	553.71
414.065	556.65
414.442	585.13
414.819	592.81
415.197	619.02
415.574	586.03
415.951	602.07
416.328	612.92
416.705	627.84
417.082	625.35
417.46	652.02
417.837	651.79
418.214	638.46
418.591	663.77
418.967	654.05
419.344	687.95
419.721	667.38
420.098	661.28
420.475	688.4
420.852	703.31
421.228	718.68
421.605	718.91
421.982	720.72
422.358	719.13
422.735	741.05
423.111	750.55
423.488	770.66
423.864	766.59
424.241	802.97
424.617	787.15
424.994	807.49
425.37	816.98
425.746	813.37
426.123	809.98
426.499	821.28
426.875	842.07
427.251	838.45
427.627	862.63
428.003	866.93
428.379	888.62
428.756	890.88
429.132	906.02
429.507	925.68
429.883	907.83
430.259	930.88
430.635	946.47
431.011	965
431.387	983.08
431.763	958.22
432.138	1016.3
432.514	1007.04
432.89	1024.89
433.265	1025.79
433.641	1047.71
434.016	1048.62
434.392	1074.6
434.767	1083.64
435.143	1085.45
435.518	1137.65
435.894	1103.98
436.269	1139.01
436.644	1147.6
437.02	1171.78
437.395	1177.65
437.77	1213.13
438.145	1215.62
438.52	1223.53
438.895	1233.02
439.271	1241.38
439.646	1294.71
440.021	1265.56
440.395	1277.09
440.77	1283.19
441.145	1292.45
441.52	1313.47
441.895	1320.25
442.27	1343.52
442.645	1330.19
443.019	1339
443.394	1358.89
443.769	1379.23
444.143	1365.9
444.518	1384.65
444.892	1372.68
445.267	1388.49
445.641	1393.24
446.016	1431.43
446.39	1421.04
446.764	1448.38
447.139	1460.81
447.513	1463.07
447.887	1446.12
448.262	1440.47
448.636	1477.98
449.01	1492.67
449.384	1481.37
449.758	1484.54
450.132	1499.68
450.506	1512.33
450.88	1539.45
451.254	1551.88
451.628	1557.53
452.002	1591.2
452.376	1581.71
452.75	1595.95
453.123	1589.39
453.497	1595.04
453.871	1615.83
454.244	1638.88
454.618	1640.69
454.992	1697.64
455.365	1661.93
455.739	1725.21
456.112	1715.72
456.486	1719.79
456.859	1740.12
457.232	1740.12
457.606	1733.57
457.979	1795.49
458.352	1812.66
458.725	1824.87
459.099	1841.59
459.472	1875.49
459.845	1850.4
460.218	1885.88
460.591	1901.93
460.964	1874.81
461.337	1934.47
461.71	1963.62
462.083	1990.06
462.456	1997.52
462.829	1971.53
463.201	2026.67
463.574	2022.6
463.947	2014.92
464.32	2083.17
464.692	2059.66
465.065	2087.23
465.438	2115.26
465.81	2161.58
466.183	2152.09
466.555	2220.34
466.928	2240.45
467.3	2196.61
467.672	2239.55
468.045	2286.32
468.417	2259.88
468.789	2309.37
469.161	2290.62
469.534	2330.62
469.906	2360.45
470.278	2401.35
470.65	2386.66
471.022	2424.17
471.394	2478.18
471.766	2505.08
472.138	2510.72
472.51	2552.31
472.882	2565.41
473.253	2611.51
473.625	2635.02
473.997	2663.26
474.369	2688.12
474.74	2701.23
475.112	2763.15
475.484	2766.76
475.855	2795.69
476.227	2846.31
476.598	2924.73
476.97	2915.91
477.341	2965.63
477.713	3005.4
478.084	2982.12
478.455	3093.76
478.827	3094.66
479.198	3148
479.569	3171.05
479.94	3243.81
480.311	3238.16
480.682	3279.52
481.053	3349.8
481.424	3401.1
481.795	3406.07
482.166	3460.08
482.537	3497.14
482.908	3566.74
483.279	3542.56
483.65	3639.73
484.021	3678.6
484.391	3688.55
484.762	3701.88
485.133	3778.94
485.503	3787.98
485.874	3856.45
486.244	3873.63
486.615	3923.34
486.985	3944.13
487.356	4009.44
487.726	4042.89
488.097	4118.37
488.467	4133.51
488.837	4147.29
489.207	4178.7
489.578	4260.06
489.948	4308.64
490.318	4329.89
490.688	4342.77
491.058	4431.8
491.428	4430.45
491.798	4490.56
492.168	4556.55
492.538	4570.33
492.908	4628.86
493.278	4680.61
493.648	4655.3
494.017	4708.63
494.387	4782.08
494.757	4735.53
495.126	4765.13
495.496	4825.92
495.866	4821.85
496.235	4895.52
496.605	4856.2
496.974	4976.65
497.344	4936.65
497.713	4989.3
498.082	4982.07
498.452	5038.79
498.821	5021.39
499.19	5042.41
499.559	5109.3
499.928	5104.1
500.298	5106.81
500.667	5183.87
501.036	5147.94
501.405	5206.93
501.774	5213.03
502.143	5273.36
502.512	5296.41
502.88	5261.16
503.249	5325.11
503.618	5365.79
503.987	5363.98
504.356	5370.54
504.724	5388.84
505.093	5352.01
505.462	5431.78
505.83	5424.32
506.199	5490.53
506.567	5528.05
506.936	5500.93
507.304	5520.14
507.672	5575.96
508.041	5565.11
508.409	5581.15
508.777	5626.12
509.145	5650.08
509.514	5635.84
509.882	5659.79
510.25	5670.64
510.618	5698.89
510.986	5733.92
511.354	5753.8
511.722	5816.17
512.09	5836.06
512.458	5791.32
512.826	5818.21
513.193	5823.86
513.561	5846
513.929	5883.52
514.297	5930.97
514.664	5929.39
515.032	5963.97
515.4	5967.13
515.767	5937.53
516.135	6011.2
516.502	5978.2
516.869	6009.39
517.237	6013.01
517.604	6031.99
517.972	6059.33
518.339	6090.97
518.706	6039.9
519.073	6089.39
519.44	6107.92
519.808	6199.44
520.175	6172.1
520.542	6230.85
520.909	6230.18
521.276	6236.73
521.643	6244.41
522.009	6325.09
522.376	6284.64
522.743	6323.73
523.11	6318.53
523.477	6388.14
523.843	6370.51
524.21	6392.43
524.577	6452.99
524.943	6464.52
525.31	6520.56
525.676	6531.41
526.043	6563.73
526.409	6683.04
526.776	6654.12
527.142	6601.24
527.508	6620.67
527.874	6737.96
528.241	6759.2
528.607	6783.15
528.973	6835.58
529.339	6850.5
529.705	6872.19
530.071	6939.99
530.437	6868.58
530.803	6907.67
531.169	6951.06
531.535	6922.81
531.901	6927.56
532.267	6958.74
532.632	7021.57
532.998	6990.61
533.364	7021.57
533.73	7064.5
534.095	7061.34
534.461	7066.76
534.826	7133.65
535.192	7146.99
535.557	7136.14
535.923	7145.86
536.288	7164.39
536.653	7181.56
537.019	7185.4
537.384	7160.55
537.749	7210.26
538.114	7261.33
538.479	7224.73
538.845	7321.67
539.21	7330.26
539.575	7265.85
539.94	7299.3
540.305	7332.29
540.67	7332.97
541.034	7296.81
541.399	7323.71
541.764	7376.13
542.129	7359.19
542.494	7428.11
542.858	7376.13
543.223	7431.05
543.587	7470.37
543.952	7472.85
544.316	7519.63
544.681	7457.71
545.045	7588.33
545.41	7588.78
545.774	7505.62
546.138	7586.75
546.503	7566.41
546.867	7631.72
547.231	7666.52
547.595	7656.8
547.959	7669.69
548.324	7693.64
548.688	7643.02
549.052	7656.13
549.416	7641.44
549.779	7683.24
550.143	7672.62
550.507	7730.47
550.871	7727.31
551.235	7700.19
551.599	7784.94
551.962	7819.06
552.326	7791.94
552.689	7780.64
553.053	7794.88
553.417	7847.99
553.78	7893.18
554.143	7812.96
554.507	7901.09
554.87	7862.9
555.234	7942.67
555.597	7877.36
555.96	7955.55
556.323	7963.24
556.686	7943.12
557.05	8035.1
557.413	8002.78
557.776	8042.78
558.139	8074.19
558.502	8092.95
558.865	8130.24
559.228	8180.63
559.59	8168.2
559.953	8136.34
560.316	8227.18
560.679	8194.42
561.041	8259.05
561.404	8277.8
561.767	8324.81
562.129	8222.21
562.492	8325.49
562.854	8351.48
563.217	8330.68
563.579	8389.67
563.941	8416.11
564.304	8433.51
564.666	8480.06
565.028	8491.58
565.39	8494.52
565.753	8545.14
566.115	8581.75
566.477	8592.6
566.839	8645.48
567.201	8684.35
567.563	8695.2
567.925	8744.46
568.287	8799.37
568.648	8673.73
569.01	8855.19
569.372	8889.77
569.734	8891.8
570.095	8895.87
570.457	8899.03
570.819	8923.21
571.18	8936.32
571.542	8972.93
571.903	9047.5
572.265	9056.32
572.626	9057.45
572.987	9102.19
573.349	9137.44
573.71	9141.51
574.071	9233.03
574.432	9274.39
574.794	9295.18
575.155	9292.02
575.516	9339.02
575.877	9386.93
576.238	9375.4
576.599	9449.07
576.96	9493.14
577.32	9524.33
577.681	9514.16
578.042	9605.68
578.403	9699.46
578.763	9634.38
579.124	9707.6
579.485	9710.76
579.845	9785.11
580.206	9794.83
580.566	9943.3
580.927	9909.4
581.287	9943.07
581.648	9968.16
582.008	9994.6
582.368	10103.75
582.728	10130.86
583.089	10157.3
583.449	10239.34
583.809	10310.29
584.169	10323.17
584.529	10383.29
584.889	10430.52
585.249	10491.76
585.609	10496.5
585.969	10605.43
586.329	10593
586.688	10704.86
587.048	10743.05
587.408	10782.15
587.768	10846.55
588.127	10899.66
588.487	10950.5
588.846	11044.74
589.206	11164.06
589.565	11202.02
589.925	11262.81
590.284	11214
590.643	11337.16
591.003	11358.85
591.362	11485.86
591.721	11468.68
592.08	11638.62
592.44	11685.85
592.799	11704.16
593.158	11776.47
593.517	11814.66
593.876	11926.07
594.235	11983.92
594.593	12049.01
594.952	12079.06
595.311	12154.99
595.67	12133.3
596.029	12310.47
596.387	12324.93
596.746	12443.35
597.104	12382.56
597.463	12423.01
597.822	12619.16
598.18	12564.47
598.538	12642.44
598.897	12783.68
599.255	12658.93
599.613	12937.12
599.972	12828.19
600.33	12920.17
600.688	12972.82
601.046	13046.49
601.404	13076.32
601.762	13165.36
602.12	13102.99
602.478	13309.76
602.836	13192.25
603.194	13250.1
603.552	13274.51
603.91	13314.96
604.268	13479.48
604.625	13470.44
604.983	13440.83
605.341	13481.74
605.698	13556.31
606.056	13547.95
606.413	13650.55
606.771	13716.31
607.128	13822.97
607.485	13648.51
607.843	13721.96
608.2	13808.51
608.557	13924.66
608.914	13855.51
609.272	13914.94
609.629	13952.68
609.986	14007.82
610.343	13982.74
610.7	14192.9
611.057	14107.48
611.414	14193.58
611.771	14170.76
612.127	14182.06
612.484	14178.89
612.841	14283.3
613.198	14278.1
613.554	14289.85
613.911	14429.96
614.267	14366.91
614.624	14406.01
614.98	14387.7
615.337	14521.03
615.693	14418.43
616.05	14479.22
616.406	14570.07
616.762	14498.88
617.118	14505.21
617.475	14646
617.831	14596.28
618.187	14754.47
618.543	14681.03
618.899	14808.03
619.255	14752.89
619.611	14656.39
619.967	14735.94
620.323	14850.51
620.678	14719.67
621.034	14693.23
621.39	14782.72
621.746	14833.79
622.101	14925.99
622.457	14802.38
622.812	14885.77
623.168	14844.41
623.523	14875.37
623.879	14930.06
624.234	14854.58
624.589	14835.37
624.945	14955.82
625.3	14955.14
625.655	14850.97
626.01	14972.09
626.365	14922.83
626.72	14890.29
627.075	14873.11
627.43	14973
627.785	14851.42
628.14	14962.83
628.495	15024.29
628.85	14891.19
629.205	14912.21
629.559	15072.88
629.914	14898.65
630.269	14933.68
630.623	14978.19
630.978	14845.09
631.332	14984.3
631.687	14954.24
632.041	14865.88
632.396	14872.21
632.75	14871.98
633.104	14891.64
633.459	14786.33
633.813	14852.55
634.167	14824.3
634.521	14787.01
634.875	14850.74
635.229	14755.83
635.583	14726.9
635.937	14776.39
636.291	14740.23
636.645	14794.7
636.999	14768.93
637.352	14752.89
637.706	14641.71
638.06	14668.37
638.413	14646.23
638.767	14611.88
639.121	14641.48
639.474	14570.52
639.828	14561.93
640.181	14633.34
640.534	14646.45
640.888	14566
641.241	14495.95
641.594	14484.65
641.947	14631.99
642.301	14550.86
642.654	14523.52
643.007	14617.3
643.36	14551.54
643.713	14463.18
644.066	14583.4
644.419	14506.79
644.771	14352
645.124	14305.67
645.477	14284.65
645.83	14205.56
646.182	14137.54
646.535	14065.68
646.888	14078.56
647.24	14118.78
647.593	14146.8
647.945	14050.31
648.298	14011.89
648.65	14042.17
649.002	13992.91
649.355	14058.44
649.707	14002.85
650.059	14076.75
650.411	14302.05
650.763	14286.01
651.115	14483.07
651.467	14429.28
651.819	14340.02
652.171	14375.27
652.523	14261.38
652.875	14280.58
653.227	14314.93
653.578	14418.66
653.93	14365.78
654.282	14279.68
654.633	14307.02
654.985	14334.37
655.337	14352.45
655.688	14366.91
656.039	14343.86
656.391	14329.4
656.742	14316.06
657.094	14296.63
657.445	14384.76
657.796	14427.93
658.147	14397.42
658.498	14286.91
658.849	14447.59
659.2	14408.49
659.551	14394.48
659.902	14397.19
660.253	14418.43
660.604	14420.24
660.955	14367.36
661.306	14434.48
661.656	14366.46
662.007	14509.51
662.358	14459.34
662.708	14482.61
663.059	14395.61
663.409	14398.1
663.76	14491.88
664.11	14512.22
664.461	14526.91
664.811	14410.75
665.161	14324.88
665.511	14439.22
665.862	14437.19
666.212	14472.67
666.562	14424.76
666.912	14442.39
667.262	14476.06
667.612	14463.18
667.962	14440.35
668.312	14367.59
668.662	14500.92
669.011	14330.75
669.361	14389.28
669.711	14455.04
670.06	14418.66
670.41	14397.42
670.76	14339.11
671.109	14404.88
671.459	14449.17
671.808	14316.52
672.157	14436.74
672.507	14279.68
672.856	14288.72
673.205	14345.89
673.554	14311.32
673.904	14296.18
674.253	14353.13
674.602	14326.69
674.951	14142.74
675.3	14067.48
675.649	14275.61
675.998	14188.61
676.346	14252.56
676.695	14229.51
677.044	14213.02
677.393	14211.43
677.741	14217.31
678.09	14217.99
678.438	14097.09
678.787	14278.33
679.135	14147.26
679.484	14089.18
679.832	14110.19
680.181	14021.83
680.529	14022.06
680.877	14077.88
681.225	13975.28
681.573	14109.29
681.922	13972.12
682.27	13930.99
682.618	13890.99
682.966	13914.27
683.314	13952.23
683.661	13874.72
684.009	13761.28
684.357	13799.47
684.705	13746.59
685.053	13763.31
685.4	13716.31
685.748	13662.97
686.095	13660.26
686.443	13585.69
686.79	13511.79
687.138	13566.03
687.485	13573.94
687.832	13435.41
688.18	13468.4
688.527	13376.65
688.874	13390.89
689.221	13376.43
689.568	13317.67
689.915	13229.54
690.262	13282.87
690.609	13299.14
690.956	13165.36
691.303	13179.82
691.65	13088.3
691.997	13098.47
692.344	12990.22
692.69	12969.88
693.037	12985.03
693.383	12834.97
693.73	12924.01
694.077	12839.49
694.423	12826.61
694.769	12715.88
695.116	12792.04
695.462	12733.73
695.808	12652.38
696.155	12703.23
696.501	12519.28
696.847	12615.09
697.193	12454.19
697.539	12530.35
697.885	12414.65
698.231	12340.07
698.577	12328.32
698.923	12321.99
699.269	12267.98
699.614	12134.43
699.96	12150.47
700.306	12102.79
700.651	12082.9
700.997	12024.83
701.342	12024.37
701.688	11992.51
702.033	11849.91
702.379	11863.93
702.724	11748
703.069	11754.1
703.415	11643.37
703.76	11732.86
704.105	11704.38
704.45	11630.71
704.795	11586.19
705.14	11482.01
705.485	11510.94
705.83	11471.17
706.175	11455.12
706.52	11400.43
706.865	11403.37
707.209	11380.55
707.554	11252.87
707.899	11355.46
708.243	11221.91
708.588	11217.39
708.932	11124.51
709.277	11188.46
709.621	11150.95
709.966	11135.13
710.31	11079.99
710.654	10989.15
710.998	10957.96
711.342	11015.59
711.687	10948.47
712.031	10865.76
712.375	10789.6
712.719	10885.19
713.063	10778.98
713.407	10823.95
713.75	10832.54
714.094	10738.08
714.438	10706.67
714.782	10696.27
715.125	10729.94
715.469	10731.53
715.812	10695.37
716.156	10603.85
716.499	10642.04
716.843	10656.95
717.186	10544.86
717.53	10643.17
717.873	10568.37
718.216	10563.85
718.559	10586.44
718.902	10524.75
719.246	10496.05
719.589	10482.49
719.932	10438.65
720.275	10426.45
720.617	10380.8
720.96	10442.72
721.303	10420.8
721.646	10353.91
721.989	10329.5
722.331	10462.83
722.674	10371.76
723.016	10335.15
723.359	10341.03
723.701	10349.61
724.044	10233.01
724.386	10323.4
724.729	10283.85
725.071	10188.94
725.413	10282.72
725.755	10255.15
726.097	10275.27
726.439	10188.94
726.782	10165.66
727.124	10224.87
727.465	10133.8
727.807	10161.15
728.149	10190.97
728.491	10136.74
728.833	10154.14
729.175	10138.32
729.516	10126.57
729.858	10090.64
730.199	10149.17
730.541	10077.31
730.882	10104.88
731.224	10181.94
731.565	10077.53
731.906	10147.59
732.248	10157.3
732.589	10110.75
732.93	10086.57
733.271	10098.1
733.612	10044.54
733.953	10108.04
734.294	10093.8
734.635	10100.36
734.976	10107.81
735.317	10063.07
735.658	10127.7
735.999	10145.1
736.339	10072.33
736.68	10080.02
737.021	10145.1
737.361	10010.41
737.702	10136.74
738.042	10154.82
738.383	10091.32
738.723	10127.47
739.063	10100.36
739.404	10157.76
739.744	10146.91
740.084	10151.88
740.424	10148.04
740.764	10147.13
741.104	10251.31
741.444	10122.95
741.784	10152.78
742.124	10246.34
742.464	10295.6
742.804	10203.63
743.143	10268.94
743.483	10312.78
743.823	10255.38
744.162	10350.74
744.502	10351.42
744.841	10312.55
745.181	10477.3
745.52	10465.54
745.86	10488.37
746.199	10557.29
746.538	10541.47
746.877	10642.04
747.216	10709.38
747.556	10729.27
747.895	10738.98
748.234	10786.44
748.573	10830.05
748.911	10842.94
749.25	10947.34
749.589	10952.99
749.928	11025.76
750.267	11113.66
750.605	11216.48
750.944	11291.51
751.283	11285.86
751.621	11389.59
751.96	11477.04
752.298	11540.77
752.636	11699.18
752.975	11661.44
753.313	11793.64
753.651	12009.23
753.989	12002
754.327	12144.82
754.666	12224.14
755.004	12314.99
755.342	12495.32
755.679	12672.04
756.017	12617.13
756.355	12806.05
756.693	12895.08
757.031	13093.5
757.368	13166.94
757.706	13248.52
758.044	13429.76
758.381	13619.59
758.719	13743.88
759.056	13846.92
759.394	13966.02
