Data from hue_140_FLMS001491_00036.txt Node
Date: Tue Feb 07 16:55:50 GMT 2017
User: dcchb
Spectrometer: FLMS00149
Trigger mode: 0
Integration Time (sec): 2.000000E-2
Scans to average: 10
Electric dark correction enabled: true
Nonlinearity correction enabled: false
Boxcar width: 0
XAxis mode: Wavelengths
Number of Pixels in Spectrum: 2048
>>>>>Begin Spectral Data<<<<<
341.393	-13.36
341.776	-13.36
342.16	-13.36
342.543	-57.65
342.927	-82.74
343.31	-61.5
343.693	-65.11
344.077	-75.96
344.46	-76.41
344.843	-49.07
345.226	-49.07
345.61	-34.38
345.993	-14.27
346.376	-5.45
346.759	-12.68
347.142	41.55
347.525	72.06
347.908	27.32
348.291	90.82
348.674	83.59
349.057	128.56
349.44	131.95
349.823	152.74
350.206	158.61
350.588	214.88
350.971	211.94
351.354	225.73
351.737	234.09
352.119	237.03
352.502	265.28
352.884	276.57
353.267	280.87
353.65	293.07
354.032	299.17
354.414	281.55
354.797	322.45
355.179	331.71
355.562	331.49
355.944	332.84
356.326	316.12
356.709	341.66
357.091	344.14
357.473	335.78
357.855	355.22
358.238	340.3
358.62	336.01
359.002	332.84
359.384	350.7
359.766	323.81
360.148	341.43
360.53	351.83
360.912	338.27
361.294	333.97
361.676	338.95
362.057	341.88
362.439	357.48
362.821	342.79
363.203	350.7
363.584	346.18
363.966	335.1
364.348	325.39
364.729	354.54
365.111	323.81
365.493	301.43
365.874	310.25
366.256	322.68
366.637	340.08
367.019	315.67
367.4	327.42
367.781	329.91
368.163	314.09
368.544	315.9
368.925	317.93
369.306	316.35
369.688	346.4
370.069	317.03
370.45	329.45
370.831	329
371.212	317.48
371.593	303.47
371.974	320.87
372.355	321.32
372.736	318.16
373.117	295.78
373.498	317.7
373.879	314.54
374.26	300.98
374.641	318.83
375.021	302.11
375.402	324.48
375.783	319.74
376.163	325.16
376.544	327.42
376.925	336.01
377.305	328.32
377.686	345.73
378.066	343.69
378.447	342.11
378.827	307.76
379.208	340.98
379.588	319.51
379.968	346.86
380.349	350.7
380.729	347.31
381.109	340.98
381.489	336.46
381.87	331.71
382.25	352.96
382.63	345.95
383.01	346.4
383.39	341.43
383.77	357.02
384.15	348.89
384.53	347.53
384.91	359.06
385.29	358.83
385.67	357.02
386.049	364.48
386.429	374.2
386.809	369
387.189	353.86
387.568	357.93
387.948	366.52
388.328	369.45
388.707	368.1
389.087	378.04
389.466	369.68
389.846	375.33
390.225	373.97
390.605	360.87
390.984	374.65
391.363	371.71
391.743	357.7
392.122	386.18
392.501	393.41
392.881	384.82
393.26	411.03
393.639	394.99
394.018	382.33
394.397	402.67
394.776	389.11
395.155	374.88
395.534	385.27
395.913	384.59
396.292	394.76
396.671	387.98
397.05	399.74
397.429	410.58
397.808	420.53
398.186	406.29
398.565	412.62
398.944	423.69
399.323	417.36
399.701	418.94
400.08	392.73
400.458	407.42
400.837	420.3
401.215	427.53
401.594	437.02
401.972	406.51
402.351	430.02
402.729	419.17
403.107	417.14
403.486	444.03
403.864	438.6
404.242	402.67
404.62	432.95
404.999	432.5
405.377	440.41
405.755	437.47
406.133	455.1
406.511	420.07
406.889	453.52
407.267	452.84
407.645	447.19
408.023	462.78
408.401	440.86
408.779	457.81
409.156	472.28
409.534	447.42
409.912	457.59
410.29	453.97
410.667	469.79
411.045	503.69
411.422	455.78
411.8	495.78
412.178	497.59
412.555	499.39
412.933	518.15
413.31	495.1
413.687	488.32
414.065	496.68
414.442	523.35
414.819	518.83
415.197	513.63
415.574	517.02
415.951	510.24
416.328	526.29
416.705	501.88
417.082	534.87
417.46	517.92
417.837	556.12
418.214	538.94
418.591	524.93
418.967	555.66
419.344	542.78
419.721	553.18
420.098	551.6
420.475	585.04
420.852	546.17
421.228	570.58
421.605	559.28
421.982	559.73
422.358	577.36
422.735	574.19
423.111	583.23
423.488	594.53
423.864	585.72
424.241	597.92
424.617	582.56
424.994	602.22
425.37	599.96
425.746	617.58
426.123	639.5
426.499	617.81
426.875	643.8
427.251	610.58
427.627	624.81
428.003	644.25
428.379	634.08
428.756	642.44
429.132	643.8
429.507	685.6
429.883	689.67
430.259	666.17
430.635	666.17
431.011	681.54
431.387	698.26
431.763	717.24
432.138	696.68
432.514	682.21
432.89	722.89
433.265	722.89
433.641	730.12
434.016	717.02
434.392	762.66
434.767	770.35
435.143	744.81
435.518	761.53
435.894	766.28
436.269	792.72
436.644	790.01
437.02	795.88
437.395	771.02
437.77	824.36
438.145	809.22
438.52	804.24
438.895	795.88
439.271	815.77
439.646	838.82
440.021	840.18
440.395	852.6
440.77	830.01
441.145	847.18
441.52	859.61
441.895	855.99
442.27	864.58
442.645	841.08
443.019	891.7
443.394	895.99
443.769	872.49
444.143	884.47
444.518	880.85
444.892	890.8
445.267	911.81
445.641	899.84
446.016	922.89
446.39	915.43
446.764	944.35
447.139	932.38
447.513	928.53
447.887	938.48
448.262	956.33
448.636	956.56
449.01	975.99
449.384	946.61
449.758	961.98
450.132	980.51
450.506	1003.56
450.88	971.7
451.254	991.13
451.628	1036.1
452.002	1032.94
452.376	1028.65
452.75	1047.4
453.123	1050.57
453.497	1061.86
453.871	1060.73
454.244	1066.61
454.618	1095.54
454.992	1133.28
455.365	1107.74
455.739	1106.84
456.112	1117.23
456.486	1147.51
456.859	1150.22
457.232	1166.49
457.606	1196.1
457.979	1208.98
458.352	1203.1
458.725	1219.83
459.099	1242.65
459.472	1264.8
459.845	1268.64
460.218	1275.19
460.591	1287.62
460.964	1268.19
461.337	1326.49
461.71	1349.77
462.083	1382.31
462.456	1352.93
462.829	1362.87
463.201	1410.78
463.574	1400.61
463.947	1448.07
464.32	1454.62
464.692	1490.1
465.065	1509.99
465.438	1517.67
465.81	1540.04
466.183	1562.42
466.555	1587.73
466.928	1591.12
467.3	1597.44
467.672	1648.06
468.045	1682.19
468.417	1671.34
468.789	1711.34
469.161	1739.14
469.534	1809.87
469.906	1846.48
470.278	1816.2
470.65	1894.84
471.022	1908.17
471.394	1941.16
471.766	1980.71
472.138	2001.05
472.51	2035.62
472.882	2081.27
473.253	2125.57
473.625	2171.44
473.997	2222.96
474.369	2243.08
474.74	2299.57
475.112	2348.84
475.484	2387.93
475.855	2471.09
476.227	2519
476.598	2596.29
476.97	2649.39
477.341	2715.38
477.713	2764.42
478.084	2780.92
478.455	2916.73
478.827	2996.96
479.198	3095.26
479.569	3116.05
479.94	3250.96
480.311	3306.78
480.682	3423.61
481.053	3516.49
481.424	3603.72
481.795	3669.71
482.166	3779.53
482.537	3857.95
482.908	3978.85
483.279	4075.57
483.65	4218.39
484.021	4344.04
484.391	4401.44
484.762	4505.16
485.133	4580.42
485.503	4693.86
485.874	4865.83
486.244	4974.76
486.615	5152.6
486.985	5233.05
487.356	5442.77
487.726	5514.85
488.097	5651.35
488.467	5800.5
488.837	6003.66
489.207	6109.42
489.578	6215.85
489.948	6330.88
490.318	6605.45
490.688	6634.6
491.058	6804.76
491.428	6967.02
491.798	7136.73
492.168	7336.28
492.538	7352.55
492.908	7538.98
493.278	7694.23
493.648	7794.12
494.017	7943.27
494.387	8135.58
494.757	8267.32
495.126	8433.87
495.496	8544.15
495.866	8702.79
496.235	8817.14
496.605	8947.76
496.974	9091.03
497.344	9203.57
497.713	9307.75
498.082	9432.04
498.452	9575.09
498.821	9662.32
499.19	9803.78
499.559	9909.77
499.928	9997.9
500.298	10141.17
500.667	10298.91
501.036	10383.88
501.405	10541.16
501.774	10522.18
502.143	10706.81
502.512	10788.16
502.88	10961.04
503.249	10932.34
503.618	11055.5
503.987	11178.21
504.356	11234.93
504.724	11298.66
505.093	11316.74
505.462	11456.85
505.83	11533
506.199	11673.11
506.567	11809.83
506.936	11849.83
507.304	11966.89
507.672	12113.78
508.041	12081.69
508.409	12183.83
508.777	12281.23
509.145	12410.04
509.514	12436.25
509.882	12528.46
510.25	12530.49
510.618	12625.85
510.986	12561.45
511.354	12772.52
511.722	12803.02
512.09	12873.08
512.458	12892.06
512.826	13080.76
513.193	13076.92
513.561	13109.23
513.929	13207.99
514.297	13307.42
514.664	13406.62
515.032	13281.88
515.4	13494.76
515.767	13509.45
516.135	13537.69
516.502	13427.42
516.869	13687.52
517.237	13579.95
517.604	13609.78
517.972	13717.13
518.339	13824.02
518.706	13781.98
519.073	13848.2
519.44	13875.09
519.808	13969.32
520.175	13857.01
520.542	13936.55
520.909	14054.52
521.276	14029.89
521.643	14235.3
522.009	14094.29
522.376	14185.81
522.743	14208.41
523.11	14327.5
523.477	14302.19
523.843	14464
524.21	14517.1
524.577	14575.86
524.943	14581.28
525.31	14550.32
525.676	14647.04
526.043	14623.54
526.409	14615.63
526.776	14754.84
527.142	14747.15
527.508	14820.37
527.874	14809.75
528.241	14845.91
528.607	14747.61
528.973	14801.16
529.339	14793.03
529.705	14852.91
530.071	14895.85
530.437	14925.23
530.803	14916.42
531.169	14932.46
531.535	14877.09
531.901	14850.88
532.267	14881.61
532.632	14907.83
532.998	14843.65
533.364	14928.62
533.73	14822.41
534.095	14973.36
534.461	14944.89
534.826	14850.43
535.192	14835.06
535.557	14899.02
535.923	14869.86
536.288	14850.88
536.653	14744.44
537.019	14682.07
537.384	14720.04
537.749	14713.26
538.114	14675.97
538.479	14594.62
538.845	14622.64
539.21	14641.39
539.575	14570.66
539.94	14485.92
540.305	14632.58
540.67	14425.81
541.034	14562.3
541.399	14515.3
541.764	14468.74
542.129	14402.76
542.494	14378.35
542.858	14413.6
543.223	14260.84
543.587	14296.77
543.952	14178.58
544.316	14209.32
544.681	14135.19
545.045	14167.96
545.41	14169.32
545.774	14097.68
546.138	14138.58
546.503	14016.55
546.867	13981.75
547.231	14087.06
547.595	13966.16
547.959	14007.97
548.324	13875.54
548.688	13903.56
549.052	13775.88
549.416	13790.57
549.779	13746.95
550.143	13720.74
550.507	13814.3
550.871	13703.57
551.235	13674.19
551.599	13692.95
551.962	13641.19
552.326	13633.51
552.689	13647.75
553.053	13533.85
553.417	13444.82
553.78	13653.85
554.143	13477.13
554.507	13515.55
554.87	13512.61
555.234	13577.02
555.597	13400.98
555.96	13442.33
556.323	13436
556.686	13421.77
557.05	13372.05
557.413	13427.87
557.776	13389.22
558.139	13458.15
558.502	13373.41
558.865	13396.23
559.228	13399.85
559.59	13416.79
559.953	13433.29
560.316	13473.52
560.679	13411.6
561.041	13398.26
561.404	13509.45
561.767	13478.71
562.129	13360.3
562.492	13480.07
562.854	13446.62
563.217	13414.76
563.579	13443.91
563.941	13459.28
564.304	13484.36
564.666	13527.75
565.028	13517.58
565.39	13487.07
565.753	13584.25
566.115	13636
566.477	13574.98
566.839	13590.35
567.201	13589.22
567.563	13654.3
567.925	13730.23
568.287	13735.2
568.648	13617.47
569.01	13687.97
569.372	13794.64
569.734	13631.48
570.095	13703.57
570.457	13817.46
570.819	13710.8
571.18	13698.82
571.542	13814.75
571.903	13721.19
572.265	13782.21
572.626	13816.33
572.987	13807.52
573.349	13940.4
573.71	13845.03
574.071	13864.01
574.432	13959.6
574.794	13857.46
575.155	14062.65
575.516	13881.41
575.877	13970.9
576.238	13978.36
576.599	13920.28
576.96	13975.88
577.32	13946.05
577.681	14058.36
578.042	14002.09
578.403	13962.77
578.763	13996.67
579.124	14042.77
579.485	14029.89
579.845	14114.4
580.206	14042.31
580.566	14040.05
580.927	14076.44
581.287	14156.44
581.648	13978.14
582.008	14102.2
582.368	13942.43
582.728	14034.63
583.089	14021.98
583.449	13964.35
583.809	14004.12
584.169	14008.87
584.529	13975.65
584.889	14025.37
585.249	13953.28
585.609	13979.04
585.969	13977.46
586.329	13883
586.688	13962.32
587.048	13957.12
587.408	13913.96
587.768	13924.8
588.127	13881.64
588.487	13825.82
588.846	14004.12
589.206	13748.99
589.565	13797.12
589.925	13845.03
590.284	13783.79
590.643	13931.36
591.003	13887.29
591.362	13854.3
591.721	13799.61
592.08	13802.55
592.44	13860.85
592.799	13817.91
593.158	13798.48
593.517	13824.02
593.876	13805.26
594.235	13719.16
594.593	13764.13
594.952	13816.56
595.311	13704.7
595.67	13826.05
596.029	13815.65
596.387	13796.67
596.746	13866.5
597.104	13745.37
597.463	13721.42
597.822	13791.25
598.18	13748.31
598.538	13699.05
598.897	13783.79
599.255	13671.02
599.613	13867.86
599.972	13716
600.33	13852.04
600.688	13710.57
601.046	13755.99
601.404	13743.57
601.762	13676.9
602.12	13760.29
602.478	13902.21
602.836	13779.95
603.194	13691.36
603.552	13812.49
603.91	13722.55
604.268	13777.91
604.625	13766.16
604.983	13815.43
605.341	13689.78
605.698	13798.7
606.056	13807.74
606.413	13786.95
606.771	13850.23
607.128	13797.58
607.485	13739.05
607.843	13771.36
608.2	13841.19
608.557	13825.14
608.914	13765.71
609.272	13801.19
609.629	13861.98
609.986	13911.7
610.343	13825.6
610.7	13959.38
611.057	13919.38
611.414	13866.95
611.771	13817.46
612.127	14017
612.484	13972.26
612.841	13982.65
613.198	13995.08
613.554	13945.37
613.911	14104.91
614.267	14018.13
614.624	14018.59
614.98	13999.38
615.337	14029.89
615.693	14008.42
616.05	14040.05
616.406	14130.9
616.762	14014.29
617.118	14083.44
617.475	13939.72
617.831	14083.22
618.187	14094.06
618.543	14115.08
618.899	14178.13
619.255	14117.34
619.611	14085.48
619.967	14167.73
620.323	14193.95
620.678	14157.11
621.034	14172.93
621.39	14139.49
621.746	14098.36
622.101	14335.41
622.457	14221.07
622.812	14169.77
623.168	14233.72
623.523	14166.6
623.879	14154.63
624.234	14124.12
624.589	14201.63
624.945	14183.1
625.3	14235.98
625.655	14182.88
626.01	14223.1
626.365	14334.06
626.72	14114.85
627.075	14176.55
627.43	14136.78
627.785	14093.61
628.14	14210.9
628.495	14203.67
628.85	14179.71
629.205	14181.07
629.559	14155.98
629.914	14108.3
630.269	14101.52
630.623	14136.1
630.978	14082.77
631.332	14137.68
631.687	14056.33
632.041	14047.74
632.396	14055.87
632.75	14056.55
633.104	14049.09
633.459	13948.31
633.813	13940.62
634.167	13905.14
634.521	13902.66
634.875	13915.54
635.229	13908.98
635.583	13896.1
635.937	13883.9
636.291	13839.61
636.645	13988.53
636.999	13792.6
637.352	13887.74
637.706	13788.08
638.06	13781.76
638.413	13800.29
638.767	13672.61
639.121	13772.72
639.474	13661.76
639.828	13683
640.181	13668.31
640.534	13644.58
640.888	13697.69
641.241	13604.59
641.594	13593.06
641.947	13739.5
642.301	13602.78
642.654	13607.98
643.007	13629.67
643.36	13566.39
643.713	13562.1
644.066	13587.64
644.419	13471.03
644.771	13499.28
645.124	13349
645.477	13339.51
645.83	13319.4
646.182	13232.84
646.535	13118.04
646.888	13233.52
647.24	13093.19
647.593	13234.43
647.945	13101.1
648.298	13145.39
648.65	13120.3
649.002	13015.67
649.355	13132.28
649.707	13049.35
650.059	13185.61
650.411	13313.07
650.763	13213.18
651.115	13410.92
651.467	13352.62
651.819	13408.88
652.171	13398.04
652.523	13314.88
652.875	13299.96
653.227	13348.32
653.578	13479.84
653.93	13394.42
654.282	13294.54
654.633	13296.8
654.985	13386.74
655.337	13350.36
655.688	13327.08
656.039	13355.78
656.391	13312.39
656.742	13285.95
657.094	13351.49
657.445	13323.01
657.796	13329.79
658.147	13315.78
658.498	13333.63
658.849	13309.23
659.2	13413.18
659.551	13320.3
659.902	13365.27
660.253	13276.23
660.604	13351.94
660.955	13295.44
661.306	13428.32
661.656	13346.06
662.007	13365.95
662.358	13357.36
662.708	13327.53
663.059	13395.1
663.409	13251.15
663.76	13379.73
664.11	13394.87
664.461	13429.68
664.811	13432.61
665.161	13373.86
665.511	13320.75
665.862	13415.66
666.212	13377.02
666.562	13369.79
666.912	13375.67
667.262	13279.85
667.612	13397.13
667.962	13432.39
668.312	13360.98
668.662	13427.19
669.011	13457.47
669.361	13309
669.711	13342.9
670.06	13419.28
670.41	13330.24
670.76	13327.3
671.109	13377.7
671.459	13397.36
671.808	13310.13
672.157	13436.91
672.507	13281.43
672.856	13272.17
673.205	13290.92
673.554	13303.8
673.904	13293.63
674.253	13330.02
674.602	13308.77
674.951	13134.54
675.3	12979.74
675.649	13252.73
675.998	13244.6
676.346	13147.87
676.695	13256.35
677.044	13134.09
677.393	13229.68
677.741	13192.17
678.09	13167.54
678.438	13049.35
678.787	13133.64
679.135	13102.68
679.484	13021.55
679.832	13026.52
680.181	12999.18
680.529	13007.54
680.877	13043.24
681.225	13011.83
681.573	13011.38
681.922	12933.64
682.27	12934.77
682.618	12929.8
682.966	12803.25
683.314	12884.15
683.661	12826.98
684.009	12867.88
684.357	12817.71
684.705	12756.92
685.053	12731.84
685.4	12789.24
685.748	12559.19
686.095	12659.53
686.443	12640.77
686.79	12569.36
687.138	12586.99
687.485	12568.68
687.832	12535.24
688.18	12475.12
688.527	12447.1
688.874	12480.1
689.221	12357.39
689.568	12329.82
689.915	12339.31
690.262	12298.63
690.609	12285.52
690.956	12251.4
691.303	12169.82
691.65	12111.74
691.997	12057.51
692.344	12079.2
692.69	12038.53
693.037	11993.33
693.383	11893.67
693.73	11883.95
694.077	11878.76
694.423	11810.51
694.769	11814.12
695.116	11758.53
695.462	11799.21
695.808	11724.18
696.155	11724.41
696.501	11633.56
696.847	11570.06
697.193	11574.58
697.539	11532.1
697.885	11432.44
698.231	11354.25
698.577	11377.98
698.923	11453.23
699.269	11260.01
699.614	11291.43
699.96	11227.02
700.306	11213.24
700.651	11181.6
700.997	11145.22
701.342	11055.05
701.688	11075.16
702.033	11080.36
702.379	11001.94
702.724	10989.06
703.069	11006.69
703.415	10820.93
703.76	10897.99
704.105	10874.04
704.45	10821.38
704.795	10775.96
705.14	10689.63
705.485	10742.06
705.83	10667.49
706.175	10691.22
706.52	10584.1
706.865	10570.77
707.209	10540.03
707.554	10530.09
707.899	10526.47
708.243	10442.18
708.588	10398.79
708.932	10382.98
709.277	10316.31
709.621	10324.45
709.966	10202.87
710.31	10214.62
710.654	10133.49
710.998	10199.25
711.342	10194.28
711.687	10114.28
712.031	10148.41
712.375	10033.61
712.719	10102.76
713.063	10052.36
713.407	10111.34
713.75	10035.64
714.094	10026.15
714.438	10036.77
714.782	9986.83
715.125	9948.86
715.469	9969.88
715.812	9948.86
716.156	9909.09
716.499	9826.83
716.843	9853.95
717.186	9837.23
717.53	9909.54
717.873	9843.33
718.216	9862.99
718.559	9841.97
718.902	9762.88
719.246	9742.31
719.589	9750.9
719.932	9703.9
720.275	9717
720.617	9696.67
720.96	9634.97
721.303	9677.23
721.646	9687.4
721.989	9606.05
722.331	9635.88
722.674	9606.05
723.016	9623.22
723.359	9624.58
723.701	9667.06
724.044	9552.49
724.386	9503.9
724.729	9643.56
725.071	9559.04
725.413	9599.49
725.755	9470.01
726.097	9515.43
726.439	9478.14
726.782	9473.17
727.124	9528.08
727.465	9533.05
727.807	9536.44
728.149	9453.73
728.491	9419.16
728.833	9399.5
729.175	9477.01
729.516	9414.41
729.858	9446.28
730.199	9503.45
730.541	9451.02
730.882	9419.84
731.224	9493.51
731.565	9343.68
731.906	9403.57
732.248	9423.9
732.589	9406.96
732.93	9340.97
733.271	9441.98
733.612	9424.13
733.953	9444.47
734.294	9379.61
734.635	9309.11
734.976	9403.34
735.317	9372.83
735.658	9427.29
735.999	9392.72
736.339	9350.69
736.68	9460.74
737.021	9390.69
737.361	9327.41
737.702	9408.76
738.042	9357.01
738.383	9421.42
738.723	9456.45
739.063	9407.41
739.404	9496.22
739.744	9399.05
740.084	9421.19
740.424	9435.43
740.764	9446.05
741.104	9533.73
741.444	9497.12
741.784	9419.39
742.124	9465.71
742.464	9492.6
742.804	9536.9
743.143	9486.05
743.483	9484.24
743.823	9641.75
744.162	9587.06
744.502	9655.99
744.841	9588.19
745.181	9677.91
745.52	9751.35
745.86	9743.44
746.199	9768.98
746.538	9748.19
746.877	9881.52
747.216	9867.28
747.556	10027.05
747.895	9973.72
748.234	9993.38
748.573	10046.71
748.911	10109.31
749.25	10158.35
749.589	10234.5
749.928	10270.44
750.267	10332.81
750.605	10404.22
750.944	10531.9
751.283	10640.6
751.621	10666.13
751.96	10750.42
752.298	10745.23
752.636	10984.54
752.975	10992.23
753.313	11087.82
753.651	11331.88
753.989	11362.38
754.327	11361.71
754.666	11462.95
755.004	11697.29
755.342	11898.87
755.679	11984.29
756.017	12072.65
756.355	12188.13
756.693	12344.96
757.031	12505.18
757.368	12619.53
757.706	12738.62
758.044	12916.92
758.381	13070.59
