Data from hue_310_FLMS001491_94.txt Node
Date: Mon Feb 06 15:50:28 GMT 2017
User: dcchb
Spectrometer: FLMS00149
Trigger mode: 0
Integration Time (sec): 2.000000E-2
Scans to average: 10
Electric dark correction enabled: true
Nonlinearity correction enabled: false
Boxcar width: 0
XAxis mode: Wavelengths
Number of Pixels in Spectrum: 2048
>>>>>Begin Spectral Data<<<<<
341.393	-5.96
341.776	-5.96
342.16	-5.96
342.543	-75.34
342.927	-47.99
343.31	-76.92
343.693	-88.44
344.077	-72.4
344.46	-62.91
344.843	-57.48
345.226	-32.85
345.61	-30.59
345.993	-5.96
346.376	-21.78
346.759	26.81
347.142	33.59
347.525	55.28
347.908	55.28
348.291	82.4
348.674	89.4
349.057	106.58
349.44	126.01
349.823	147.71
350.206	169.85
350.588	214.15
350.971	185
351.354	231.1
351.737	233.58
352.119	262.96
352.502	257.08
352.884	273.35
353.267	289.85
353.65	287.14
354.032	296.63
354.414	295.5
354.797	317.87
355.179	328.04
355.562	320.13
355.944	315.61
356.326	314.94
356.709	319
357.091	331.43
357.473	325.1
357.855	330.08
358.238	332.11
358.62	333.92
359.002	337.08
359.384	337.76
359.766	350.87
360.148	343.86
360.53	339.57
360.912	329.17
361.294	323.97
361.676	317.87
362.057	347.7
362.439	317.87
362.821	309.29
363.203	327.59
363.584	322.39
363.966	310.64
364.348	329.4
364.729	319
365.111	287.14
365.493	315.84
365.874	296.63
366.256	326.46
366.637	293.01
367.019	323.75
367.4	302.05
367.781	315.61
368.163	314.26
368.544	324.88
368.925	321.71
369.306	325.78
369.688	296.4
370.069	306.35
370.45	306.8
370.831	316.52
371.212	286.91
371.593	316.07
371.974	315.39
372.355	320.36
372.736	309.96
373.117	315.61
373.498	307.7
373.879	306.8
374.26	309.74
374.641	303.64
375.021	300.7
375.402	307.25
375.783	324.88
376.163	304.54
376.544	305.9
376.925	295.27
377.305	313.81
377.686	335.05
378.066	323.97
378.447	327.14
378.827	346.12
379.208	331.88
379.588	330.75
379.968	325.56
380.349	321.94
380.729	338.89
381.109	329.62
381.489	316.97
381.87	336.63
382.25	346.57
382.63	343.86
383.01	335.73
383.39	326.01
383.77	320.58
384.15	340.25
384.53	346.8
384.91	354.71
385.29	359
385.67	348.15
386.049	334.14
386.429	337.76
386.809	349.06
387.189	359
387.568	354.48
387.948	350.19
388.328	347.7
388.707	356.97
389.087	370.98
389.466	355.61
389.846	340.7
390.225	378.21
390.605	370.3
390.984	372.11
391.363	374.59
391.743	362.17
392.122	387.93
392.501	379.11
392.881	376.85
393.26	366.23
393.639	388.38
394.018	363.75
394.397	388.83
394.776	389.06
395.155	376.4
395.534	361.04
395.913	381.37
396.292	387.48
396.671	394.93
397.05	402.84
397.429	397.19
397.808	389.28
398.186	389.51
398.565	380.92
398.944	393.8
399.323	388.38
399.701	390.41
400.08	409.85
400.458	425.21
400.837	413.46
401.215	403.29
401.594	422.05
401.972	404.65
402.351	424.76
402.729	416.63
403.107	420.47
403.486	414.37
403.864	415.95
404.242	422.05
404.62	437.19
404.999	445.55
405.377	437.64
405.755	451.2
406.133	456.17
406.511	441.26
406.889	442.39
407.267	476.74
407.645	474.25
408.023	484.42
408.401	462.5
408.779	476.96
409.156	472.22
409.534	473.8
409.912	479.45
410.29	486
410.667	506.34
411.045	511.99
411.422	515.61
411.8	503.86
412.178	543.4
412.555	557.87
412.933	546.57
413.31	566.45
413.687	549.73
414.065	558.09
414.442	568.71
414.819	594.25
415.197	587.7
415.574	577.75
415.951	596.06
416.328	616.4
416.705	599.45
417.082	625.89
417.46	646.68
417.837	651.2
418.214	640.12
418.591	636.96
418.967	657.98
419.344	662.95
419.721	683.97
420.098	662.27
420.475	681.71
420.852	686.68
421.228	693.91
421.605	712.66
421.982	725.32
422.358	749.95
422.735	755.6
423.111	763.06
423.488	756.73
423.864	749.73
424.241	776.39
424.617	771.65
424.994	787.69
425.37	772.78
425.746	805.32
426.123	811.42
426.499	810.52
426.875	806.45
427.251	841.02
427.627	843.06
428.003	850.06
428.379	864.75
428.756	870.17
429.132	864.98
429.507	896.16
429.883	893.68
430.259	904.07
430.635	913.79
431.011	929.16
431.387	935.71
431.763	940
432.138	978.87
432.514	984.97
432.89	979.78
433.265	1008.25
433.641	993.34
434.016	1005.76
434.392	1038.31
434.767	1064.52
435.143	1054.12
435.518	1077.18
435.894	1068.81
436.269	1074.01
436.644	1107.46
437.02	1104.07
437.395	1120.79
437.77	1139.55
438.145	1170.51
438.52	1143.61
438.895	1148.81
439.271	1163.05
439.646	1192.2
440.021	1175.48
440.395	1209.83
440.77	1222.93
441.145	1194.46
441.52	1206.21
441.895	1208.7
442.27	1235.81
442.645	1251.63
443.019	1239.88
443.394	1246.44
443.769	1242.82
444.143	1260.22
444.518	1281.69
444.892	1249.6
445.267	1290.73
445.641	1272.88
446.016	1287.57
446.39	1257.74
446.764	1287.79
447.139	1265.19
447.513	1292.76
447.887	1302.25
448.262	1291.63
448.636	1313.1
449.01	1316.94
449.384	1294.34
449.758	1311.52
450.132	1316.26
450.506	1344.29
450.88	1356.04
451.254	1329.6
451.628	1373.66
452.002	1386.77
452.376	1395.58
452.75	1373.89
453.123	1383.83
453.497	1397.62
453.871	1424.28
454.244	1427.22
454.618	1430.84
454.992	1456.15
455.365	1472.19
455.739	1454.57
456.112	1464.28
456.486	1476.26
456.859	1482.36
457.232	1511.06
457.606	1500.89
457.979	1541.34
458.352	1547.22
458.725	1564.85
459.099	1577.5
459.472	1595.58
459.845	1607.1
460.218	1583.15
460.591	1597.16
460.964	1612.3
461.337	1646.2
461.71	1679.19
462.083	1662.02
462.456	1659.53
462.829	1681.9
463.201	1678.74
463.574	1707.67
463.947	1723.49
464.32	1729.14
464.692	1723.26
465.065	1756.48
465.438	1765.07
465.81	1782.69
466.183	1823.82
466.555	1829.02
466.928	1855.01
467.3	1846.19
467.672	1835.35
468.045	1860.43
468.417	1885.29
468.789	1902.92
469.161	1904.27
469.534	1921.9
469.906	1968
470.278	1943.82
470.65	1955.34
471.022	1975.46
471.394	2004.38
471.766	2043.03
472.138	2069.01
472.51	2069.69
472.882	2115.34
473.253	2108.33
473.625	2136.58
473.997	2151.5
474.369	2188.33
474.74	2217.48
475.112	2208.22
475.484	2246.86
475.855	2309.91
476.227	2249.35
476.598	2321.44
476.97	2330.93
477.341	2333.41
477.713	2398.95
478.084	2409.34
478.455	2459.74
478.827	2431.49
479.198	2504.48
479.569	2481.21
479.94	2565.72
480.311	2549.9
480.682	2572.28
481.053	2607.76
481.424	2641.2
481.795	2657.47
482.166	2721.2
482.537	2740.63
482.908	2779.96
483.279	2805.94
483.65	2814.53
484.021	2877.35
484.391	2866.73
484.762	2889.33
485.133	2916.67
485.503	2941.31
485.874	2993.96
486.244	3007.07
486.615	3055.43
486.985	3075.99
487.356	3105.6
487.726	3121.87
488.097	3197.57
488.467	3175.65
488.837	3214.07
489.207	3240.51
489.578	3265.82
489.948	3355.53
490.318	3374.29
490.688	3339.04
491.058	3366.61
491.428	3431.92
491.798	3449.09
492.168	3494.29
492.538	3501.07
492.908	3500.61
493.278	3542.87
493.648	3592.59
494.017	3580.61
494.387	3579.93
494.757	3628.07
495.126	3672.36
495.496	3691.12
495.866	3680.72
496.235	3715.07
496.605	3725.02
496.974	3732.25
497.344	3799.59
497.713	3774.05
498.082	3837.1
498.452	3868.74
498.821	3844.79
499.19	3891.56
499.559	3868.51
499.928	3930.43
500.298	3948.06
500.667	3952.35
501.036	3918
501.405	3962.97
501.774	3995.52
502.143	3974.95
502.512	4004.78
502.88	4030.32
503.249	4026.48
503.618	4004.78
503.987	4035.29
504.356	4066.47
504.724	4140.82
505.093	4143.54
505.462	4096.08
505.83	4165.46
506.199	4131.78
506.567	4162.07
506.936	4192.57
507.304	4214.27
507.672	4239.13
508.041	4264.44
508.409	4243.42
508.777	4285.68
509.145	4285.23
509.514	4287.26
509.882	4326.36
510.25	4313.47
510.618	4301.95
510.986	4344.21
511.354	4402.06
511.722	4399.8
512.09	4341.95
512.458	4418.1
512.826	4443.64
513.193	4423.08
513.561	4419.01
513.929	4465.56
514.297	4516.86
514.664	4516.41
515.032	4520.93
515.4	4538.78
515.767	4554.6
516.135	4551.21
516.502	4489.97
516.869	4543.98
517.237	4599.57
517.604	4522.28
517.972	4581.94
518.339	4577.65
518.706	4610.64
519.073	4617.42
519.44	4637.53
519.808	4648.61
520.175	4660.58
520.542	4680.7
520.909	4728.83
521.276	4707.81
521.643	4705.78
522.009	4747.14
522.376	4786.46
522.743	4804.08
523.11	4816.74
523.477	4889.96
523.843	4875.49
524.21	4903.29
524.577	4952.1
524.943	4954.14
525.31	4928.15
525.676	4977.64
526.043	5010.86
526.409	5050.86
526.776	5055.38
527.142	5047.69
527.508	5033.23
527.874	5074.13
528.241	5133.11
528.607	5160.68
528.973	5231.64
529.339	5183.73
529.705	5247.91
530.071	5280
530.437	5300.11
530.803	5276.84
531.169	5343.5
531.535	5366.55
531.901	5343.96
532.267	5384.86
532.632	5375.82
532.998	5390.51
533.364	5435.25
533.73	5453.56
534.095	5535.36
534.461	5502.37
534.826	5550.5
535.192	5615.81
535.557	5635.93
535.923	5558.41
536.288	5623.72
536.653	5651.74
537.019	5647
537.384	5687.45
537.749	5702.36
538.114	5752.08
538.479	5768.58
538.845	5717.73
539.21	5776.26
539.575	5810.38
539.94	5850.83
540.305	5884.28
540.67	5831.4
541.034	5869.59
541.399	5932.19
541.764	5924.28
542.129	5961.57
542.494	5988.23
542.858	6048.8
543.223	6053.54
543.587	6065.52
543.952	6112.07
544.316	6155.46
544.681	6114.1
545.045	6143.48
545.41	6194.1
545.774	6227.55
546.138	6171.73
546.503	6232.29
546.867	6197.27
547.231	6296.47
547.595	6335.79
547.959	6382.35
548.324	6357.26
548.688	6390.03
549.052	6425.28
549.416	6448.11
549.779	6385.96
550.143	6480.87
550.507	6496.47
550.871	6535.56
551.235	6573.98
551.599	6588.22
551.962	6636.12
552.326	6611.49
552.689	6643.13
553.053	6620.98
553.417	6637.71
553.78	6715.67
554.143	6700.08
554.507	6746.63
554.87	6763.13
555.234	6827.31
555.597	6783.01
555.96	6734.88
556.323	6774.2
556.686	6799.28
557.05	6855.33
557.413	6853.07
557.776	6860.3
558.139	6921.77
558.502	6929.9
558.865	6957.92
559.228	7016.23
559.59	7036.57
559.953	7061.65
560.316	7085.83
560.679	7066.62
561.041	7133.96
561.404	7083.12
561.767	7143
562.129	7150.01
562.492	7195.66
562.854	7224.13
563.217	7225.71
563.579	7230.69
563.941	7278.59
564.304	7353.17
564.666	7347.07
565.028	7373.96
565.39	7389.33
565.753	7424.8
566.115	7426.61
566.477	7464.13
566.839	7479.49
567.201	7521.53
567.563	7490.34
567.925	7558.36
568.287	7532.37
568.648	7571.92
569.01	7635.42
569.372	7721.29
569.734	7667.51
570.095	7712.93
570.457	7767.39
570.819	7767.17
571.18	7814.63
571.542	7839.48
571.903	7906.83
572.265	7966.26
572.626	8016.65
572.987	8064.34
573.349	8046.26
573.71	8089.19
574.071	8138.68
574.432	8193.82
574.794	8313.82
575.155	8333.26
575.516	8376.64
575.877	8474.49
576.238	8454.83
576.599	8582.97
576.96	8666.58
577.32	8628.39
577.681	8791.32
578.042	8888.5
578.403	8964.2
578.763	9062.95
579.124	9127.36
579.485	9256.4
579.845	9337.07
580.206	9410.52
580.566	9557.63
580.927	9644.18
581.287	9767.79
581.648	9953.33
582.008	10097.05
582.368	10139.54
582.728	10394.67
583.089	10522.35
583.449	10618.17
583.809	10850.48
584.169	11026.07
584.529	11207.08
584.889	11452.27
585.249	11598.25
585.609	11863.11
585.969	12082.31
586.329	12272.13
586.688	12521.62
587.048	12752.8
587.408	12901.04
587.768	13131.1
588.127	13348.04
588.487	13631.87
588.846	13993.9
589.206	14103.73
589.565	14413.32
589.925	14733.09
590.284	14966.08
590.643	15244.94
591.003	15495.1
591.362	15911.36
591.721	16153.39
592.08	16406.49
592.44	16882.64
592.799	16993.14
593.158	17301.16
593.517	17693.24
593.876	17903.63
594.235	18203.73
594.593	18551.29
594.952	18783.38
595.311	19132.29
595.67	19475.34
596.029	19857.02
596.387	20163
596.746	20567.96
597.104	20635.3
597.463	21064.67
597.822	21395.28
598.18	21604.32
598.538	21987.13
598.897	22317.52
599.255	22413.56
599.613	23088.57
599.972	23242.92
600.33	23494.44
600.688	23824.37
601.046	24244.48
601.404	24493.51
601.762	24792.71
602.12	25195.64
602.478	25482.86
602.836	25770.76
603.194	25827.71
603.552	26168.49
603.91	26304.53
604.268	26833.79
604.625	26857.29
604.983	27347.44
605.341	27425.63
605.698	27891.84
606.056	28165.5
606.413	28197.14
606.771	28700.4
607.128	28809.78
607.485	28932.49
607.843	29276.66
608.2	29759.81
608.557	29954.83
608.914	30041.16
609.272	30405.22
609.629	30653.8
609.986	30843.17
610.343	30880.46
610.7	31433.67
611.057	31564.06
611.414	31664.17
611.771	31941.67
612.127	32081.33
612.484	32365.62
612.841	32472.51
613.198	32773.97
613.554	32894.42
613.911	33238.82
614.267	33207.18
614.624	33396.1
614.98	33667.05
615.337	34013.94
615.693	33974.62
616.05	34221.84
616.406	34588.84
616.762	34511.78
617.118	34705.44
617.475	34749.06
617.831	34926.68
618.187	35032.44
618.543	35241.25
618.899	35542.03
619.255	35583.61
619.611	35817.73
619.967	35968.91
620.323	36132.3
620.678	36109.47
621.034	36141.11
621.39	36328.45
621.746	36377.49
622.101	36894.99
622.457	36542.68
622.812	36831.72
623.168	37053.86
623.523	37156
623.879	37204.13
624.234	37127.07
624.589	37336.56
624.945	37367.97
625.3	37611.36
625.655	37612.49
626.01	37733.84
626.365	37801.41
626.72	37911.46
627.075	37826.94
627.43	37844.12
627.785	37873.04
628.14	38103.77
628.495	38132.47
628.85	38215.41
629.205	38076.2
629.559	38298.57
629.914	38158.91
630.269	38332.92
630.623	38244.33
630.978	38370.21
631.332	38560.26
631.687	38653.81
632.041	38405.69
632.396	38465.57
632.75	38399.58
633.104	38629.18
633.459	38375.63
633.813	38480.94
634.167	38466.93
634.521	38626.92
634.875	38750.53
635.229	38561.39
635.583	38469.41
635.937	38540.6
636.291	38478.9
636.645	38652.23
636.999	38628.96
637.352	38645
637.706	38523.65
638.06	38702.63
638.413	38612.69
638.767	38607.49
639.121	38567.49
639.474	38350.09
639.828	38484.1
640.181	38435.29
640.534	38474.61
640.888	38642.74
641.241	38323.88
641.594	38510.99
641.947	38614.04
642.301	38402.97
642.654	38452.92
643.007	38560.26
643.36	38414.05
643.713	38324.11
644.066	38612.46
644.419	38379.7
644.771	38131.12
645.124	37751.01
645.477	37790.33
645.83	37482.77
646.182	37407.97
646.535	37229.44
646.888	37386.95
647.24	37226.51
647.593	37381.53
647.945	37295.88
648.298	37229.44
648.65	37144.25
649.002	37125.49
649.355	37344.24
649.707	37361.87
650.059	37284.81
650.411	37734.74
650.763	37698.36
651.115	38171.34
651.467	38001.18
651.819	37932.25
652.171	38026.03
652.523	37866.04
652.875	37872.82
653.227	37840.73
653.578	38151.45
653.93	38074.85
654.282	37862.87
654.633	37809.54
654.985	37966.15
655.337	37853.16
655.688	37794.4
656.039	37952.59
656.391	37684.35
656.742	37754.85
657.094	37800.96
657.445	37861.74
657.796	37722.54
658.147	37766.61
658.498	37774.06
658.849	37760.96
659.2	37817.45
659.551	37688.19
659.902	37809.77
660.253	37641.86
660.604	37702.65
660.955	37706.95
661.306	37831.46
661.656	37699.26
662.007	37636.89
662.358	37727.06
662.708	37650.68
663.059	37553.96
663.409	37569.32
663.76	37722.77
664.11	37642.54
664.461	37737.91
664.811	37879.82
665.161	37637.57
665.511	37554.41
665.862	37555.99
666.212	37746.27
666.562	37593.5
666.912	37611.81
667.262	37555.09
667.612	37611.58
667.962	37620.85
668.312	37551.47
668.662	37798.02
669.011	37395.32
669.361	37510.12
669.711	37427.63
670.06	37487.29
670.41	37424.24
670.76	37374.07
671.109	37531.13
671.459	37428.31
671.808	37399.16
672.157	37465.14
672.507	37155.32
672.856	37364.36
673.205	37285.71
673.554	37425.6
673.904	37305.83
674.253	37538.59
674.602	37369.1
674.951	36836.91
675.3	36630.36
675.649	37205.26
675.998	37270.35
676.346	37289.56
676.695	37344.47
677.044	37144.93
677.393	37273.29
677.741	37138.15
678.09	37004.59
678.438	37021.54
678.787	36969.79
679.135	37128.88
679.484	36860.64
679.832	36964.82
680.181	36863.13
680.529	36927.76
680.877	36680.53
681.225	36719.85
681.573	36909.45
681.922	36555.11
682.27	36533.64
682.618	36650.93
682.966	36416.36
683.314	36625.62
683.661	36534.1
684.009	36351.73
684.357	36293.65
684.705	36241
685.053	36284.61
685.4	36179.53
685.748	36022.24
686.095	35975.01
686.443	35994.22
686.79	35854.34
687.138	35861.12
687.485	35947.44
687.832	35809.6
688.18	35767.79
688.527	35686.21
688.874	35521.69
689.221	35584.74
689.568	35467.23
689.915	35410.06
690.262	35419.1
690.609	35274.47
690.956	35150.4
691.303	35356.5
691.65	35016.85
691.997	34990.41
692.344	34769.85
692.69	34705.67
693.037	34775.27
693.383	34668.83
693.73	34609.17
694.077	34461.83
694.423	34302.97
694.769	34342.06
695.116	34224.78
695.462	34249.41
695.808	34038.12
696.155	34036.53
696.501	33806.48
696.847	33916.76
697.193	33564.46
697.539	33822.75
697.885	33642.19
698.231	33527.85
698.577	33388.19
698.923	33488.07
699.269	33281.3
699.614	33098.71
699.96	33094.64
700.306	32998.6
700.651	32853.29
700.997	32831.37
701.342	32762.22
701.688	32641.09
702.033	32602.22
702.379	32671.6
702.724	32515.44
703.069	32611.26
703.415	32136.7
703.76	32165.62
704.105	32362.91
704.45	32157.04
704.795	32011.05
705.14	31878.85
705.485	31914.78
705.83	31724.28
706.175	31882.24
706.52	31873.43
706.865	31600.21
707.209	31557.28
707.554	31532.42
707.899	31433.89
708.243	31318.87
708.588	31379.66
708.932	31079.32
709.277	31061.47
709.621	31238.87
709.966	30943.96
710.31	31055.82
710.654	30771.08
710.998	30844.53
711.342	30802.27
711.687	30723.85
712.031	30585.33
712.375	30448.83
712.719	30403.64
713.063	30334.94
713.407	30522.73
713.75	30215.84
714.094	30338.78
714.438	30184.21
714.782	30099.46
715.125	30057.66
715.469	30105.79
715.812	29892.69
716.156	29767.72
716.499	29816.31
716.843	29880.94
717.186	29729.53
717.53	29832.13
717.873	29810.43
718.216	29649.31
718.559	29580.15
718.902	29391.68
719.246	29400.05
719.589	29353.95
719.932	29190.11
720.275	29127.06
720.617	29212.25
720.96	29200.28
721.303	29103.56
721.646	29076.44
721.989	28999.38
722.331	29029.43
722.674	28838.48
723.016	28785.83
723.359	28901.53
723.701	28948.08
724.044	28682.32
724.386	28556.9
724.729	28663.34
725.071	28547.41
725.413	28588.09
725.755	28670.12
726.097	28347.42
726.439	28288.66
726.782	28298.15
727.124	28463.12
727.465	28045.28
727.807	28362.56
728.149	28183.35
728.491	28138.61
728.833	28154.66
729.175	28103.81
729.516	27992.17
729.858	28000.53
730.199	27954.21
730.541	27909.01
730.882	27927.77
731.224	27935.23
731.565	27791.73
731.906	27693.88
732.248	27826.08
732.589	27619.3
732.93	27427.89
733.271	27531.39
733.612	27595.8
733.953	27561
734.294	27491.62
734.635	27379.99
734.976	27496.37
735.317	27236.49
735.658	27304.06
735.999	27342.7
736.339	27190.61
736.68	27280.1
737.021	27135.92
737.361	27000.34
737.702	27234.91
738.042	26995.36
738.383	27107.45
738.723	27074.91
739.063	26915.14
739.404	26969.38
739.744	26883.5
740.084	26728.03
740.424	26797.18
740.764	26674.47
741.104	26860.23
741.444	26625.88
741.784	26563.28
742.124	26457.75
742.464	26607.13
742.804	26525.09
743.143	26254.14
743.483	26554.25
743.823	26333.01
744.162	26405.55
744.502	26339.34
744.841	26165.55
745.181	26304.31
745.52	26203.97
745.86	26136.18
746.199	26111.32
746.538	25985.9
746.877	26197.87
747.216	26139.57
747.556	25984.77
747.895	25983.41
748.234	25910.87
748.573	25789.29
748.911	25795.4
749.25	25817.99
749.589	25520.83
749.928	25680.82
750.267	25671.78
750.605	25528.96
750.944	25493.93
751.283	25475.86
751.621	25507.04
751.96	25381.17
752.298	25274.05
752.636	25379.13
752.975	25251
753.313	25110.22
753.651	25334.84
753.989	25081.97
754.327	24940.95
754.666	24923.78
755.004	24939.6
755.342	24944.57
755.679	24790.68
756.017	24676.1
756.355	24830
756.693	24619.15
757.031	24661.87
757.368	24522.89
757.706	24537.35
758.044	24521.3
758.381	24371.03
758.719	24342.1
759.056	24371.03
759.394	24262.55
759.731	24079.06
760.068	24088.32
