Data from hue_200_FLMS001491_00052.txt Node
Date: Tue Feb 07 16:43:37 GMT 2017
User: dcchb
Spectrometer: FLMS00149
Trigger mode: 0
Integration Time (sec): 2.000000E-2
Scans to average: 10
Electric dark correction enabled: true
Nonlinearity correction enabled: false
Boxcar width: 0
XAxis mode: Wavelengths
Number of Pixels in Spectrum: 2048
>>>>>Begin Spectral Data<<<<<
341.393	-23.6
341.776	-23.6
342.16	-23.6
342.543	-70.61
342.927	-67.89
343.31	-80.55
343.693	-74.9
344.077	-64.5
344.46	-71.28
344.843	-47.56
345.226	-33.77
345.61	-30.38
345.993	-30.15
346.376	22.05
346.759	10.97
347.142	36.96
347.525	21.82
347.908	48.94
348.291	81.48
348.674	98.88
349.057	111.99
349.44	129.39
349.823	141.82
350.206	164.87
350.588	184.53
350.971	214.13
351.354	219.78
351.737	223.62
352.119	246.45
352.502	266.79
352.884	269.05
353.267	276.73
353.65	297.75
354.032	296.62
354.414	303.4
354.797	292.1
355.179	294.81
355.562	310.63
355.944	293.45
356.326	317.63
356.709	323.73
357.091	322.83
357.473	317.86
357.855	346.56
358.238	337.52
358.62	330.74
359.002	342.94
359.384	340.23
359.766	329.61
360.148	332.32
360.53	316.5
360.912	336.16
361.294	333.68
361.676	356.5
362.057	324.64
362.439	329.84
362.821	315.83
363.203	353.11
363.584	328.93
363.966	321.25
364.348	323.06
364.729	308.37
365.111	309.5
365.493	322.6
365.874	327.35
366.256	323.73
366.637	313.34
367.019	317.41
367.4	302.27
367.781	334.36
368.163	312.89
368.544	309.27
368.925	303.4
369.306	310.63
369.688	309.95
370.069	306.56
370.45	301.59
370.831	295.26
371.212	291.42
371.593	321.7
371.974	309.5
372.355	299.55
372.736	323.73
373.117	318.76
373.498	316.28
373.879	304.07
374.26	299.1
374.641	307.92
375.021	311.98
375.402	334.81
375.783	321.47
376.163	330.06
376.544	328.93
376.925	316.95
377.305	318.31
377.686	314.47
378.066	318.76
378.447	343.85
378.827	314.47
379.208	324.19
379.588	336.84
379.968	343.17
380.349	335.49
380.729	342.49
381.109	327.8
381.489	343.62
381.87	324.86
382.25	344.07
382.63	331.42
383.01	323.28
383.39	331.87
383.77	318.08
384.15	334.36
384.53	361.02
384.91	363.28
385.29	338.88
385.67	357.86
386.049	352.89
386.429	343.39
386.809	344.07
387.189	328.93
387.568	362.38
387.948	347.69
388.328	320.12
388.707	351.08
389.087	362.15
389.466	357.86
389.846	346.56
390.225	366.45
390.605	365.54
390.984	366.45
391.363	368.93
391.743	363.73
392.122	356.73
392.501	356.73
392.881	388.37
393.26	383.62
393.639	378.65
394.018	380.46
394.397	384.52
394.776	373.68
395.155	399.66
395.534	385.88
395.913	379.55
396.292	387.24
396.671	396.5
397.05	389.95
397.429	405.77
397.808	394.24
398.186	409.83
398.565	410.06
398.944	402.6
399.323	408.03
399.701	395.14
400.08	399.44
400.458	416.39
400.837	417.07
401.215	418.2
401.594	420.46
401.972	422.26
402.351	452.09
402.729	426.56
403.107	450.96
403.486	420.91
403.864	445.99
404.242	427.91
404.62	448.48
404.999	441.25
405.377	449.15
405.755	455.48
406.133	464.97
406.511	463.17
406.889	463.39
407.267	466.1
407.645	470.4
408.023	511.53
408.401	482.6
408.779	511.75
409.156	495.03
409.534	518.98
409.912	540.9
410.29	535.25
410.667	518.76
411.045	545.2
411.422	562.82
411.8	563.5
412.178	553.56
412.555	578.42
412.933	568.02
413.31	575.93
413.687	590.62
414.065	634.23
414.442	625.2
414.819	625.42
415.197	647.79
415.574	642.82
415.951	633.1
416.328	660
416.705	672.2
417.082	658.64
417.46	692.54
417.837	691.18
418.214	705.19
418.591	701.8
418.967	725.98
419.344	739.09
419.721	718.07
420.098	725.31
420.475	743.16
420.852	764.4
421.228	799.43
421.605	793.78
421.982	837.85
422.358	822.7
422.735	823.83
423.111	861.8
423.488	871.74
423.864	881.69
424.241	911.06
424.617	921.91
424.994	929.59
425.37	937.05
425.746	945.86
426.123	973.89
426.499	962.59
426.875	982.25
427.251	1026.77
427.627	1048.91
428.003	1021.8
428.379	1069.48
428.756	1093.21
429.132	1082.13
429.507	1100.89
429.883	1106.76
430.259	1134.11
430.635	1109.7
431.011	1139.53
431.387	1156.93
431.763	1190.6
432.138	1205.29
432.514	1227.44
432.89	1243.71
433.265	1277.61
433.641	1280.55
434.016	1274.9
434.392	1337.27
434.767	1336.14
435.143	1370.49
435.518	1389.24
435.894	1395.57
436.269	1441.9
436.644	1445.51
437.02	1502.69
437.395	1531.39
437.77	1574.77
438.145	1588.56
438.52	1589.01
438.895	1634.43
439.271	1640.31
439.646	1669.24
440.021	1706.97
440.395	1717.14
440.77	1743.13
441.145	1759.63
441.52	1790.14
441.895	1825.62
442.27	1816.8
442.645	1831.27
443.019	1878.27
443.394	1928.66
443.769	1923.47
444.143	1936.8
444.518	1987.65
444.892	1939.51
445.267	1965.05
445.641	2012.05
446.016	2009.79
446.39	2045.95
446.764	2066.97
447.139	2032.84
447.513	2105.38
447.887	2086.85
448.262	2098.6
448.636	2139.51
449.01	2163.23
449.384	2188.09
449.758	2220.63
450.132	2220.63
450.506	2247.3
450.88	2245.27
451.254	2258.15
451.628	2286.17
452.002	2291.37
452.376	2315.55
452.75	2392.83
453.123	2395.09
453.497	2419.05
453.871	2447.75
454.244	2491.36
454.618	2500.17
454.992	2520.29
455.365	2567.97
455.739	2590.34
456.112	2625.37
456.486	2643.67
456.859	2688.87
457.232	2737.91
457.606	2724.35
457.979	2738.59
458.352	2804.8
458.725	2841.86
459.099	2821.3
459.472	2912.37
459.845	2939.48
460.218	2967.05
460.591	2991.91
460.964	3002.31
461.337	3058.13
461.71	3122.98
462.083	3139.93
462.456	3158.24
462.829	3137.67
463.201	3236.2
463.574	3236.65
463.947	3308.51
464.32	3376.31
464.692	3380.38
465.065	3408.17
465.438	3421.28
465.81	3553.03
466.183	3549.19
466.555	3631.9
466.928	3654.95
467.3	3616.53
467.672	3722.29
468.045	3786.02
468.417	3823.3
468.789	3823.98
469.161	3898.56
469.534	3902.85
469.906	4016.07
470.278	4013.13
470.65	4070.98
471.022	4174.48
471.394	4193.69
471.766	4250.86
472.138	4272.33
472.51	4383.51
472.882	4402.95
473.253	4469.16
473.625	4531.99
473.997	4600.46
474.369	4633
474.74	4714.81
475.112	4776.5
475.484	4854.91
475.855	4910.51
476.227	4996.38
476.598	5119.99
476.97	5162.25
477.341	5300.1
477.713	5255.81
478.084	5374.22
478.455	5504.16
478.827	5468.68
479.198	5613.09
479.569	5657.83
479.94	5830.26
480.311	5820.09
480.682	5973.53
481.053	6081.32
481.424	6144.15
481.795	6182.56
482.166	6302.56
482.537	6367.42
482.908	6461.88
483.279	6471.82
483.65	6631.59
484.021	6727.41
484.391	6841.98
484.762	6897.12
485.133	6892.83
485.503	6985.48
485.874	7172.82
486.244	7152.71
486.615	7301.18
486.985	7399.93
487.356	7499.59
487.726	7524.22
488.097	7685.57
488.467	7713.6
488.837	7941.16
489.207	7954.72
489.578	8056.64
489.948	8170.31
490.318	8215.05
490.688	8296.18
491.058	8372.56
491.428	8429.74
491.798	8560.81
492.168	8656.17
492.538	8635.15
492.908	8798.54
493.278	8799.67
493.648	8877.18
494.017	8942.49
494.387	8973.22
494.757	9014.13
495.126	9117.18
495.496	9073.33
495.866	9144.29
496.235	9281.92
496.605	9278.08
496.974	9355.36
497.344	9391.07
497.713	9460.44
498.082	9479.43
498.452	9577.05
498.821	9581.12
499.19	9599.87
499.559	9708.57
499.928	9675.8
500.298	9857.04
500.667	9791.51
501.036	9760.55
501.405	9859.75
501.774	9841.22
502.143	10002.58
502.512	9942.69
502.88	10030.37
503.249	9956.93
503.618	10089.81
503.987	10063.82
504.356	10119.64
504.724	10132.97
505.093	10207.54
505.462	10130.48
505.83	10199.63
506.199	10272.85
506.567	10356.92
506.936	10309.69
507.304	10413.86
507.672	10433.98
508.041	10420.19
508.409	10443.92
508.777	10530.02
509.145	10591.94
509.514	10512.62
509.882	10513.97
510.25	10505.16
510.618	10612.73
510.986	10627.64
511.354	10675.33
511.722	10694.08
512.09	10711.03
512.458	10669.45
512.826	10838.71
513.193	10772.05
513.561	10739.96
513.929	10830.12
514.297	10844.59
514.664	10833.97
515.032	10930.46
515.4	10928.88
515.767	10910.12
516.135	10896.11
516.502	10803.91
516.869	10966.62
517.237	10951.93
517.604	10861.99
517.972	10983.34
518.339	11066.73
518.706	10983.79
519.073	10917.35
519.44	10917.81
519.808	11024.7
520.175	10972.95
520.542	11135.43
520.909	11067.63
521.276	11065.82
521.643	11091.59
522.009	11134.07
522.376	11138.37
522.743	11085.71
523.11	11164.81
523.477	11319.15
523.843	11222.43
524.21	11203.22
524.577	11255.42
524.943	11203.67
525.31	11306.5
525.676	11354.4
526.043	11308.98
526.409	11230.79
526.776	11347.17
527.142	11275.99
527.508	11314.63
527.874	11304.24
528.241	11322.54
528.607	11259.94
528.973	11352.37
529.339	11302.43
529.705	11254.29
530.071	11315.31
530.437	11349.43
530.803	11280.51
531.169	11273.73
531.535	11268.31
531.901	11204.8
532.267	11214.07
532.632	11297.68
532.998	11218.36
533.364	11149.21
533.73	11053.62
534.095	11163.9
534.461	11152.38
534.826	11111.02
535.192	11112.38
535.557	11056.11
535.923	11044.13
536.288	11026.05
536.653	10937.47
537.019	10919.61
537.384	10921.87
537.749	10915.09
538.114	10819.96
538.479	10827.64
538.845	10765.72
539.21	10690.24
539.575	10711.71
539.94	10645.27
540.305	10626.06
540.67	10598.04
541.034	10532.96
541.399	10520.98
541.764	10461.09
542.129	10491.15
542.494	10361.66
542.858	10428.55
543.223	10329.12
543.587	10302.91
543.952	10261.78
544.316	10293.87
544.681	10147.2
545.045	10116.47
545.41	10083.48
545.774	10153.08
546.138	10000.77
546.503	9927.55
546.867	9923.93
547.231	9917.83
547.595	9846.65
547.959	9863.37
548.324	9775.01
548.688	9730.04
549.052	9749.48
549.416	9761.23
549.779	9662.92
550.143	9662.7
550.507	9615.69
550.871	9619.99
551.235	9499.99
551.599	9534.11
551.962	9491.63
552.326	9475.81
552.689	9456.6
553.053	9392.42
553.417	9383.38
553.78	9414.79
554.143	9290.05
554.507	9319.88
554.87	9274.23
555.234	9314.68
555.597	9138.19
555.96	9220
556.323	9191.52
556.686	9124.63
557.05	9152.2
557.413	9058.87
557.776	9094.13
558.139	9089.83
558.502	9124.18
558.865	9107.01
559.228	9076.27
559.59	9007.8
559.953	9049.15
560.316	9115.37
560.679	9014.13
561.041	8943.17
561.404	9004.64
561.767	9029.95
562.129	8971.64
562.492	8974.81
562.854	8961.93
563.217	8851.87
563.579	9024.75
563.941	8946.11
564.304	8988.37
564.666	9020.23
565.028	8952.89
565.39	8919.67
565.753	9018.65
566.115	8921.25
566.477	8962.6
566.839	8954.02
567.201	9060.45
567.563	8987.46
567.925	9013
568.287	8925.54
568.648	8977.29
569.01	8971.19
569.372	9002.6
569.734	8937.97
570.095	8995.37
570.457	9015.26
570.819	9001.02
571.18	9008.03
571.542	9044.41
571.903	9045.99
572.265	9067.69
572.626	9025.2
572.987	9040.57
573.349	8949.72
573.71	9087.35
574.071	9030.17
574.432	9040.57
574.794	9087.57
575.155	9006.67
575.516	9000.34
575.877	9035.37
576.238	9039.89
576.599	9143.39
576.96	9086.89
577.32	9078.76
577.681	9121.47
578.042	9102.26
578.403	9054.13
578.763	9101.81
579.124	9119.21
579.485	9048.02
579.845	9072.88
580.206	9069.49
580.566	9020.91
580.927	9083.5
581.287	9164.41
581.648	9050.74
582.008	9012.09
582.368	9064.07
582.728	9118.98
583.089	9081.24
583.449	8998.08
583.809	9074.69
584.169	9080.57
584.529	9004.18
584.889	9038.76
585.249	9030.17
585.609	9012.32
585.969	8999.44
586.329	9022.71
586.688	9006.44
587.048	9025.43
587.408	8976.61
587.768	8984.98
588.127	9008.48
588.487	8989.95
588.846	9039.44
589.206	8942.49
589.565	8971.42
589.925	8995.82
590.284	8928.48
590.643	8905.88
591.003	9018.42
591.362	8977.74
591.721	8946.56
592.08	8942.72
592.44	8967.57
592.799	8961.25
593.158	8908.82
593.517	8965.09
593.876	8928.03
594.235	8925.09
594.593	8899.1
594.952	8938.2
595.311	8851.65
595.67	8931.42
596.029	8955.37
596.387	8932.77
596.746	8936.39
597.104	8868.37
597.463	8909.05
597.822	8891.19
598.18	8875.15
598.538	8881.02
598.897	8870.18
599.255	8791.99
599.613	8971.42
599.972	8911.98
600.33	8884.41
600.688	8899.33
601.046	8902.72
601.404	8951.76
601.762	8845.54
602.12	8970.06
602.478	8934.36
602.836	8879.89
603.194	8945.88
603.552	8870.4
603.91	8837.63
604.268	8895.71
604.625	8835.83
604.983	8930.51
605.341	8856.84
605.698	8834.47
606.056	8874.24
606.413	8853
606.771	8820.69
607.128	8855.26
607.485	8811.87
607.843	8823.4
608.2	8859.56
608.557	8930.51
608.914	8868.59
609.272	8974.13
609.629	8978.2
609.986	8988.59
610.343	8915.15
610.7	8997.18
611.057	8971.19
611.414	8953.56
611.771	8957.18
612.127	8956.5
612.484	8908.37
612.841	9020.91
613.198	8959.67
613.554	8941.13
613.911	8995.14
614.267	9024.07
614.624	9006.9
614.98	8975.03
615.337	9050.96
615.693	9037.86
616.05	9011.42
616.406	9032.21
616.762	9042.38
617.118	9043.51
617.475	9037.63
617.831	9081.02
618.187	9013.68
618.543	9037.86
618.899	9086.89
619.255	9083.96
619.611	9082.83
619.967	9067.91
620.323	9086.22
620.678	9058.65
621.034	9078.08
621.39	9015.03
621.746	9003.05
622.101	9155.59
622.457	9070.62
622.812	9081.02
623.168	9092.77
623.523	9100.9
623.879	9139.77
624.234	9051.64
624.589	9020.23
624.945	9085.31
625.3	9078.53
625.655	8994.69
626.01	9092.54
626.365	9082.37
626.72	9034.69
627.075	9070.62
627.43	9024.97
627.785	8967.8
628.14	9106.55
628.495	9010.51
628.85	9038.53
629.205	9032.66
629.559	8982.26
629.914	8997.4
630.269	9033.34
630.623	8972.55
630.978	8958.31
631.332	8984.52
631.687	8959.21
632.041	8988.14
632.396	9001.47
632.75	8915.6
633.104	8995.14
633.459	8888.93
633.813	8926.22
634.167	8830.63
634.521	8839.22
634.875	8865.43
635.229	8848.48
635.583	8834.02
635.937	8795.83
636.291	8818.65
636.645	8771.87
636.999	8842.38
637.352	8850.06
637.706	8721.03
638.06	8818.43
638.413	8707.24
638.767	8756.51
639.121	8727.81
639.474	8714.93
639.828	8676.74
640.181	8699.56
640.534	8728.94
640.888	8703.63
641.241	8707.02
641.594	8676.51
641.947	8753.12
642.301	8661.82
642.654	8714.93
643.007	8668.83
643.36	8676.06
643.713	8618.43
644.066	8641.93
644.419	8613.23
644.771	8559.22
645.124	8467.7
645.477	8532.33
645.83	8405.1
646.182	8410.53
646.535	8317.2
646.888	8362.85
647.24	8328.72
647.593	8377.31
647.945	8298.67
648.298	8299.34
648.65	8272.9
649.002	8247.14
649.355	8362.62
649.707	8347.93
650.059	8359.46
650.411	8517.64
650.763	8444.65
651.115	8511.99
651.467	8538.21
651.819	8533.69
652.171	8537.08
652.523	8437.65
652.875	8451.88
653.227	8502.28
653.578	8590.41
653.93	8486.68
654.282	8439
654.633	8455.5
654.985	8435.39
655.337	8531.2
655.688	8469.73
656.039	8514.48
656.391	8466.57
656.742	8516.74
657.094	8450.75
657.445	8515.38
657.796	8523.74
658.147	8521.26
658.498	8471.09
658.849	8480.81
659.2	8522.39
659.551	8499.11
659.902	8528.72
660.253	8515.16
660.604	8545.21
660.955	8493.69
661.306	8578.21
661.656	8528.04
662.007	8522.61
662.358	8572.56
662.708	8575.72
663.059	8588.6
663.409	8511.99
663.76	8529.39
664.11	8517.19
664.461	8568.26
664.811	8551.09
665.161	8613.01
665.511	8563.07
665.862	8593.57
666.212	8537.98
666.562	8605.78
666.912	8547.7
667.262	8518.55
667.612	8534.37
667.962	8528.49
668.312	8512.22
668.662	8571.2
669.011	8519.68
669.361	8574.59
669.711	8500.02
670.06	8570.3
670.41	8549.96
670.76	8448.04
671.109	8492.33
671.459	8461.83
671.808	8495.04
672.157	8502.5
672.507	8500.92
672.856	8458.89
673.205	8497.08
673.554	8519.9
673.904	8430.41
674.253	8516.51
674.602	8464.54
674.951	8355.39
675.3	8312.45
675.649	8375.05
675.998	8424.54
676.346	8408.49
676.695	8444.65
677.044	8392.45
677.393	8433.35
677.741	8374.82
678.09	8446.01
678.438	8324.65
678.787	8332.11
679.135	8369.85
679.484	8216.18
679.832	8291.89
680.181	8229.52
680.529	8230.19
680.877	8193.13
681.225	8245.11
681.573	8233.81
681.922	8209.4
682.27	8196.07
682.618	8175.96
682.966	8124.66
683.314	8167.37
683.661	8128.05
684.009	8125.11
684.357	8160.59
684.705	8105.9
685.053	8082.85
685.4	8056.41
685.748	8023.87
686.095	8018.9
686.443	8018
686.79	7975.51
687.138	7965.79
687.485	7985.23
687.832	7945.23
688.18	7978
688.527	7859.36
688.874	7948.39
689.221	7874.5
689.568	7890.32
689.915	7770.32
690.262	7869.52
690.609	7815.06
690.956	7773.48
691.303	7724.9
691.65	7639.47
691.997	7670.66
692.344	7628.18
692.69	7632.92
693.037	7619.36
693.383	7542.98
693.73	7557.89
694.077	7510.66
694.423	7494.39
694.769	7481.06
695.116	7458.01
695.462	7416.2
695.808	7402.19
696.155	7410.55
696.501	7347.05
696.847	7319.03
697.193	7325.13
697.539	7289.65
697.885	7238.13
698.231	7205.36
698.577	7185.7
698.923	7191.58
699.269	7163.78
699.614	7167.85
699.96	7090.34
700.306	7037.23
700.651	7026.38
700.997	7039.04
701.342	6971.47
701.688	6972.15
702.033	6962.2
702.379	6970.11
702.724	6912.49
703.069	6966.95
703.415	6863.22
703.76	6783.9
704.105	6858.48
704.45	6797.46
704.795	6785.26
705.14	6724.24
705.485	6715.66
705.83	6648.31
706.175	6695.32
706.52	6676.79
706.865	6608.99
707.209	6680.63
707.554	6594.98
707.899	6619.39
708.243	6524.48
708.588	6503.91
708.932	6540.07
709.277	6520.41
709.621	6531.25
709.966	6428.21
710.31	6513.18
710.654	6431.6
710.998	6408.55
711.342	6403.57
711.687	6377.59
712.031	6384.59
712.375	6344.59
712.719	6387.98
713.063	6358.6
713.407	6308.89
713.75	6318.83
714.094	6300.75
714.438	6356.8
714.782	6304.14
715.125	6232.51
715.469	6269.11
715.812	6195.67
716.156	6184.37
716.499	6221.88
716.843	6193.64
717.186	6202
717.53	6230.47
717.873	6173.75
718.216	6197.93
718.559	6216.01
718.902	6125.16
719.246	6179.85
719.589	6121.32
719.932	6149.57
720.275	6090.14
720.617	6097.14
720.96	6091.04
721.303	6114.09
721.646	6080.65
721.989	6054.43
722.331	6107.99
722.674	6093.75
723.016	6024.15
723.359	6100.98
723.701	6153.19
724.044	6038.84
724.386	5992.74
724.729	6030.93
725.071	5987.54
725.413	6017.82
725.755	6020.53
726.097	6054.43
726.439	5980.99
726.782	5955
727.124	5974.21
727.465	5999.29
727.807	5967.88
728.149	5936.24
728.491	5898.28
728.833	5970.82
729.175	5901.89
729.516	5942.8
729.858	5994.55
730.199	5919.29
730.541	5990.7
730.882	5950.25
731.224	6002.23
731.565	5955.22
731.906	5947.54
732.248	5982.79
732.589	5943.47
732.93	5920.42
733.271	5950.03
733.612	5964.04
733.953	5954.77
734.294	5932.4
734.635	5909.12
734.976	5963.81
735.317	5908.22
735.658	5987.54
735.999	5933.53
736.339	5928.11
736.68	5947.77
737.021	5968.78
737.361	5973.76
737.702	5984.15
738.042	5934.66
738.383	5930.59
738.723	5945.73
739.063	6027.09
739.404	6015.56
739.744	6030.48
740.084	6058.05
740.424	6042.68
740.764	6034.32
741.104	6013.53
741.444	6026.41
741.784	6097.82
742.124	6113.86
742.464	6097.37
742.804	6175.33
743.143	6129.23
743.483	6103.7
743.823	6170.59
744.162	6138.04
744.502	6158.84
744.841	6186.41
745.181	6273.41
745.52	6299.17
745.86	6324.93
746.199	6290.81
746.538	6386.85
746.877	6442.22
747.216	6496.23
747.556	6443.8
747.895	6608.99
748.234	6561.76
748.573	6570.8
748.911	6630.24
749.25	6699.16
749.589	6730.57
749.928	6800.63
750.267	6914.75
750.605	6904.13
750.944	7012.6
751.283	7065.25
751.621	7156.55
751.96	7171.24
752.298	7306.83
752.636	7417.33
752.975	7447.16
753.313	7508.63
753.651	7682.64
753.989	7704.11
754.327	7889.64
754.666	7943.87
755.004	8056.19
755.342	8163.3
755.679	8359.91
756.017	8442.62
756.355	8570.07
756.693	8680.8
757.031	8820.23
757.368	8972.32
757.706	9044.64
758.044	9248.47
758.381	9378.19
758.719	9520.1
759.056	9665.41
759.394	9856.37
759.731	9934.33
760.068	10163.25
760.405	10270.14
760.743	10440.08
761.08	10669
761.417	10761.43
761.754	10913.96
762.091	11129.55
762.428	11231.7
762.765	11414.06
763.102	11599.37
763.438	11736.54
763.775	11927.72
764.112	12073.71
764.449	12335.62
764.785	12472.79
765.122	12538.33
765.458	12785.33
765.795	12878.66
766.131	12982.16
766.467	13253.11
766.804	13370.4
