Data from hue_290_FLMS001491_00079.txt Node
Date: Tue Feb 07 15:53:14 GMT 2017
User: dcchb
Spectrometer: FLMS00149
Trigger mode: 0
Integration Time (sec): 2.000000E-2
Scans to average: 10
Electric dark correction enabled: true
Nonlinearity correction enabled: false
Boxcar width: 0
XAxis mode: Wavelengths
Number of Pixels in Spectrum: 2048
>>>>>Begin Spectral Data<<<<<
341.393	1.16
341.776	1.16
342.16	1.16
342.543	-70.93
342.927	-53.76
343.31	-54.89
343.693	-75.9
344.077	-61.21
344.46	-75.22
344.843	-47.88
345.226	-53.08
345.61	-35.9
345.993	-26.41
346.376	10.2
346.759	10.65
347.142	36.41
347.525	40.25
347.908	57.65
348.291	85.9
348.674	84.09
349.057	105.34
349.44	101.49
349.823	119.35
350.206	161.38
350.588	195.5
350.971	204.77
351.354	209.51
351.737	251.1
352.119	236.18
352.502	260.81
352.884	276.41
353.267	281.83
353.65	272.79
354.032	273.24
354.414	297.87
354.797	286.35
355.179	317.99
355.562	283.18
355.944	331.77
356.326	325.22
356.709	324.99
357.091	314.37
357.473	323.18
357.855	339
358.238	332.9
358.62	344.2
359.002	316.18
359.384	340.13
359.766	343.52
360.148	325.67
360.53	331.77
360.912	314.14
361.294	340.58
361.676	312.11
362.057	330.42
362.439	313.47
362.821	312.34
363.203	328.38
363.584	326.57
363.966	310.08
364.348	319.57
364.729	336.97
365.111	328.61
365.493	327.25
365.874	306.91
366.256	299.46
366.637	319.34
367.019	303.75
367.4	313.24
367.781	316.63
368.163	315.5
368.544	308.49
368.925	286.12
369.306	317.08
369.688	300.81
370.069	295.61
370.45	325.67
370.831	307.59
371.212	318.66
371.593	305.1
371.974	305.78
372.355	290.42
372.736	302.85
373.117	297.2
373.498	299
373.879	346.01
374.26	323.18
374.641	309.17
375.021	315.5
375.402	320.7
375.783	316.86
376.163	295.39
376.544	337.87
376.925	316.86
377.305	313.69
377.686	332.67
378.066	327.93
378.447	331.09
378.827	333.8
379.208	333.35
379.588	317.53
379.968	327.25
380.349	310.75
380.729	307.82
381.109	315.27
381.489	337.42
381.87	335.61
382.25	331.32
382.63	341.71
383.01	325.9
383.39	318.66
383.77	344.88
384.15	328.38
384.53	328.16
384.91	341.04
385.29	338.78
385.67	336.74
386.049	344.88
386.429	367.93
386.809	360.7
387.189	348.04
387.568	329.29
387.948	336.52
388.328	372
388.707	350.98
389.087	347.59
389.466	343.52
389.846	363.63
390.225	364.31
390.605	370.19
390.984	357.98
391.363	368.38
391.743	373.13
392.122	355.5
392.501	361.6
392.881	373.13
393.26	373.8
393.639	382.17
394.018	388.49
394.397	352.11
394.776	382.84
395.155	390.3
395.534	394.82
395.913	365.22
396.292	383.3
396.671	400.7
397.05	377.65
397.429	378.78
397.808	392.11
398.186	381.71
398.565	402.5
398.944	406.57
399.323	406.8
399.701	394.82
400.08	402.28
400.458	400.02
400.837	424.65
401.215	397.08
401.594	414.48
401.972	401.37
402.351	426.91
402.729	426.91
403.107	437.08
403.486	424.2
403.864	421.71
404.242	435.05
404.62	460.58
404.999	454.03
405.377	441.15
405.755	460.36
406.133	430.98
406.511	455.38
406.889	460.13
407.267	470.75
407.645	482.28
408.023	479.34
408.401	485.89
408.779	467.59
409.156	487.93
409.534	512.56
409.912	489.73
410.29	500.81
410.667	501.03
411.045	539.68
411.422	535.38
411.8	541.71
412.178	552.33
412.555	570.86
412.933	548.71
413.31	560.47
413.687	582.16
414.065	578.54
414.442	583.74
414.819	610.18
415.197	630.97
415.574	594.59
415.951	629.62
416.328	633.68
416.705	621.93
417.082	636.85
417.46	644.76
417.837	670.52
418.214	648.37
418.591	673.91
418.967	676.17
419.344	690.18
419.721	693.34
420.098	675.49
420.475	705.77
420.852	692.89
421.228	715.04
421.605	723.85
421.982	741.03
422.358	740.57
422.735	741.25
423.111	759.56
423.488	774.47
423.864	789.84
424.241	772.66
424.617	802.04
424.994	810.85
425.37	837.29
425.746	818.54
426.123	828.93
426.499	850.18
426.875	828.48
427.251	866.45
427.627	870.06
428.003	895.6
428.379	895.37
428.756	874.58
429.132	920.91
429.507	927.01
429.883	948.93
430.259	979.89
430.635	959.55
431.011	934.24
431.387	968.36
431.763	988.25
432.138	993.45
432.514	1026.67
432.89	1034.8
433.265	1013.33
433.641	1062.37
434.016	1078.42
434.392	1085.42
434.767	1096.5
435.143	1121.13
435.518	1121.58
435.894	1141.92
436.269	1152.09
436.644	1162.71
437.02	1200.22
437.395	1118.42
437.77	1195.25
438.145	1185.08
438.52	1236.15
438.895	1248.13
439.271	1240.67
439.646	1277.28
440.021	1284.06
440.395	1301.46
440.77	1257.17
441.145	1290.16
441.52	1319.54
441.895	1305.53
442.27	1303.04
442.645	1301.24
443.019	1351.41
443.394	1336.04
443.769	1324.06
444.143	1303.5
444.518	1364.51
444.892	1376.04
445.267	1380.56
445.641	1395.25
446.016	1392.31
446.39	1397.05
446.764	1439.99
447.139	1385.08
447.513	1416.71
447.887	1406.77
448.262	1428.69
448.636	1406.09
449.01	1432.31
449.384	1435.47
449.758	1470.05
450.132	1459.65
450.506	1464.85
450.88	1514.56
451.254	1472.98
451.628	1494.45
452.002	1517.28
452.376	1523.38
452.75	1524.73
453.123	1571.29
453.497	1554.34
453.871	1541.91
454.244	1591.62
454.618	1557.05
454.992	1606.54
455.365	1621.91
455.739	1620.78
456.112	1655.13
456.486	1640.21
456.859	1642.02
457.232	1699.42
457.606	1670.27
457.979	1689.02
458.352	1759.98
458.725	1757.95
459.099	1736.48
459.472	1768.12
459.845	1791.17
460.218	1804.95
460.591	1787.55
460.964	1804.05
461.337	1862.58
461.71	1878.85
462.083	1861
462.456	1864.16
462.829	1868.68
463.201	1937.38
463.574	1901.67
463.947	1922.92
464.32	1957.94
464.692	1983.25
465.065	1971.73
465.438	2020.09
465.81	2017.15
466.183	2042.69
466.555	2081.56
466.928	2045.4
467.3	2063.02
467.672	2085.62
468.045	2153.19
468.417	2160.88
468.789	2150.25
469.161	2190.25
469.534	2191.61
469.906	2230.7
470.278	2260.99
470.65	2263.92
471.022	2331.27
471.394	2357.71
471.766	2358.16
472.138	2355.9
472.51	2399.06
472.882	2435.67
473.253	2473.86
473.625	2489.45
473.997	2516.8
474.369	2551.6
474.74	2545.27
475.112	2600.64
475.484	2589.11
475.855	2654.2
476.227	2705.04
476.598	2713.63
476.97	2732.39
477.341	2785.27
477.713	2787.98
478.084	2818.71
478.455	2872.27
478.827	2890.57
479.198	2922.44
479.569	2932.61
479.94	2999.27
480.311	3049.44
480.682	3114.07
481.053	3110.91
481.424	3121.08
481.795	3198.81
482.166	3239.27
482.537	3273.39
482.908	3315.2
483.279	3305.7
483.65	3365.14
484.021	3420.28
484.391	3446.94
484.762	3477
485.133	3476.32
485.503	3559.71
485.874	3595.41
486.244	3615.98
486.615	3646.49
486.985	3646.26
487.356	3739.59
487.726	3745.47
488.097	3806.48
488.467	3825.69
488.837	3829.53
489.207	3937.33
489.578	3970.09
489.948	3970.09
490.318	3998.34
490.688	4039.47
491.058	4064.55
491.428	4115.4
491.798	4128.96
492.168	4200.6
492.538	4161.73
492.908	4232.23
493.278	4268.62
493.648	4284.66
494.017	4344.55
494.387	4363.08
494.757	4401.95
495.126	4408.5
495.496	4405.34
495.866	4451.21
496.235	4486.24
496.605	4494.37
496.974	4534.82
497.344	4543.19
497.713	4573.92
498.082	4616.18
498.452	4614.82
498.821	4645.33
499.19	4660.92
499.559	4735.04
499.928	4742.28
500.298	4726.46
500.667	4741.15
501.036	4747.93
501.405	4791.31
501.774	4790.64
502.143	4850.97
502.512	4883.29
502.88	4855.49
503.249	4831.09
503.618	4951.31
503.987	4902.72
504.356	4932.55
504.724	4936.17
505.093	4976.85
505.462	4945.21
505.83	5013
506.199	5057.3
506.567	5049.39
506.936	5021.59
507.304	5146.33
507.672	5123.28
508.041	5135.26
508.409	5209.16
508.777	5143.4
509.145	5229.27
509.514	5215.26
509.882	5240.12
510.25	5195.6
510.618	5265.88
510.986	5273.11
511.354	5282.83
511.722	5347.68
512.09	5341.36
512.458	5338.19
512.826	5414.12
513.193	5386.33
513.561	5440.56
513.929	5447.34
514.297	5466.33
514.664	5491.41
515.032	5519.21
515.4	5494.8
515.767	5546.55
516.135	5554.68
516.502	5499.77
516.869	5603.95
517.237	5588.36
517.604	5557.85
517.972	5700.44
518.339	5646.89
518.706	5645.76
519.073	5642.14
519.44	5705.87
519.808	5722.14
520.175	5692.76
520.542	5753.1
520.909	5755.58
521.276	5780.22
521.643	5799.2
522.009	5853.43
522.376	5843.72
522.743	5890.04
523.11	5890.27
523.477	5900.21
523.843	5960.78
524.21	6003.94
524.577	6038.97
524.943	6012.75
525.31	6082.13
525.676	6140.43
526.043	6145.86
526.409	6119.19
526.776	6187.89
527.142	6196.7
527.508	6186.98
527.874	6212.97
528.241	6276.7
528.607	6294.55
528.973	6343.14
529.339	6307.66
529.705	6360.31
530.071	6415.23
530.437	6527.77
530.803	6474.66
531.169	6550.36
531.535	6485.06
531.901	6493.87
532.267	6525.96
532.632	6534.77
532.998	6550.14
533.364	6608.89
533.73	6689.12
534.095	6673.3
534.461	6686.18
534.826	6681.66
535.192	6750.13
535.557	6751.72
535.923	6731.6
536.288	6795.56
536.653	6784.26
537.019	6800.53
537.384	6804.82
537.749	6833.29
538.114	6856.8
538.479	6863.8
538.845	6866.51
539.21	6887.3
539.575	6926.4
539.94	6937.7
540.305	6937.02
540.67	7025.61
541.034	7032.16
541.399	7033.52
541.764	7032.16
542.129	7062.89
542.494	7088.43
542.858	7064.7
543.223	7130.46
543.587	7099.28
543.952	7101.31
544.316	7201.65
544.681	7219.5
545.045	7236
545.41	7227.41
545.774	7227.41
546.138	7251.36
546.503	7286.16
546.867	7338.14
547.231	7324.13
547.595	7383.34
547.959	7362.55
548.324	7380.4
548.688	7386.05
549.052	7396.22
549.416	7431.25
549.779	7475.99
550.143	7469.44
550.507	7504.46
550.871	7478.02
551.235	7475.54
551.599	7536.78
551.962	7540.85
552.326	7598.92
552.689	7611.35
553.053	7595.53
553.417	7595.08
553.78	7712.82
554.143	7631.24
554.507	7665.59
554.87	7685.93
555.234	7706.27
555.597	7712.14
555.96	7766.83
556.323	7737.68
556.686	7827.39
557.05	7844.79
557.413	7766.6
557.776	7821.52
558.139	7901.52
558.502	7857.22
558.865	7860.61
559.228	7937.9
559.59	7933.83
559.953	7955.75
560.316	8029.87
560.679	7994.17
561.041	8045.69
561.404	8058.57
561.767	8113.26
562.129	8071
562.492	8166.82
562.854	8136.76
563.217	8146.93
563.579	8172.69
563.941	8206.59
564.304	8232.13
564.666	8229.64
565.028	8260.6
565.39	8283.43
565.753	8298.79
566.115	8360.03
566.477	8391.67
566.839	8449.98
567.201	8454.5
567.563	8423.31
567.925	8527.71
568.287	8490.2
568.648	8543.53
569.01	8603.42
569.372	8642.51
569.734	8590.08
570.095	8663.08
570.457	8696.3
570.819	8757.09
571.18	8786.46
571.542	8815.84
571.903	8813.81
572.265	8864.88
572.626	8868.72
572.987	8899.68
573.349	8910.98
573.71	9002.96
574.071	9015.16
574.432	9085.89
574.794	9130.18
575.155	9186.91
575.516	9190.07
575.877	9146.23
576.238	9253.8
576.599	9329.27
576.96	9408.59
577.32	9458.99
577.681	9510.96
578.042	9553.45
578.403	9614.01
578.763	9646.33
579.124	9691.3
579.485	9744.4
579.845	9884.97
580.206	9938.75
580.566	9951.63
580.927	10025.75
581.287	10157.28
581.648	10142.36
582.008	10271.4
582.368	10371.51
582.728	10450.83
583.089	10550.49
583.449	10604.04
583.809	10679.52
584.169	10858.27
584.529	10893.98
584.889	11077.25
585.249	11127.19
585.609	11161.54
585.969	11354.31
586.329	11439.95
586.688	11567.63
587.048	11677.69
587.408	11701.42
587.768	11880.62
588.127	12055.76
588.487	12110.9
588.846	12368.06
589.206	12333.72
589.565	12568.51
589.925	12761.27
590.284	12734.38
590.643	12834.04
591.003	13073.58
591.362	13240.81
591.721	13380.69
592.08	13449.84
592.44	13541.82
592.799	13745.88
593.158	13889.61
593.517	13887.8
593.876	14154.91
594.235	14249.82
594.593	14320.1
594.952	14607.55
595.311	14757.15
595.67	14834.89
596.029	15068.56
596.387	15114.89
596.746	15210.93
597.104	15327.31
597.463	15425.16
597.822	15657.24
598.18	15736.56
598.538	15768.65
598.897	15951.93
599.255	16033.05
599.613	16390.11
599.972	16341.29
600.33	16417.45
600.688	16513.72
601.046	16707.16
601.404	16847.04
601.762	16941.73
602.12	17169.07
602.478	17204.55
602.836	17233.02
603.194	17234.83
603.552	17557.31
603.91	17430.3
604.268	17680.92
604.625	17648.6
604.983	17801.14
605.341	17816.96
605.698	17952.55
606.056	18081.36
606.413	18154.35
606.771	18300.34
607.128	18357.74
607.485	18416.04
607.843	18482.25
608.2	18709.59
608.557	18787.33
608.914	18698.29
609.272	18972.64
609.629	19030.26
609.986	19111.16
610.343	19115.23
610.7	19287.2
611.057	19327.43
611.414	19335.57
611.771	19510.48
612.127	19552.28
612.484	19555.9
612.841	19728.32
613.198	19680.64
613.554	19773.97
613.911	19929.67
614.267	19875.66
614.624	19978.26
614.98	19985.04
615.337	20142.1
615.693	20185.71
616.05	20193.4
616.406	20352.49
616.762	20356.33
617.118	20350.91
617.475	20366.05
617.831	20551.8
618.187	20559.04
618.543	20610.56
618.899	20680.16
619.255	20673.83
619.611	20822.76
619.967	20809.42
620.323	20925.58
620.678	20879.71
621.034	20768.07
621.39	20944.11
621.746	20833.38
622.101	21165.12
622.457	21041.51
622.812	21098.68
623.168	21139.36
623.523	21247.61
623.879	21197.89
624.234	21068.4
624.589	21223.88
624.945	21238.79
625.3	21243.54
625.655	21286.7
626.01	21212.58
626.365	21181.62
626.72	21392.23
627.075	21280.6
627.43	21398.79
627.785	21301.39
628.14	21402.63
628.495	21455.51
628.85	21407.37
629.205	21349.75
629.559	21368.51
629.914	21299.81
630.269	21379.35
630.623	21379.58
630.978	21338.9
631.332	21389.07
631.687	21441.27
632.041	21424.78
632.396	21493.25
632.75	21351.33
633.104	21368.05
633.459	21304.55
633.813	21353.82
634.167	21357.88
634.521	21262.29
634.875	21319.24
635.229	21359.92
635.583	21216.42
635.937	21187.04
636.291	21128.96
636.645	21246.02
636.999	21212.8
637.352	21335.51
637.706	21189.75
638.06	21250.54
638.413	21156.99
638.767	21219.36
639.121	21308.39
639.474	21159.25
639.828	21081.73
640.181	21122.64
640.534	21178.45
640.888	21084.67
641.241	20973.49
641.594	21022.3
641.947	21142.98
642.301	21047.61
642.654	21105.46
643.007	21001.06
643.36	21022.75
643.713	20929.65
644.066	21040.15
644.419	21079.7
644.771	20818.69
645.124	20685.81
645.477	20681.52
645.83	20541.86
646.182	20490.56
646.535	20408.08
646.888	20444.46
647.24	20281.3
647.593	20440.17
647.945	20355.88
648.298	20325.37
648.65	20289.21
649.002	20245.6
649.355	20345.71
649.707	20281.75
650.059	20568.3
650.411	20703.89
650.763	20695.3
651.115	20872.47
651.467	20827.28
651.819	20907.05
652.171	20804.23
652.523	20761.06
652.875	20817.79
653.227	20773.95
653.578	20949.08
653.93	20842.64
654.282	20746.83
654.633	20714.51
654.985	20817.33
655.337	20802.87
655.688	20958.35
656.039	20891.68
656.391	20810.1
656.742	20764.91
657.094	20815.07
657.445	20884.45
657.796	20947.95
658.147	20871.8
658.498	20861.17
658.849	20932.59
659.2	20865.24
659.551	20794.96
659.902	20884.22
660.253	20797.22
660.604	20930.1
660.955	20810.1
661.306	20954.28
661.656	20816.43
662.007	20825.47
662.358	20871.57
662.708	20859.82
663.059	20919.93
663.409	20786.37
663.76	21042.64
664.11	20878.8
664.461	20903.66
664.811	21010.55
665.161	20840.61
665.511	20882.42
665.862	20931
666.212	20907.95
666.562	20917.22
666.912	20887.16
667.262	20838.35
667.612	20864.79
667.962	21038.57
668.312	20826.37
668.662	21005.35
669.011	20969.42
669.361	20846.03
669.711	20904.56
670.06	20870.21
670.41	20825.92
670.76	20839.48
671.109	20908.41
671.459	20907.05
671.808	20834.06
672.157	20869.08
672.507	20684.91
672.856	20715.87
673.205	20825.47
673.554	20792.02
673.904	20738.24
674.253	20816.43
674.602	20772.59
674.951	20443.11
675.3	20336.89
675.649	20708.41
675.998	20726.71
676.346	20658.24
676.695	20719.71
677.044	20518.36
677.393	20561.97
677.741	20639.49
678.09	20553.16
678.438	20566.04
678.787	20537.79
679.135	20526.49
679.484	20514.97
679.832	20472.94
680.181	20412.15
680.529	20474.97
680.877	20390
681.225	20384.35
681.573	20411.69
681.922	20240.63
682.27	20288.99
682.618	20161.98
682.966	20156.11
683.314	20227.07
683.661	20128.76
684.009	20014.19
684.357	19907.53
684.705	19932.84
685.053	19978.94
685.4	20020.29
685.748	19779.17
686.095	19848.77
686.443	19716.8
686.79	19700.98
687.138	19749.79
687.485	19760.41
687.832	19647.65
688.18	19576.91
688.527	19582.79
688.874	19519.06
689.221	19571.72
689.568	19479.74
689.915	19401.33
690.262	19263.7
690.609	19216.02
690.956	19264.83
691.303	19217.6
691.65	19102.58
691.997	19066.42
692.344	19047.66
692.69	18967.89
693.037	19001.56
693.383	18703.49
693.73	18789.36
694.077	18758.86
694.423	18636.6
694.769	18682.7
695.116	18588.01
695.462	18592.76
695.808	18447
696.155	18458.53
696.501	18411.75
696.847	18320
697.193	18220.34
697.539	18283.84
697.885	18053.34
698.231	18092.66
698.577	18077.97
698.923	18107.8
699.269	17853.8
699.614	17781.48
699.96	17785.1
700.306	17737.19
700.651	17621.26
700.997	17624.88
701.342	17507.59
701.688	17611.54
702.033	17423.52
702.379	17442.06
702.724	17345.79
703.069	17358.44
703.415	17216.3
703.76	17170.65
704.105	17178.79
704.45	17114.83
704.795	16961.16
705.14	16884.78
705.485	16939.92
705.83	16877.32
706.175	16893.6
706.52	16832.58
706.865	16711
707.209	16732.47
707.554	16695.41
707.899	16684.11
708.243	16505.36
708.588	16531.12
708.932	16466.71
709.277	16399.15
709.621	16372.48
709.966	16392.14
710.31	16320.73
710.654	16234.4
710.998	16202.09
711.342	16183.11
711.687	16077.8
712.031	16047.97
712.375	15999.61
712.719	15929.55
713.063	16034.63
713.407	16044.8
713.75	16012.26
714.094	15933.62
714.438	15824.92
714.782	15868.99
715.125	15835.09
715.469	15803
715.812	15633.06
716.156	15636.68
716.499	15679.84
716.843	15633.74
717.186	15552.84
717.53	15650.01
717.873	15631.26
718.216	15488.43
718.559	15547.19
718.902	15506.97
719.246	15463.12
719.589	15437.14
719.932	15308.78
720.275	15344.94
720.617	15429.23
720.96	15358.49
721.303	15312.39
721.646	15291.38
721.989	15291.38
722.331	15268.55
722.674	15315.11
723.016	15206.86
723.359	15185.39
723.701	15241.89
724.044	15141.33
724.386	15134.55
724.729	15136.81
725.071	15002.8
725.413	15108.78
725.755	15026.07
726.097	15075.79
726.439	14895.68
726.782	14943.59
727.124	15052.74
727.465	14945.62
727.807	14908.56
728.149	14909.92
728.491	14916.47
728.833	14933.65
729.175	14874.89
729.516	14839.41
729.858	14871.28
730.199	14903.59
730.541	14862.69
730.882	14749.24
731.224	14871.73
731.565	14774.1
731.906	14761.67
732.248	14797.38
732.589	14757.15
732.93	14689.13
733.271	14727.1
733.612	14813.65
733.953	14744.05
734.294	14752.63
734.635	14713.09
734.976	14761.22
735.317	14719.19
735.658	14702.24
735.999	14768.91
736.339	14698.85
736.68	14738.17
737.021	14765.29
737.361	14803.03
737.702	14664.5
738.042	14727.32
738.383	14784.5
738.723	14788.34
739.063	14641.23
739.404	14777.04
739.744	14791.05
740.084	14721
740.424	14784.72
740.764	14743.14
741.104	14713.09
741.444	14701.11
741.784	14783.37
742.124	14798.28
742.464	14755.12
742.804	14838.28
743.143	14809.81
743.483	14867.21
743.823	14868.11
744.162	14877.83
744.502	14888.9
744.841	14865.17
745.181	15011.38
745.52	15006.41
745.86	15023.14
746.199	15126.64
746.538	15149.91
746.877	15211.38
747.216	15256.35
747.556	15234.43
747.895	15292.96
748.234	15231.04
748.573	15291.83
748.911	15372.96
749.25	15513.52
749.589	15516
749.928	15599.17
750.267	15658.37
750.605	15684.14
750.944	15804.58
751.283	15735.43
751.621	15803
751.96	15879.61
752.298	15976.11
752.636	16094.97
752.975	16133.62
753.313	16150.11
753.651	16349.2
753.989	16368.86
754.327	16403.66
754.666	16604.56
755.004	16665.58
755.342	16776.08
755.679	16806.59
756.017	16869.42
756.355	17071.44
756.693	17119.35
757.031	17314.15
757.368	17365.9
757.706	17483.41
758.044	17518.44
758.381	17652.9
758.719	17848.15
759.056	17860.12
759.394	17966.79
759.731	17959.78
760.068	18051.76
