Data from hue_280_FLMS001491_00061.txt Node
Date: Tue Feb 07 15:55:35 GMT 2017
User: dcchb
Spectrometer: FLMS00149
Trigger mode: 0
Integration Time (sec): 2.000000E-2
Scans to average: 10
Electric dark correction enabled: true
Nonlinearity correction enabled: false
Boxcar width: 0
XAxis mode: Wavelengths
Number of Pixels in Spectrum: 2048
>>>>>Begin Spectral Data<<<<<
341.393	-17.74
341.776	-17.74
342.16	-17.74
342.543	-35.82
342.927	-68.36
343.31	-63.16
343.693	-68.13
344.077	-62.48
344.46	-31.07
344.843	-57.06
345.226	-40.11
345.61	-42.15
345.993	-24.07
346.376	-9.15
346.759	1.47
347.142	13.67
347.525	38.08
347.908	71.52
348.291	74.91
348.674	80.34
349.057	117.4
349.44	132.31
349.823	146.32
350.206	161.01
350.588	197.85
350.971	219.99
351.354	205.53
351.737	223.16
352.119	253.67
352.502	256.15
352.884	270.16
353.267	246.89
353.65	275.36
354.032	294.34
354.414	287.34
354.797	295.7
355.179	288.92
355.562	303.38
355.944	317.84
356.326	338.41
356.709	322.36
357.091	339.54
357.473	339.09
357.855	326.66
358.238	346.09
358.62	323.27
359.002	323.95
359.384	322.59
359.766	336.38
360.148	307.68
360.53	328.24
360.912	310.84
361.294	324.85
361.676	343.38
362.057	339.99
362.439	310.61
362.821	332.31
363.203	307.22
363.584	319.43
363.966	303.38
364.348	324.85
364.729	319.65
365.111	309.94
365.493	318.52
365.874	290.27
366.256	300.22
366.637	308.35
367.019	299.99
367.4	310.39
367.781	332.99
368.163	323.49
368.544	294.12
368.925	297.96
369.306	287.11
369.688	314.91
370.069	303.83
370.45	308.81
370.831	307.9
371.212	310.61
371.593	296.6
371.974	296.6
372.355	317.62
372.736	311.29
373.117	302.48
373.498	292.08
373.879	304.96
374.26	315.36
374.641	310.61
375.021	307.9
375.402	325.08
375.783	301.12
376.163	334.57
376.544	323.95
376.925	304.51
377.305	316.04
377.686	340.89
378.066	318.07
378.447	335.25
378.827	304.06
379.208	316.94
379.588	294.57
379.968	332.08
380.349	343.38
380.729	320.56
381.109	324.62
381.489	332.99
381.87	344.51
382.25	324.85
382.63	348.13
383.01	334.34
383.39	323.72
383.77	352.19
384.15	347.9
384.53	325.3
384.91	344.06
385.29	346.77
385.67	342.48
386.049	344.51
386.429	356.94
386.809	355.36
387.189	341.8
387.568	339.09
387.948	346.09
388.328	372.76
388.707	364.85
389.087	336.38
389.466	377.96
389.846	348.35
390.225	352.87
390.605	358.97
390.984	365.3
391.363	369.82
391.743	360.78
392.122	336.6
392.501	358.3
392.881	360.78
393.26	375.92
393.639	363.04
394.018	382.7
394.397	363.72
394.776	371.63
395.155	382.02
395.534	384.96
395.913	392.87
396.292	404.62
396.671	385.19
397.05	388.58
397.429	389.71
397.808	389.26
398.186	403.72
398.565	373.44
398.944	408.92
399.323	405.98
399.701	401.91
400.08	387.67
400.458	397.84
400.837	419.09
401.215	418.41
401.594	396.26
401.972	401.46
402.351	408.24
402.729	407.11
403.107	432.87
403.486	427.67
403.864	434.68
404.242	430.16
404.62	417.5
404.999	417.73
405.377	446.65
405.755	449.59
406.133	450.5
406.511	439.88
406.889	453.21
407.267	445.3
407.645	474.9
408.023	461.34
408.401	459.08
408.779	464.51
409.156	473.09
409.534	491.63
409.912	485.98
410.29	480.33
410.667	497.73
411.045	486.65
411.422	520.33
411.8	543.15
412.178	512.42
412.555	536.37
412.933	507.67
413.31	555.58
413.687	553.77
414.065	552.64
414.442	564.17
414.819	575.24
415.197	597.39
415.574	569.14
415.951	597.16
416.328	585.63
416.705	596.26
417.082	619.98
417.46	605.97
417.837	616.82
418.214	622.47
418.591	624.05
418.967	628.35
419.344	603.49
419.721	663.15
420.098	640.1
420.475	665.63
420.852	664.5
421.228	688
421.605	689.36
421.982	708.34
422.358	697.04
422.735	717.61
423.111	739.53
423.488	727.55
423.864	732.52
424.241	730.04
424.617	747.89
424.994	746.08
425.37	755.35
425.746	791.28
426.123	780.66
426.499	785.18
426.875	821.56
427.251	822.69
427.627	837.38
428.003	805.97
428.379	841.9
428.756	838.06
429.132	848.68
429.507	862.69
429.883	880.54
430.259	887.55
430.635	892.52
431.011	917.15
431.387	922.35
431.763	920.31
432.138	938.17
432.514	934.55
432.89	969.81
433.265	990.6
433.641	962.57
434.016	1014.1
434.392	1040.09
434.767	1033.53
435.143	1040.76
435.518	1051.16
435.894	1037.83
436.269	1102
436.644	1095.23
437.02	1114.66
437.395	1138.16
437.77	1136.13
438.145	1153.75
438.52	1168.67
438.895	1170.03
439.271	1175.45
439.646	1187.2
440.021	1196.92
440.395	1228.56
440.77	1204.83
441.145	1245.28
441.52	1264.03
441.895	1242.79
442.27	1262.68
442.645	1247.54
443.019	1277.59
443.394	1297.48
443.769	1302.23
444.143	1297.25
444.518	1303.58
444.892	1325.28
445.267	1313.75
445.641	1346.29
446.016	1327.08
446.39	1341.09
446.764	1366.4
447.139	1380.64
447.513	1373.41
447.887	1361.66
448.262	1358.27
448.636	1398.95
449.01	1381.09
449.384	1408.66
449.758	1403.92
450.132	1429.91
450.506	1420.19
450.88	1441.43
451.254	1437.59
451.628	1454.76
452.002	1452.96
452.376	1458.15
452.75	1471.26
453.123	1485.95
453.497	1506.51
453.871	1506.06
454.244	1531.6
454.618	1535.44
454.992	1570.24
455.365	1541.77
455.739	1589.22
456.112	1573.4
456.486	1603.69
456.859	1622.67
457.232	1626.51
457.606	1637.13
457.979	1636
458.352	1639.62
458.725	1687.3
459.099	1671.26
459.472	1718.71
459.845	1723.91
460.218	1743.34
460.591	1733.85
460.964	1771.37
461.337	1793.29
461.71	1795.09
462.083	1846.17
462.456	1811.36
462.829	1837.58
463.201	1869.67
463.574	1879.39
463.947	1892.72
464.32	1927.07
464.692	1932.04
465.065	1935.66
465.438	1978.82
465.81	2013.85
466.183	1975.65
466.555	2027.86
466.928	1993.05
467.3	2014.3
467.672	2064.01
468.045	2047.74
468.417	2064.69
468.789	2096.78
469.161	2114.18
469.534	2162.77
469.906	2182.2
470.278	2179.94
470.65	2194.18
471.022	2217.68
471.394	2277.34
471.766	2275.76
472.138	2266.95
472.51	2337
472.882	2357.11
473.253	2353.72
473.625	2392.82
473.997	2412.48
474.369	2455.19
474.74	2436.66
475.112	2519.59
475.484	2485.47
475.855	2577.45
476.227	2581.51
476.598	2597.11
476.97	2638.69
477.341	2696.77
477.713	2680.04
478.084	2731.57
478.455	2787.38
478.827	2803.2
479.198	2853.37
479.569	2830.32
479.94	2928.85
480.311	2948.06
480.682	3006.81
481.053	3056.98
481.424	3060.6
481.795	3098.79
482.166	3120.93
482.537	3158.45
482.908	3183.98
483.279	3224.21
483.65	3235.06
484.021	3285.45
484.391	3316.86
484.762	3328.61
485.133	3356.86
485.503	3395.05
485.874	3463.98
486.244	3457.65
486.615	3525.44
486.985	3503.3
487.356	3612.22
487.726	3621.03
488.097	3683.86
488.467	3657.42
488.837	3783.97
489.207	3773.57
489.578	3818.09
489.948	3851.31
490.318	3851.76
490.688	3891.54
491.058	3934.92
491.428	3926.79
491.798	3956.17
492.168	4027.58
492.538	4076.62
492.908	4083.85
493.278	4128.14
493.648	4128.14
494.017	4155.48
494.387	4163.85
494.757	4178.53
495.126	4271.87
495.496	4258.31
495.866	4289.72
496.235	4339.43
496.605	4329.26
496.974	4385.99
497.344	4375.14
497.713	4394.57
498.082	4424.63
498.452	4434.12
498.821	4439.32
499.19	4502.82
499.559	4497.85
499.928	4565.64
500.298	4536.26
500.667	4559.54
501.036	4604.29
501.405	4593.89
501.774	4555.25
502.143	4627.34
502.512	4671.85
502.88	4691.52
503.249	4649.48
503.618	4692.64
503.987	4699.42
504.356	4715.47
504.724	4714.79
505.093	4800.21
505.462	4805.64
505.83	4754.34
506.199	4852.87
506.567	4860.55
506.936	4850.38
507.304	4878.85
507.672	4888.35
508.041	4916.14
508.409	4944.39
508.777	4910.27
509.145	4948.23
509.514	4960.43
509.882	5013.31
510.25	4986.87
510.618	4991.62
510.986	5051.73
511.354	5076.82
511.722	5055.12
512.09	5083.37
512.458	5070.94
512.826	5120.66
513.193	5032.98
513.561	5119.53
513.929	5147.1
514.297	5158.85
514.664	5200.88
515.032	5205.85
515.4	5190.48
515.767	5169.69
516.135	5209.47
516.502	5213.31
516.869	5240.2
517.237	5282.01
517.604	5209.02
517.972	5286.53
518.339	5312.06
518.706	5323.14
519.073	5346.64
519.44	5352.97
519.808	5386.64
520.175	5357.03
520.542	5403.59
520.909	5432.51
521.276	5351.38
521.643	5442.68
522.009	5430.93
522.376	5416.47
522.743	5445.62
523.11	5551.83
523.477	5555.45
523.843	5553.64
524.21	5551.38
524.577	5638.83
524.943	5622.34
525.31	5634.77
525.676	5711.6
526.043	5719.74
526.409	5719.28
526.776	5697.59
527.142	5742.56
527.508	5754.54
527.874	5831.82
528.241	5847.42
528.607	5820.3
528.973	5893.29
529.339	5896.91
529.705	5866.63
530.071	5900.97
530.437	5943.23
530.803	5958.83
531.169	6044.25
531.535	5952.95
531.901	5968.54
532.267	5980.75
532.632	6010.35
532.998	6063
533.364	6137.35
533.73	6117.24
534.095	6097.13
534.461	6133.96
534.826	6120.86
535.192	6137.35
535.557	6159.73
535.923	6129.44
536.288	6166.5
536.653	6215.99
537.019	6175.09
537.384	6225.03
537.749	6186.17
538.114	6176
538.479	6225.49
538.845	6293.05
539.21	6244.24
539.575	6258.48
539.94	6251.7
540.305	6363.79
540.67	6292.6
541.034	6346.39
541.399	6334.41
541.764	6370.57
542.129	6341.19
542.494	6429.32
542.858	6374.41
543.223	6351.81
543.587	6444.92
543.952	6352.26
544.316	6455.99
544.681	6430.23
545.045	6453.95
545.41	6446.95
545.774	6495.54
546.138	6549.32
546.503	6504.12
546.867	6548.19
547.231	6555.65
547.595	6573.73
547.959	6597.45
548.324	6563.56
548.688	6565.82
549.052	6594.29
549.416	6585.48
549.779	6625.93
550.143	6596.55
550.507	6684.46
550.871	6624.57
551.235	6590.67
551.599	6661.63
551.962	6696.21
552.326	6675.64
552.689	6685.59
553.053	6619.37
553.417	6666.83
553.78	6748.86
554.143	6755.42
554.507	6746.6
554.87	6787.28
555.234	6760.84
555.597	6798.35
555.96	6773.04
556.323	6822.08
556.686	6866.83
557.05	6868.41
557.413	6866.37
557.776	6911.8
558.139	6902.3
558.502	6905.92
558.865	6944.34
559.228	6946.6
559.59	6992.02
559.953	6983.43
560.316	7022.53
560.679	7033.83
561.041	7025.24
561.404	7057.55
561.767	7147.27
562.129	7103.43
562.492	7175.97
562.854	7167.16
563.217	7169.42
563.579	7157.89
563.941	7246.93
564.304	7202.64
564.666	7298
565.028	7270.2
565.39	7331.22
565.753	7359.02
566.115	7360.15
566.477	7412.8
566.839	7387.26
567.201	7408.96
567.563	7394.27
567.925	7521.27
568.287	7478.11
568.648	7506.36
569.01	7605.34
569.372	7599.01
569.734	7553.59
570.095	7668.84
570.457	7615.51
570.819	7709.06
571.18	7703.19
571.542	7695.05
571.903	7718.33
572.265	7745.9
572.626	7818.44
572.987	7809.17
573.349	7779.34
573.71	7907.02
574.071	7900.24
574.432	7945.21
574.794	8025.21
575.155	7995.61
575.516	7973.01
575.877	8056.85
576.238	8057.98
576.599	8172.33
576.96	8139.33
577.32	8139.56
577.681	8177.53
578.042	8256.62
578.403	8349.72
578.763	8379.33
579.124	8358.99
579.485	8403.73
579.845	8460.91
580.206	8429.27
580.566	8520.34
580.927	8635.59
581.287	8633.33
581.648	8570.51
582.008	8728.02
582.368	8763.95
582.728	8802.59
583.089	8780.67
583.449	8848.69
583.809	8887.34
584.169	8947
584.529	8944.74
584.889	9095.47
585.249	9067.9
585.609	9139.31
585.969	9265.41
586.329	9239.42
586.688	9377.95
587.048	9355.35
587.408	9467.89
587.768	9546.08
588.127	9651.38
588.487	9613.65
588.846	9729.12
589.206	9718.73
589.565	9799.4
589.925	9904.94
590.284	9850.48
590.643	10044.59
591.003	10101.54
591.362	10154.42
591.721	10266.96
592.08	10255.44
592.44	10444.58
592.799	10428.31
593.158	10468.54
593.517	10561.19
593.876	10593.05
594.235	10608.65
594.593	10698.36
594.952	10751.69
595.311	10749.21
595.67	10845.25
596.029	10944.68
596.387	11035.76
596.746	11070.33
597.104	11180.61
597.463	11176.09
597.822	11253.38
598.18	11291.12
598.538	11351.23
598.897	11415.18
599.255	11430.32
599.613	11614.95
599.972	11575.4
600.33	11589.19
600.688	11606.81
601.046	11758
601.404	11846.36
601.762	11838.9
602.12	11967.03
602.478	12049.97
602.836	11937.2
603.194	11978.78
603.552	12023.07
603.91	11986.46
604.268	12136.97
604.625	12119.34
604.983	12216.51
605.341	12199.11
605.698	12323.63
606.056	12328.83
606.413	12416.06
606.771	12400.01
607.128	12450.18
607.485	12426.45
607.843	12449.96
608.2	12608.6
608.557	12585.32
608.914	12578.99
609.272	12651.76
609.629	12694.92
609.986	12817.4
610.343	12722.04
610.7	12872.09
611.057	12822.15
611.414	12867.12
611.771	12862.83
612.127	12945.99
612.484	12955.93
612.841	13049.04
613.198	12980.56
613.554	13066.66
613.911	13084.97
614.267	13133.55
614.624	13069.37
614.98	13168.58
615.337	13282.7
615.693	13214.68
616.05	13154.57
616.406	13280.22
616.762	13241.35
617.118	13291.06
617.475	13239.09
617.831	13319.08
618.187	13315.92
618.543	13365.41
618.899	13414.45
619.255	13457.16
619.611	13479.98
619.967	13461.23
620.323	13521.11
620.678	13410.16
621.034	13495.8
621.39	13417.84
621.746	13498.52
622.101	13707.78
622.457	13598.63
622.812	13576.03
623.168	13711.62
623.523	13663.03
623.879	13726.53
624.234	13675.23
624.589	13722.01
624.945	13642.01
625.3	13736.47
625.655	13641.11
626.01	13598.17
626.365	13729.02
626.72	13739.19
627.075	13712.29
627.43	13625.97
627.785	13653.54
628.14	13687.89
628.495	13725.4
628.85	13785.06
629.205	13614.67
629.559	13791.84
629.914	13764.04
630.269	13744.61
630.623	13728.57
630.978	13586.2
631.332	13712.75
631.687	13658.74
632.041	13572.19
632.396	13629.59
632.75	13491.06
633.104	13576.71
633.459	13538.51
633.813	13539.42
634.167	13593.88
634.521	13559.3
634.875	13552.75
635.229	13531.73
635.583	13611.96
635.937	13510.94
636.291	13523.15
636.645	13466.65
636.999	13512.75
637.352	13517.27
637.706	13465.52
638.06	13509.81
638.413	13435.01
638.767	13379.2
639.121	13460.55
639.474	13381.46
639.828	13485.18
640.181	13378.97
640.534	13347.78
640.888	13416.48
641.241	13332.64
641.594	13358.18
641.947	13432.75
642.301	13381.68
642.654	13433.43
643.007	13343.49
643.36	13249.93
643.713	13329.48
644.066	13336.94
644.419	13339.42
644.771	13243.83
645.124	13163.38
645.477	13094.46
645.83	12960.22
646.182	12960.45
646.535	12921.13
646.888	12950.96
647.24	12896.95
647.593	12962.94
647.945	12940.79
648.298	12920
648.65	12925.2
649.002	12925.42
649.355	12917.06
649.707	12856.95
650.059	12990.05
650.411	13108.92
650.763	13083.16
651.115	13256.71
651.467	13168.35
651.819	13215.13
652.171	13233.89
652.523	13161.8
652.875	13161.57
653.227	13207.22
653.578	13238.63
653.93	13234.79
654.282	13147.34
654.633	13172.2
654.985	13169.48
655.337	13177.62
655.688	13200.67
656.039	13279.54
656.391	13165.42
656.742	13162.48
657.094	13196.6
657.445	13224.85
657.796	13250.61
658.147	13249.03
658.498	13239.09
658.849	13220.78
659.2	13240.44
659.551	13208.58
659.902	13338.52
660.253	13237.28
660.604	13285.19
660.955	13278.18
661.306	13289.03
661.656	13279.54
662.007	13266.66
662.358	13267.79
662.708	13381.91
663.059	13233.89
663.409	13284.06
663.76	13282.02
664.11	13314.34
664.461	13334.9
664.811	13324.06
665.161	13279.31
665.511	13313.44
665.862	13298.97
666.212	13362.02
666.562	13322.93
666.912	13344.62
667.262	13347.11
667.612	13254
667.962	13328.8
668.312	13211.52
668.662	13449.25
669.011	13288.35
669.361	13322.25
669.711	13248.13
670.06	13298.97
670.41	13246.77
670.76	13282.93
671.109	13336.49
671.459	13262.82
671.808	13285.87
672.157	13340.33
672.507	13174.23
672.856	13234.12
673.205	13237.73
673.554	13227.34
673.904	13253.32
674.253	13232.08
674.602	13207.22
674.951	12992.09
675.3	12997.29
675.649	13243.38
675.998	13182.82
676.346	13123.16
676.695	13145.98
677.044	13106.89
677.393	13094.23
677.741	13132.88
678.09	13071.18
678.438	13054.46
678.787	13029.6
679.135	13095.81
679.484	12989.6
679.832	13046.55
680.181	12963.61
680.529	13041.13
680.877	12918.42
681.225	12946.67
681.573	12961.13
681.922	12843.17
682.27	12929.04
682.618	12852.88
682.966	12789.83
683.314	12878.19
683.661	12835.26
684.009	12687.24
684.357	12783.96
684.705	12718.2
685.053	12731.3
685.4	12697.86
685.748	12665.32
686.095	12637.29
686.443	12552.55
686.79	12551.65
687.138	12602.72
687.485	12535.83
687.832	12451.31
688.18	12469.16
688.527	12364.08
688.874	12341.48
689.221	12373.8
689.568	12391.2
689.915	12287.02
690.262	12279.56
690.609	12185.78
690.956	12247.93
691.303	12097.2
691.65	12070.53
691.997	12103.3
692.344	11977.43
692.69	11998.44
693.037	11962.28
693.383	11850.87
693.73	11976.07
694.077	11800.03
694.423	11849.29
694.769	11749.41
695.116	11756.41
695.462	11708.05
695.808	11622.41
696.155	11648.39
696.501	11640.26
696.847	11542.63
697.193	11427.84
697.539	11555.52
697.885	11449.3
698.231	11361.62
698.577	11337.67
698.923	11354.39
699.269	11246.14
699.614	11224.9
699.96	11167.5
700.306	11154.62
700.651	11085.7
700.997	11007.96
701.342	11048.86
701.688	11003.44
702.033	10987.85
702.379	10889.32
702.724	10926.38
703.069	10914.18
703.415	10795.08
703.76	10787.85
704.105	10760.28
704.45	10723.9
704.795	10598.03
705.14	10618.59
705.485	10553.96
705.83	10595.54
706.175	10533.85
706.52	10491.36
706.865	10453.62
707.209	10449.1
707.554	10415.66
707.899	10412.49
708.243	10330.91
708.588	10348.54
708.932	10272.61
709.277	10277.58
709.621	10300.86
709.966	10218.38
710.31	10220.86
710.654	10196.23
710.998	10125.04
711.342	10115.55
711.687	10099.73
712.031	10028.78
712.375	10014.99
712.719	10023.35
713.063	10038.04
713.407	10025.61
713.75	9924.37
714.094	9953.3
714.438	9868.55
714.782	9964.6
715.125	9830.81
715.469	9862.68
715.812	9803.7
716.156	9703.36
716.499	9768.9
716.843	9843.7
717.186	9733.64
717.53	9798.05
717.873	9862.9
718.216	9764.38
718.559	9774.77
718.902	9680.54
719.246	9664.49
719.589	9654.77
719.932	9636.47
720.275	9629.92
720.617	9537.94
720.96	9676.24
721.303	9644.83
721.646	9612.06
721.989	9556.92
722.331	9628.56
722.674	9550.82
723.016	9567.55
723.359	9548.11
723.701	9521.9
724.044	9474.67
724.386	9503.14
724.729	9515.12
725.071	9491.39
725.413	9447.55
725.755	9528.22
726.097	9422.24
726.439	9461.11
726.782	9426.98
727.124	9496.81
727.465	9411.39
727.807	9424.5
728.149	9392.41
728.491	9365.97
728.833	9482.12
729.175	9393.54
729.516	9410.26
729.858	9398.06
730.199	9361.67
730.541	9351.28
730.882	9342.47
731.224	9414.78
731.565	9395.57
731.906	9344.5
732.248	9427.44
732.589	9297.72
732.93	9293.2
733.271	9369.58
733.612	9381.79
733.953	9358.29
734.294	9319.42
734.635	9303.15
734.976	9331.17
735.317	9285.29
735.658	9388.11
735.999	9321
736.339	9358.06
736.68	9369.81
737.021	9363.71
737.361	9325.74
737.702	9329.59
738.042	9391.96
738.383	9323.94
738.723	9409.13
739.063	9352.86
739.404	9421.33
739.744	9477.6
740.084	9417.27
740.424	9475.12
740.764	9474.44
741.104	9466.76
741.444	9476.25
741.784	9524.16
742.124	9547.21
742.464	9492.97
742.804	9496.81
743.143	9538.62
743.483	9606.64
743.823	9549.92
744.162	9578.17
744.502	9637.83
744.841	9576.36
745.181	9742.91
745.52	9678.95
745.86	9759.63
746.199	9838.27
746.538	9795.56
746.877	9906.75
747.216	9934.77
747.556	9954.2
747.895	10000.98
748.234	10011.83
748.573	10084.82
748.911	10136.34
749.25	10223.8
749.589	10276.68
749.928	10371.59
750.267	10418.82
750.605	10444.81
750.944	10523.23
751.283	10525.94
751.621	10682.32
751.96	10724.12
752.298	10914.63
752.636	10970.67
752.975	10941.07
753.313	11081.86
753.651	11267.39
753.989	11271
754.327	11372.02
754.666	11513.93
755.004	11628.06
755.342	11791.89
755.679	11927.93
756.017	11982.4
756.355	12198.21
756.693	12202.5
757.031	12345.55
757.368	12439.11
757.706	12610.4
758.044	12683.4
758.381	12857.63
758.719	13017.85
759.056	13128.81
759.394	13215.58
759.731	13406.54
760.068	13435.01
760.405	13595.46
760.743	13700.77
761.08	13921.55
761.417	13979.18
761.754	14056.92
