Data from hue_28_FLMS001491_00093.txt Node
Date: Tue Feb 07 17:18:03 GMT 2017
User: dcchb
Spectrometer: FLMS00149
Trigger mode: 0
Integration Time (sec): 2.000000E-2
Scans to average: 10
Electric dark correction enabled: true
Nonlinearity correction enabled: false
Boxcar width: 0
XAxis mode: Wavelengths
Number of Pixels in Spectrum: 2048
>>>>>Begin Spectral Data<<<<<
341.393	-13.08
341.776	-13.08
342.16	-13.08
342.543	-58.28
342.927	-82.68
343.31	-52.63
343.693	-79.07
344.077	-58.5
344.46	-40.87
344.843	-56.24
345.226	-37.71
345.61	-31.61
345.993	-23.7
346.376	-13.08
346.759	24.66
347.142	7.03
347.525	19.69
347.908	64.43
348.291	68.73
348.674	107.82
349.057	101.04
349.44	110.99
349.823	145.11
350.206	191.21
350.588	197.99
350.971	193.47
351.354	208.84
351.737	240.93
352.119	230.08
352.502	241.6
352.884	268.04
353.267	280.02
353.65	276.18
354.032	294.94
354.414	311.88
354.797	304.88
355.179	333.8
355.562	324.99
355.944	345.1
356.326	332.22
356.709	339.68
357.091	340.81
357.473	326.8
357.855	343.3
358.238	343.3
358.62	341.04
359.002	332.45
359.384	347.59
359.766	313.24
360.148	338.1
360.53	344.43
360.912	338.78
361.294	326.35
361.676	328.38
362.057	343.75
362.439	337.87
362.821	330.64
363.203	319.34
363.584	325.9
363.966	328.61
364.348	328.61
364.729	328.83
365.111	319.79
365.493	321.15
365.874	339.45
366.256	299.23
366.637	343.75
367.019	334.26
367.4	357.53
367.781	338.32
368.163	304.43
368.544	283.64
368.925	306.01
369.306	313.92
369.688	295.61
370.069	325.22
370.45	318.66
370.831	312.11
371.212	315.05
371.593	307.82
371.974	316.63
372.355	307.59
372.736	326.57
373.117	325.67
373.498	321.15
373.879	304.88
374.26	305.33
374.641	313.01
375.021	323.18
375.402	295.84
375.783	301.94
376.163	332.67
376.544	332.67
376.925	334.26
377.305	319.34
377.686	320.47
378.066	334.26
378.447	319.79
378.827	321.6
379.208	341.49
379.588	318.89
379.968	323.64
380.349	339.91
380.729	336.97
381.109	331.54
381.489	327.7
381.87	353.47
382.25	319.57
382.63	338.55
383.01	322.28
383.39	333.8
383.77	342.17
384.15	354.6
384.53	335.84
384.91	346.91
385.29	328.83
385.67	351.43
386.049	354.82
386.429	342.62
386.809	358.89
387.189	349.17
387.568	348.04
387.948	362.05
388.328	367.25
388.707	351.88
389.087	345.78
389.466	339.23
389.846	346.23
390.225	367.7
390.605	347.82
390.984	365.67
391.363	375.16
391.743	352.79
392.122	363.41
392.501	372.22
392.881	374.48
393.26	379.45
393.639	386.46
394.018	362.28
394.397	369.96
394.776	350.53
395.155	389.85
395.534	372.22
395.913	380.13
396.292	369.74
396.671	359.79
397.05	388.04
397.429	421.26
397.808	364.76
398.186	384.88
398.565	377.19
398.944	406.8
399.323	361.6
399.701	385.33
400.08	394.14
400.458	400.47
400.837	392.56
401.215	399.57
401.594	397.08
401.972	398.89
402.351	409.51
402.729	402.28
403.107	420.58
403.486	424.42
403.864	397.76
404.242	411.09
404.62	407.93
404.999	411.09
405.377	416.51
405.755	404.54
406.133	423.07
406.511	426.23
406.889	417.87
407.267	418.55
407.645	405.67
408.023	423.97
408.401	415.38
408.779	441.15
409.156	443.41
409.534	437.98
409.912	447.7
410.29	464.2
410.667	461.94
411.045	458.1
411.422	459.23
411.8	453.35
412.178	440.69
412.555	475.95
412.933	492.9
413.31	462.61
413.687	466.91
414.065	489.28
414.442	485.67
414.819	505.1
415.197	456.29
415.574	507.13
415.951	484.31
416.328	491.54
416.705	489.05
417.082	495.61
417.46	498.55
417.837	498.09
418.214	509.17
418.591	494.03
418.967	517.98
419.344	498.55
419.721	532.9
420.098	528.38
420.475	500.58
420.852	526.57
421.228	517.75
421.605	515.04
421.982	537.87
422.358	543.29
422.735	536.06
423.111	520.92
423.488	550.52
423.864	545.32
424.241	555.04
424.617	551.43
424.994	554.14
425.37	559.11
425.746	562.95
426.123	590.3
426.499	576.74
426.875	567.7
427.251	580.8
427.627	594.59
428.003	577.64
428.379	582.61
428.756	590.52
429.132	600.69
429.507	582.84
429.883	609.73
430.259	607.47
430.635	637.53
431.011	624.42
431.387	638.88
431.763	636.85
432.138	638.43
432.514	660.58
432.89	650.86
433.265	645.21
433.641	661.25
434.016	694.93
434.392	689.73
434.767	674.81
435.143	686.34
435.518	663.97
435.894	679.56
436.269	685.21
436.644	727.24
437.02	696.06
437.395	722.72
437.77	722.95
438.145	738.77
438.52	726.34
438.895	716.85
439.271	737.86
439.646	734.25
440.021	733.79
440.395	760.69
440.77	750.74
441.145	749.84
441.52	745.77
441.895	769.5
442.27	761.82
442.645	766.34
443.019	780.12
443.394	788.26
443.769	790.97
444.143	763.17
444.518	784.87
444.892	786
445.267	828.26
445.641	814.92
446.016	814.24
446.39	821.93
446.764	837.07
447.139	792.1
447.513	831.64
447.887	841.81
448.262	823.28
448.636	845.88
449.01	857.18
449.384	866.67
449.758	858.76
450.132	857.18
450.506	877.52
450.88	877.97
451.254	890.63
451.628	879.33
452.002	901.02
452.376	896.5
452.75	896.5
453.123	929.27
453.497	929.72
453.871	912.32
454.244	940.79
454.618	949.61
454.992	968.14
455.365	960
455.739	973.34
456.112	997.29
456.486	1006.56
456.859	989.15
457.232	1013.79
457.606	1039.55
457.979	1032.54
458.352	1045.88
458.725	1067.57
459.099	1084.97
459.472	1090.62
459.845	1100.56
460.218	1093.78
460.591	1133.11
460.964	1111.86
461.337	1141.02
461.71	1129.26
462.083	1139.43
462.456	1155.48
462.829	1167.91
463.201	1183.95
463.574	1167.23
463.947	1192.54
464.32	1224.18
464.692	1247
465.065	1260.11
465.438	1284.74
465.81	1284.97
466.183	1279.09
466.555	1328.81
466.928	1323.38
467.3	1339.65
467.672	1355.47
468.045	1375.36
468.417	1382.36
468.789	1416.04
469.161	1379.43
469.534	1462.36
469.906	1452.87
470.278	1471.18
470.65	1483.83
471.022	1514.34
471.394	1532.42
471.766	1534.45
472.138	1597.5
472.51	1598.63
472.882	1641.34
473.253	1631.4
473.625	1717.5
473.997	1712.07
474.369	1713.88
474.74	1745.75
475.112	1783.03
475.484	1814.67
475.855	1833.2
476.227	1880.66
476.598	1946.87
476.97	1970.6
477.341	1989.13
477.713	2043.82
478.084	2071.16
478.455	2132.4
478.827	2125.4
479.198	2214.66
479.569	2243.36
479.94	2256.69
480.311	2332.62
480.682	2369.01
481.053	2392.06
481.424	2480.87
481.795	2512.5
482.166	2539.85
482.537	2557.93
482.908	2639.73
483.279	2664.82
483.65	2724.48
484.021	2831.37
484.391	2877.69
484.762	2878.37
485.133	2933.74
485.503	2991.59
485.874	3103.9
486.244	3117.91
486.615	3214.41
486.985	3245.82
487.356	3361.52
487.726	3309.09
488.097	3422.54
488.467	3438.13
488.837	3523.1
489.207	3602.87
489.578	3609.42
489.948	3699.59
490.318	3741.4
490.688	3749.31
491.058	3839.7
491.428	3907.5
491.798	3976.19
492.168	4057.32
492.538	4069.07
492.908	4129.86
493.278	4198.56
493.648	4196.98
494.017	4309.97
494.387	4391.1
494.757	4386.35
495.126	4451.89
495.496	4474.49
495.866	4581.83
496.235	4590.19
496.605	4628.38
496.974	4704.31
497.344	4693.24
497.713	4694.14
498.082	4850.75
498.452	4864.31
498.821	4949.28
499.19	4973
499.559	4989.05
499.928	5021.82
500.298	5025.66
500.667	5078.54
501.036	5088.26
501.405	5122.38
501.774	5142.49
502.143	5187.91
502.512	5284.41
502.88	5307.46
503.249	5281.7
503.618	5398.08
503.987	5427.46
504.356	5421.35
504.724	5444.63
505.093	5496.83
505.462	5527.11
505.83	5587.9
506.199	5619.77
506.567	5704.51
506.936	5674.23
507.304	5728.92
507.672	5750.39
508.041	5764.62
508.409	5814.34
508.777	5890.95
509.145	5926.65
509.514	5911.29
509.882	5956.26
510.25	5982.02
510.618	6026.76
510.986	6031.51
511.354	6043.94
511.722	6091.39
512.09	6161
512.458	6183.37
512.826	6220.43
513.193	6264.95
513.561	6252.07
513.929	6282.8
514.297	6335.68
514.664	6384.27
515.032	6415.23
515.4	6424.94
515.767	6443.47
516.135	6461.33
516.502	6455
516.869	6519.18
517.237	6582.23
517.604	6508.11
517.972	6612.51
518.339	6650.93
518.706	6691.15
519.073	6620.65
519.44	6685.95
519.808	6784.03
520.175	6765.27
520.542	6793.3
520.909	6880.53
521.276	6878.94
521.643	6899.28
522.009	6945.83
522.376	6945.61
522.743	7062.22
523.11	7106.28
523.477	7111.93
523.843	7095.43
524.21	7207.07
524.577	7265.6
524.943	7309.89
525.31	7293.62
525.676	7379.95
526.043	7374.07
526.409	7439.38
526.776	7423.56
527.142	7526.61
527.508	7548.08
527.874	7642.54
528.241	7701.52
528.607	7628.08
528.973	7761.86
529.339	7759.6
529.705	7767.73
530.071	7890.22
530.437	7878.01
530.803	7929.99
531.169	7957.33
531.535	8011.57
531.901	8033.94
532.267	8067.61
532.632	8079.82
532.998	8131.57
533.364	8169.98
533.73	8201.39
534.095	8275.52
534.461	8222.86
534.826	8325.91
535.192	8290.66
535.557	8371.11
535.923	8364.33
536.288	8467.6
536.653	8440.48
537.019	8412.01
537.384	8541.05
537.749	8563.87
538.114	8575.62
538.479	8586.92
538.845	8664.21
539.21	8657.2
539.575	8665.79
539.94	8690.87
540.305	8812
540.67	8798.89
541.034	8821.04
541.399	8870.53
541.764	8942.17
542.129	8934.71
542.494	8977.87
542.858	9011.09
543.223	9001.6
543.587	9107.59
543.952	9163.18
544.316	9142.61
544.681	9200.46
545.045	9239.79
545.41	9287.69
545.774	9301.03
546.138	9381.93
546.503	9363.62
546.867	9379.67
547.231	9483.85
547.595	9440.46
547.959	9509.38
548.324	9487.01
548.688	9600
549.052	9708.7
549.416	9670.96
549.779	9683.84
550.143	9669.6
550.507	9666.44
550.871	9767.23
551.235	9757.51
551.599	9884.51
551.962	9856.72
552.326	9878.19
552.689	9926.77
553.053	9947.11
553.417	9966.32
553.78	10054.68
554.143	10006.77
554.507	10040.89
554.87	10054
555.234	10256.71
555.597	10106.88
555.96	10137.61
556.323	10273.2
556.686	10201.34
557.05	10300.32
557.413	10373.99
557.776	10358.4
558.139	10429.81
558.502	10449.92
558.865	10439.75
559.228	10496.25
559.59	10540.54
559.953	10515.46
560.316	10685.85
560.679	10681.1
561.041	10721.1
561.404	10717.94
561.767	10818.27
562.129	10736.92
562.492	10897.82
562.854	10888.56
563.217	10918.16
563.579	10882
563.941	11015.33
564.304	11032.73
564.666	11041.09
565.028	11098.95
565.39	11162.67
565.753	11207.19
566.115	11240.64
566.477	11259.85
566.839	11221.43
567.201	11314.53
567.563	11260.52
567.925	11455.77
568.287	11373.51
568.648	11548.65
569.01	11500.74
569.372	11633.17
569.734	11607.18
570.095	11719.04
570.457	11748.42
570.819	11759.49
571.18	11789.55
571.542	11916.55
571.903	11902.31
572.265	12020.73
572.626	11995.19
572.987	11991.13
573.349	12096.66
573.71	12185.24
574.071	12253.04
574.432	12343.21
574.794	12448.74
575.155	12492.58
575.516	12468.17
575.877	12592.47
576.238	12664.33
576.599	12787.71
576.96	12868.16
577.32	12915.62
577.681	13083.3
578.042	13129.63
578.403	13191.55
578.763	13398.09
579.124	13479.9
579.485	13616.39
579.845	13711.76
580.206	13808.25
580.566	13991.07
580.927	14079.88
581.287	14227.45
581.648	14377.73
582.008	14619.08
582.368	14635.35
582.728	14777.94
583.089	14946.98
583.449	15151.95
583.809	15310.81
584.169	15601.43
584.529	15636.23
584.889	16015.43
585.249	16022.21
585.609	16184.01
585.969	16603.21
586.329	16648.4
586.688	17052.01
587.048	17191.89
587.408	17371.32
587.768	17662.39
588.127	17957.3
588.487	18068.25
588.846	18488.81
589.206	18764.96
589.565	18907.78
589.925	19212.18
590.284	19401.33
590.643	19722.22
591.003	20022.78
591.362	20424.8
591.721	20554.97
592.08	20771.46
592.44	21148.62
592.799	21372.12
593.158	21726.91
593.517	22044.65
593.876	22264.08
594.235	22506.78
594.593	22830.84
594.952	23137.72
595.311	23442.35
595.67	23684.15
596.029	24118.94
596.387	24399.84
596.746	24774.74
597.104	24929.09
597.463	25266.48
597.822	25618.11
598.18	25821.27
598.538	25998.89
598.897	26527.92
599.255	26509.39
599.613	27221.69
599.972	27331.06
600.33	27628.45
600.688	27877.71
601.046	28189.12
601.404	28609.67
601.762	28935.99
602.12	29156.1
602.478	29403.77
602.836	29582.08
603.194	29715.86
603.552	30133.02
603.91	30256.41
604.268	30798.54
604.625	30829.95
604.983	31102.71
605.341	31253.67
605.698	31652.98
606.056	31940.43
606.413	32077.6
606.771	32507.65
607.128	32722.11
607.485	32765.95
607.843	32969.1
608.2	33330.68
608.557	33591.69
608.914	33648.64
609.272	34100.37
609.629	34300.37
609.986	34629.4
610.343	34616.97
610.7	34972.89
611.057	35205.2
611.414	35284.3
611.771	35452.66
612.127	35779.2
612.484	35816.94
612.841	36203.14
613.198	36215.57
613.554	36348.9
613.911	36722
614.267	36832.51
614.624	37113.18
614.98	37178.03
615.337	37510.45
615.693	37627.97
616.05	37552.26
616.406	38065.02
616.762	38028.63
617.118	38057.78
617.475	38173.04
617.831	38485.34
618.187	38603.76
618.543	38718.56
618.899	39109.06
619.255	39130.98
619.611	39114.25
619.967	39220.69
620.323	39607.35
620.678	39530.97
621.034	39449.61
621.39	39605.77
621.746	39646.9
622.101	40249.82
622.457	39942.93
622.812	40026.09
623.168	40239.42
623.523	40217.73
623.879	40469.47
624.234	40407.55
624.589	40564.16
624.945	40643.25
625.3	40841.44
625.655	40795.57
626.01	40852.74
626.365	41042.56
626.72	40950.82
627.075	41029.23
627.43	41200.07
627.785	41098.61
628.14	41208.44
628.495	41192.62
628.85	41276.46
629.205	41178.38
629.559	41434.19
629.914	41271.49
630.269	41413.18
630.623	41299.28
630.978	41320.98
631.332	41574.08
631.687	41792.83
632.041	41553.74
632.396	41617.24
632.75	41586.96
633.104	41715.09
633.459	41638.71
633.813	41557.13
634.167	41641.42
634.521	41652.04
634.875	41742.43
635.229	41714.41
635.583	41400.07
635.937	41705.37
636.291	41623.11
636.645	41710.8
636.999	41674.64
637.352	41721.64
637.706	41646.39
638.06	41765.48
638.413	41619.05
638.767	41723.9
639.121	41755.31
639.474	41543.34
639.828	41527.07
640.181	41701.3
640.534	41640.29
640.888	41528.88
641.241	41406.62
641.594	41452.05
641.947	41549.67
642.301	41516
642.654	41630.12
643.007	41357.81
643.36	41390.35
643.713	41438.94
644.066	41621.08
644.419	41310.81
644.771	41244.14
645.124	40831.05
645.477	40770.26
645.83	40473.54
646.182	40349.7
646.535	40333.66
646.888	40449.81
647.24	40097.28
647.593	40401
647.945	40282.13
648.298	40283.94
648.65	40166.66
649.002	40074.45
649.355	40339.98
649.707	40083.04
650.059	40323.04
650.411	40719.86
650.763	40937.03
651.115	41274.88
651.467	41082.79
651.819	41114.2
652.171	41107.65
652.523	40876.24
652.875	41007.76
653.227	40871.27
653.578	41146.97
653.93	41137.93
654.282	40761.89
654.633	40706.53
654.985	40783.81
655.337	40808.45
655.688	40749.69
656.039	40951.27
656.391	40719.18
656.742	40748.56
657.094	40899.29
657.445	40853.19
657.796	40809.35
658.147	40817.26
658.498	40694.78
658.849	40874.43
659.2	40699.52
659.551	40683.7
659.902	40847.77
660.253	40656.59
660.604	40798.73
660.955	40525.06
661.306	40650.71
661.656	40682.35
662.007	40754.66
662.358	40670.82
662.708	40702.91
663.059	40711.27
663.409	40448.91
663.76	40716.47
664.11	40747.66
664.461	40677.6
664.811	40752.4
665.161	40651.84
665.511	40571.84
665.862	40686.19
666.212	40749.47
666.562	40687.32
666.912	40665.4
667.262	40605.29
667.612	40536.82
667.962	40518.28
668.312	40533.43
668.662	40671.5
669.011	40565.29
669.361	40587.66
669.711	40515.12
670.06	40617.49
670.41	40518.96
670.76	40430.15
671.109	40660.65
671.459	40494.78
671.808	40331.4
672.157	40612.75
672.507	40346.76
672.856	40300.89
673.205	40325.75
673.554	40414.56
673.904	40377.27
674.253	40544.27
674.602	40386.76
674.951	39693.9
675.3	39772.99
675.649	40401.9
675.998	40254.34
676.346	40274.22
676.695	40469.02
677.044	40033.33
677.393	40174.79
677.741	40272.64
678.09	40158.52
678.438	40201.91
678.787	40147.9
679.135	40202.59
679.484	39946.77
679.832	39923.5
680.181	39922.82
680.529	40071.97
680.877	39869.26
681.225	39859.32
681.573	40065.87
681.922	39737.51
682.27	39529.16
682.618	39664.97
682.966	39494.36
683.314	39606.44
683.661	39433.12
684.009	39328.71
684.357	39232.67
684.705	39219.34
685.053	39269.5
685.4	39172.56
685.748	38863.19
686.095	38976.63
686.443	38911.55
686.79	38776.64
687.138	38827.26
687.485	38886.92
687.832	38706.36
688.18	38766.01
688.527	38597.43
688.874	38602.63
689.221	38516.76
689.568	38389.3
689.915	38380.71
690.262	38441.96
690.609	38101.17
690.956	38025.24
691.303	38008.52
691.65	37996.09
691.997	37856.21
692.344	37632.49
692.69	37729.66
693.037	37683.11
693.383	37481.98
693.73	37510.91
694.077	37323.57
694.423	37357.92
694.769	37126.51
695.116	37079.96
695.462	37166.73
695.808	36984.59
696.155	37069.11
696.501	36759.97
696.847	36692.17
697.193	36581.44
697.539	36756.12
697.885	36434.55
698.231	36339.19
698.577	36400.65
698.923	36198.85
699.269	36100.1
699.614	35923.15
699.96	35868.92
700.306	35901.68
700.651	35783.49
700.997	35569.26
701.342	35566.55
701.688	35444.75
702.033	35385.99
702.379	35265.77
702.724	35172.44
703.069	35349.61
703.415	35013.8
703.76	35026
704.105	35033.68
704.45	34981.26
704.795	34623.3
705.14	34602.28
705.485	34558.67
705.83	34360.25
706.175	34497.43
706.52	34409.74
706.865	34321.84
707.209	34199.13
707.554	34202.07
707.899	34162.75
708.243	33911.45
708.588	34064.67
708.932	33792.81
709.277	33795.98
709.621	33673.95
709.966	33334.97
710.31	33776.54
710.654	33250.45
710.998	33251.36
711.342	33450.9
711.687	33286.84
712.031	33149.44
712.375	33056.79
712.719	33064.7
713.063	33153.51
713.407	33113.28
713.75	32927.98
714.094	32908.77
714.438	32786.51
714.782	32760.75
715.125	32492.06
715.469	32736.79
715.812	32510.13
716.156	32386.52
716.499	32282.8
716.843	32356.92
717.186	32291.38
717.53	32362.57
717.873	32179.97
718.216	32312.85
718.559	31976.14
718.902	31934.78
719.246	31811.4
719.589	31811.4
719.932	31681
720.275	31707.9
720.617	31735.69
720.96	31545.87
721.303	31559.65
721.646	31474.68
721.989	31354.23
722.331	31470.84
722.674	31487.56
723.016	31462.25
723.359	31380.22
723.701	31344.97
724.044	31166.89
724.386	31168.47
724.729	31163.28
725.071	31097.74
725.413	31054.8
725.755	31170.96
726.097	31038.31
726.439	30686.9
726.782	30870.85
727.124	31020
727.465	30753.34
727.807	30715.6
728.149	30588.38
728.491	30605.33
728.833	30639.22
729.175	30575.72
729.516	30530.3
729.858	30467.7
730.199	30337.08
730.541	30308.38
730.882	30243.98
731.224	30395.39
731.565	30029.75
731.906	30151.33
732.248	30154.72
732.589	30018.67
732.93	29917.66
733.271	29959.92
733.612	29908.62
733.953	30023.19
734.294	29865.91
734.635	29713.82
734.976	29956.75
735.317	29673.15
735.658	29653.49
735.999	29711.56
736.339	29602.41
736.68	29582.08
737.021	29536.43
737.361	29355.87
737.702	29616.42
738.042	29386.83
738.383	29405.36
738.723	29406.71
739.063	29402.87
739.404	29422.53
739.744	29335.98
740.084	29140.73
740.424	29172.14
740.764	28967.4
741.104	29141.63
741.444	28979.38
741.784	29028.42
742.124	29007.18
742.464	28925.82
742.804	28969.89
743.143	28784.58
743.483	28874.52
743.823	28646.73
744.162	28689.44
744.502	28685.15
744.841	28564.93
745.181	28641.54
745.52	28492.39
745.86	28719.05
746.199	28404.25
746.538	28550.92
746.877	28561.54
747.216	28499.84
747.556	28453.07
747.895	28511.37
748.234	28307.76
748.573	28219.4
748.911	28248.1
749.25	28179.17
749.589	28031.61
749.928	28062.79
750.267	28122.45
750.605	28045.62
750.944	27905.51
751.283	27872.74
751.621	28034.77
751.96	27799.52
752.298	27771.05
752.636	27860.99
752.975	27664.16
753.313	27602.92
753.651	27693.31
753.989	27435.92
754.327	27553.43
754.666	27390.27
755.004	27363.15
755.342	27423.04
755.679	27313.21
756.017	27204.28
756.355	27233.44
756.693	27135.36
757.031	27122.25
757.368	26985.53
757.706	26998.41
758.044	26877.51
758.381	26953.44
758.719	26775.14
759.056	26780.79
759.394	26808.59
