Data from hue_200_FLMS001491_00031.txt Node
Date: Tue Feb 07 16:43:10 GMT 2017
User: dcchb
Spectrometer: FLMS00149
Trigger mode: 0
Integration Time (sec): 2.000000E-2
Scans to average: 10
Electric dark correction enabled: true
Nonlinearity correction enabled: false
Boxcar width: 0
XAxis mode: Wavelengths
Number of Pixels in Spectrum: 2048
>>>>>Begin Spectral Data<<<<<
341.393	0.85
341.776	0.85
342.16	0.85
342.543	-59.04
342.927	-78.25
343.31	-70.34
343.693	-75.99
344.077	-73.95
344.46	-47.74
344.843	-57.91
345.226	-45.93
345.61	-18.81
345.993	-17.68
346.376	-5.71
346.759	22.09
347.142	28.19
347.525	30
347.908	64.35
348.291	63.22
348.674	91.24
349.057	114.97
349.44	136.21
349.823	142.54
350.206	158.36
350.588	196.55
350.971	204.91
351.354	215.76
351.737	260.5
352.119	262.76
352.502	268.19
352.884	273.83
353.267	283.33
353.65	281.97
354.032	306.83
354.414	312.25
354.797	315.42
355.179	332.82
355.562	319.71
355.944	334.85
356.326	320.61
356.709	337.34
357.091	317.9
357.473	332.14
357.855	331.01
358.238	336.43
358.62	321.29
359.002	354.06
359.384	356.09
359.766	319.03
360.148	314.29
360.53	334.85
360.912	343.44
361.294	328.3
361.676	343.66
362.057	311.57
362.439	322.19
362.821	332.59
363.203	353.83
363.584	321.52
363.966	337.79
364.348	333.49
364.729	316.77
365.111	312.7
365.493	327.39
365.874	326.49
366.256	320.84
366.637	313.61
367.019	325.36
367.4	299.6
367.781	320.61
368.163	304.12
368.544	310.44
368.925	306.83
369.306	332.14
369.688	316.32
370.069	314.74
370.45	319.26
370.831	327.84
371.212	306.6
371.593	326.49
371.974	322.42
372.355	321.97
372.736	314.51
373.117	319.71
373.498	313.83
373.879	311.57
374.26	320.61
374.641	315.42
375.021	335.08
375.402	307.51
375.783	325.36
376.163	323.32
376.544	330.78
376.925	333.04
377.305	333.72
377.686	341.18
378.066	316.77
378.447	337.79
378.827	343.66
379.208	327.84
379.588	367.39
379.968	343.44
380.349	317.68
380.729	344.34
381.109	333.72
381.489	336.21
381.87	356.09
382.25	358.58
382.63	351.57
383.01	347.28
383.39	353.83
383.77	346.6
384.15	347.5
384.53	373.72
384.91	348.18
385.29	353.83
385.67	344.34
386.049	349.31
386.429	358.35
386.809	351.12
387.189	351.35
387.568	371.69
387.948	355.41
388.328	368.52
388.707	373.04
389.087	349.76
389.466	368.07
389.846	375.07
390.225	367.84
390.605	374.62
390.984	389.09
391.363	357.67
391.743	393.38
392.122	399.93
392.501	368.97
392.881	387.73
393.26	395.19
393.639	396.32
394.018	389.54
394.397	428.63
394.776	381.85
395.155	404.45
395.534	419.59
395.913	415.07
396.292	424.11
396.671	428.86
397.05	444.23
397.429	412.36
397.808	410.33
398.186	415.98
398.565	417.11
398.944	392.93
399.323	424.34
399.701	428.63
400.08	420.05
400.458	420.27
400.837	440.61
401.215	440.38
401.594	440.84
401.972	433.15
402.351	448.75
402.729	449.2
403.107	446.49
403.486	459.59
403.864	462.76
404.242	465.69
404.62	471.57
404.999	469.76
405.377	486.48
405.755	483.55
406.133	473.6
406.511	484.68
406.889	514.05
407.267	504.56
407.645	519.93
408.023	517.22
408.401	518.8
408.779	525.13
409.156	541.62
409.534	563.09
409.912	556.54
410.29	569.19
410.667	578.69
411.045	559.25
411.422	578.23
411.8	576.2
412.178	601.96
412.555	604
412.933	630.66
413.31	629.31
413.687	630.44
414.065	676.31
414.442	679.47
414.819	680.6
415.197	673.6
415.574	689.87
415.951	703.65
416.328	735.29
416.705	706.59
417.082	716.99
417.46	738.91
417.837	750.66
418.214	759.02
418.591	777.32
418.967	791.56
419.344	797.21
419.721	792.24
420.098	822.29
420.475	855.74
420.852	855.97
421.228	855.29
421.605	884.21
421.982	913.14
422.358	907.94
422.735	921.05
423.111	944.1
423.488	966.25
423.864	982.06
424.241	971.22
424.617	1017.54
424.994	1022.74
425.37	1043.31
425.746	1053.02
426.123	1077.2
426.499	1077.88
426.875	1113.13
427.251	1120.59
427.627	1141.38
428.003	1131.21
428.379	1165.56
428.756	1173.47
429.132	1211.66
429.507	1219.35
429.883	1227.93
430.259	1251.66
430.635	1248.5
431.011	1263.41
431.387	1294.6
431.763	1333.69
432.138	1312
432.514	1377.99
432.89	1386.35
433.265	1390.19
433.641	1421.6
434.016	1421.15
434.392	1505.67
434.767	1518.32
435.143	1512.67
435.518	1551.54
435.894	1571.2
436.269	1590.86
436.644	1648.04
437.02	1677.64
437.395	1676.28
437.77	1726.45
438.145	1748.37
438.52	1804.42
438.895	1830.18
439.271	1828.37
439.646	1861.59
440.021	1883.06
440.395	1907.46
440.77	1908.37
441.145	1960.34
441.52	2001.25
441.895	2016.39
442.27	2036.95
442.645	2046.22
443.019	2103.84
443.394	2109.49
443.769	2131.64
444.143	2182.94
444.518	2175.25
444.892	2173.67
445.267	2227.46
445.641	2234.01
446.016	2259.55
446.39	2273.56
446.764	2316.49
447.139	2275.82
447.513	2332.99
447.887	2331.86
448.262	2365.08
448.636	2357.85
449.01	2414.12
449.384	2396.26
449.758	2483.27
450.132	2488.92
450.506	2484.62
450.88	2471.97
451.254	2500.44
451.628	2546.54
452.002	2577.5
452.376	2636.26
452.75	2616.6
453.123	2623.15
453.497	2717.84
453.871	2729.82
454.244	2796.71
454.618	2773.2
454.992	2822.69
455.365	2844.16
455.739	2909.47
456.112	2969.81
456.486	2929.36
456.859	2991.05
457.232	3044.38
457.606	3019.98
457.979	3049.58
458.352	3117.83
458.725	3161.22
459.099	3184.49
459.472	3246.64
459.845	3287.09
460.218	3309.91
460.591	3333.87
460.964	3295.68
461.337	3429.46
461.71	3483.92
462.083	3521.88
462.456	3545.61
462.829	3549.45
463.201	3670.13
463.574	3638.72
463.947	3678.72
464.32	3763.23
464.692	3832.39
465.065	3817.92
465.438	3853.4
465.81	3913.74
466.183	3979.27
466.555	4029.44
466.928	4037.13
467.3	4066.05
467.672	4073.51
468.045	4244.13
468.417	4233.73
468.789	4311.69
469.161	4367.29
469.534	4443.89
469.906	4524.57
470.278	4538.36
470.65	4601.86
471.022	4647.96
471.394	4735.64
471.766	4735.19
472.138	4858.57
472.51	4929.98
472.882	5007.95
473.253	5075.97
473.625	5063.54
473.997	5194.84
474.369	5255.4
474.74	5291.78
475.112	5368.84
475.484	5503.08
475.855	5581.49
476.227	5620.13
476.598	5733.13
476.97	5844.31
477.341	5929.96
477.713	5983.51
478.084	6030.97
478.455	6160.01
478.827	6188.03
479.198	6420.57
479.569	6398.65
479.94	6534.91
480.311	6572.88
480.682	6745.08
481.053	6882.25
481.424	6995.92
481.795	7006.09
482.166	7180.55
482.537	7206.99
482.908	7314.55
483.279	7396.81
483.65	7608.78
484.021	7714.09
484.391	7813.07
484.762	7817.14
485.133	7927.19
485.503	7975.55
485.874	8116.34
486.244	8234.76
486.615	8426.39
486.985	8421.19
487.356	8581.86
487.726	8685.82
488.097	8860.95
488.467	8813.72
488.837	9014.62
489.207	9119.03
489.578	9259.36
489.948	9311.11
490.318	9373.26
490.688	9406.25
491.058	9516.3
491.428	9679.46
491.798	9750.2
492.168	9896.63
492.538	9945.9
492.908	10040.36
493.278	10157.19
493.648	10137.76
494.017	10311.08
494.387	10315.38
494.757	10356.96
495.126	10453.68
495.496	10486.45
495.866	10581.36
496.235	10679.44
496.605	10754.46
496.974	10767.34
497.344	10877.85
497.713	10883.27
498.082	10977.28
498.452	11059.31
498.821	11082.59
499.19	11081.69
499.559	11241.91
499.928	11239.42
500.298	11298.86
500.667	11377.95
501.036	11257.5
501.405	11456.59
501.774	11441.22
502.143	11519.19
502.512	11513.77
502.88	11558.96
503.249	11559.64
503.618	11719.64
503.987	11697.94
504.356	11742.69
504.724	11748.79
505.093	11784.27
505.462	11894.77
505.83	11850.03
506.199	11899.97
506.567	11974.09
506.936	11956.24
507.304	12034.43
507.672	12169.57
508.041	12142.9
508.409	12139.96
508.777	12189
509.145	12282.56
509.514	12304.7
509.882	12366.62
510.25	12369.34
510.618	12351.94
510.986	12387.64
511.354	12392.16
511.722	12548.09
512.09	12586.51
512.458	12541.99
512.826	12596
513.193	12659.5
513.561	12639.39
513.929	12710.57
514.297	12762.09
514.664	12746.95
515.032	12780.62
515.4	12815.2
515.767	12761.42
516.135	12861.98
516.502	12730.68
516.869	12864.24
517.237	12878.25
517.604	12805.26
517.972	12930.68
518.339	12926.16
518.706	12936.78
519.073	13004.57
519.44	12902.43
519.808	13101.07
520.175	12948.3
520.542	13094.97
520.909	13137.23
521.276	13065.14
521.643	13111.69
522.009	13179.03
522.376	13111.92
522.743	13124.12
523.11	13240.27
523.477	13210.67
523.843	13378.57
524.21	13364.56
524.577	13367.73
524.943	13386.03
525.31	13394.39
525.676	13404.34
526.043	13438.69
526.409	13401.17
526.776	13509.19
527.142	13431.23
527.508	13530.21
527.874	13459.25
528.241	13559.59
528.607	13504.22
528.973	13520.04
529.339	13528.85
529.705	13545.35
530.071	13565.91
530.437	13483.66
530.803	13582.19
531.169	13491.34
531.535	13449.76
531.901	13374.06
532.267	13491.57
532.632	13432.58
532.998	13443.43
533.364	13412.02
533.73	13379.93
534.095	13448.4
534.461	13373.15
534.826	13403.88
535.192	13383.77
535.557	13347.16
535.923	13310.1
536.288	13222.65
536.653	13284.79
537.019	13134.29
537.384	13135.42
537.749	13137.68
538.114	13133.84
538.479	13064.01
538.845	13064.23
539.21	12978.13
539.575	13032.82
539.94	12944.46
540.305	12909.21
540.67	12856.55
541.034	12840.06
541.399	12846.16
541.764	12795.31
542.129	12713.73
542.494	12727.29
542.858	12661.31
543.223	12625.15
543.587	12589.22
543.952	12546.28
544.316	12521.87
544.681	12369.79
545.045	12374.76
545.41	12438.03
545.774	12360.97
546.138	12333.18
546.503	12326.4
546.867	12245.27
547.231	12333.4
547.595	12188.1
547.959	12118.04
548.324	12061.77
548.688	12084.6
549.052	12063.36
549.416	11990.36
549.779	11914.88
550.143	11908.1
550.507	11949.46
550.871	11841.21
551.235	11771.84
551.599	11814.55
551.962	11787.88
552.326	11707.43
552.689	11747.21
553.053	11585.85
553.417	11592.18
553.78	11673.99
554.143	11610.94
554.507	11548.57
554.87	11502.47
555.234	11634.21
555.597	11503.82
555.96	11521.22
556.323	11558.51
556.686	11438.29
557.05	11458.17
557.413	11425.18
557.776	11413.65
558.139	11386.99
558.502	11377.5
558.865	11318.97
559.228	11298.86
559.59	11299.76
559.953	11315.8
560.316	11345.41
560.679	11370.94
561.041	11323.94
561.404	11362.81
561.767	11351.06
562.129	11218.86
562.492	11356.71
562.854	11325.52
563.217	11316.03
563.579	11335.69
563.941	11381.11
564.304	11304.28
564.666	11387.67
565.028	11311.96
565.39	11329.82
565.753	11377.05
566.115	11274
566.477	11371.17
566.839	11347.22
567.201	11380.44
567.563	11403.03
567.925	11427.89
568.287	11374.11
568.648	11364.84
569.01	11490.71
569.372	11487.78
569.734	11398.51
570.095	11489.58
570.457	11438.51
570.819	11480.55
571.18	11478.96
571.542	11525.29
571.903	11459.08
572.265	11513.31
572.626	11501.11
572.987	11539.08
573.349	11545.63
573.71	11542.46
574.071	11493.88
574.432	11543.82
574.794	11593.31
575.155	11520.77
575.516	11488.23
575.877	11657.26
576.238	11569.81
576.599	11535.69
576.96	11602.35
577.32	11622.01
577.681	11589.47
578.042	11589.02
578.403	11591.5
578.763	11626.53
579.124	11584.5
579.485	11686.87
579.845	11601.22
580.206	11646.64
580.566	11631.95
580.927	11552.63
581.287	11730.03
581.648	11660.88
582.008	11677.38
582.368	11629.47
582.728	11689.35
583.089	11648.22
583.449	11590.15
583.809	11497.27
584.169	11602.58
584.529	11553.99
584.889	11636.47
585.249	11608.9
585.609	11524.61
585.969	11684.38
586.329	11570.94
586.688	11579.3
587.048	11584.27
587.408	11557.15
587.768	11529.58
588.127	11539.75
588.487	11526.65
588.846	11549.7
589.206	11480.55
589.565	11568
589.925	11630.82
590.284	11506.76
590.643	11536.82
591.003	11583.59
591.362	11556.7
591.721	11467.21
592.08	11469.47
592.44	11472.18
592.799	11465.86
593.158	11494.78
593.517	11393.99
593.876	11448.23
594.235	11441.9
594.593	11438.74
594.952	11521.67
595.311	11370.27
595.67	11509.25
596.029	11485.52
596.387	11450.72
596.746	11457.5
597.104	11407.55
597.463	11409.59
597.822	11521.67
598.18	11419.3
598.538	11391.73
598.897	11411.85
599.255	11361.23
599.613	11553.99
599.972	11502.24
600.33	11421.11
600.688	11402.13
601.046	11414.78
601.404	11472.18
601.762	11473.99
602.12	11464.95
602.478	11445.07
602.836	11411.85
603.194	11393.77
603.552	11414.78
603.91	11376.82
604.268	11441
604.625	11385.63
604.983	11499.98
605.341	11384.95
605.698	11342.02
606.056	11412.07
606.413	11413.2
606.771	11369.59
607.128	11446.65
607.485	11398.06
607.843	11411.62
608.2	11451.17
608.557	11445.52
608.914	11448.46
609.272	11444.61
609.629	11460.89
609.986	11568.45
610.343	11427.89
610.7	11547.44
611.057	11560.09
611.414	11510.6
611.771	11575.91
612.127	11555.57
612.484	11511.73
612.841	11558.28
613.198	11535.91
613.554	11568.68
613.911	11597.6
614.267	11550.15
614.624	11514.22
614.98	11594.44
615.337	11683.93
615.693	11651.61
616.05	11670.15
616.406	11693.2
616.762	11637.38
617.118	11665.85
617.475	11680.99
617.831	11659.07
618.187	11668.79
618.543	11678.96
618.899	11687.55
619.255	11745.17
619.611	11712.63
619.967	11732.97
620.323	11717.38
620.678	11685.51
621.034	11712.4
621.39	11677.38
621.746	11620.88
622.101	11773.87
622.457	11744.95
622.812	11648.9
623.168	11703.14
623.523	11707.66
623.879	11720.09
624.234	11688.9
624.589	11648.22
624.945	11680.31
625.3	11747.88
625.655	11687.77
626.01	11735.91
626.365	11668.56
626.72	11691.39
627.075	11654.78
627.43	11602.58
627.785	11637.38
628.14	11669.47
628.495	11685.51
628.85	11749.01
629.205	11584.95
629.559	11687.32
629.914	11588.79
630.269	11623.37
630.623	11591.5
630.978	11533.43
631.332	11594.89
631.687	11584.95
632.041	11441.22
632.396	11522.13
632.75	11492.97
633.104	11519.41
633.459	11459.3
633.813	11382.24
634.167	11405.52
634.521	11391.73
634.875	11431.73
635.229	11440.55
635.583	11337.72
635.937	11330.04
636.291	11377.5
636.645	11242.59
636.999	11343.37
637.352	11315.8
637.706	11291.17
638.06	11287.78
638.413	11256.6
638.767	11259.99
639.121	11271.51
639.474	11185.41
639.828	11209.14
640.181	11278.29
640.534	11241.91
640.888	11183.38
641.241	11117.84
641.594	11135.02
641.947	11177.95
642.301	11167.33
642.654	11110.84
643.007	11161.91
643.36	11133.44
643.713	11115.13
644.066	11190.84
644.419	11087.79
644.771	11040.33
645.124	11006.43
645.477	10904.29
645.83	10834.46
646.182	10866.55
646.535	10698.87
646.888	10754.46
647.24	10705.42
647.593	10771.41
647.945	10710.62
648.298	10637.4
648.65	10666.33
649.002	10639.21
649.355	10625.88
649.707	10660.91
650.059	10742.94
650.411	10838.3
650.763	10901.58
651.115	10989.49
651.467	10954.91
651.819	10991.74
652.171	10928.02
652.523	10925.08
652.875	10892.76
653.227	10879.66
653.578	10996.94
653.93	10913.78
654.282	10881.69
654.633	10878.3
654.985	10842.37
655.337	10915.14
655.688	10902.26
656.039	11006.43
656.391	10876.72
656.742	10974.12
657.094	10916.49
657.445	10881.92
657.796	10932.31
658.147	10958.75
658.498	10888.47
658.849	10866.78
659.2	10924.85
659.551	10951.29
659.902	10909.04
660.253	10896.83
660.604	10967.34
660.955	10886.44
661.306	10968.24
661.656	10930.96
662.007	10967.11
662.358	10949.49
662.708	10915.36
663.059	10873.78
663.409	10876.95
663.76	11008.02
664.11	11001.24
664.461	10980.45
664.811	10962.37
665.161	10955.36
665.511	10993.33
665.862	10999.65
666.212	10965.3
666.562	10986.77
666.912	10947
667.262	10919.88
667.612	10995.59
667.962	10961.92
668.312	10928.7
668.662	11015.25
669.011	10993.55
669.361	10969.82
669.711	10902.93
670.06	10925.98
670.41	10879.88
670.76	10870.39
671.109	10988.81
671.459	10954.23
671.808	10905.87
672.157	10980.45
672.507	10897.28
672.856	10854.57
673.205	10884.4
673.554	10921.01
673.904	10871.07
674.253	10930.96
674.602	10813.9
674.951	10653.45
675.3	10656.61
675.649	10808.7
675.998	10830.62
676.346	10807.12
676.695	10755.82
677.044	10744.52
677.393	10695.48
677.741	10765.99
678.09	10700.23
678.438	10715.14
678.787	10718.76
679.135	10759.66
679.484	10653.9
679.832	10711.3
680.181	10627.91
680.529	10577.52
680.877	10589.72
681.225	10551.76
681.573	10654.8
681.922	10574.58
682.27	10457.07
682.618	10531.87
682.966	10488.26
683.314	10548.59
683.661	10443.96
684.009	10395.6
684.357	10385.21
684.705	10350.18
685.053	10387.02
685.4	10370.52
685.748	10314.7
686.095	10238.09
686.443	10227.7
686.79	10203.74
687.138	10238.09
687.485	10224.08
687.832	10208.71
688.18	10246.45
688.527	10125.33
688.874	10088.49
689.221	10064.76
689.568	10034.71
689.915	10007.59
690.262	10000.58
690.609	9947.25
690.956	9903.64
691.303	9915.39
691.65	9860.48
691.997	9827.26
692.344	9782.96
692.69	9830.65
693.037	9721.5
693.383	9677.2
693.73	9695.73
694.077	9657.54
694.423	9590.43
694.769	9552.69
695.116	9542.74
695.462	9454.16
695.808	9424.1
696.155	9515.4
696.501	9429.3
696.847	9371.9
697.193	9322.41
697.539	9354.73
697.885	9254.39
698.231	9199.02
698.577	9327.61
698.923	9197.67
699.269	9160.83
699.614	9162.64
699.96	9055.98
700.306	9051
700.651	9039.71
700.997	9007.62
701.342	8999.71
701.688	8918.81
702.033	8869.77
702.379	8923.32
702.724	8820.05
703.069	8890.33
703.415	8733.05
703.76	8775.08
704.105	8730.56
704.45	8781.86
704.795	8598.14
705.14	8622.54
705.485	8634.29
705.83	8591.81
706.175	8596.33
706.52	8546.39
706.865	8527.85
707.209	8489.66
707.554	8436.56
707.899	8447.63
708.243	8454.86
708.588	8408.31
708.932	8370.12
709.277	8286.51
709.621	8366.73
709.966	8308.88
710.31	8258.94
710.654	8244.92
710.998	8261.42
711.342	8234.98
711.687	8152.27
712.031	8156.11
712.375	8084.93
712.719	8158.37
713.063	8117.92
713.407	8174.19
713.75	8100.97
714.094	8084.48
714.438	8010.35
714.782	8021.43
715.125	8029.11
715.469	8013.07
715.812	7951.37
716.156	7931.71
716.499	7886.52
716.843	7967.42
717.186	7906.18
717.53	7933.07
717.873	7903.01
718.216	7918.15
718.559	7897.59
718.902	7821.66
719.246	7819.85
719.589	7834.77
719.932	7764.26
720.275	7820.08
720.617	7827.76
720.96	7793.41
721.303	7761.1
721.646	7737.14
721.989	7754.99
722.331	7729.91
722.674	7740.08
723.016	7754.32
723.359	7744.82
723.701	7721.55
724.044	7724.94
724.386	7743.24
724.729	7660.08
725.071	7749.34
725.413	7731.04
725.755	7579.18
726.097	7646.07
726.439	7641.32
726.782	7642
727.124	7719.51
727.465	7597.94
727.807	7619.86
728.149	7627.99
728.491	7568.78
728.833	7661.44
729.175	7604.04
729.516	7557.71
729.858	7652.62
730.199	7540.76
730.541	7550.25
730.882	7575.79
731.224	7625.96
731.565	7558.16
731.906	7518.62
732.248	7534.21
732.589	7535.11
732.93	7528.79
733.271	7571.72
733.612	7580.54
733.953	7593.64
734.294	7536.02
734.635	7537.15
734.976	7589.8
735.317	7544.15
735.658	7576.92
735.999	7491.05
736.339	7553.19
736.68	7642.68
737.021	7551.16
737.361	7569.24
737.702	7571.72
738.042	7582.34
738.383	7560.42
738.723	7570.59
739.063	7580.99
739.404	7606.75
739.744	7604.26
740.084	7517.94
740.424	7611.72
740.764	7609.23
741.104	7670.48
741.444	7677.26
741.784	7623.7
742.124	7724.49
742.464	7697.59
742.804	7671.15
743.143	7706.41
743.483	7772.17
743.823	7714.99
744.162	7773.98
744.502	7828.89
744.841	7839.51
745.181	7877.7
745.52	7865.05
745.86	7914.99
746.199	7950.69
746.538	8016.46
746.877	8002.67
747.216	8116.11
747.556	8131.03
747.895	8163.34
748.234	8209.45
748.573	8242.21
748.911	8366.73
749.25	8393.4
749.589	8421.19
749.928	8512.71
750.267	8606.72
750.605	8603.11
750.944	8726.04
751.283	8782.09
751.621	8965.81
751.96	8936.88
752.298	9010.1
752.636	9147.05
752.975	9233.15
753.313	9319.92
753.651	9434.5
753.989	9449.64
754.327	9725.79
754.666	9766.01
755.004	9914.03
755.342	9998.55
755.679	10158.55
756.017	10192.67
756.355	10396.05
756.693	10515.37
757.031	10725.54
757.368	10779.32
757.706	10914.46
758.044	11100.44
