Data from hue_340_FLMS001491_46.txt Node
Date: Mon Feb 06 15:43:10 GMT 2017
User: dcchb
Spectrometer: FLMS00149
Trigger mode: 0
Integration Time (sec): 2.000000E-2
Scans to average: 10
Electric dark correction enabled: true
Nonlinearity correction enabled: false
Boxcar width: 0
XAxis mode: Wavelengths
Number of Pixels in Spectrum: 2048
>>>>>Begin Spectral Data<<<<<
341.393	-13.39
341.776	-13.39
342.16	-13.39
342.543	-54.97
342.927	-64.01
343.31	-73.27
343.693	-74.86
344.077	-62.43
344.46	-57.68
344.843	-62.88
345.226	-36.21
345.61	-33.05
345.993	-13.16
346.376	-0.73
346.759	22.32
347.142	38.13
347.525	35.2
347.908	35.2
348.291	79.49
348.674	77
349.057	126.95
349.44	121.07
349.823	144.8
350.206	157.45
350.588	197
350.971	212.14
351.354	224.12
351.737	240.84
352.119	259.6
352.502	253.04
352.884	270.22
353.267	283.78
353.65	293.04
354.032	300.95
354.414	319.71
354.797	313.61
355.179	324
355.562	344.34
355.944	305.47
356.326	315.42
356.709	343.44
357.091	337.56
357.473	338.24
357.855	328.3
358.238	351.35
358.62	357
359.002	363.55
359.384	329.65
359.766	335.75
360.148	326.04
360.53	332.82
360.912	330.56
361.294	331.46
361.676	306.38
362.057	322.19
362.439	333.27
362.821	328.52
363.203	309.09
363.584	327.84
363.966	312.25
364.348	331.01
364.729	331.46
365.111	302.99
365.493	317.45
365.874	306.38
366.256	305.92
366.637	305.02
367.019	284.23
367.4	318.35
367.781	324.23
368.163	304.79
368.544	302.53
368.925	290.78
369.306	333.95
369.688	322.42
370.069	323.55
370.45	308.18
370.831	296.66
371.212	287.17
371.593	288.98
371.974	312.48
372.355	309.31
372.736	316.77
373.117	306.6
373.498	303.21
373.879	314.74
374.26	301.4
374.641	309.09
375.021	313.61
375.402	326.49
375.783	310.9
376.163	330.33
376.544	333.95
376.925	326.49
377.305	341.4
377.686	316.32
378.066	323.78
378.447	339.37
378.827	321.97
379.208	326.49
379.588	328.07
379.968	347.96
380.349	313.38
380.729	328.75
381.109	316.32
381.489	350.89
381.87	355.64
382.25	334.4
382.63	329.88
383.01	333.72
383.39	329.88
383.77	336.21
384.15	328.75
384.53	335.53
384.91	330.78
385.29	354.74
385.67	350.22
386.049	339.6
386.429	369.88
386.809	328.07
387.189	351.57
387.568	347.28
387.948	335.08
388.328	368.75
388.707	331.01
389.087	337.56
389.466	356.77
389.846	351.35
390.225	378.24
390.605	346.38
390.984	347.05
391.363	369.2
391.743	357.67
392.122	373.04
392.501	372.59
392.881	353.38
393.26	349.09
393.639	346.6
394.018	353.83
394.397	365.13
394.776	351.12
395.155	370.78
395.534	372.36
395.913	376.2
396.292	370.1
396.671	381.18
397.05	359.03
397.429	374.62
397.808	374.62
398.186	352.7
398.565	364.45
398.944	369.88
399.323	369.2
399.701	373.94
400.08	380.27
400.458	384.11
400.837	385.47
401.215	386.37
401.594	394.74
401.972	392.25
402.351	392.93
402.729	380.5
403.107	388.41
403.486	371.01
403.864	382.98
404.242	427.05
404.62	416.66
404.999	388.18
405.377	381.63
405.755	401.97
406.133	408.52
406.511	406.94
406.889	413.94
407.267	415.75
407.645	424.34
408.023	437.67
408.401	439.93
408.779	431.8
409.156	411.68
409.534	441.97
409.912	444.23
410.29	438.58
410.667	423.44
411.045	443.77
411.422	448.29
411.8	450.55
412.178	457.33
412.555	458.24
412.933	479.25
413.31	477.67
413.687	486.71
414.065	472.7
414.442	493.26
414.819	489.65
415.197	502.08
415.574	481.06
415.951	498.01
416.328	494.39
416.705	519.7
417.082	499.37
417.46	539.59
417.837	517.9
418.214	526.94
418.591	529.2
418.967	542.53
419.344	538.01
419.721	550.44
420.098	538.91
420.475	529.42
420.852	548.4
421.228	545.92
421.605	550.21
421.982	556.09
422.358	574.84
422.735	568.52
423.111	584.33
423.488	594.5
423.864	577.33
424.241	583.43
424.617	570.1
424.994	604.67
425.37	598.57
425.746	583.66
426.123	596.31
426.499	595.86
426.875	620.27
427.251	606.48
427.627	634.96
428.003	642.86
428.379	643.77
428.756	608.97
429.132	639.93
429.507	646.71
429.883	661.4
430.259	668.63
430.635	652.81
431.011	684.22
431.387	706.37
431.763	702.3
432.138	706.37
432.514	700.26
432.89	713.37
433.265	695.97
433.641	705.01
434.016	720.15
434.392	733.48
434.767	753.14
435.143	756.31
435.518	728.96
435.894	753.82
436.269	763.54
436.644	795.4
437.02	757.44
437.395	773.71
437.77	766.93
438.145	791.11
438.52	798.57
438.895	809.87
439.271	816.19
439.646	813.48
440.021	806.25
440.395	818.23
440.77	818
441.145	811.22
441.52	846.25
441.895	874.95
442.27	839.92
442.645	842.18
443.019	866.81
443.394	880.6
443.769	848.96
444.143	841.96
444.518	891.9
444.892	876.08
445.267	875.17
445.641	874.5
446.016	867.94
446.39	884.44
446.764	897.77
447.139	903.65
447.513	904.33
447.887	900.03
448.262	900.94
448.636	913.37
449.01	890.54
449.384	926.25
449.758	927.6
450.132	909.07
450.506	943.2
450.88	950.65
451.254	953.36
451.628	941.61
452.002	952.91
452.376	963.31
452.75	950.65
453.123	953.36
453.497	961.73
453.871	990.65
454.244	966.47
454.618	990.2
454.992	1009.18
455.365	991.78
455.739	1009.41
456.112	1021.61
456.486	1038.33
456.859	1043.31
457.232	1038.79
457.606	1032.46
457.979	1029.52
458.352	1088.95
458.725	1073.81
459.099	1090.76
459.472	1112.46
459.845	1103.64
460.218	1092.12
460.591	1130.54
460.964	1112.46
461.337	1136.41
461.71	1171.89
462.083	1191.32
462.456	1165.34
462.829	1170.31
463.201	1193.81
463.574	1210.53
463.947	1201.27
464.32	1255.05
464.692	1238.56
465.065	1220.02
465.438	1258.44
465.81	1238.56
466.183	1288.05
466.555	1293.24
466.928	1311.1
467.3	1318.33
467.672	1318.1
468.045	1316.75
468.417	1332.11
468.789	1370.08
469.161	1326.91
469.534	1380.47
469.906	1403.3
470.278	1415.5
470.65	1410.3
471.022	1439.45
471.394	1470.19
471.766	1474.48
472.138	1485.55
472.51	1524.88
472.882	1561.26
473.253	1549.73
473.625	1556.06
473.997	1580.24
474.369	1645.1
474.74	1653.46
475.112	1628.38
475.484	1683.29
475.855	1688.26
476.227	1714.7
476.598	1710.63
476.97	1754.25
477.341	1780.24
477.713	1804.87
478.084	1827.24
478.455	1831.53
478.827	1888.93
479.198	1926.9
479.569	1918.31
479.94	1946.33
480.311	1988.37
480.682	2023.62
481.053	2046.22
481.424	2080.11
481.795	2118.08
482.166	2116.27
482.537	2135.71
482.908	2166.21
483.279	2202.37
483.65	2232.65
484.021	2264.06
484.391	2287.12
484.762	2306.32
485.133	2328.7
485.503	2374.34
485.874	2418.41
486.244	2415.25
486.615	2483.04
486.985	2528.01
487.356	2533.21
487.726	2566.43
488.097	2632.87
488.467	2626.09
488.837	2647.78
489.207	2702.02
489.578	2725.52
489.948	2760.32
490.318	2819.98
490.688	2838.06
491.058	2855.46
491.428	2867.21
491.798	2905.18
492.168	2942.69
492.538	2956.7
492.908	3008.45
493.278	3042.8
493.648	3043.71
494.017	3064.04
494.387	3085.51
494.757	3079.64
495.126	3134.32
495.496	3156.7
495.866	3175
496.235	3205.96
496.605	3219.75
496.974	3259.74
497.344	3253.87
497.713	3302.23
498.082	3315.79
498.452	3356.01
498.821	3365.5
499.19	3325.96
499.559	3405.05
499.928	3398.27
500.298	3439.18
500.667	3473.98
501.036	3443.02
501.405	3482.34
501.774	3457.48
502.143	3485.73
502.512	3540.19
502.88	3518.04
503.249	3507.65
503.618	3583.13
503.987	3588.78
504.356	3593.07
504.724	3611.6
505.093	3606.18
505.462	3588.78
505.83	3627.42
506.199	3645.27
506.567	3709.9
506.936	3698.6
507.304	3744.48
507.672	3759.39
508.041	3751.71
508.409	3790.13
508.777	3813.63
509.145	3821.99
509.514	3802.78
509.882	3852.05
510.25	3869.67
510.618	3894.3
510.986	3845.94
511.354	3876.9
511.722	3928.2
512.09	3938.37
512.458	3918.71
512.826	3959.39
513.193	3968.2
513.561	3999.84
513.929	3963.46
514.297	4016.56
514.664	4060.63
515.032	4004.81
515.4	4059.5
515.767	4058.59
516.135	4090.68
516.502	4067.86
516.869	4090.91
517.237	4095.66
517.604	4132.04
517.972	4098.14
518.339	4156.67
518.706	4154.41
519.073	4150.79
519.44	4134.75
519.808	4242.77
520.175	4183.79
520.542	4187.86
520.909	4253.62
521.276	4223.79
521.643	4277.8
522.009	4289.32
522.376	4287.51
522.743	4322.09
523.11	4333.84
523.477	4348.98
523.843	4333.84
524.21	4414.97
524.577	4447.74
524.943	4421.07
525.31	4466.04
525.676	4490.45
526.043	4499.03
526.409	4508.53
526.776	4552.59
527.142	4594.62
527.508	4565.25
527.874	4616.77
528.241	4648.18
528.607	4670.1
528.973	4662.65
529.339	4669.2
529.705	4692.48
530.071	4727.73
530.437	4758.46
530.803	4795.07
531.169	4819.25
531.535	4796.88
531.901	4819.93
532.267	4816.54
532.632	4883.88
532.998	4874.17
533.364	4898.57
533.73	4948.06
534.095	4963.88
534.461	4984.45
534.826	4958.46
535.192	4983.32
535.557	5030.32
535.923	5081.17
536.288	5076.42
536.653	5087.95
537.019	5094.05
537.384	5102.63
537.749	5145.12
538.114	5160.26
538.479	5113.48
538.845	5201.39
539.21	5174.04
539.575	5244.78
539.94	5279.13
540.305	5296.3
540.67	5302.4
541.034	5239.81
541.399	5304.21
541.764	5350.99
542.129	5400.48
542.494	5406.13
542.858	5413.36
543.223	5433.25
543.587	5448.39
543.952	5461.04
544.316	5505.56
544.681	5499.91
545.045	5563.64
545.41	5580.59
545.774	5574.49
546.138	5547.37
546.503	5609.51
546.867	5668.04
547.231	5681.15
547.595	5705.1
547.959	5705.78
548.324	5736.29
548.688	5775.61
549.052	5726.12
549.416	5823.07
549.779	5814.93
550.143	5826.68
550.507	5835.72
550.871	5873.01
551.235	5849.28
551.599	5922.95
551.962	5966.34
552.326	5971.09
552.689	5944.42
553.053	5950.75
553.417	5980.13
553.78	6031.2
554.143	6015.38
554.507	6066
554.87	5997.75
555.234	6095.83
555.597	6073.46
555.96	6108.26
556.323	6121.59
556.686	6160.46
557.05	6105.32
557.413	6197.97
557.776	6193
558.139	6207.24
558.502	6232.32
558.865	6246.56
559.228	6272.09
559.59	6276.16
559.953	6304.41
560.316	6322.04
560.679	6319.33
561.041	6350.06
561.404	6395.48
561.767	6353.45
562.129	6425.31
562.492	6465.99
562.854	6519.32
563.217	6468.7
563.579	6501.47
563.941	6523.16
564.304	6503.95
564.666	6607.23
565.028	6572.88
565.39	6557.29
565.753	6639.54
566.115	6624.4
566.477	6668.02
566.839	6684.06
567.201	6710.28
567.563	6780.1
567.925	6827.56
568.287	6827.79
568.648	6802.02
569.01	6840.67
569.372	6922.7
569.734	6878.86
570.095	6962.92
570.457	6990.72
570.819	7011.06
571.18	6982.13
571.542	7062.81
571.903	7097.61
572.265	7112.3
572.626	7173.31
572.987	7193.2
573.349	7178.29
573.71	7242.69
574.071	7351.39
574.432	7369.92
574.794	7414.89
575.155	7458.5
575.516	7447.21
575.877	7570.37
576.238	7666.41
576.599	7672.06
576.96	7720.64
577.32	7805.61
577.681	7845.39
578.042	8013.74
578.403	8049.9
578.763	8159.28
579.124	8203.57
579.485	8289.9
579.845	8431.81
580.206	8494.41
580.566	8568.76
580.927	8671.35
581.287	8791.8
581.648	8930.33
582.008	9056.65
582.368	9174.62
582.728	9283.09
583.089	9393.37
583.449	9587.26
583.809	9657.77
584.169	9907.25
584.529	10007.36
584.889	10247.36
585.249	10370.07
585.609	10530.29
585.969	10739.1
586.329	10900
586.688	11157.16
587.048	11329.14
587.408	11515.8
587.768	11715.57
588.127	11983.36
588.487	12006.63
588.846	12464.47
589.206	12487.98
589.565	12771.36
589.925	13152.14
590.284	13263.1
590.643	13508.29
591.003	13884.1
591.362	14137.2
591.721	14308.04
592.08	14611.31
592.44	14843.4
592.799	15223.95
593.158	15422.14
593.517	15675.24
593.876	16046.3
594.235	16194.32
594.593	16448.55
594.952	16925.15
595.311	16992.94
595.67	17384.8
596.029	17748.63
596.387	17991.11
596.746	18242.85
597.104	18565.33
597.463	18689.4
597.822	19000.57
598.18	19337.97
598.538	19501.35
598.897	19973.66
599.255	20051.17
599.613	20695.9
599.972	20611.6
600.33	21016.79
600.688	21133.4
601.046	21538.13
601.404	21877.33
601.762	22176.08
602.12	22440.94
602.478	22741.27
602.836	22918.66
603.194	23180.12
603.552	23339.89
603.91	23637.51
604.268	23893.55
604.625	24022.36
604.983	24417.15
605.341	24569.47
605.698	24815.56
606.056	25142.79
606.413	25303.68
606.771	25630.68
607.128	25817.34
607.485	26004.01
607.843	26134.4
608.2	26534.84
608.557	26809.41
608.914	27059.8
609.272	27349.51
609.629	27496.85
609.986	27791.3
610.343	27844.18
610.7	28128.7
611.057	28354.45
611.414	28501.79
611.771	28661.79
612.127	28897.71
612.484	29111.27
612.841	29319.17
613.198	29228.55
613.554	29426.29
613.911	29823.34
614.267	29823.79
614.624	30032.6
614.98	30160.51
615.337	30481.4
615.693	30535.19
616.05	30654.05
616.406	30980.15
616.762	31071.67
617.118	31176.07
617.475	31263.08
617.831	31480.7
618.187	31518.21
618.543	31763.4
618.899	32018.31
619.255	32152.09
619.611	32272.99
619.967	32303.05
620.323	32519.77
620.678	32614.68
621.034	32652.42
621.39	32662.81
621.746	32763.38
622.101	33166.76
622.457	33024.16
622.812	33255.79
623.168	33230.48
623.523	33376.47
623.879	33579.85
624.234	33458.5
624.589	33761.54
624.945	33789.11
625.3	33843.8
625.655	33893.97
626.01	33891.26
626.365	34070.69
626.72	34146.39
627.075	34218.7
627.43	34219.61
627.785	34217.57
628.14	34315.43
628.495	34453.95
628.85	34368.53
629.205	34457.79
629.559	34600.39
629.914	34489.66
630.269	34534.63
630.623	34545.93
630.978	34453.95
631.332	34690.56
631.687	34671.8
632.041	34660.73
632.396	34858.01
632.75	34616.66
633.104	34819.82
633.459	34591.8
633.813	34801.51
634.167	34684.91
634.521	34758.8
634.875	34880.38
635.229	34824.34
635.583	34771.91
635.937	34753.61
636.291	34721.29
636.645	34788.86
636.999	34817.79
637.352	34864.34
637.706	34768.52
638.06	34839.03
638.413	34751.12
638.767	34786.6
639.121	34941.17
639.474	34567.17
639.828	34775.53
640.181	34804.9
640.534	34792.02
640.888	34698.47
641.241	34755.41
641.594	34700.27
641.947	34827.95
642.301	34811.68
642.654	34626.38
643.007	34702.31
643.36	34859.82
643.713	34618.69
644.066	34902.3
644.419	34586.15
644.771	34505.93
645.124	34089.44
645.477	34006.96
645.83	33876.34
646.182	33803.35
646.535	33666.63
646.888	33751.6
647.24	33497.59
647.593	33888.32
647.945	33745.95
648.298	33513.19
648.65	33484.71
649.002	33479.74
649.355	33515.67
649.707	33644.26
650.059	33588.66
650.411	34074.08
650.763	34114.53
651.115	34585.7
651.467	34367.18
651.819	34349.77
652.171	34286.95
652.523	34338.93
652.875	34291.02
653.227	34150.01
653.578	34481.07
653.93	34235.2
654.282	34175.54
654.633	34152.94
654.985	34211.02
655.337	34124.24
655.688	34207.86
656.039	34177.12
656.391	34107.3
656.742	34209.89
657.094	34023
657.445	34228.87
657.796	34106.39
658.147	34135.09
658.498	34007.18
658.849	34168.76
659.2	34049.67
659.551	33938.49
659.902	34233.85
660.253	34007.64
660.604	34015.55
660.955	33844.7
661.306	34032.95
661.656	34056.9
662.007	34081.76
662.358	34011.03
662.708	33981.87
663.059	33949.79
663.409	33746.85
663.76	34017.35
664.11	34056
664.461	34034.75
664.811	34006.96
665.161	33965.83
665.511	33964.47
665.862	33917.92
666.212	34063.23
666.562	34120.85
666.912	33825.27
667.262	33910.69
667.612	33942.78
667.962	33909.33
668.312	34004.93
668.662	34004.25
669.011	34012.83
669.361	33712.05
669.711	33867.08
670.06	33761.32
670.41	33735.33
670.76	33730.36
671.109	33844.03
671.459	33727.42
671.808	33713.63
672.157	33866.85
672.507	33535.11
672.856	33745.5
673.205	33739.17
673.554	33801.77
673.904	33531.27
674.253	33838.38
674.602	33734.88
674.951	33311.16
675.3	33139.19
675.649	33632.28
675.998	33547.99
676.346	33650.81
676.695	33909.79
677.044	33396.81
677.393	33506.41
677.741	33553.86
678.09	33490.59
678.438	33449.91
678.787	33554.09
679.135	33527.65
679.484	33312.74
679.832	33426.86
680.181	33198.62
680.529	33392.51
680.877	33085.63
681.225	33173.53
681.573	33388.67
681.922	33089.24
682.27	33072.29
682.618	33013.99
682.966	32948
683.314	33103.03
683.661	32990.94
684.009	32714.34
684.357	32783.49
684.705	32642.7
685.053	32861
685.4	32545.98
685.748	32504.85
686.095	32445.87
686.443	32385.98
686.79	32381.69
687.138	32418.98
687.485	32315.93
687.832	32350.51
688.18	32248.59
688.527	32224.86
688.874	32161.36
689.221	32150.06
689.568	32091.08
689.915	32070.74
690.262	31924.75
690.609	31845.89
690.956	31716.4
691.303	31752.1
691.65	31509.85
691.997	31633.69
692.344	31364.99
692.69	31281.38
693.037	31277.31
693.383	31118.9
693.73	31255.17
694.077	31047.49
694.423	31026.92
694.769	30910.77
695.116	30967.49
695.462	30914.16
695.808	30722.07
696.155	30843.43
696.501	30611.57
696.847	30491.12
697.193	30439.6
697.539	30583.55
697.885	30197.57
698.231	30329.09
698.577	30202.77
698.923	30074.41
699.269	30025.37
699.614	29875.54
699.96	29774.53
700.306	29923.68
700.651	29695.43
700.997	29521.88
701.342	29545.61
701.688	29610.01
702.033	29442.79
702.379	29334.09
702.724	29295.22
703.069	29379.06
703.415	29026.52
703.76	29072.17
704.105	28975.45
704.45	28914.21
704.795	28815.46
705.14	28765.51
705.485	28786.53
705.83	28598.97
706.175	28636.48
706.52	28657.72
706.865	28448.69
707.209	28394.9
707.554	28289.82
707.899	28395.36
708.243	28221.12
708.588	28189.71
708.932	27995.59
709.277	27961.92
709.621	27966.44
709.966	27803.28
710.31	27864.52
710.654	27564.64
710.998	27664.3
711.342	27719.89
711.687	27634.7
712.031	27530.52
712.375	27415.04
712.719	27484.87
713.063	27369.17
713.407	27430.86
713.75	27303.18
714.094	27344.99
714.438	27155.84
714.782	27208.72
715.125	27023.19
715.469	27103.19
715.812	26923.08
716.156	26828.62
716.499	26964.66
716.843	26914.94
717.186	26722.18
717.53	26694.38
717.873	26755.4
718.216	26777.77
718.559	26652.8
718.902	26388.18
719.246	26524.22
719.589	26436.99
719.932	26360.38
720.275	26248.74
720.617	26175.75
720.96	26192.02
721.303	26164.45
721.646	26038.58
721.989	25960.84
722.331	25983.22
722.674	26007.17
723.016	26029.09
723.359	26134.17
723.701	25906.15
724.044	25761.07
724.386	25763.56
724.729	25799.49
725.071	25674.07
725.413	25683.11
725.755	25579.61
726.097	25539.38
726.439	25403.57
726.782	25448.99
727.124	25527.41
727.465	25433.85
727.807	25455.55
728.149	25306.62
728.491	25352.95
728.833	25357.47
729.175	25256.68
729.516	25145.95
729.858	25147.08
730.199	25200.18
730.541	25113.63
730.882	25141.2
731.224	25214.2
731.565	24912.96
731.906	25003.35
732.248	24946.86
732.589	24754.09
732.93	24798.61
733.271	24861.21
733.612	24824.38
733.953	24844.04
734.294	24670.71
734.635	24569.69
734.976	24697.37
735.317	24546.19
735.658	24542.58
735.999	24525.63
736.339	24466.87
736.68	24567.43
737.021	24390.04
737.361	24360.43
737.702	24469.13
738.042	24251.51
738.383	24347.1
738.723	24286.99
739.063	24174.9
739.404	24285.18
739.744	24246.09
740.084	23992.53
740.424	24287.44
740.764	24024.62
741.104	24130.38
741.444	24032.76
741.784	23900.78
742.124	23994.79
742.464	23933.78
742.804	23852.42
743.143	23827.79
743.483	23911.86
743.823	23744.86
744.162	23841.8
744.502	23669.6
744.841	23642.26
745.181	23726.78
745.52	23588.48
745.86	23588.48
746.199	23577.4
746.538	23550.96
746.877	23603.16
747.216	23441.59
747.556	23326.79
747.895	23417.86
748.234	23378.09
748.573	23270.97
748.911	23197.53
749.25	23311.65
749.589	23179.67
749.928	23144.87
750.267	23187.36
750.605	23113.91
750.944	23094.03
751.283	23023.29
751.621	23085.66
751.96	22874.6
752.298	22888.61
752.636	22853.13
752.975	22864.88
753.313	22668.95
753.651	22800.25
753.989	22624.21
754.327	22593.25
754.666	22471.22
755.004	22560.03
755.342	22602.51
755.679	22456.3
756.017	22342.86
756.355	22478.45
756.693	22220.15
757.031	22393.7
757.368	22138.57
757.706	22148.29
758.044	22108.29
758.381	22045.01
758.719	21944.45
759.056	21959.14
759.394	21831.23
759.731	21841.4
760.068	21782.87
760.405	21729.99
760.743	21611.35
761.08	21627.62
761.417	21450.68
