Data from hue_260_FLMS001491_00058.txt Node
Date: Tue Feb 07 15:59:12 GMT 2017
User: dcchb
Spectrometer: FLMS00149
Trigger mode: 0
Integration Time (sec): 2.000000E-2
Scans to average: 10
Electric dark correction enabled: true
Nonlinearity correction enabled: false
Boxcar width: 0
XAxis mode: Wavelengths
Number of Pixels in Spectrum: 2048
>>>>>Begin Spectral Data<<<<<
341.393	-9.1
341.776	-9.1
342.16	-9.1
342.543	-55.87
342.927	-60.17
343.31	-75.31
343.693	-52.71
344.077	-70.79
344.46	-69.21
344.843	-47.51
345.226	-24.01
345.61	-24.69
345.993	-31.92
346.376	-3.22
346.759	5.37
347.142	24.12
347.525	52.37
347.908	57.57
348.291	62.99
348.674	86.04
349.057	110.9
349.44	128.08
349.823	131.01
350.206	153.39
350.588	194.51
350.971	197.23
351.354	212.14
351.737	222.08
352.119	235.87
352.502	262.76
352.884	257.79
353.267	271.8
353.65	268.19
354.032	297.56
354.414	291.24
354.797	317.22
355.179	323.78
355.562	309.99
355.944	325.36
356.326	344.57
356.709	308.64
357.091	325.58
357.473	342.99
357.855	343.89
358.238	320.61
358.62	332.14
359.002	341.63
359.384	342.76
359.766	322.65
360.148	340.27
360.53	337.79
360.912	312.7
361.294	323.55
361.676	319.26
362.057	306.38
362.439	298.24
362.821	322.65
363.203	339.14
363.584	321.29
363.966	321.97
364.348	320.84
364.729	333.04
365.111	312.25
365.493	317.9
365.874	334.17
366.256	287.85
366.637	292.37
367.019	310.9
367.4	304.12
367.781	305.02
368.163	295.98
368.544	302.76
368.925	307.28
369.306	317.68
369.688	296.43
370.069	305.92
370.45	330.33
370.831	311.35
371.212	306.15
371.593	290.33
371.974	313.61
372.355	334.62
372.736	300.27
373.117	336.66
373.498	308.86
373.879	303.44
374.26	303.44
374.641	285.59
375.021	322.87
375.402	324.23
375.783	307.28
376.163	315.42
376.544	325.36
376.925	301.86
377.305	291.46
377.686	332.14
378.066	334.85
378.447	323.1
378.827	345.25
379.208	320.39
379.588	356.32
379.968	323.78
380.349	328.97
380.729	350.22
381.109	310.44
381.489	341.63
381.87	329.43
382.25	329.43
382.63	322.87
383.01	342.31
383.39	338.47
383.77	345.7
384.15	325.36
384.53	348.63
384.91	341.4
385.29	334.4
385.67	357.9
386.049	342.99
386.429	357.9
386.809	347.96
387.189	348.86
387.568	363.78
387.948	341.86
388.328	373.94
388.707	367.84
389.087	352.7
389.466	350.89
389.846	360.61
390.225	371.46
390.605	361.97
390.984	343.66
391.363	359.93
391.743	359.71
392.122	378.92
392.501	359.48
392.881	356.32
393.26	379.37
393.639	373.27
394.018	364.91
394.397	357.22
394.776	377.79
395.155	389.99
395.534	370.1
395.913	389.09
396.292	396.54
396.671	394.28
397.05	380.95
397.429	388.63
397.808	396.77
398.186	406.26
398.565	394.74
398.944	399.26
399.323	395.19
399.701	401.06
400.08	387.73
400.458	436.09
400.837	419.82
401.215	406.94
401.594	399.03
401.972	445.81
402.351	427.95
402.729	425.24
403.107	418.92
403.486	425.47
403.864	428.18
404.242	415.3
404.62	429.08
404.999	443.1
405.377	432.02
405.755	452.59
406.133	458.01
406.511	451.01
406.889	472.02
407.267	479.25
407.645	469.31
408.023	484.45
408.401	462.98
408.779	462.53
409.156	461.17
409.534	503.66
409.912	484.45
410.29	500.04
410.667	516.77
411.045	513.83
411.422	533.49
411.8	539.82
412.178	546.6
412.555	542.75
412.933	555.86
413.31	569.87
413.687	574.39
414.065	586.59
414.442	572.13
414.819	590.21
415.197	568.06
415.574	585.24
415.951	623.43
416.328	640.6
416.705	616.88
417.082	613.26
417.46	629.76
417.837	635.86
418.214	631.57
418.591	648.97
418.967	663.88
419.344	664.33
419.721	651.68
420.098	655.29
420.475	693.94
420.852	688.96
421.228	686.25
421.605	704.33
421.982	717.66
422.358	739.36
422.735	771.9
423.111	742.52
423.488	767.83
423.864	754.27
424.241	768.96
424.617	798.34
424.994	797.66
425.37	805.12
425.746	815.74
426.123	813.93
426.499	849.41
426.875	835.4
427.251	855.51
427.627	896.42
428.003	865.46
428.379	916.98
428.756	896.42
429.132	909.07
429.507	928.05
429.883	939.13
430.259	956.53
430.635	967.38
431.011	942.07
431.387	961.27
431.763	992.01
432.138	994.72
432.514	1008.5
432.89	1008.5
433.265	1026.36
433.641	1078.33
434.016	1060.93
434.392	1088.28
434.767	1098.22
435.143	1115.62
435.518	1123.08
435.894	1151.1
436.269	1164.43
436.644	1188.61
437.02	1177.77
437.395	1195.17
437.77	1242.17
438.145	1257.09
438.52	1283.07
438.895	1291.21
439.271	1283.75
439.646	1317.65
440.021	1320.36
440.395	1331.21
440.77	1327.59
441.145	1366.01
441.52	1392.9
441.895	1382.28
442.27	1412.79
442.645	1430.41
443.019	1411.43
443.394	1453.01
443.769	1451.66
444.143	1489.17
444.518	1480.58
444.892	1451.66
445.267	1494.14
445.641	1514.48
446.016	1489.85
446.39	1547.25
446.764	1541.37
447.139	1528.72
447.513	1555.61
447.887	1536.4
448.262	1564.42
448.636	1589.51
449.01	1627.47
449.384	1594.03
449.758	1616.4
450.132	1670.86
450.506	1646.68
450.88	1664.98
451.254	1648.49
451.628	1689.39
452.002	1685.32
452.376	1722.38
452.75	1749.05
453.123	1754.93
453.497	1811.87
453.871	1781.14
454.244	1826.56
454.618	1848.26
454.992	1846.9
455.365	1859.33
455.739	1893
456.112	1867.92
456.486	1936.16
456.859	1940.23
457.232	1956.73
457.606	1985.2
457.979	2007.35
458.352	2036.05
458.725	2042.15
459.099	2054.8
459.472	2086.89
459.845	2130.28
460.218	2133.67
460.591	2161.02
460.964	2127.8
461.337	2172.54
461.71	2232.2
462.083	2243.05
462.456	2235.14
462.829	2281.24
463.201	2281.24
463.574	2273.1
463.947	2353.78
464.32	2364.4
464.692	2364.18
465.065	2413.21
465.438	2441.69
465.81	2431.74
466.183	2464.29
466.555	2551.06
466.928	2514.23
467.3	2555.81
467.672	2577.28
468.045	2633.09
468.417	2682.58
468.789	2695.01
469.161	2688.91
469.534	2735.24
469.906	2779.31
470.278	2800.32
470.65	2824.95
471.022	2844.84
471.394	2917.61
471.766	2939.53
472.138	2953.31
472.51	3025.85
472.882	3026.98
473.253	3038.28
473.625	3057.04
473.997	3225.4
474.369	3206.64
474.74	3199.86
475.112	3300.42
475.484	3316.69
475.855	3379.29
476.227	3394.2
476.598	3457.71
476.97	3459.51
477.341	3541.77
477.713	3568.44
478.084	3612.73
478.455	3731.14
478.827	3737.92
479.198	3825.83
479.569	3806.17
479.94	3927.75
480.311	3918.94
480.682	4024.02
481.053	4099.5
481.424	4164.35
481.795	4126.84
482.166	4248.87
482.537	4259.94
482.908	4312.6
483.279	4370
483.65	4456.55
484.021	4484.8
484.391	4481.41
484.762	4599.14
485.133	4619.26
485.503	4610.67
485.874	4750.55
486.244	4807.5
486.615	4826.03
486.985	4956.2
487.356	4976.76
487.726	5028.96
488.097	5098.11
488.467	5139.24
488.837	5213.82
489.207	5292.91
489.578	5357.09
489.948	5347.37
490.318	5399.35
490.688	5454.49
491.058	5513.47
491.428	5563.19
491.798	5564.99
492.168	5739.45
492.538	5710.3
492.908	5752.79
493.278	5796.63
493.648	5777.87
494.017	5850.19
494.387	5895.16
494.757	5934.48
495.126	6042.27
495.496	6056.06
495.866	6058.99
496.235	6129.05
496.605	6160.91
496.974	6166.11
497.344	6247.46
497.713	6220.34
498.082	6316.39
498.452	6332.66
498.821	6391.87
499.19	6421.24
499.559	6371.08
499.928	6434.35
500.298	6443.62
500.667	6518.42
501.036	6554.57
501.405	6541.47
501.774	6597.96
502.143	6597.06
502.512	6632.09
502.88	6619.66
503.249	6665.98
503.618	6694
503.987	6738.98
504.356	6768.13
504.724	6764.51
505.093	6739.2
505.462	6833.66
505.83	6770.61
506.199	6877.28
506.567	6887.67
506.936	6876.82
507.304	6943.94
507.672	6974.22
508.041	6937.61
508.409	7037.27
508.777	7021.68
509.145	7081.34
509.514	7124.05
509.882	7141.9
510.25	7123.82
510.618	7131.73
510.986	7138.29
511.354	7171.05
511.722	7245.85
512.09	7272.52
512.458	7197.49
512.826	7311.84
513.193	7265.52
513.561	7262.58
513.929	7393.42
514.297	7358.17
514.664	7350.48
515.032	7412.63
515.4	7430.03
515.767	7434.1
516.135	7457.15
516.502	7396.13
516.869	7526.53
517.237	7552.29
517.604	7473.65
517.972	7580.31
518.339	7561.33
518.706	7520.65
519.073	7588.9
519.44	7610.82
519.808	7594.55
520.175	7567.65
520.542	7664.15
520.909	7725.39
521.276	7659.63
521.643	7706.41
522.009	7728.33
522.376	7759.74
522.743	7743.69
523.11	7836.8
523.477	7826.18
523.843	7889
524.21	7907.31
524.577	7903.01
524.943	7891.04
525.31	7950.69
525.676	8016.23
526.043	7975.33
526.409	8064.82
526.776	8060.3
527.142	8073.86
527.508	8079.51
527.874	8121.99
528.241	8128.54
528.607	8057.58
528.973	8127.87
529.339	8125.15
529.705	8156.34
530.071	8137.36
530.437	8164.02
530.803	8175.77
531.169	8231.59
531.535	8189.11
531.901	8215.55
532.267	8232.5
532.632	8235.66
532.998	8247.64
533.364	8254.19
533.73	8238.6
534.095	8231.37
534.461	8258.03
534.826	8272.95
535.192	8262.33
535.557	8285.15
535.923	8347.97
536.288	8270.91
536.653	8245.83
537.019	8232.95
537.384	8275.66
537.749	8324.47
538.114	8257.81
538.479	8218.48
538.845	8215.32
539.21	8243.57
539.575	8245.83
539.94	8245.6
540.305	8266.39
540.67	8232.04
541.034	8218.48
541.399	8298.93
541.764	8218.26
542.129	8204.93
542.494	8294.19
542.858	8214.42
543.223	8203.8
543.587	8212.16
543.952	8207.19
544.316	8236.11
544.681	8216.22
545.045	8218.71
545.41	8205.6
545.774	8179.62
546.138	8175.55
546.503	8214.19
546.867	8170.8
547.231	8203.34
547.595	8171.25
547.959	8206.28
548.324	8169.9
548.688	8166.73
549.052	8132.16
549.416	8115.89
549.779	8123.8
550.143	8125.83
550.507	8159.95
550.871	8131.03
551.235	8174.87
551.599	8220.07
551.962	8173.29
552.326	8166.73
552.689	8159.28
553.053	8120.63
553.417	8112.05
553.78	8166.96
554.143	8121.54
554.507	8127.19
554.87	8175.32
555.234	8210.12
555.597	8118.6
555.96	8168.54
556.323	8177.36
556.686	8118.6
557.05	8159.73
557.413	8209.22
557.776	8175.1
558.139	8240.18
558.502	8215.55
558.865	8196.79
559.228	8237.24
559.59	8238.82
559.953	8239.5
560.316	8334.19
560.679	8289.22
561.041	8315.88
561.404	8362.66
561.767	8347.75
562.129	8353.17
562.492	8402.21
562.854	8348.88
563.217	8352.27
563.579	8415.09
563.941	8427.29
564.304	8390.01
564.666	8465.26
565.028	8469.55
565.39	8511.13
565.753	8535.31
566.115	8505.03
566.477	8592.26
566.839	8511.81
567.201	8647.63
567.563	8599.72
567.925	8672.48
568.287	8687.4
568.648	8692.82
569.01	8702.99
569.372	8797.45
569.734	8692.82
570.095	8767.4
570.457	8825.25
570.819	8828.41
571.18	8822.31
571.542	8843.78
571.903	8802.65
572.265	8870.44
572.626	8867.05
572.987	8901.63
573.349	8918.13
573.71	8939.82
574.071	8961.74
574.432	8971.69
574.794	9012.14
575.155	8990.22
575.516	9020.5
575.877	9047.62
576.238	9080.83
576.599	9124.68
576.96	9123.55
577.32	9080.16
577.681	9158.12
578.042	9282.64
578.403	9138.91
578.763	9182.98
579.124	9207.61
579.485	9260.72
579.845	9318.57
580.206	9265.46
580.566	9280.83
580.927	9289.64
581.287	9303.88
581.648	9336.65
582.008	9371
582.368	9307.04
582.728	9367.83
583.089	9440.15
583.449	9427.94
583.809	9516.76
584.169	9465.68
584.529	9462.52
584.889	9540.03
585.249	9534.38
585.609	9466.36
585.969	9520.15
586.329	9577.54
586.688	9614.61
587.048	9584.32
587.408	9575.96
587.768	9573.93
588.127	9591.1
588.487	9658.67
588.846	9682.4
589.206	9584.32
589.565	9632.46
589.925	9695.96
590.284	9712.23
590.643	9696.86
591.003	9692.8
591.362	9749.07
591.721	9736.86
592.08	9759.91
592.44	9753.59
592.799	9806.01
593.158	9730.31
593.517	9772.57
593.876	9788.61
594.235	9829.97
594.593	9858.67
594.952	9864.99
595.311	9840.36
595.67	9888.5
596.029	9982.96
596.387	9950.42
596.746	9896.18
597.104	9862.74
597.463	9853.7
597.822	9962.17
598.18	9845.11
598.538	9933.47
598.897	10006.91
599.255	9857.09
599.613	10018.89
599.972	9921.72
600.33	9983.41
600.688	9966.24
601.046	9974.14
601.404	10047.14
601.762	10067.7
602.12	10137.76
602.478	10125.1
602.836	10135.72
603.194	10007.82
603.552	10039.45
603.91	10013.24
604.268	10139.11
604.625	10062.05
604.983	10070.64
605.341	9989.29
605.698	10090.53
606.056	10055.72
606.413	10031.54
606.771	10093.69
607.128	10077.64
607.485	10067.02
607.843	10072.22
608.2	10109.28
608.557	10181.6
608.914	10157.87
609.272	10145.21
609.629	10232.22
609.986	10254.14
610.343	10128.26
610.7	10236.28
611.057	10252.56
611.414	10267.02
611.771	10283.06
612.127	10332.55
612.484	10243.74
612.841	10384.76
613.198	10262.05
613.554	10273.57
613.911	10370.29
614.267	10349.73
614.624	10240.58
614.98	10234.48
615.337	10385.43
615.693	10358.32
616.05	10363.06
616.406	10404.87
616.762	10406.68
617.118	10339.78
617.475	10431.76
617.831	10435.38
618.187	10470.85
618.543	10429.95
618.899	10475.37
619.255	10478.76
619.611	10453.68
619.967	10449.84
620.323	10472.21
620.678	10420.01
621.034	10412.78
621.39	10467.92
621.746	10386.56
622.101	10574.58
622.457	10337.3
622.812	10466.33
623.168	10541.14
623.523	10464.08
623.879	10506.56
624.234	10471.08
624.589	10403.74
624.945	10417.97
625.3	10451.42
625.655	10459.1
626.01	10453.45
626.365	10462.95
626.72	10452.78
627.075	10476.28
627.43	10490.29
627.785	10428.82
628.14	10474.47
628.495	10470.85
628.85	10514.92
629.205	10370.97
629.559	10483.28
629.914	10411.42
630.269	10404.19
630.623	10343.85
630.978	10328.71
631.332	10394.02
631.687	10378.43
632.041	10366.22
632.396	10322.61
632.75	10317.86
633.104	10335.72
633.459	10268.37
633.813	10300.01
634.167	10293.23
634.521	10181.82
634.875	10253.46
635.229	10243.06
635.583	10127.59
635.937	10184.99
636.291	10254.14
636.645	10215.49
636.999	10201.71
637.352	10195.61
637.706	10114.48
638.06	10217.3
638.413	10074.48
638.767	10106.34
639.121	10036.06
639.474	10059.57
639.828	10024.09
640.181	10105.89
640.534	10139.79
640.888	10034.26
641.241	10011.43
641.594	10061.37
641.947	10094.59
642.301	10076.74
642.654	10026.35
643.007	10013.69
643.36	10006.01
643.713	9945.67
644.066	9936.63
644.419	9857.54
644.771	9882.17
645.124	9880.59
645.477	9831.32
645.83	9754.49
646.182	9725.79
646.535	9654.38
646.888	9654.83
647.24	9609.18
647.593	9626.36
647.945	9636.98
648.298	9614.38
648.65	9616.19
649.002	9552.69
649.355	9579.58
649.707	9605.79
650.059	9722.4
650.411	9785.67
650.763	9767.82
651.115	9847.14
651.467	9825
651.819	9810.98
652.171	9837.65
652.523	9826.8
652.875	9830.19
653.227	9848.27
653.578	9825
653.93	9873.36
654.282	9759.46
654.633	9800.59
654.985	9741.61
655.337	9799.01
655.688	9773.47
656.039	9835.39
656.391	9755.85
656.742	9788.84
657.094	9757.88
657.445	9809.86
657.796	9774.38
658.147	9797.2
658.498	9763.53
658.849	9822.96
659.2	9757.88
659.551	9788.39
659.902	9803.08
660.253	9759.69
660.604	9784.77
660.955	9763.53
661.306	9821.61
661.656	9690.76
662.007	9767.14
662.358	9777.31
662.708	9815.96
663.059	9767.6
663.409	9715.85
663.76	9794.71
664.11	9780.7
664.461	9866.8
664.811	9759.91
665.161	9756.3
665.511	9830.19
665.862	9773.7
666.212	9825
666.562	9792.45
666.912	9790.42
667.262	9720.37
667.612	9793.13
667.962	9855.5
668.312	9791.78
668.662	9833.13
669.011	9822.96
669.361	9709.52
669.711	9695.06
670.06	9714.49
670.41	9727.6
670.76	9778.67
671.109	9763.3
671.459	9704.1
671.808	9699.58
672.157	9780.03
672.507	9662.97
672.856	9726.24
673.205	9635.4
673.554	9714.26
673.904	9686.47
674.253	9659.12
674.602	9705
674.951	9509.07
675.3	9482.41
675.649	9621.84
675.998	9633.59
676.346	9709.29
676.695	9596.08
677.044	9540.03
677.393	9682.17
677.741	9576.19
678.09	9513.37
678.438	9557.21
678.787	9564.89
679.135	9538.22
679.484	9535.06
679.832	9563.53
680.181	9460.03
680.529	9580.26
680.877	9504.33
681.225	9472.91
681.573	9498
681.922	9494.61
682.27	9421.39
682.618	9425.46
682.966	9402.63
683.314	9425.68
683.661	9402.41
684.009	9330.32
684.357	9264.78
684.705	9253.49
685.053	9309.08
685.4	9311.79
685.748	9238.12
686.095	9207.16
686.443	9203.32
686.79	9166.71
687.138	9155.41
687.485	9149.99
687.832	9133.26
688.18	9154.51
688.527	9081.29
688.874	9050.78
689.221	9040.16
689.568	9020.05
689.915	9025.69
690.262	9011.46
690.609	8926.49
690.956	8898.92
691.303	8880.16
691.65	8831.35
691.997	8804.23
692.344	8794.97
692.69	8762.65
693.037	8773.05
693.383	8628.42
693.73	8692.82
694.077	8720.62
694.423	8647.85
694.769	8611.02
695.116	8578.7
695.462	8555.65
695.808	8484.24
696.155	8520.85
696.501	8486.27
696.847	8446.28
697.193	8356.11
697.539	8412.6
697.885	8403.11
698.231	8326.05
698.577	8260.74
698.923	8258.03
699.269	8233.17
699.614	8228.2
699.96	8166.73
700.306	8204.47
700.651	8150.24
700.997	8048.32
701.342	8111.59
701.688	8123.57
702.033	8025.5
702.379	7975.33
702.724	8004.25
703.069	7985.72
703.415	7869.79
703.76	7913.41
704.105	7927.64
704.45	7841.09
704.795	7859.4
705.14	7772.39
705.485	7853.97
705.83	7811.94
706.175	7764.26
706.52	7780.08
706.865	7732.4
707.209	7689.68
707.554	7648.56
707.899	7681.78
708.243	7562.91
708.588	7661.66
708.932	7594.09
709.277	7602.91
709.621	7514.1
709.966	7491.5
710.31	7539.18
710.654	7415.79
710.998	7422.35
711.342	7430.71
711.687	7450.82
712.031	7451.72
712.375	7390.71
712.719	7414.66
713.063	7320.65
713.407	7380.54
713.75	7390.48
714.094	7293.09
714.438	7270.26
714.782	7250.37
715.125	7235.91
715.469	7286.98
715.812	7205.4
716.156	7183.94
716.499	7189.81
716.843	7229.81
717.186	7133.54
717.53	7191.17
717.873	7144.16
718.216	7155.24
718.559	7186.2
718.902	7108.46
719.246	7129.47
719.589	7054.67
719.932	7043.6
720.275	7037.05
720.617	7063.26
720.96	6971.29
721.303	7053.09
721.646	7032.07
721.989	7025.75
722.331	7031.62
722.674	7031.85
723.016	7008.12
723.359	6956.82
723.701	6991.85
724.044	6948.46
724.386	6913.66
724.729	7036.82
725.071	6961.12
725.413	6967.22
725.755	6954.79
726.097	6910.95
726.439	6934.45
726.782	6915.92
727.124	6901.91
727.465	6847.45
727.807	6870.05
728.149	6869.82
728.491	6840.89
728.833	6882.25
729.175	6897.84
729.516	6865.98
729.858	6853.32
730.199	6866.88
730.541	6822.81
730.882	6860.55
731.224	6830.27
731.565	6838.18
731.906	6848.35
732.248	6844.74
732.589	6809.26
732.93	6811.74
733.271	6816.26
733.612	6792.99
733.953	6799.09
734.294	6794.34
734.635	6813.78
734.976	6856.94
735.317	6762.03
735.658	6781.23
735.999	6819.88
736.339	6784.4
736.68	6805.19
737.021	6853.77
737.361	6766.32
737.702	6781.01
738.042	6743.04
738.383	6865.75
738.723	6811.52
739.063	6790.73
739.404	6826.88
739.744	6846.77
740.084	6831.4
740.424	6880.67
740.764	6850.38
741.104	6889.71
741.444	6834.11
741.784	6861.46
742.124	6828.69
742.464	6883.83
742.804	6887.67
743.143	6956.14
743.483	6941.68
743.823	6961.79
744.162	6908.69
744.502	6992.3
744.841	6874.79
745.181	7041.79
745.52	7009.48
745.86	7093.54
746.199	7069.36
746.538	7087.89
746.877	7165.86
747.216	7129.25
747.556	7175.8
747.895	7217.38
748.234	7244.5
748.573	7239.98
748.911	7315.46
749.25	7380.77
749.589	7345.74
749.928	7548.22
750.267	7471.39
750.605	7550.48
750.944	7591.16
751.283	7609.23
751.621	7782.79
751.96	7727.2
752.298	7823.69
752.636	7928.1
752.975	7949.56
753.313	8057.13
753.651	8132.16
753.989	8189.33
754.327	8276.34
754.666	8333.06
755.004	8396.78
755.342	8496.9
755.679	8656.44
756.017	8704.35
756.355	8782.09
756.693	8852.37
757.031	9038.8
757.368	9057.33
757.706	9165.13
758.044	9300.04
758.381	9442.41
758.719	9498.45
759.056	9680.14
759.394	9709.97
759.731	9846.69
760.068	9966.01
760.405	10108.6
760.743	10202.39
761.08	10348.37
761.417	10425.21
761.754	10492.32
762.091	10682.37
762.428	10767.57
762.765	10843.5
763.102	11011.41
763.438	11095.92
763.775	11227.22
764.112	11335.92
764.449	11562.13
764.785	11604.61
765.122	11693.2
765.458	11767.32
765.795	11982.45
766.131	12113.3
766.467	12192.62
766.804	12334.53
767.14	12346.51
