Data from hue_30_FLMS001491_82.txt Node
Date: Mon Feb 06 15:06:11 GMT 2017
User: dcchb
Spectrometer: FLMS00149
Trigger mode: 0
Integration Time (sec): 2.000000E-2
Scans to average: 10
Electric dark correction enabled: true
Nonlinearity correction enabled: false
Boxcar width: 0
XAxis mode: Wavelengths
Number of Pixels in Spectrum: 2048
>>>>>Begin Spectral Data<<<<<
341.393	-9.49
341.776	-9.49
342.16	-9.49
342.543	-56.5
342.927	-67.79
343.31	-59.43
343.693	-70.51
344.077	-61.92
344.46	-48.36
344.843	-53.33
345.226	-55.82
345.61	-17.4
345.993	-32.77
346.376	-2.03
346.759	-9.27
347.142	27.12
347.525	45.87
347.908	58.53
348.291	65.99
348.674	93.1
349.057	120.22
349.44	133.1
349.823	156.83
350.206	178.07
350.588	190.5
350.971	192.99
351.354	234.34
351.737	232.76
352.119	255.36
352.502	283.83
352.884	273.21
353.267	276.15
353.65	288.58
354.032	302.14
354.414	299.43
354.797	311.86
355.179	339.88
355.562	328.35
355.944	309.14
356.326	332.65
356.709	344.85
357.091	342.82
357.473	355.92
357.855	360.44
358.238	346.66
358.62	350.73
359.002	344.4
359.384	342.14
359.766	343.72
360.148	341.01
360.53	360.22
360.912	328.8
361.294	329.71
361.676	333.55
362.057	363.61
362.439	337.62
362.821	313.89
363.203	341.46
363.584	335.58
363.966	338.97
364.348	323.61
364.729	310.95
365.111	311.63
365.493	335.13
365.874	327.45
366.256	299.88
366.637	331.97
367.019	317.51
367.4	336.94
367.781	334.91
368.163	330.61
368.544	322.03
368.925	322.25
369.306	341.23
369.688	341.69
370.069	313.21
370.45	308.24
370.831	316.15
371.212	312.53
371.593	318.64
371.974	316.6
372.355	321.12
372.736	333.32
373.117	322.48
373.498	304.4
373.879	313.89
374.26	312.08
374.641	320.9
375.021	331.29
375.402	341.69
375.783	343.95
376.163	347.79
376.544	334.45
376.925	337.17
377.305	311.86
377.686	346.43
378.066	339.2
378.447	341.69
378.827	327.67
379.208	328.8
379.588	329.71
379.968	340.78
380.349	341.23
380.729	335.36
381.109	347.34
381.489	353.89
381.87	345.75
382.25	342.14
382.63	331.29
383.01	351.86
383.39	366.32
383.77	366.77
384.15	361.57
384.53	338.75
384.91	371.97
385.29	340.33
385.67	359.99
386.049	378.97
386.429	359.54
386.809	371.52
387.189	374
387.568	376.04
387.948	381.68
388.328	381.91
388.707	361.35
389.087	374.45
389.466	383.04
389.846	369.26
390.225	378.75
390.605	385.75
390.984	384.17
391.363	388.01
391.743	392.53
392.122	374.91
392.501	392.98
392.881	400.44
393.26	397.5
393.639	402.25
394.018	386.88
394.397	397.05
394.776	415.58
395.155	414.68
395.534	394.57
395.913	404.74
396.292	404.74
396.671	392.53
397.05	406.99
397.429	392.31
397.808	417.84
398.186	417.84
398.565	428.24
398.944	405.87
399.323	390.95
399.701	417.84
400.08	423.04
400.458	416.03
400.837	413.55
401.215	427.33
401.594	429.82
401.972	430.95
402.351	404.06
402.729	438.41
403.107	427.79
403.486	450.84
403.864	435.47
404.242	444.73
404.62	437.05
404.999	428.24
405.377	440.67
405.755	471.17
406.133	456.49
406.511	444.28
406.889	456.71
407.267	490.61
407.645	458.52
408.023	484.06
408.401	488.12
408.779	457.16
409.156	461.23
409.534	470.27
409.912	471.17
410.29	496.03
410.667	468.46
411.045	500.33
411.422	493.55
411.8	490.61
412.178	495.13
412.555	493.77
412.933	496.94
413.31	514.34
413.687	503.49
414.065	519.99
414.442	525.41
414.819	532.42
415.197	505.75
415.574	546.2
415.951	529.48
416.328	534.9
416.705	535.35
417.082	571.74
417.46	524.51
417.837	556.14
418.214	541.91
418.591	557.73
418.967	553.66
419.344	566.54
419.721	556.6
420.098	556.37
420.475	571.06
420.852	546.2
421.228	560.89
421.605	576.03
421.982	590.49
422.358	603.83
422.735	581.45
423.111	606.54
423.488	635.24
423.864	606.99
424.241	600.89
424.617	620.32
424.994	611.96
425.37	614.45
425.746	640.89
426.123	618.74
426.499	631.4
426.875	647.44
427.251	621.23
427.627	662.81
428.003	662.81
428.379	630.04
428.756	673.43
429.132	653.54
429.507	670.72
429.883	698.29
430.259	677.04
430.635	711.85
431.011	702.35
431.387	703.48
431.763	726.99
432.138	733.31
432.514	707.55
432.89	729.02
433.265	726.31
433.641	738.96
434.016	765.86
434.392	756.59
434.767	760.43
435.143	767.66
435.518	768.12
435.894	773.99
436.269	779.64
436.644	764.95
437.02	799.75
437.395	805.63
437.77	807.21
438.145	811.28
438.52	795.46
438.895	849.7
439.271	818.51
439.646	845.85
440.021	859.86
440.395	875.68
440.77	850.15
441.145	875.68
441.52	872.07
441.895	871.62
442.27	895.12
442.645	871.39
443.019	873.88
443.394	894.44
443.769	875.68
444.143	915.23
444.518	919.52
444.892	910.71
445.267	913.87
445.641	933.08
446.016	920.88
446.39	932.63
446.764	938.51
447.139	942.8
447.513	945.96
447.887	963.82
448.262	976.92
448.636	940.77
449.01	997.71
449.384	976.7
449.758	988
450.132	988.67
450.506	1011.95
450.88	973.76
451.254	998.84
451.628	1020.31
452.002	1043.36
452.376	1025.28
452.75	1056.47
453.123	1059.18
453.497	1077.94
453.871	1054.89
454.244	1081.33
454.618	1099.86
454.992	1109.12
455.365	1115.22
455.739	1159.97
456.112	1145.28
456.486	1147.31
456.859	1163.59
457.232	1190.03
457.606	1178.5
457.979	1202.91
458.352	1229.8
458.725	1218.05
459.099	1234.09
459.472	1276.58
459.845	1248.55
460.218	1281.32
460.591	1284.26
460.964	1307.99
461.337	1341.43
461.71	1329
462.083	1347.54
462.456	1361.77
462.829	1338.5
463.201	1396.12
463.574	1404.26
463.947	1438.61
464.32	1432.73
464.692	1434.99
465.065	1474.76
465.438	1464.37
465.81	1503.24
466.183	1538.04
466.555	1507.76
466.928	1578.49
467.3	1537.13
467.672	1569.9
468.045	1628.66
468.417	1607.87
468.789	1623.91
469.161	1677.02
469.534	1703.46
469.906	1716.11
470.278	1741.65
470.65	1747.75
471.022	1773.06
471.394	1815.32
471.766	1853.51
472.138	1856
472.51	1904.13
472.882	1937.12
473.253	1957.01
473.625	2015.77
473.997	2047.86
474.369	2082.66
474.74	2065.93
475.112	2112.71
475.484	2156.78
475.855	2183.67
476.227	2228.64
476.598	2299.37
476.97	2334.63
477.341	2360.16
477.713	2392.93
478.084	2450.11
478.455	2490.33
478.827	2539.14
479.198	2615.52
479.569	2634.06
479.94	2681.96
480.311	2754.05
480.682	2843.54
481.053	2881.28
481.424	2962.86
481.795	2986.14
482.166	3038.11
482.537	3103.2
482.908	3164.21
483.279	3229.07
483.65	3313.81
484.021	3345.22
484.391	3408.5
484.762	3474.03
485.133	3527.14
485.503	3570.08
485.874	3619.79
486.244	3728.94
486.615	3772.56
486.985	3826.57
487.356	3952.89
487.726	4014.36
488.097	4087.58
488.467	4128.48
488.837	4227.01
489.207	4286.44
489.578	4376.38
489.948	4462.48
490.318	4530.95
490.688	4538.86
491.058	4657.05
491.428	4760.33
491.798	4766.43
492.168	4886.88
492.538	4870.38
492.908	5023.82
493.278	5059.53
493.648	5101.11
494.017	5187.89
494.387	5267.88
494.757	5329.13
495.126	5390.82
495.496	5432.4
495.866	5452.51
496.235	5603.69
496.605	5633.98
496.974	5699.96
497.344	5752.17
497.713	5829.23
498.082	5910.81
498.452	5890.01
498.821	5958.04
499.19	5995.55
499.559	6048.88
499.928	6096.34
500.298	6083.23
500.667	6285.26
501.036	6223.79
501.405	6362.32
501.774	6341.3
502.143	6406.61
502.512	6491.13
502.88	6562.77
503.249	6605.93
503.618	6623.55
503.987	6646.15
504.356	6726.6
504.724	6784
505.093	6759.82
505.462	6840.72
505.83	6878.01
506.199	6984
506.567	7055.63
506.936	7013.6
507.304	7078.01
507.672	7190.55
508.041	7132.92
508.409	7205.69
508.777	7297.44
509.145	7291.11
509.514	7322.97
509.882	7405.91
510.25	7482.06
510.618	7470.99
510.986	7470.09
511.354	7574.94
511.722	7588.5
512.09	7715.28
512.458	7682.96
512.826	7740.81
513.193	7789.85
513.561	7798.89
513.929	7934.71
514.297	7927.48
514.664	8048.38
515.032	7994.37
515.4	8068.49
515.767	8128.83
516.135	8135.38
516.502	8102.61
516.869	8241.82
517.237	8264.19
517.604	8171.31
517.972	8353.23
518.339	8404.98
518.706	8356.62
519.073	8369.5
519.44	8455.14
519.808	8501.02
520.175	8560
520.542	8682.26
520.909	8649.72
521.276	8714.35
521.643	8751.18
522.009	8768.58
522.376	8836.6
522.743	8929.03
523.11	8917.73
523.477	9063.72
523.843	9102.59
524.21	9133.77
524.577	9235.24
524.943	9223.71
525.31	9274.33
525.676	9390.49
526.043	9440.88
526.409	9468.9
526.776	9549.58
527.142	9584.83
527.508	9621.89
527.874	9680.88
528.241	9727.88
528.607	9807.88
528.973	9893.53
529.339	9876.58
529.705	9999.51
530.071	10019.62
530.437	10131.49
530.803	10127.87
531.169	10189.56
531.535	10185.72
531.901	10221.2
532.267	10226.17
532.632	10299.16
532.998	10395.66
533.364	10430.91
533.73	10495.77
534.095	10595.65
534.461	10592.04
534.826	10598.59
535.192	10680.62
535.557	10752.03
535.923	10717.68
536.288	10812.6
536.653	10896.66
537.019	10878.58
537.384	10951.12
537.749	10990.45
538.114	10980.5
538.479	11013.5
538.845	11107.96
539.21	11105.24
539.575	11177.56
539.94	11202.64
540.305	11314.5
540.67	11305.47
541.034	11340.27
541.399	11348.4
541.764	11474.5
542.129	11496.87
542.494	11552.01
542.858	11601.73
543.223	11569.87
543.587	11714.49
543.952	11683.08
544.316	11735.74
544.681	11866.81
545.045	11789.97
545.41	11897.77
545.774	11879.24
546.138	11959.69
546.503	12026.35
546.867	12031.32
547.231	12089.63
547.595	12205.33
547.959	12175.27
548.324	12113.13
548.688	12270.41
549.052	12292.33
549.416	12364.87
549.779	12339.11
550.143	12469.05
550.507	12491.2
550.871	12565.77
551.235	12579.33
551.599	12634.02
551.962	12648.71
552.326	12715.6
552.689	12738.2
553.053	12757.86
553.417	12888.02
553.78	12895.71
554.143	12876.72
554.507	12902.49
554.87	13024.06
555.234	13103.16
555.597	13071.29
555.96	13114.46
556.323	13108.81
556.686	13222.7
557.05	13285.07
557.413	13328.01
557.776	13402.59
558.139	13437.84
558.502	13506.76
558.865	13437.16
559.228	13515.12
559.59	13570.72
559.953	13686.19
560.316	13830.37
560.679	13793.76
561.041	13796.93
561.404	13925.28
561.767	13982.68
562.129	13873.53
562.492	14071.95
562.854	13994.66
563.217	13932.29
563.579	14099.74
563.941	14104.49
564.304	14234.43
564.666	14362.56
565.028	14310.81
565.39	14371.15
565.753	14481.88
566.115	14471.48
566.477	14516.45
566.839	14603.68
567.201	14636.45
567.563	14626.73
567.925	14797.35
568.287	14768.65
568.648	14818.37
569.01	14971.36
569.372	14996.67
569.734	15072.6
570.095	15141.52
570.457	15128.87
570.819	15158.7
571.18	15269.65
571.542	15429.88
571.903	15407.05
572.265	15523.89
572.626	15589.87
572.987	15572.25
573.349	15648.18
573.71	15822.41
574.071	15716.87
574.432	15841.17
574.794	16057.66
575.155	16134.27
575.516	16033.02
575.877	16292.68
576.238	16318.44
576.599	16401.38
576.96	16452.45
577.32	16643.86
577.681	16722.95
578.042	16789.84
578.403	16838.2
578.763	17083.17
579.124	17173.56
579.485	17445.87
579.845	17486.32
580.206	17579.42
580.566	17727.44
580.927	17842.02
581.287	18066.42
581.648	18131.27
582.008	18440.65
582.368	18471.38
582.728	18708.43
583.089	18804.25
583.449	19018.48
583.809	19171.47
584.169	19357.91
584.529	19677.67
584.889	19865.47
585.249	20000.38
585.609	20096.42
585.969	20500.48
586.329	20646.24
586.688	21035.83
587.048	21220.23
587.408	21355.6
587.768	21575.48
588.127	21857.5
588.487	22051.4
588.846	22463.14
589.206	22538.84
589.565	22796.91
589.925	23141.31
590.284	23375.2
590.643	23587.63
591.003	24005.92
591.362	24344.44
591.721	24526.59
592.08	24779.01
592.44	25088.38
592.799	25474.36
593.158	25682.26
593.517	25907.79
593.876	26247.45
594.235	26502.81
594.593	26839.29
594.952	27178.27
595.311	27303.46
595.67	27653.51
596.029	28080.17
596.387	28398.58
596.746	28698.91
597.104	28852.35
597.463	29110.42
597.822	29553.8
598.18	29790.18
598.538	30003.5
598.897	30476.94
599.255	30536.37
599.613	31182.68
599.972	31204.38
600.33	31492.05
600.688	31658.38
601.046	31932.49
601.404	32447.96
601.762	32562.53
602.12	32995.52
602.478	33200.48
602.836	33562.73
603.194	33525.22
603.552	33922.5
603.91	33985.77
604.268	34404.97
604.625	34575.36
604.983	34884.73
605.341	34859.65
605.698	35320.88
606.056	35618.05
606.413	35698.04
606.771	36119.05
607.128	36371.92
607.485	36430.23
607.843	36568.76
608.2	37046.03
608.557	37445.12
608.914	37439.02
609.272	37747.71
609.629	37907.03
609.986	38303.63
610.343	38202.39
610.7	38654.35
611.057	38826.1
611.414	38994.91
611.771	39173.21
612.127	39344.28
612.484	39537.27
612.841	39833.08
613.198	39730.93
613.554	39943.58
613.911	40274.42
614.267	40241.2
614.624	40426.51
614.98	40633.06
615.337	40914.63
615.693	41045.7
616.05	41063.55
616.406	41390.78
616.762	41388.06
617.118	41463.99
617.475	41638.23
617.831	41815.4
618.187	41936.07
618.543	42132.9
618.899	42405.21
619.255	42445.21
619.611	42457.19
619.967	42800
620.323	42996.84
620.678	42786.22
621.034	42788.25
621.39	43051.98
621.746	42905.76
622.101	43498.52
622.457	43170.16
622.812	43422.81
623.168	43566.76
623.523	43399.99
623.879	43689.02
624.234	43526.31
624.589	43692.18
624.945	43898.96
625.3	43931.27
625.655	44020.76
626.01	43962.46
626.365	44152.29
626.72	44249.68
627.075	44225.96
627.43	44192.96
627.785	44267.08
628.14	44339.4
628.495	44463.46
628.85	44518.15
629.205	44420.07
629.559	44598.83
629.914	44407.65
630.269	44673.4
630.623	44620.3
630.978	44356.8
631.332	44631.37
631.687	44821.87
632.041	44518.38
632.396	44683.34
632.75	44467.76
633.104	44656.45
633.459	44500.07
633.813	44501.65
634.167	44526.74
634.521	44483.12
634.875	44578.26
635.229	44754.08
635.583	44436.57
635.937	44634.76
636.291	44538.72
636.645	44554.99
636.999	44565.38
637.352	44692.84
637.706	44377.82
638.06	44620.52
638.413	44573.52
638.767	44424.37
639.121	44609.45
639.474	44298.5
639.828	44375.1
640.181	44466.63
640.534	44474.99
640.888	44460.53
641.241	44154.55
641.594	44326.07
641.947	44299.85
642.301	44321.77
642.654	44319.96
643.007	44427.76
643.36	44274.54
643.713	44257.37
644.066	44476.34
644.419	44163.36
644.771	43807.44
645.124	43516.6
645.477	43608.8
645.83	43258.07
646.182	43154.57
646.535	43036.16
646.888	42987.12
647.24	42828.93
647.593	42996.84
647.945	42973.33
648.298	42916.61
648.65	42790.29
649.002	42702.83
649.355	42859.66
649.707	42831.19
650.059	42876.61
650.411	43443.15
650.763	43537.39
651.115	43985.51
651.467	43797.94
651.819	43807.89
652.171	43687.44
652.523	43733.77
652.875	43665.97
653.227	43527.44
653.578	43786.65
653.93	43591.17
654.282	43597.5
654.633	43463.04
654.985	43548.91
655.337	43363.83
655.688	43532.64
656.039	43508.91
656.391	43387.79
656.742	43258.75
657.094	43354.79
657.445	43582.81
657.796	43388.46
658.147	43174.01
658.498	43392.98
658.849	43563.83
659.2	43367
659.551	43220.33
659.902	43292.2
660.253	43357.05
660.604	43435.24
660.955	43050.17
661.306	43288.35
661.656	43318.41
662.007	43130.62
662.358	43263.5
662.708	43106.89
663.059	43228.24
663.409	42993.67
663.76	43342.36
664.11	43219.2
664.461	43299.2
664.811	43182.14
665.161	43261.91
665.511	43145.53
665.862	43150.96
666.212	43314.12
666.562	43164.51
666.912	43198.86
667.262	43067.79
667.612	43094.91
667.962	43149.15
668.312	43134.91
668.662	43206.77
669.011	43036.16
669.361	43052.65
669.711	43044.29
670.06	43000
670.41	42856.73
670.76	42868.03
671.109	42905.99
671.459	43048.81
671.808	42864.86
672.157	42950.28
672.507	42762.04
672.856	42640.91
673.205	42975.14
673.554	42833.22
673.904	42827.12
674.253	43052.43
674.602	42821.92
674.951	42219
675.3	42081.61
675.649	42811.53
675.998	42785.09
676.346	42838.87
676.695	42778.99
677.044	42451.31
677.393	42716.39
677.741	42755.03
678.09	42628.26
678.438	42521.82
678.787	42647.92
679.135	42554.81
679.484	42304.88
679.832	42436.85
680.181	42190.76
680.529	42310.98
680.877	42170.64
681.225	41990.08
681.573	42319.34
681.922	42040.93
682.27	42016.97
682.618	41992.79
682.966	41856.07
683.314	42038.22
683.661	41845.91
684.009	41751.44
684.357	41712.8
684.705	41577.44
685.053	41566.82
685.4	41524.33
685.748	41367.73
686.095	41309.42
686.443	41192.14
686.79	41231.23
687.138	41221.06
687.485	41227.84
687.832	40952.37
688.18	41018.81
688.527	40852.71
688.874	40869.89
689.221	40692.49
689.568	40727.06
689.915	40721.42
690.262	40602.55
690.609	40519.16
690.956	40363.23
691.303	40393.06
691.65	40221.54
691.997	40149.9
692.344	39877.37
692.69	39915.11
693.037	40076.23
693.383	39653.65
693.73	39747.43
694.077	39610.26
694.423	39615.68
694.769	39515.57
695.116	39331.85
695.462	39250.95
695.808	39113.32
696.155	39182.7
696.501	38984.51
696.847	38928.69
697.193	38621.36
697.539	38881.46
697.885	38582.94
698.231	38433.34
698.577	38385.21
698.923	38402.38
699.269	38137.98
699.614	37961.04
699.96	38069.51
700.306	37829.97
700.651	37819.57
700.997	37659.12
701.342	37678.11
701.688	37599.01
702.033	37484.21
702.379	37476.53
702.724	37345.46
703.069	37253.71
703.415	36802.65
703.76	37088.29
704.105	36991.8
704.45	36884.23
704.795	36535.99
705.14	36644.91
705.485	36389.1
705.83	36513.39
706.175	36530.56
706.52	36318.82
706.865	36303.45
707.209	36312.94
707.554	36071.59
707.899	36179.16
708.243	35977.36
708.588	35985.95
708.932	35707.54
709.277	35592.28
709.621	35690.36
709.966	35508.22
710.31	35644.71
710.654	35279.52
710.998	35379.41
711.342	35393.87
711.687	35173.09
712.031	35155.91
712.375	34916.14
712.719	35039.76
713.063	34810.61
713.407	35053.09
713.75	34737.17
714.094	34825.07
714.438	34632.08
714.782	34724.28
715.125	34530.62
715.469	34525.65
715.812	34314.35
716.156	34109.61
716.499	34148.03
716.843	34223.28
717.186	34013.12
717.53	34108.93
717.873	34220.57
718.216	33961.59
718.559	33849.51
718.902	33658.78
719.246	33911.65
719.589	33668.04
719.932	33490.64
720.275	33524.99
720.617	33513.7
720.96	33394.38
721.303	33422.17
721.646	33446.35
721.989	33351.67
722.331	33355.73
722.674	33179.01
723.016	33215.62
723.359	33133.14
723.701	33182.18
724.044	32896.08
724.386	32825.58
724.729	32930.89
725.071	32798.01
725.413	32864.67
725.755	32601.63
726.097	32662.19
726.439	32447.51
726.782	32430.11
727.124	32628.52
727.465	32299.72
727.807	32377.23
728.149	32384.91
728.491	32326.38
728.833	32369.09
729.175	32329.55
729.516	31953.28
729.858	32137.91
730.199	32154.41
730.541	32109.89
730.882	31983.57
731.224	32203.45
731.565	31916.9
731.906	31876
732.248	31836
732.589	31636.23
732.93	31529.79
733.271	31678.04
733.612	31635.55
733.953	31558.94
734.294	31502.67
734.635	31492.73
734.976	31517.82
735.317	31257.03
735.658	31292.28
735.999	31311.27
736.339	31244.83
736.68	31337.26
737.021	31169.58
737.361	31125.74
737.702	31295.22
738.042	31116.24
738.383	31043.93
738.723	31028.56
739.063	30908.57
739.404	30923.93
739.744	30946.98
740.084	30758.51
740.424	30750.38
740.764	30693.66
741.104	30885.74
741.444	30605.07
741.784	30473.78
742.124	30669.48
742.464	30497.28
742.804	30402.59
743.143	30435.13
743.483	30424.96
743.823	30189.94
744.162	30158.98
744.502	30157.63
744.841	30199.21
745.181	30284.85
745.52	30068.36
745.86	30118.53
746.199	30083.73
746.538	30050.51
746.877	29867.92
747.216	29948.37
747.556	29879.44
747.895	29961.7
748.234	29868.82
748.573	29786.11
748.911	29730.97
749.25	29673.12
749.589	29489.17
749.928	29726.9
750.267	29483.29
750.605	29414.59
750.944	29526
751.283	29366.69
751.621	29402.16
751.96	29185.45
752.298	29279
752.636	29232.9
752.975	29119.46
753.313	28913.36
753.651	29096.64
753.989	28954.94
754.327	28816.19
754.666	28709.98
755.004	28753.37
755.342	28875.85
755.679	28775.74
756.017	28564.45
756.355	28705.46
756.693	28444
757.031	28647.38
757.368	28452.13
757.706	28329.65
