Data from hue_34_FLMS001491_00028.txt Node
Date: Tue Feb 07 17:25:24 GMT 2017
User: dcchb
Spectrometer: FLMS00149
Trigger mode: 0
Integration Time (sec): 2.000000E-2
Scans to average: 10
Electric dark correction enabled: true
Nonlinearity correction enabled: false
Boxcar width: 0
XAxis mode: Wavelengths
Number of Pixels in Spectrum: 2048
>>>>>Begin Spectral Data<<<<<
341.393	-13.26
341.776	-13.26
342.16	-13.26
342.543	-71.34
342.927	-57.1
343.31	-59.59
343.693	-50.1
344.077	-62.98
344.46	-57.33
344.843	-60.49
345.226	-48.52
345.61	-22.75
345.993	-42.64
346.376	-34.96
346.759	14.08
347.142	29
347.525	22.22
347.908	63.35
348.291	88.43
348.674	99.05
349.057	123.23
349.44	115.55
349.823	158.26
350.206	155.77
350.588	198.48
350.971	207.3
351.354	225.83
351.737	252.27
352.119	239.61
352.502	270.35
352.884	277.58
353.267	277.13
353.65	309.22
354.032	299.5
354.414	309.89
354.797	303.79
355.179	310.8
355.562	326.16
355.944	331.59
356.326	333.62
356.709	328.88
357.091	348.08
357.473	345.15
357.855	332.27
358.238	339.04
358.62	339.95
359.002	348.76
359.384	361.42
359.766	332.27
360.148	352.15
360.53	346.05
360.912	338.37
361.294	326.84
361.676	333.17
362.057	322.77
362.439	325.71
362.821	336.56
363.203	320.97
363.584	320.51
363.966	334.53
364.348	306.28
364.729	315.77
365.111	315.54
365.493	332.04
365.874	305.83
366.256	335.2
366.637	318.71
367.019	329.33
367.4	327.52
367.781	327.52
368.163	308.76
368.544	312.6
368.925	318.25
369.306	332.94
369.688	307.41
370.069	322.1
370.45	315.32
370.831	306.28
371.212	318.03
371.593	317.35
371.974	325.26
372.355	335.2
372.736	318.03
373.117	331.59
373.498	323.23
373.879	323.68
374.26	315.99
374.641	323.9
375.021	310.8
375.402	318.25
375.783	323.68
376.163	313.51
376.544	340.63
376.925	342.21
377.305	340.17
377.686	345.6
378.066	321.19
378.447	321.19
378.827	338.14
379.208	321.64
379.588	344.47
379.968	319.84
380.349	310.57
380.729	322.32
381.109	338.82
381.489	337.69
381.87	341.53
382.25	355.09
382.63	330.68
383.01	354.19
383.39	335.66
383.77	356.67
384.15	333.4
384.53	355.32
384.91	318.03
385.29	340.4
385.67	351.7
386.049	355.32
386.429	346.05
386.809	348.54
387.189	371.36
387.568	348.99
387.948	363.22
388.328	377.69
388.707	348.31
389.087	360.29
389.466	380.17
389.846	366.16
390.225	374.07
390.605	368.42
390.984	359.61
391.363	364.35
391.743	339.04
392.122	341.08
392.501	360.74
392.881	340.17
393.26	370
393.639	383.11
394.018	384.69
394.397	394.86
394.776	385.37
395.155	375.2
395.534	356.45
395.913	366.39
396.292	390.34
396.671	391.92
397.05	375.88
397.429	384.92
397.808	386.73
398.186	386.73
398.565	373.17
398.944	383.34
399.323	393.51
399.701	385.82
400.08	383.79
400.458	391.02
400.837	387.41
401.215	386.73
401.594	378.82
401.972	399.83
402.351	378.14
402.729	402.32
403.107	415.43
403.486	413.62
403.864	401.87
404.242	411.36
404.62	391.25
404.999	413.39
405.377	424.92
405.755	419.95
406.133	423.34
406.511	421.75
406.889	415.88
407.267	427.86
407.645	410.91
408.023	411.36
408.401	419.04
408.779	440.96
409.156	410.68
409.534	424.69
409.912	452.04
410.29	435.54
410.667	458.36
411.045	438.03
411.422	449.1
411.8	451.36
412.178	447.97
412.555	453.84
412.933	453.17
413.31	458.59
413.687	455.2
414.065	484.8
414.442	471.02
414.819	473.28
415.197	458.82
415.574	494.97
415.951	471.92
416.328	471.02
416.705	475.31
417.082	482.09
417.46	508.76
417.837	501.07
418.214	498.81
418.591	518.02
418.967	502.43
419.344	514.41
419.721	510.79
420.098	523.22
420.475	524.35
420.852	515.54
421.228	522.54
421.605	538.59
421.982	537.46
422.358	518.48
422.735	533.16
423.111	527.51
423.488	558.02
423.864	536.55
424.241	514.86
424.617	532.94
424.994	533.16
425.37	538.14
425.746	563.9
426.123	568.64
426.499	567.74
426.875	576.55
427.251	553.28
427.627	572.03
428.003	584.01
428.379	589.43
428.756	594.86
429.132	605.48
429.507	575.2
429.883	591.47
430.259	597.8
430.635	589.43
431.011	605.25
431.387	609.77
431.763	614.97
432.138	621.3
432.514	638.7
432.89	635.31
433.265	658.36
433.641	645.7
434.016	655.65
434.392	669.66
434.767	671.01
435.143	646.83
435.518	662.2
435.894	659.26
436.269	690.9
436.644	687.96
437.02	703.1
437.395	692.71
437.77	681.41
438.145	691.35
438.52	720.05
438.895	721.18
439.271	716.66
439.646	710.33
440.021	709.88
440.395	737.9
440.77	723.67
441.145	717.34
441.52	769.32
441.895	733.84
442.27	755.3
442.645	763.89
443.019	765.7
443.394	769.99
443.769	746.49
444.143	758.47
444.518	775.42
444.892	775.64
445.267	763.89
445.641	788.75
446.016	788.07
446.39	772.48
446.764	792.59
447.139	758.02
447.513	793.27
447.887	790.33
448.262	808.64
448.636	820.39
449.01	817
449.384	820.16
449.758	818.81
450.132	797.56
450.506	826.72
450.88	853.38
451.254	837.79
451.628	848.18
452.002	841.86
452.376	863.32
452.75	888.18
453.123	851.8
453.497	882.31
453.871	891.12
454.244	916.43
454.618	903.55
454.992	914.17
455.365	933.61
455.739	926.15
456.112	930.22
456.486	961.4
456.859	955.98
457.232	977.22
457.606	939.48
457.979	989.65
458.352	986.71
458.725	999.14
459.099	1022.64
459.472	1040.04
459.845	1038.91
460.218	1039.82
460.591	1046.6
460.964	1061.51
461.337	1098.8
461.71	1081.62
462.083	1102.64
462.456	1125.92
462.829	1123.66
463.201	1125.01
463.574	1139.48
463.947	1139.93
464.32	1179.93
464.692	1164.56
465.065	1178.8
465.438	1207.27
465.81	1245.91
466.183	1248.63
466.555	1281.39
466.928	1289.08
467.3	1260.6
467.672	1291.79
468.045	1325.69
468.417	1335.18
468.789	1347.61
469.161	1369.98
469.534	1380.6
469.906	1421.73
470.278	1441.39
470.65	1472.12
471.022	1477.09
471.394	1550.99
471.766	1514.61
472.138	1574.72
472.51	1597.99
472.882	1621.5
473.253	1665.11
473.625	1681.16
473.997	1706.24
474.369	1715.96
474.74	1738.33
475.112	1779.68
475.484	1819.91
475.855	1834.6
476.227	1897.42
476.598	1913.24
476.97	1955.5
477.341	2026.68
477.713	2051.77
478.084	2075.04
478.455	2179
478.827	2219
479.198	2260.58
479.569	2297.64
479.94	2348.03
480.311	2419.44
480.682	2484.07
481.053	2571.53
481.424	2598.42
481.795	2649.49
482.166	2722.94
482.537	2760.45
482.908	2812.88
483.279	2919.99
483.65	2968.13
484.021	3022.82
484.391	3102.14
484.762	3164.51
485.133	3213.32
485.503	3346.42
485.874	3413.99
486.244	3484.05
486.615	3587.77
486.985	3655.12
487.356	3738.96
487.726	3769.24
488.097	3969.46
488.467	3981.66
488.837	4042.68
489.207	4172.84
489.578	4285.61
489.948	4290.13
490.318	4421.2
490.688	4447.64
491.058	4508.65
491.428	4649.89
491.798	4745.03
492.168	4868.87
492.538	4894.41
492.908	5037.9
493.278	5125.13
493.648	5133.72
494.017	5269.99
494.387	5340.5
494.757	5452.58
495.126	5508.4
495.496	5612.13
495.866	5687.83
496.235	5733.93
496.605	5745
496.974	5888.73
497.344	6013.92
497.713	6013.25
498.082	6079.23
498.452	6158.33
498.821	6213.92
499.19	6314.71
499.559	6404.42
499.928	6483.06
500.298	6522.84
500.667	6579.33
501.036	6675.15
501.405	6747.92
501.774	6767.12
502.143	6862.49
502.512	6840.34
502.88	6976.84
503.249	7014.8
503.618	7063.39
503.987	7131.41
504.356	7231.07
504.724	7262.25
505.093	7339.31
505.462	7355.13
505.83	7468.57
506.199	7545.41
506.567	7668.34
506.936	7628.34
507.304	7772.07
507.672	7713.99
508.041	7798.96
508.409	7840.99
508.777	7888.22
509.145	8008
509.514	8031.5
509.882	8099.97
510.25	8111.72
510.618	8237.37
510.986	8234.43
511.354	8314.88
511.722	8429.91
512.09	8476.68
512.458	8433.07
512.826	8495.67
513.193	8572.95
513.561	8594.87
513.929	8665.38
514.297	8838.71
514.664	8806.17
515.032	8753.06
515.4	8904.47
515.767	9008.2
516.135	8985.82
516.502	9005.26
516.869	9111.02
517.237	9081.64
517.604	9110.57
517.972	9196.44
518.339	9224.01
518.706	9312.59
519.073	9395.3
519.44	9416.09
519.808	9516.2
520.175	9476.43
520.542	9544
520.909	9550.78
521.276	9704.22
521.643	9764.79
522.009	9785.8
522.376	9828.06
522.743	9945.8
523.11	9968.17
523.477	10060.6
523.843	10093.82
524.21	10195.06
524.577	10301.27
524.943	10346.24
525.31	10397.54
525.676	10413.36
526.043	10506.91
526.409	10557.08
526.776	10558.89
527.142	10616.74
527.508	10684.08
527.874	10779.67
528.241	10821.71
528.607	10830.97
528.973	11051.76
529.339	10971.99
529.705	11145.77
530.071	11171.3
530.437	11187.12
530.803	11343.28
531.169	11338.3
531.535	11288.14
531.901	11475.25
532.267	11385.53
532.632	11543.5
532.998	11534.91
533.364	11601.57
533.73	11565.87
534.095	11733.32
534.461	11703.27
534.826	11809.93
535.192	11993.43
535.557	11947.78
535.923	11961.11
536.288	12009.92
536.653	12059.41
537.019	12082.46
537.384	12178.51
537.749	12215.12
538.114	12258.51
538.479	12256.02
538.845	12323.36
539.21	12311.39
539.575	12380.54
539.94	12459.4
540.305	12537.82
540.67	12460.76
541.034	12580.08
541.399	12725.16
541.764	12702.79
542.129	12672.28
542.494	12714.76
542.858	12856.68
543.223	12804.93
543.587	12972.38
543.952	12973.97
544.316	13033.63
544.681	13034.3
545.045	13107.75
545.41	13235.43
545.774	13260.51
546.138	13251.93
546.503	13311.59
546.867	13316.56
547.231	13466.84
547.595	13452.6
547.959	13493.05
548.324	13536.89
548.688	13569.66
549.052	13607.85
549.416	13715.64
549.779	13698.02
550.143	13775.08
550.507	13825.7
550.871	13843.1
551.235	13813.27
551.599	13840.16
551.962	13986.37
552.326	14031.79
552.689	14149.76
553.053	14093.26
553.417	14086.25
553.78	14280.15
554.143	14285.34
554.507	14341.61
554.87	14403.31
555.234	14436.53
555.597	14445.34
555.96	14585.22
556.323	14539.8
556.686	14559.69
557.05	14644.21
557.413	14760.13
557.776	14782.51
558.139	14825.9
558.502	14874.48
558.865	14802.39
559.228	15024.99
559.59	15079
559.953	15106.57
560.316	15178.2
560.679	15119.67
561.041	15343.62
561.404	15337.29
561.767	15509.04
562.129	15421.13
562.492	15489.38
562.854	15517.18
563.217	15562.83
563.579	15622.94
563.941	15608.02
564.304	15730.96
564.666	15729.83
565.028	15826.32
565.39	15951.06
565.753	16008.24
566.115	16064.73
566.477	16104.96
566.839	16074.22
567.201	16185.63
567.563	16275.57
567.925	16341.34
568.287	16453.42
568.648	16335.01
569.01	16476.25
569.372	16608.9
569.734	16600.99
570.095	16710.37
570.457	16755.11
570.819	16761.66
571.18	16819.29
571.542	16985.16
571.903	17045.95
572.265	17065.84
572.626	17194.42
572.987	17278.26
573.349	17420.63
573.71	17422.44
574.071	17542.43
574.432	17614.75
574.794	17848.64
575.155	17703.33
575.516	17818.59
575.877	17922.31
576.238	18072.14
576.599	18231.68
576.96	18212.7
577.32	18335.41
577.681	18530.43
578.042	18551.9
578.403	18701.27
578.763	18824.21
579.124	19004.32
579.485	19106.91
579.845	19276.4
580.206	19323.18
580.566	19460.8
580.927	19612.21
581.287	19859.44
581.648	19935.14
582.008	20184.17
582.368	20329.71
582.728	20458.29
583.089	20573.09
583.449	20763.37
583.809	20948.67
584.169	21185.5
584.529	21298.04
584.889	21712.27
585.249	21779.61
585.609	22027.06
585.969	22308.86
586.329	22401.97
586.688	22684.67
587.048	22871.79
587.408	22977.32
587.768	23224.09
588.127	23537.76
588.487	23603.52
588.846	24069.04
589.206	24194.01
589.565	24371.18
589.925	24683.04
590.284	24890.94
590.643	25138.17
591.003	25433.75
591.362	25692.73
591.721	25920.29
592.08	26217.23
592.44	26428.3
592.799	26771.12
593.158	26839.36
593.517	27191.22
593.876	27464.21
594.235	27641.38
594.593	27825.78
594.952	28070.07
595.311	28343.28
595.67	28671.18
596.029	29065.75
596.387	29323.82
596.746	29410.6
597.104	29599.74
597.463	29785.28
597.822	30215.55
598.18	30197.24
598.538	30512.26
598.897	30856.21
599.255	30950.67
599.613	31528.06
599.972	31347.72
600.33	31735.96
600.688	31807.37
601.046	32191.09
601.404	32412.33
601.762	32584.75
602.12	32783.62
602.478	33178.41
602.836	33222.02
603.194	33295.47
603.552	33493.2
603.91	33575.68
604.268	33947.88
604.625	34019.97
604.983	34276.01
605.341	34361.2
605.698	34620.63
606.056	35003.44
606.413	35057
606.771	35367.5
607.128	35518.23
607.485	35381.97
607.843	35696.08
608.2	36088.39
608.557	36141.49
608.914	36269.85
609.272	36460.35
609.629	36580.35
609.986	36927.91
610.343	36897.18
610.7	37188.7
611.057	37302.37
611.414	37513.43
611.771	37557.28
612.127	37860.09
612.484	37907.1
612.841	38224.38
613.198	38173.76
613.554	38258.5
613.911	38521.32
614.267	38557.47
614.624	38432.28
614.98	38871.36
615.337	39076.11
615.693	38980.29
616.05	39016.67
616.406	39385.93
616.762	39301.41
617.118	39472.48
617.475	39528.52
617.831	39791.11
618.187	39869.53
618.543	39935.74
618.899	40197.66
619.255	40061.16
619.611	40396.97
619.967	40434.26
620.323	40547.25
620.678	40369.18
621.034	40472.23
621.39	40603.97
621.746	40542.28
622.101	41080.57
622.457	40835.83
622.812	40963.29
623.168	41149.05
623.523	41153.56
623.879	41368.7
624.234	41082.15
624.589	41204.18
624.945	41375.03
625.3	41512.88
625.655	41401.69
626.01	41384.97
626.365	41616.15
626.72	41553.55
627.075	41602.14
627.43	41561.24
627.785	41525.98
628.14	41798.07
628.495	41796.26
628.85	41878.29
629.205	41707.67
629.559	41909.48
629.914	41866.54
630.269	41877.39
630.623	41924.17
630.978	41793.55
631.332	41961.91
631.687	41987.67
632.041	41878.74
632.396	42011.62
632.75	41955.58
633.104	41862.47
633.459	41736.83
633.813	41899.08
634.167	41833.32
634.521	41841.68
634.875	41985.18
635.229	41870.83
635.583	41756.71
635.937	41884.85
636.291	41671.29
636.645	41819.76
636.999	41720.1
637.352	41847.33
637.706	41653.21
638.06	41860.44
638.413	41780.44
638.767	41651.18
639.121	41609.82
639.474	41436.5
639.828	41652.53
640.181	41401.02
640.534	41720.1
640.888	41609.37
641.241	41219.33
641.594	41546.55
641.947	41582.03
642.301	41399.66
642.654	41467.23
643.007	41529.83
643.36	41437.63
643.713	41385.65
644.066	41558.07
644.419	41323.5
644.771	41063.17
645.124	40622.05
645.477	40664.09
645.83	40549.29
646.182	40281.95
646.535	40276.3
646.888	40396.52
647.24	40055.51
647.593	40286.47
647.945	40285.11
648.298	40028.17
648.65	40024.55
649.002	39966.03
649.355	40074.5
649.707	40077.43
650.059	40201.5
650.411	40651.88
650.763	40697.53
651.115	41035.83
651.467	40915.83
651.819	40990.86
652.171	40850.3
652.523	40880.13
652.875	40927.36
653.227	40729.4
653.578	41050.74
653.93	40942.04
654.282	40669.74
654.633	40723.52
654.985	40744.76
655.337	40719.68
655.688	40669.51
656.039	40842.16
656.391	40589.96
656.742	40629.06
657.094	40646.91
657.445	40734.82
657.796	40579.34
658.147	40629.74
658.498	40502.06
658.849	40635.84
659.2	40533.69
659.551	40536.41
659.902	40561.94
660.253	40366.47
660.604	40562.85
660.955	40383.42
661.306	40592.22
661.656	40548.83
662.007	40436.97
662.358	40396.75
662.708	40457.54
663.059	40489.18
663.409	40261.38
663.76	40425
664.11	40483.53
664.461	40498.67
664.811	40488.95
665.161	40433.13
665.511	40428.84
665.862	40407.14
666.212	40565.78
666.562	40486.24
666.912	40263.64
667.262	40357.88
667.612	40264.1
667.962	40239.46
668.312	40337.77
668.662	40436.07
669.011	40276.3
669.361	40279.69
669.711	40335.06
670.06	40340.48
670.41	40194.72
670.76	40040.37
671.109	40250.54
671.459	40116.53
671.808	40062.52
672.157	40290.99
672.507	39947.27
672.856	40016.42
673.205	40011.9
673.554	40109.3
673.904	40002.86
674.253	40303.19
674.602	40083.31
674.951	39631.57
675.3	39448.75
675.649	40086.93
675.998	39997.89
676.346	39928.74
676.695	40207.15
677.044	39714.51
677.393	39767.39
677.741	39918.57
678.09	39918.57
678.438	39712.47
678.787	39658.69
679.135	39758.12
679.484	39543.89
679.832	39768.29
680.181	39428.41
680.529	39723.77
680.877	39518.81
681.225	39370.56
681.573	39608.07
681.922	39437
682.27	39280.17
682.618	39368.75
682.966	39183.9
683.314	39339.6
683.661	39195.65
684.009	38950.46
684.357	38994.3
684.705	38865.49
685.053	39050.8
685.4	38810.58
685.748	38678.15
686.095	38692.61
686.443	38679.28
686.79	38629.56
687.138	38538.72
687.485	38628.43
687.832	38473.41
688.18	38474.54
688.527	38242.68
688.874	38281.1
689.221	38155.9
689.568	38096.7
689.915	38011.27
690.262	37956.81
690.609	37848.57
690.956	37742.58
691.303	37671.85
691.65	37434.79
691.997	37479.31
692.344	37216.04
692.69	37252.42
693.037	37318.64
693.383	37070.51
693.73	37248.58
694.077	36994.58
694.423	36988.25
694.769	36736.96
695.116	36840.01
695.462	36715.26
695.808	36652.67
696.155	36694.02
696.501	36550.3
696.847	36420.81
697.193	36121.61
697.539	36268.95
697.885	36122.74
698.231	35993.7
698.577	36008.39
698.923	35876.87
699.269	35627.83
699.614	35613.37
699.96	35583.99
700.306	35498.57
700.651	35231.01
700.997	35242.08
701.342	35113.5
701.688	35045.93
702.033	34915.76
702.379	34953.73
702.724	34894.07
703.069	34948.3
703.415	34547.18
703.76	34505.83
704.105	34507.19
704.45	34562.78
704.795	34232.62
705.14	34266.51
705.485	34149.46
705.83	34037.59
706.175	34136.8
706.52	33999.63
706.865	33852.51
707.209	33833.31
707.554	33642.58
707.899	33769.13
708.243	33492.52
708.588	33503.6
708.932	33230.84
709.277	33374.79
709.621	33252.98
709.966	33111.74
710.31	33209.14
710.654	32974.12
710.998	32948.13
711.342	32953.78
711.687	32907.23
712.031	32812.99
712.375	32755.59
712.719	32672.43
713.063	32737.06
713.407	32626.78
713.75	32526.67
714.094	32518.76
714.438	32422.49
714.782	32419.33
715.125	32256.4
715.469	32306.34
715.812	32093.24
716.156	32030.19
716.499	31982.96
716.843	31962.85
717.186	31827.71
717.53	32002.17
717.873	31914.49
718.216	31754.72
718.559	31652.57
718.902	31408.96
719.246	31517.43
719.589	31427.04
719.932	31257.33
720.275	31362.64
720.617	31421.62
720.96	31157.67
721.303	31188.63
721.646	31357.89
721.989	31036.09
722.331	31089.2
722.674	31017.33
723.016	30974.62
723.359	30970.33
723.701	30906.6
724.044	30791.35
724.386	30645.82
724.729	30728.3
725.071	30606.95
725.413	30644.24
725.755	30736.21
726.097	30585.26
726.439	30364.24
726.782	30502.32
727.124	30492.83
727.465	30353.4
727.807	30328.09
728.149	30216.68
728.491	30181.65
728.833	30230.69
729.175	30199.05
729.516	29972.62
729.858	30066.17
730.199	30013.07
730.541	29935.55
730.882	29858.27
731.224	30049.9
731.565	29749.12
731.906	29752.51
732.248	29846.74
732.589	29646.3
732.93	29492.85
733.271	29477.49
733.612	29546.41
733.953	29640.65
734.294	29570.14
734.635	29459.86
734.976	29448.34
735.317	29285.4
735.658	29257.61
735.999	29309.13
736.339	29239.3
736.68	29239.08
737.021	29196.37
737.361	29116.59
737.702	29298.06
738.042	29157.72
738.383	29000.89
738.723	29157.04
739.063	28989.36
739.404	28990.95
739.744	28892.19
740.084	28787.34
740.424	28818.52
740.764	28812.42
741.104	28862.14
741.444	28745.08
741.784	28539.43
742.124	28668.47
742.464	28517.96
742.804	28488.81
743.143	28344.86
743.483	28374.47
743.823	28267.8
744.162	28307.57
744.502	28335.82
744.841	28268.48
745.181	28314.58
745.52	28089.05
745.86	28264.19
746.199	28063.51
746.538	28078.65
746.877	28160.69
747.216	28043.63
747.556	28121.37
747.895	27988.71
748.234	27814.25
748.573	27878.43
748.911	27835.5
749.25	27826.68
749.589	27708.49
749.928	27665.56
750.267	27678.89
750.605	27747.59
750.944	27530.42
751.283	27447.48
751.621	27485.22
751.96	27299.47
752.298	27303.53
752.636	27230.32
752.975	27372.46
753.313	27113.26
753.651	27202.29
753.989	27119.81
754.327	27070.55
754.666	26947.61
755.004	26993.94
755.342	26914.39
755.679	26901.28
756.017	26778.8
756.355	26849.99
756.693	26635.08
757.031	26670.56
757.368	26575.19
757.706	26615.42
758.044	26380.17
