Data from hue_350_FLMS001491_74.txt Node
Date: Mon Feb 06 15:38:30 GMT 2017
User: dcchb
Spectrometer: FLMS00149
Trigger mode: 0
Integration Time (sec): 2.000000E-2
Scans to average: 10
Electric dark correction enabled: true
Nonlinearity correction enabled: false
Boxcar width: 0
XAxis mode: Wavelengths
Number of Pixels in Spectrum: 2048
>>>>>Begin Spectral Data<<<<<
341.393	-18.28
341.776	-18.28
342.16	-18.28
342.543	-52.63
342.927	-71.83
343.31	-74.77
343.693	-54.89
344.077	-70.93
344.46	-58.28
344.843	-60.31
345.226	-45.17
345.61	-41.55
345.993	-11.95
346.376	-10.14
346.759	20.82
347.142	21.95
347.525	42.96
347.908	62.17
348.291	80.25
348.674	87.03
349.057	112.79
349.44	147.14
349.823	134.26
350.206	158.89
350.588	169.52
350.971	220.81
351.354	220.36
351.737	240.47
352.119	258.78
352.502	253.35
352.884	263.07
353.267	280.02
353.65	298.1
354.032	292.22
354.414	269.17
354.797	309.62
355.179	326.57
355.562	321.6
355.944	329.06
356.326	324.99
356.709	312.11
357.091	339.91
357.473	333.35
357.855	332.9
358.238	329.96
358.62	332
359.002	326.35
359.384	324.99
359.766	336.52
360.148	335.61
360.53	337.87
360.912	353.24
361.294	322.96
361.676	347.36
362.057	308.95
362.439	351.21
362.821	319.79
363.203	337.19
363.584	338.78
363.966	332.45
364.348	328.83
364.729	328.61
365.111	309.4
365.493	313.01
365.874	308.72
366.256	335.16
366.637	317.99
367.019	303.52
367.4	328.61
367.781	305.78
368.163	329.29
368.544	296.07
368.925	317.76
369.306	316.63
369.688	332.45
370.069	306.23
370.45	321.6
370.831	287.93
371.212	304.43
371.593	291.55
371.974	298.78
372.355	312.11
372.736	319.12
373.117	311.88
373.498	310.3
373.879	305.78
374.26	281.38
374.641	320.25
375.021	285.44
375.402	323.64
375.783	333.58
376.163	325.22
376.544	313.47
376.925	303.52
377.305	321.38
377.686	332.9
378.066	305.56
378.447	328.16
378.827	329.74
379.208	318.21
379.588	330.19
379.968	325.44
380.349	325.67
380.729	321.15
381.109	328.38
381.489	316.63
381.87	329.74
382.25	337.65
382.63	336.74
383.01	340.13
383.39	339.23
383.77	340.81
384.15	350.3
384.53	332
384.91	326.35
385.29	338.1
385.67	357.53
386.049	334.26
386.429	340.36
386.809	355.95
387.189	346.46
387.568	346.46
387.948	347.14
388.328	360.7
388.707	362.05
389.087	341.49
389.466	359.34
389.846	356.86
390.225	344.2
390.605	356.18
390.984	339.45
391.363	348.27
391.743	348.95
392.122	346.91
392.501	353.47
392.881	345.1
393.26	337.42
393.639	355.05
394.018	386.91
394.397	361.6
394.776	371.32
395.155	367.93
395.534	368.61
395.913	377.87
396.292	364.76
396.671	353.01
397.05	365.22
397.429	380.58
397.808	347.82
398.186	367.93
398.565	356.86
398.944	375.39
399.323	371.54
399.701	374.93
400.08	385.78
400.458	360.24
400.837	386.01
401.215	359.79
401.594	387.14
401.972	352.11
402.351	384.2
402.729	378.32
403.107	397.53
403.486	377.19
403.864	389.62
404.242	421.71
404.62	411.54
404.999	415.84
405.377	394.82
405.755	387.14
406.133	407.7
406.511	422.39
406.889	379.23
407.267	416.97
407.645	423.75
408.023	407.93
408.401	432.79
408.779	444.99
409.156	427.59
409.534	411.32
409.912	423.07
410.29	421.94
410.667	434.14
411.045	439.34
411.422	442.95
411.8	445.21
412.178	452.22
412.555	467.81
412.933	446.8
413.31	460.36
413.687	444.76
414.065	461.26
414.442	456.74
414.819	448.6
415.197	471.43
415.574	482.73
415.951	481.15
416.328	484.54
416.705	473.46
417.082	487.02
417.46	481.82
417.837	491.31
418.214	482.73
418.591	480.92
418.967	489.51
419.344	491.09
419.721	499.9
420.098	504.87
420.475	506.23
420.852	511.88
421.228	499.45
421.605	534.03
421.982	514.59
422.358	496.06
422.735	519.11
423.111	501.71
423.488	552.78
423.864	542.39
424.241	555.72
424.617	538.55
424.994	548.26
425.37	547.13
425.746	532.67
426.123	546.45
426.499	548.71
426.875	568.83
427.251	563.86
427.627	560.01
428.003	557.53
428.379	586
428.756	567.7
429.132	606.11
429.507	601.37
429.883	600.69
430.259	608.6
430.635	604.31
431.011	592.78
431.387	609.73
431.763	603.4
432.138	610.63
432.514	626.9
432.89	641.37
433.265	626.68
433.641	628.49
434.016	649.73
434.392	661.93
434.767	652.21
435.143	650.18
435.518	696.06
435.894	689.05
436.269	689.5
436.644	692.21
437.02	676.39
437.395	680.24
437.77	687.69
438.145	689.95
438.52	725.88
438.895	734.47
439.271	720.91
439.646	737.64
440.021	721.14
440.395	737.18
440.77	700.35
441.145	754.58
441.52	753
441.895	758.88
442.27	762.95
442.645	732.89
443.019	732.66
443.394	757.75
443.769	777.41
444.143	758.43
444.518	774.02
444.892	761.59
445.267	761.36
445.641	803.17
446.016	781.7
446.39	754.58
446.764	799.78
447.139	768.37
447.513	790.97
447.887	808.37
448.262	828.48
448.636	789.84
449.01	805.88
449.384	826
449.758	818.31
450.132	829.38
450.506	828.03
450.88	835.71
451.254	845.43
451.628	844.3
452.002	853.34
452.376	873
452.75	869.38
453.123	862.15
453.497	857.41
453.871	870.97
454.244	875.94
454.618	872.1
454.992	897.63
455.365	887.24
455.739	933.79
456.112	920.46
456.486	938.53
456.859	929.27
457.232	943.28
457.606	942.38
457.979	970.17
458.352	971.53
458.725	966.33
459.099	993
459.472	988.93
459.845	982.83
460.218	1017.63
460.591	999.1
460.964	1003.39
461.337	1052.2
461.71	1043.62
462.083	1075.25
462.456	1053.56
462.829	1077.51
463.201	1080.9
463.574	1075.48
463.947	1098.76
464.32	1142.15
464.692	1121.35
465.065	1143.73
465.438	1118.19
465.81	1163.39
466.183	1186.89
466.555	1187.34
466.928	1192.54
467.3	1205.42
467.672	1195.93
468.045	1240.22
468.417	1239.77
468.789	1241.13
469.161	1255.14
469.534	1281.8
469.906	1297.62
470.278	1296.49
470.65	1321.8
471.022	1337.62
471.394	1373.55
471.766	1385.75
472.138	1371.97
472.51	1410.61
472.882	1442.7
473.253	1457.62
473.625	1489.48
473.997	1518.86
474.369	1507.79
474.74	1500.33
475.112	1546.2
475.484	1597.05
475.855	1617.39
476.227	1605.86
476.598	1669.36
476.97	1675.24
477.341	1672.98
477.713	1725.86
478.084	1733.99
478.455	1766.76
478.827	1766.76
479.198	1814.22
479.569	1869.81
479.94	1895.12
480.311	1921.56
480.682	1968.56
481.053	2019.18
481.424	2034.78
481.795	2066.41
482.166	2066.41
482.537	2088.79
482.908	2158.39
483.279	2168.11
483.65	2209.69
484.021	2240.2
484.391	2279.52
484.762	2285.39
485.133	2321.1
485.503	2375.11
485.874	2413.3
486.244	2427.76
486.615	2465.95
486.985	2506.63
487.356	2522.9
487.726	2565.16
488.097	2616.23
488.467	2605.16
488.837	2674.76
489.207	2716.34
489.578	2732.61
489.948	2763.35
490.318	2847.86
490.688	2845.15
491.058	2845.15
491.428	2926.73
491.798	2926.5
492.168	2986.84
492.538	2994.75
492.908	3067.52
493.278	3102.55
493.648	3087.4
494.017	3126.5
494.387	3156.33
494.757	3175.76
495.126	3209.89
495.496	3234.29
495.866	3260.06
496.235	3307.06
496.605	3318.13
496.974	3330.56
497.344	3389.32
497.713	3385.93
498.082	3422.54
498.452	3461.41
498.821	3476.77
499.19	3448.3
499.559	3531.23
499.928	3530.56
500.298	3555.64
500.667	3547.96
501.036	3557.22
501.405	3609.65
501.774	3620.05
502.143	3675.41
502.512	3659.37
502.88	3657.33
503.249	3663.66
503.618	3683.55
503.987	3734.17
504.356	3764.22
504.724	3785.24
505.093	3778.69
505.462	3831.11
505.83	3821.62
506.199	3828.18
506.567	3868.4
506.936	3861.85
507.304	3888.51
507.672	3890.1
508.041	3986.59
508.409	3933.48
508.777	3990.66
509.145	3963.54
509.514	3972.35
509.882	4035.63
510.25	4038.34
510.618	4071.11
510.986	4075.4
511.354	4114.04
511.722	4081.28
512.09	4156.53
512.458	4144.55
512.826	4175.96
513.193	4197.88
513.561	4163.31
513.929	4195.62
514.297	4226.81
514.664	4269.29
515.032	4291.67
515.4	4310.88
515.767	4271.33
516.135	4302.06
516.502	4265.68
516.869	4328.05
517.237	4331.89
517.604	4296.64
517.972	4364.21
518.339	4387.26
518.706	4385
519.073	4368.5
519.44	4446.01
519.808	4447.37
520.175	4446.92
520.542	4464.54
520.909	4457.76
521.276	4499.8
521.643	4534.15
522.009	4576.63
522.376	4539.8
522.743	4561.26
523.11	4609.17
523.477	4714.71
523.843	4683.29
524.21	4702.05
524.577	4744.08
524.943	4691.43
525.31	4741.82
525.676	4820.69
526.043	4847.58
526.409	4846
526.776	4872.22
527.142	4894.36
527.508	4937.07
527.874	4936.62
528.241	4977.52
528.607	4948.82
528.973	5048.26
529.339	5021.14
529.705	5039.22
530.071	5064.53
530.437	5094.13
530.803	5110.18
531.169	5128.25
531.535	5183.39
531.901	5200.57
532.267	5208.93
532.632	5266.56
532.998	5275.6
533.364	5280.12
533.73	5333.67
534.095	5345.88
534.461	5334.58
534.826	5328.93
535.192	5371.19
535.557	5446.66
535.923	5404.63
536.288	5421.58
536.653	5425.2
537.019	5470.84
537.384	5496.38
537.749	5550.39
538.114	5542.71
538.479	5588.13
538.845	5544.06
539.21	5532.31
539.575	5622.48
539.94	5566.21
540.305	5670.39
540.67	5707.22
541.034	5732.53
541.399	5781.57
541.764	5731.85
542.129	5801.01
542.494	5755.81
542.858	5827.67
543.223	5822.02
543.587	5868.12
543.952	5851.17
544.316	5928.01
544.681	5934.34
545.045	5906.31
545.41	5983.6
545.774	6014.11
546.138	6048.46
546.503	6078.74
546.867	5999.64
547.231	6135.69
547.595	6115.8
547.959	6101.34
548.324	6171.17
548.688	6136.82
549.052	6193.99
549.416	6196.7
549.779	6208.68
550.143	6238.06
550.507	6310.6
550.871	6272.63
551.235	6356.02
551.599	6358.73
551.962	6346.3
552.326	6352.4
552.689	6440.99
553.053	6383.82
553.417	6423.59
553.78	6548.1
554.143	6504.26
554.507	6478.5
554.87	6529.35
555.234	6536.13
555.597	6598.05
555.96	6577.26
556.323	6605.5
556.686	6615.45
557.05	6666.75
557.413	6627.65
557.776	6682.11
558.139	6737.48
558.502	6722.34
558.865	6765.05
559.228	6757.59
559.59	6805.27
559.953	6773.86
560.316	6866.06
560.679	6884.14
561.041	6927.08
561.404	6922.33
561.767	6954.65
562.129	6933.63
562.492	6991.93
562.854	6970.69
563.217	7002.33
563.579	7041.2
563.941	7081.65
564.304	7141.99
564.666	7160.97
565.028	7102.44
565.39	7148.99
565.753	7178.14
566.115	7272.15
566.477	7201.19
566.839	7264.47
567.201	7376.11
567.563	7337.24
567.925	7392.83
568.287	7411.13
568.648	7378.37
569.01	7433.73
569.372	7468.76
569.734	7498.81
570.095	7552.37
570.457	7526.38
570.819	7557.8
571.18	7591.92
571.542	7612.71
571.903	7723.22
572.265	7716.66
572.626	7792.59
572.987	7802.53
573.349	7823.1
573.71	7893.83
574.071	7938.35
574.432	7936.54
574.794	8023.55
575.155	8027.61
575.516	8077.33
575.877	8156.88
576.238	8208.17
576.599	8297.89
576.96	8370.43
577.32	8395.74
577.681	8492.46
578.042	8621.27
578.403	8576.98
578.763	8724.32
579.124	8814.71
579.485	8903.97
579.845	9024.65
580.206	9063.97
580.566	9157.08
580.927	9257.64
581.287	9408.59
581.648	9447.69
582.008	9593.9
582.368	9712.54
582.728	9863.95
583.089	9994.79
583.449	10126.77
583.809	10244.96
584.169	10447.66
584.529	10553.65
584.889	10807.88
585.249	10876.35
585.609	11027.99
585.969	11236.12
586.329	11479.73
586.688	11579.61
587.048	11794.75
587.408	12029.99
587.768	12216.2
588.127	12476.54
588.487	12559.02
588.846	12988.61
589.206	13014.38
589.565	13317.42
589.925	13468.37
590.284	13653
590.643	14116.49
591.003	14260.22
591.362	14562.36
591.721	14818.4
592.08	15066.98
592.44	15339.74
592.799	15585.16
593.158	15872.15
593.517	16018.59
593.876	16377
594.235	16611.79
594.593	16981.28
594.952	17247.71
595.311	17512.79
595.67	17859.45
596.029	18073.23
596.387	18392.76
596.746	18751.4
597.104	18945.74
597.463	19183.93
597.822	19606.29
598.18	19719.06
598.538	20045.83
598.897	20386.61
599.255	20590
599.613	21123.77
599.972	21200.6
600.33	21472.68
600.688	21748.16
601.046	22180.24
601.404	22467.01
601.762	22681.24
602.12	23031.29
602.478	23200.55
602.836	23563.7
603.194	23735.45
603.552	24009.57
603.91	24172.95
604.268	24560.96
604.625	24798.47
604.983	25176.77
605.341	25240.49
605.698	25616.08
606.056	25850.42
606.413	26054.26
606.771	26425.55
607.128	26585.32
607.485	26718.65
607.843	26842.03
608.2	27252.42
608.557	27545.07
608.914	27721.33
609.272	28164.03
609.629	28324.26
609.986	28613.29
610.343	28672.04
610.7	29048.76
611.057	29222.08
611.414	29399.71
611.771	29655.97
612.127	29776.42
612.484	29988.84
612.841	30236.3
613.198	30376.63
613.554	30582.95
613.911	30863.85
614.267	30991.3
614.624	31093.22
614.98	31382.03
615.337	31593.55
615.693	31638.97
616.05	31948.79
616.406	32109.47
616.762	32255
617.118	32375.45
617.475	32429.68
617.831	32675.78
618.187	32812.95
618.543	33031.7
618.899	33352.6
619.255	33393.73
619.611	33355.08
619.967	33633.49
620.323	33810.21
620.678	33753.94
621.034	33968.63
621.39	33956.2
621.746	33944.45
622.101	34441.83
622.457	34294.95
622.812	34510.31
623.168	34541.49
623.523	34757.08
623.879	35002.27
624.234	34833.46
624.589	34962.95
624.945	35099.44
625.3	35224.86
625.655	35142.38
626.01	35433.45
626.365	35515.25
626.72	35443.16
627.075	35538.3
627.43	35576.04
627.785	35561.58
628.14	35856.26
628.495	35891.06
628.85	36020.32
629.205	35858.29
629.559	36101.23
629.914	35993.88
630.269	35990.49
630.623	36020.55
630.978	36006.77
631.332	36176.25
631.687	36249.02
632.041	36180.09
632.396	36461.44
632.75	36237.95
633.104	36273.2
633.459	36235.23
633.813	36279.98
634.167	36264.39
634.521	36201.11
634.875	36314.78
635.229	36394.55
635.583	36185.07
635.937	36306.87
636.291	36355.91
636.645	36376.25
636.999	36435.68
637.352	36461.67
637.706	36280.2
638.06	36480.42
638.413	36287.44
638.767	36354.33
639.121	36356.36
639.474	36209.25
639.828	36318.17
640.181	36373.08
640.534	36384.61
640.888	36328.79
641.241	36206.99
641.594	36273.65
641.947	36396.81
642.301	36263.93
642.654	36328.79
643.007	36322.91
643.36	36208.79
643.713	36257.15
644.066	36254.44
644.419	36066.65
644.771	35912.08
645.124	35641.8
645.477	35587.34
645.83	35428.02
646.182	35260.12
646.535	35068.71
646.888	35322.49
647.24	35066.9
647.593	35264.86
647.945	35276.61
648.298	35039.78
648.65	35082.95
649.002	34902.16
649.355	35119.1
649.707	35171.98
650.059	35113
650.411	35606.55
650.763	35604.06
651.115	35971.74
651.467	36002.25
651.819	36019.42
652.171	35923.15
652.523	35815.58
652.875	35817.39
653.227	35745.53
653.578	35935.58
653.93	35869.37
654.282	35696.72
654.633	35750.05
654.985	35824.62
655.337	35742.14
655.688	35698.07
656.039	35869.59
656.391	35543.5
656.742	35634.35
657.094	35593.22
657.445	35785.98
657.796	35798.86
658.147	35665.53
658.498	35601.13
658.849	35745.3
659.2	35646.1
659.551	35588.47
659.902	35692.65
660.253	35724.96
660.604	35644.06
660.955	35506.21
661.306	35526.33
661.656	35540.11
662.007	35510.28
662.358	35584.18
662.708	35602.03
663.059	35566.55
663.409	35204.75
663.76	35600
664.11	35551.18
664.461	35560.9
664.811	35550.28
665.161	35537.17
665.511	35466.44
665.862	35464.18
666.212	35525.65
666.562	35511.86
666.912	35533.33
667.262	35387.35
667.612	35585.53
667.962	35613.56
668.312	35405.42
668.662	35484.74
669.011	35614.46
669.361	35478.64
669.711	35471.86
670.06	35310.06
670.41	35368.82
670.76	35317.52
671.109	35433.22
671.459	35313
671.808	35324.07
672.157	35407.68
672.507	35085.89
672.856	35182.15
673.205	35236.84
673.554	35292.21
673.904	35175.15
674.253	35507.34
674.602	35285.65
674.951	34855.38
675.3	34557.99
675.649	35226.67
675.998	35095.83
676.346	35066.45
676.695	35367.01
677.044	35038.43
677.393	35054.47
677.741	35162.04
678.09	34883.86
678.438	34990.75
678.787	35117.75
679.135	35041.82
679.484	34838.89
679.832	34932.44
680.181	34802.28
680.529	34895.16
680.877	34775.39
681.225	34750.75
681.573	34821.71
681.922	34599.34
682.27	34651.32
682.618	34655.84
682.966	34522.06
683.314	34645.44
683.661	34425.11
684.009	34439.57
684.357	34189.41
684.705	34224.44
685.053	34357.54
685.4	34089.98
685.748	34006.59
686.095	34040.49
686.443	33888.18
686.79	33925.46
687.138	34030.55
687.485	33985.8
687.832	33771.57
688.18	33785.35
688.527	33558.47
688.874	33531.12
689.221	33516.89
689.568	33457.68
689.915	33477.34
690.262	33359.38
690.609	33340.39
690.956	33195.77
691.303	33240.28
691.65	33073.06
691.997	33024.92
692.344	32795.32
692.69	32865.6
693.037	32860.86
693.383	32511.49
693.73	32750.35
694.077	32443.92
694.423	32523.01
694.769	32427.88
695.116	32381.78
695.462	32232.85
695.808	32275.79
696.155	32178.62
696.501	32121.44
696.847	32063.14
697.193	31808.23
697.539	31915.8
697.885	31769.14
698.231	31577.05
698.577	31689.82
698.923	31586.99
699.269	31375.02
699.614	31222.94
699.96	31244.4
700.306	31208.47
700.651	31198.53
700.997	30962.15
701.342	30972.1
701.688	30883.74
702.033	30835.38
702.379	30695.72
702.724	30690.75
703.069	30705.44
703.415	30414.14
703.76	30381.6
704.105	30312
704.45	30410.53
704.795	30104.1
705.14	30079.01
705.485	30118.56
705.83	30003.31
706.175	30050.09
706.52	29972.8
706.865	29864.78
707.209	29730.09
707.554	29580.04
707.899	29718.12
708.243	29497.78
708.588	29638.57
708.932	29291.69
709.277	29228.64
709.621	29332.14
709.966	29098.92
710.31	29135.76
710.654	28824.58
710.998	29032.26
711.342	28996.55
711.687	28927.18
712.031	28771.48
712.375	28856.44
712.719	28729.22
713.063	28705.49
713.407	28842.89
713.75	28623.68
714.094	28682.66
714.438	28489.67
714.782	28483.12
715.125	28341.2
715.469	28360.41
715.812	28204.26
716.156	28103.24
716.499	28102.79
716.843	28124.03
717.186	27962.46
717.53	28132.17
717.873	28126.75
718.216	28028.44
718.559	27846.98
718.902	27776.25
719.246	27792.52
719.589	27695.8
719.932	27548.91
720.275	27538.97
720.617	27501
720.96	27468.01
721.303	27447.89
721.646	27407.67
721.989	27266.66
722.331	27490.6
722.674	27129.71
723.016	27351.85
723.359	27300.78
723.701	27196.15
724.044	27000.22
724.386	27022.14
724.729	27034.35
725.071	26961.35
725.413	26931.07
725.755	27003.39
726.097	26861.92
726.439	26785.31
726.782	26675.26
727.124	26719.78
727.465	26705.99
727.807	26628.25
728.149	26546
728.491	26494.47
728.833	26654.24
729.175	26414.25
729.516	26375.38
729.858	26338.32
730.199	26471.42
730.541	26331.54
730.882	26235.5
731.224	26320.01
731.565	26170.87
731.906	26172
732.248	26101.26
732.589	25901.49
732.93	26012.9
733.271	25948.72
733.612	25981.94
733.953	25978.1
734.294	25907.82
734.635	25781.5
734.976	25902.62
735.317	25749.18
735.658	25730.88
735.999	25736.07
736.339	25601.16
736.68	25720.48
737.021	25601.61
737.361	25573.82
737.702	25676.19
738.042	25608.17
738.383	25461.05
738.723	25553.48
739.063	25438.91
739.404	25479.58
739.744	25398.46
740.084	25233.04
740.424	25261.96
740.764	25283.88
741.104	25379.02
741.444	25164.34
741.784	25047.96
742.124	25134.73
742.464	25112.36
742.804	25005.7
743.143	25017.9
743.483	25016.77
743.823	24845.02
744.162	24835.31
744.502	24982.87
744.841	24797.12
745.181	24904.91
745.52	24775.42
745.86	24662.88
746.199	24568.87
746.538	24610.91
746.877	24616.1
747.216	24707.4
747.556	24569.78
747.895	24666.95
748.234	24399.84
748.573	24454.3
748.911	24286.17
749.25	24514.41
749.589	24350.57
749.928	24325.94
750.267	24371.82
750.605	24281.88
750.944	24208.66
751.283	24090.69
751.621	24115.78
751.96	24078.72
752.298	24017.7
752.636	24038.04
752.975	24088.21
753.313	23784.94
753.651	23946.52
753.989	23800.31
754.327	23824.03
754.666	23649.12
755.004	23623.14
755.342	23683.93
755.679	23612.97
756.017	23549.69
756.355	23502.24
756.693	23334.1
757.031	23489.13
757.368	23261.56
757.706	23288.46
758.044	23231.73
758.381	23204.39
758.719	23139.98
759.056	23184.96
759.394	23021.8
759.731	22825.64
760.068	22877.84
760.405	22803.72
760.743	22873.78
761.08	22826.09
761.417	22630.17
