Data from hue_100_FLMS001491_00054.txt Node
Date: Tue Feb 07 17:03:22 GMT 2017
User: dcchb
Spectrometer: FLMS00149
Trigger mode: 0
Integration Time (sec): 2.000000E-2
Scans to average: 10
Electric dark correction enabled: true
Nonlinearity correction enabled: false
Boxcar width: 0
XAxis mode: Wavelengths
Number of Pixels in Spectrum: 2048
>>>>>Begin Spectral Data<<<<<
341.393	16.06
341.776	16.06
342.16	16.06
342.543	-62.36
342.927	-66.65
343.31	-69.81
343.693	-70.49
344.077	-49.48
344.46	-54.9
344.843	-49.7
345.226	-30.04
345.61	-37.27
345.993	-11.74
346.376	-18.74
346.759	-17.84
347.142	55.83
347.525	52.89
347.908	43.63
348.291	71.65
348.674	70.97
349.057	115.04
349.44	122.27
349.823	140.12
350.206	162.72
350.588	191.65
350.971	209.27
351.354	214.92
351.737	224.42
352.119	254.24
352.502	270.52
352.884	276.84
353.267	298.99
353.65	317.07
354.032	285.88
354.414	313.45
354.797	307.12
355.179	318.88
355.562	300.57
355.944	350.29
356.326	318.88
356.709	329.27
357.091	327.46
357.473	328.37
357.855	321.59
358.238	334.69
358.62	347.12
359.002	332.66
359.384	340.57
359.766	343.06
360.148	335.82
360.53	343.51
360.912	349.16
361.294	330.63
361.676	322.49
362.057	335.15
362.439	345.99
362.821	312.55
363.203	331.53
363.584	335.6
363.966	315.03
364.348	331.76
364.729	321.59
365.111	319.1
365.493	310.97
365.874	316.16
366.256	312.1
366.637	311.64
367.019	318.2
367.4	303.28
367.781	309.84
368.163	325.2
368.544	331.53
368.925	338.54
369.306	313.23
369.688	330.4
370.069	303.73
370.45	327.01
370.831	322.49
371.212	319.33
371.593	314.81
371.974	321.14
372.355	314.58
372.736	307.8
373.117	302.15
373.498	316.16
373.879	299.89
374.26	311.19
374.641	318.65
375.021	299.22
375.402	338.54
375.783	340.8
376.163	319.33
376.544	323.62
376.925	333.56
377.305	344.41
377.686	344.41
378.066	335.82
378.447	341.93
378.827	349.84
379.208	339.89
379.588	331.3
379.968	345.54
380.349	347.35
380.729	334.47
381.109	351.64
381.489	341.02
381.87	336.73
382.25	328.59
382.63	356.39
383.01	366.56
383.39	355.71
383.77	357.97
384.15	344.19
384.53	354.36
384.91	372.66
385.29	345.09
385.67	346.22
386.049	331.98
386.429	373.56
386.809	362.49
387.189	347.8
387.568	356.84
387.948	346.67
388.328	370.17
388.707	362.94
389.087	374.02
389.466	372.89
389.846	368.59
390.225	389.38
390.605	396.61
390.984	367.69
391.363	369.95
391.743	381.7
392.122	375.15
392.501	381.02
392.881	398.42
393.26	377.86
393.639	385.77
394.018	386.22
394.397	403.85
394.776	381.25
395.155	397.97
395.534	405.65
395.913	374.47
396.292	389.83
396.671	405.88
397.05	420.79
397.429	395.94
397.808	418.31
398.186	409.49
398.565	414.69
398.944	410.4
399.323	394.35
399.701	410.62
400.08	412.43
400.458	413.11
400.837	420.34
401.215	418.31
401.594	437.74
401.972	418.99
402.351	414.24
402.729	423.96
403.107	435.03
403.486	416.05
403.864	431.42
404.242	421.92
404.62	428.7
404.999	431.19
405.377	431.64
405.755	432.55
406.133	430.74
406.511	425.54
406.889	450.17
407.267	458.76
407.645	451.08
408.023	469.38
408.401	459.66
408.779	462.37
409.156	467.8
409.534	460.79
409.912	470.96
410.29	472.09
410.667	488.81
411.045	486.33
411.422	479.55
411.8	469.83
412.178	484.97
412.555	477.52
412.933	494.24
413.31	504.41
413.687	503.05
414.065	517.97
414.442	509.15
414.819	506.67
415.197	524.07
415.574	504.18
415.951	521.58
416.328	512.54
416.705	551.19
417.082	524.97
417.46	534.24
417.837	531.07
418.214	544.86
418.591	529.27
418.967	539.89
419.344	545.31
419.721	563.16
420.098	552.54
420.475	559.32
420.852	555.93
421.228	565.2
421.605	555.25
421.982	574.01
422.358	568.13
422.735	555.03
423.111	581.47
423.488	602.48
423.864	590.96
424.241	579.66
424.617	609.26
424.994	608.59
425.37	616.95
425.746	615.82
426.123	595.25
426.499	611.75
426.875	633.9
427.251	653.1
427.627	637.96
428.003	635.7
428.379	635.7
428.756	631.64
429.132	610.39
429.507	647.45
429.883	656.49
430.259	661.92
430.635	682.03
431.011	671.63
431.387	709.15
431.763	698.98
432.138	688.36
432.514	704.4
432.89	721.58
433.265	715.7
433.641	736.27
434.016	714.12
434.392	714.57
434.767	726.32
435.143	767.23
435.518	728.36
435.894	740.11
436.269	773.55
436.644	768.36
437.02	771.29
437.395	774.46
437.77	768.58
438.145	781.69
438.52	810.61
438.895	797.28
439.271	812.65
439.646	809.03
440.021	820.78
440.395	836.38
440.77	848.35
441.145	840.44
441.52	847.45
441.895	837.05
442.27	851.97
442.645	875.92
443.019	874.79
443.394	841.12
443.769	884.06
444.143	884.51
444.518	882.02
444.892	879.99
445.267	891.97
445.641	904.62
446.016	902.59
446.39	924.06
446.764	918.63
447.139	917.96
447.513	941.46
447.887	923.38
448.262	947.11
448.636	902.59
449.01	935.36
449.384	961.34
449.758	968.12
450.132	967.9
450.506	994.34
450.88	982.81
451.254	987.11
451.628	987.33
452.002	1004.06
452.376	1002.93
452.75	1016.94
453.123	1020.78
453.497	1044.05
453.871	1066.43
454.244	1077.73
454.618	1042.92
454.992	1090.83
455.365	1076.82
455.739	1120.44
456.112	1135.35
456.486	1117.27
456.859	1145.97
457.232	1177.84
457.606	1162.47
457.979	1177.61
458.352	1161.79
458.725	1205.63
459.099	1219.87
459.472	1197.27
459.845	1247.44
460.218	1276.59
460.591	1249.47
460.964	1273.2
461.337	1309.13
461.71	1338.96
462.083	1319.75
462.456	1326.76
462.829	1355.46
463.201	1374.22
463.574	1385.97
463.947	1377.15
464.32	1439.07
464.692	1447.66
465.065	1424.16
465.438	1490.82
465.81	1501.22
466.183	1523.36
466.555	1542.12
466.928	1573.76
467.3	1580.99
467.672	1610.37
468.045	1638.39
468.417	1653.3
468.789	1661.89
469.161	1714.55
469.534	1710.48
469.906	1785.5
470.278	1791.83
470.65	1844.26
471.022	1867.54
471.394	1890.59
471.766	1900.3
472.138	1980.3
472.51	2030.7
472.882	2034.76
473.253	2102.78
473.625	2128.77
473.997	2187.08
474.369	2226.4
474.74	2263.01
475.112	2291.48
475.484	2357.92
475.855	2406.05
476.227	2454.86
476.598	2528.99
476.97	2576.9
477.341	2653.5
477.713	2705.93
478.084	2743.9
478.455	2854.85
478.827	2880.62
479.198	3020.05
479.569	3066.6
479.94	3156.77
480.311	3260.49
480.682	3323.09
481.053	3413.26
481.424	3488.06
481.795	3594.27
482.166	3719.46
482.537	3757.2
482.908	3869.06
483.279	3948.16
483.65	4130.75
484.021	4182.05
484.391	4300.47
484.762	4405.32
485.133	4477.41
485.503	4577.97
485.874	4746.1
486.244	4865.87
486.615	4990.62
486.985	5144.29
487.356	5282.36
487.726	5354
488.097	5470.83
488.467	5586.99
488.837	5779.75
489.207	5969.12
489.578	6015.68
489.948	6189.46
490.318	6320.75
490.688	6465.83
491.058	6539.28
491.428	6675.77
491.798	6843.68
492.168	7075.08
492.538	7121.63
492.908	7285.25
493.278	7437.56
493.648	7499.7
494.017	7720.72
494.387	7861.5
494.757	7984.66
495.126	8109.41
495.496	8157.99
495.866	8328.16
496.235	8489.73
496.605	8654.93
496.974	8745.32
497.344	8847.69
497.713	8991.42
498.082	9127.01
498.452	9250.17
498.821	9377.17
499.19	9449.94
499.559	9537.39
499.928	9675.47
500.298	9779.19
500.667	9941.9
501.036	9922.69
501.405	10128.34
501.774	10215.34
502.143	10247.88
502.512	10339.4
502.88	10463.69
503.249	10598.83
503.618	10566.29
503.987	10723.12
504.356	10806.51
504.724	10931.7
505.093	11009.67
505.462	11067.52
505.83	11155.43
506.199	11336.67
506.567	11411.69
506.936	11409.88
507.304	11582.99
507.672	11612.82
508.041	11697.11
508.409	11770.1
508.777	11839.93
509.145	11984.11
509.514	11893.49
509.882	12074.95
510.25	12123.09
510.618	12146.36
510.986	12279.01
511.354	12309.29
511.722	12395.39
512.09	12469.97
512.458	12520.81
512.826	12611.66
513.193	12570.31
513.561	12748.61
513.929	12776.85
514.297	12812.33
514.664	12946.11
515.032	12966.23
515.4	13061.59
515.767	13056.62
516.135	13003.06
516.502	12987.47
516.869	13244.41
517.237	13255.48
517.604	13139.33
517.972	13299.78
518.339	13271.53
518.706	13288.7
519.073	13372.77
519.44	13411.41
519.808	13486.89
520.175	13503.39
520.542	13637.4
520.909	13591.52
521.276	13636.49
521.643	13749.03
522.009	13677.85
522.376	13827.45
522.743	13829.48
523.11	13853.89
523.477	14028.57
523.843	14090.49
524.21	14111.73
524.577	14216.36
524.943	14205.29
525.31	14169.59
525.676	14264.27
526.043	14287.1
526.409	14335
526.776	14428.56
527.142	14409.13
527.508	14494.1
527.874	14372.07
528.241	14396.7
528.607	14473.98
528.973	14507.2
529.339	14507.66
529.705	14577.03
530.071	14557.6
530.437	14565.05
530.803	14604.15
531.169	14643.7
531.535	14657.48
531.901	14565.51
532.267	14526.19
532.632	14652.74
532.998	14654.32
533.364	14603.25
533.73	14589.24
534.095	14678.27
534.461	14553.53
534.826	14567.77
535.192	14655.22
535.557	14771.83
535.923	14573.42
536.288	14628.33
536.653	14565.96
537.019	14549.46
537.384	14559.18
537.749	14586.52
538.114	14517.15
538.479	14461.78
538.845	14540.42
539.21	14384.27
539.575	14402.35
539.94	14448.45
540.305	14443.25
540.67	14400.54
541.034	14281.22
541.399	14332.74
541.764	14325.51
542.129	14205.52
542.494	14286.42
542.858	14283.93
543.223	14185.18
543.587	14271.5
543.952	14123.48
544.316	14132.07
544.681	14073.77
545.045	14083.94
545.41	14073.09
545.774	14034.45
546.138	14024.5
546.503	13890.72
546.867	13895.47
547.231	13977.73
547.595	13845.07
547.959	13918.74
548.324	13851.85
548.688	13829.48
549.052	13819.54
549.416	13753.32
549.779	13766.21
550.143	13671.07
550.507	13731.18
550.871	13752.65
551.235	13678.52
551.599	13717.85
551.962	13649.6
552.326	13624.97
552.689	13709.94
553.053	13552.65
553.417	13544.52
553.78	13565.99
554.143	13515.14
554.507	13568.92
554.87	13572.99
555.234	13645.76
555.597	13476.95
555.96	13512.88
556.323	13448.25
556.686	13384.07
557.05	13457.29
557.413	13551.52
557.776	13422.71
558.139	13524.18
558.502	13471.07
558.865	13421.81
559.228	13492.99
559.59	13555.82
559.953	13476.5
560.316	13569.37
560.679	13537.74
561.041	13560.34
561.404	13593.56
561.767	13605.08
562.129	13472.88
562.492	13628.81
562.854	13646.66
563.217	13527.57
563.579	13510.17
563.941	13611.63
564.304	13629.26
564.666	13590.62
565.028	13581.8
565.39	13698.64
565.753	13646.66
566.115	13754.91
566.477	13723.72
566.839	13736.83
567.201	13802.36
567.563	13755.13
567.925	13846.2
568.287	13804.17
568.648	13784.74
569.01	13763.27
569.372	13870.38
569.734	13828.13
570.095	13972.08
570.457	13927.56
570.819	13918.07
571.18	13856.15
571.542	13973.88
571.903	13897.5
572.265	14045.07
572.626	14047.33
572.987	13925.75
573.349	14036.26
573.71	14043.26
574.071	14011.62
574.432	14124.39
574.794	14138.85
575.155	14070.83
575.516	14021.79
575.877	14116.03
576.238	14100.21
576.599	14123.94
576.96	14094.56
577.32	14066.54
577.681	14203.71
578.042	14131.39
578.403	14118.06
578.763	14092.52
579.124	14102.69
579.485	14129.36
579.845	14269.47
580.206	14217.27
580.566	14059.31
580.927	14164.16
581.287	14179.98
581.648	14121
582.008	14175.23
582.368	14155.35
582.728	14135.24
583.089	14171.17
583.449	14162.13
583.809	14194.9
584.169	14184.73
584.529	14132.75
584.889	14193.99
585.249	14058.4
585.609	14058.4
585.969	14127.55
586.329	14057.72
586.688	14130.49
587.048	14089.59
587.408	14050.94
587.768	14055.69
588.127	14018.18
588.487	14027.44
588.846	14128.68
589.206	14093.2
589.565	13970.27
589.925	14115.8
590.284	13931.85
590.643	13953.55
591.003	13980.44
591.362	14082.58
591.721	13963.26
592.08	13944.73
592.44	13956.94
592.799	14038.74
593.158	13930.95
593.517	13892.98
593.876	13949.25
594.235	13994.67
594.593	13910.61
594.952	13945.18
595.311	13924.85
595.67	13884.39
596.029	13967.78
596.387	13981.34
596.746	13918.29
597.104	13762.59
597.463	13813.89
597.822	13909.7
598.18	13879.65
598.538	13799.65
598.897	13941.79
599.255	13771.86
599.613	13948.12
599.972	13901.34
600.33	13926.65
600.688	13873.77
601.046	13849.14
601.404	13864.51
601.762	13925.3
602.12	13997.61
602.478	13945.18
602.836	13934.34
603.194	13874.9
603.552	13850.72
603.91	13844.85
604.268	13989.93
604.625	13831.74
604.983	13922.13
605.341	13889.37
605.698	13975.92
606.056	13909.93
606.413	13924.17
606.771	13914.9
607.128	13990.61
607.485	13952.64
607.843	13941.79
608.2	13991.51
608.557	14040.77
608.914	13918.74
609.272	13901.57
609.629	13976.82
609.986	14119.87
610.343	14005.97
610.7	14125.52
611.057	13989.7
611.414	14022.92
611.771	14003.04
612.127	14060.66
612.484	14110.15
612.841	14175.23
613.198	14089.59
613.554	14110.6
613.911	14222.24
614.267	14143.15
614.624	14164.39
614.98	14183.6
615.337	14241.67
615.693	14236.93
616.05	14203.26
616.406	14322.58
616.762	14205.06
617.118	14250.26
617.475	14160.09
617.831	14337.49
618.187	14278.28
618.543	14271.5
618.899	14394.44
619.255	14311.95
619.611	14317.6
619.967	14394.44
620.323	14328
620.678	14360.99
621.034	14255.68
621.39	14299.07
621.746	14263.82
622.101	14402.8
622.457	14332.97
622.812	14275.8
623.168	14394.44
623.523	14339.07
623.879	14409.58
624.234	14296.81
624.589	14415
624.945	14314.89
625.3	14315.57
625.655	14290.94
626.01	14363.25
626.365	14332.74
626.72	14325.29
627.075	14271.28
627.43	14333.42
627.785	14266.08
628.14	14297.04
628.495	14290.03
628.85	14304.5
629.205	14234.44
629.559	14294.1
629.914	14240.09
630.269	14327.1
630.623	14175.01
630.978	14251.39
631.332	14250.03
631.687	14206.42
632.041	14237.15
632.396	14283.71
632.75	14170.94
633.104	14298.85
633.459	14225.18
633.813	14086.2
634.167	14091.17
634.521	14105.18
634.875	14086.42
635.229	14034.9
635.583	13952.87
635.937	13951.51
636.291	14073.09
636.645	13983.6
636.999	13983.83
637.352	13995.35
637.706	13901.12
638.06	14000.78
638.413	13893.89
638.767	13864.73
639.121	13919.65
639.474	13849.59
639.828	13816.15
640.181	13828.35
640.534	13880.33
640.888	13797.17
641.241	13737.96
641.594	13794
641.947	13827
642.301	13757.84
642.654	13798.97
643.007	13777.73
643.36	13757.62
643.713	13800.78
644.066	13772.76
644.419	13649.15
644.771	13570.73
645.124	13498.19
645.477	13451.86
645.83	13337.52
646.182	13340.23
646.535	13252.55
646.888	13364.63
647.24	13219.33
647.593	13358.76
647.945	13307.01
648.298	13231.08
648.65	13182.27
649.002	13172.78
649.355	13325.09
649.707	13316.95
650.059	13335.48
650.411	13446.67
650.763	13475.14
651.115	13563.05
651.467	13515.82
651.819	13598.53
652.171	13582.71
652.523	13468.36
652.875	13482.6
653.227	13467.68
653.578	13595.81
653.93	13489.38
654.282	13474.69
654.633	13578.19
654.985	13491.64
655.337	13478.3
655.688	13547.68
656.039	13604.4
656.391	13468.13
656.742	13479.21
657.094	13512.2
657.445	13542.93
657.796	13490.05
658.147	13496.38
658.498	13513.56
658.849	13506.1
659.2	13467.46
659.551	13487.34
659.902	13516.04
660.253	13489.6
660.604	13534.12
660.955	13444.63
661.306	13520.79
661.656	13511.3
662.007	13506.1
662.358	13518.98
662.708	13609.37
663.059	13524.86
663.409	13453.67
663.76	13522.82
664.11	13610.5
664.461	13557.62
664.811	13690.28
665.161	13594.23
665.511	13508.59
665.862	13571.86
666.212	13645.08
666.562	13634.46
666.912	13547
667.262	13519.88
667.612	13561.92
667.962	13599.43
668.312	13515.59
668.662	13663.16
669.011	13614.35
669.361	13461.36
669.711	13531.64
670.06	13529.83
670.41	13589.49
670.76	13465.42
671.109	13590.62
671.459	13511.98
671.808	13457.29
672.157	13553.78
672.507	13455.03
672.856	13406.89
673.205	13397.63
673.554	13437.63
673.904	13456.84
674.253	13521.47
674.602	13458.87
674.951	13340.45
675.3	13164.41
675.649	13370.28
675.998	13364.63
676.346	13429.94
676.695	13437.17
677.044	13331.87
677.393	13315.6
677.741	13349.49
678.09	13319.44
678.438	13282.83
678.787	13249.84
679.135	13273.34
679.484	13143.85
679.832	13232.66
680.181	13283.05
680.529	13211.42
680.877	13154.47
681.225	13108.82
681.573	13224.07
681.922	13060.69
682.27	13068.37
682.618	12995.83
682.966	12949.5
683.314	13022.27
683.661	12946.11
684.009	12907.7
684.357	12928.26
684.705	12854.82
685.053	12982.5
685.4	12812.56
685.748	12805.55
686.095	12827.25
686.443	12607.14
686.79	12676.07
687.138	12746.8
687.485	12668.38
687.832	12692.11
688.18	12610.3
688.527	12642.62
688.874	12647.37
689.221	12471.78
689.568	12437.65
689.915	12458.44
690.262	12396.3
690.609	12403.98
690.956	12298.67
691.303	12349.75
691.65	12271.33
691.997	12287.37
692.344	12214.16
692.69	12128.51
693.037	12204.66
693.383	11997.21
693.73	12119.47
694.077	11965.35
694.423	12001.96
694.769	11868.85
695.116	11944.11
695.462	11846.93
695.808	11801.96
696.155	11868.85
696.501	11738.24
696.847	11728.52
697.193	11631.8
697.539	11668.18
697.885	11570.56
698.231	11538.69
698.577	11526.49
698.923	11538.02
699.269	11438.81
699.614	11419.15
699.96	11360.39
700.306	11207.18
700.651	11239.72
700.997	11213.96
701.342	11232.49
701.688	11147.29
702.033	11123.34
702.379	11083.11
702.724	11113.17
703.069	11062.1
703.415	10909.33
703.76	10884.25
704.105	10941.65
704.45	10869.33
704.795	10844.47
705.14	10824.36
705.485	10739.17
705.83	10692.84
706.175	10700.3
706.52	10681.09
706.865	10728.55
707.209	10616.23
707.554	10583.46
707.899	10591.83
708.243	10524.71
708.588	10607.42
708.932	10511.6
709.277	10456.24
709.621	10444.49
709.966	10374.88
710.31	10386.63
710.654	10286.75
710.998	10390.25
711.342	10288.56
711.687	10283.13
712.031	10269.57
712.375	10165.85
712.719	10251.95
713.063	10136.02
713.407	10152.52
713.75	10084.72
714.094	10141.67
714.438	10014.44
714.782	10100.31
715.125	10051.5
715.469	10108.67
715.812	10012.86
716.156	9928.11
716.499	9941.45
716.843	9930.6
717.186	9918.85
717.53	9953.2
717.873	9991.84
718.216	9905.52
718.559	9845.4
718.902	9801.56
719.246	9773.54
719.589	9831.85
719.932	9771.96
720.275	9757.72
720.617	9771.96
720.96	9725.86
721.303	9783.94
721.646	9732.64
721.989	9673.88
722.331	9718.18
722.674	9809.47
723.016	9715.46
723.359	9645.41
723.701	9673.21
724.044	9661.91
724.386	9649.25
724.729	9658.07
725.071	9612.64
725.413	9634.56
725.755	9610.61
726.097	9544.62
726.439	9574.68
726.782	9552.53
727.124	9575.58
727.465	9536.03
727.807	9513.21
728.149	9534.23
728.491	9460.78
728.833	9476.6
729.175	9506.43
729.516	9422.37
729.858	9514.34
730.199	9491.06
730.541	9484.28
730.882	9454.45
731.224	9538.29
731.565	9428.01
731.906	9393.21
732.248	9497.17
732.589	9375.36
732.93	9420.33
733.271	9488.35
733.612	9439.31
733.953	9407.22
734.294	9458.3
734.635	9467.79
734.976	9440.22
735.317	9495.13
735.658	9423.04
735.999	9417.17
736.339	9396.6
736.68	9492.19
737.021	9429.14
737.361	9403.61
737.702	9464.4
738.042	9463.04
738.383	9398.64
738.723	9461.01
739.063	9423.5
739.404	9513.89
739.744	9538.07
740.084	9477.73
740.424	9522.25
740.764	9523.38
741.104	9518.41
741.444	9514.57
741.784	9565.41
742.124	9531.74
742.464	9576.49
742.804	9574.9
743.143	9619.42
743.483	9645.64
743.823	9679.53
744.162	9619.87
744.502	9677.05
744.841	9716.82
745.181	9760.21
745.52	9690.83
745.86	9804.28
746.199	9854.22
746.538	9836.14
746.877	9915.91
747.216	10059.41
747.556	10017.15
747.895	10118.62
748.234	10124.04
748.573	10122.91
748.911	10159.52
749.25	10347.09
749.589	10263.7
749.928	10405.39
750.267	10442.9
750.605	10610.58
750.944	10556.8
751.283	10646.97
751.621	10766.06
751.96	10839.96
752.298	10934.87
752.636	10990.46
752.975	11057.8
753.313	11098.03
753.651	11295.31
753.989	11368.3
754.327	11421.86
754.666	11558.35
755.004	11623.21
755.342	11874.96
755.679	11941.17
756.017	11991.79
756.355	12284.89
756.693	12306.13
757.031	12499.57
757.368	12588.84
757.706	12742.05
758.044	12834.48
