Data from hue_150_FLMS001491_00004.txt Node
Date: Tue Feb 07 16:53:33 GMT 2017
User: dcchb
Spectrometer: FLMS00149
Trigger mode: 0
Integration Time (sec): 2.000000E-2
Scans to average: 10
Electric dark correction enabled: true
Nonlinearity correction enabled: false
Boxcar width: 0
XAxis mode: Wavelengths
Number of Pixels in Spectrum: 2048
>>>>>Begin Spectral Data<<<<<
341.393	9.29
341.776	9.29
342.16	9.29
342.543	-64.83
342.927	-53.76
343.31	-71.38
343.693	-62.34
344.077	-77.48
344.46	-66.41
344.843	-48.11
345.226	-42.23
345.61	-31.38
345.993	-10.14
346.376	-2.46
346.759	23.76
347.142	22.63
347.525	46.35
347.908	68.5
348.291	73.92
348.674	72.79
349.057	103.98
349.44	144.66
349.823	134.26
350.206	166.8
350.588	198.22
350.971	222.62
351.354	232.34
351.737	240.93
352.119	226.01
352.502	270.3
352.884	268.27
353.267	279.34
353.65	312.56
354.032	322.28
354.414	303.07
354.797	332.45
355.179	308.04
355.562	319.57
355.944	327.93
356.326	331.54
356.709	329.06
357.091	352.11
357.473	345.78
357.855	325.9
358.238	339.23
358.62	345.56
359.002	342.62
359.384	325.9
359.766	340.58
360.148	331.32
360.53	358.89
360.912	325.67
361.294	319.57
361.676	346.01
362.057	325.9
362.439	327.7
362.821	344.43
363.203	331.54
363.584	327.25
363.966	313.24
364.348	331.09
364.729	327.93
365.111	339.68
365.493	314.14
365.874	315.95
366.256	323.86
366.637	329.96
367.019	313.24
367.4	315.27
367.781	318.21
368.163	295.84
368.544	314.82
368.925	307.14
369.306	303.52
369.688	328.38
370.069	316.4
370.45	310.08
370.831	329.29
371.212	328.61
371.593	326.35
371.974	332.45
372.355	323.86
372.736	330.19
373.117	310.98
373.498	316.4
373.879	320.92
374.26	316.4
374.641	302.17
375.021	316.18
375.402	346.01
375.783	324.31
376.163	332
376.544	358.44
376.925	324.77
377.305	316.4
377.686	350.53
378.066	337.87
378.447	343.07
378.827	339
379.208	354.14
379.588	327.48
379.968	353.69
380.349	327.93
380.729	333.13
381.109	351.66
381.489	361.15
381.87	350.75
382.25	335.39
382.63	348.72
383.01	338.1
383.39	337.65
383.77	349.4
384.15	352.34
384.53	352.79
384.91	361.6
385.29	345.56
385.67	364.31
386.049	344.43
386.429	334.71
386.809	364.99
387.189	378.32
387.568	353.24
387.948	373.35
388.328	335.84
388.707	331.09
389.087	356.18
389.466	370.64
389.846	379.68
390.225	374.93
390.605	368.61
390.984	371.54
391.363	364.09
391.743	365.89
392.122	378.78
392.501	382.84
392.881	374.26
393.26	373.58
393.639	361.83
394.018	401.37
394.397	405.67
394.776	381.71
395.155	395.05
395.534	377.19
395.913	383.52
396.292	402.73
396.671	411.09
397.05	395.72
397.429	402.5
397.808	394.82
398.186	378.78
398.565	383.3
398.944	403.18
399.323	410.64
399.701	425.55
400.08	408.38
400.458	395.27
400.837	411.32
401.215	409.96
401.594	428.94
401.972	417.64
402.351	430.98
402.729	417.87
403.107	443.63
403.486	429.17
403.864	434.14
404.242	421.49
404.62	419.23
404.999	419.23
405.377	452.22
405.755	431.66
406.133	413.35
406.511	436.17
406.889	450.64
407.267	444.31
407.645	456.51
408.023	453.35
408.401	460.13
408.779	462.16
409.156	474.14
409.534	444.76
409.912	442.95
410.29	462.16
410.667	467.36
411.045	470.98
411.422	470.98
411.8	479.34
412.178	489.28
412.555	487.47
412.933	472.11
413.31	501.48
413.687	507.36
414.065	499.9
414.442	483.41
414.819	518.43
415.197	515.04
415.574	511.2
415.951	536.29
416.328	523.63
416.705	534.48
417.082	520.69
417.46	529.96
417.837	536.29
418.214	556.85
418.591	541.48
418.967	551.2
419.344	535.83
419.721	541.48
420.098	550.07
420.475	540.58
420.852	534.7
421.228	557.98
421.605	568.37
421.982	590.07
422.358	569.05
422.735	577.41
423.111	579.9
423.488	590.75
423.864	577.19
424.241	602.05
424.617	599.56
424.994	602.05
425.37	621.48
425.746	612.22
426.123	614.48
426.499	620.35
426.875	619.67
427.251	632.55
427.627	637.75
428.003	647.47
428.379	637.75
428.756	655.38
429.132	643.4
429.507	674.36
429.883	661.25
430.259	658.99
430.635	706.9
431.011	665.55
431.387	692.44
431.763	736.51
432.138	671.65
432.514	707.13
432.89	718.65
433.265	714.81
433.641	712.1
434.016	718.88
434.392	727.24
434.767	728.6
435.143	745.77
435.518	755.94
435.894	759.33
436.269	778.76
436.644	772.44
437.02	796.17
437.395	794.81
437.77	779.44
438.145	790.29
438.52	828.48
438.895	793
439.271	824.41
439.646	835.49
440.021	851.98
440.395	844.3
440.77	841.14
441.145	850.18
441.52	830.74
441.895	849.05
442.27	851.08
442.645	870.51
443.019	870.06
443.394	896.28
443.769	885.88
444.143	893.79
444.518	913.68
444.892	906.22
445.267	904.86
445.641	911.64
446.016	931.98
446.39	907.8
446.764	897.18
447.139	908.25
447.513	952.32
447.887	953.68
448.262	963.62
448.636	980.57
449.01	957.74
449.384	977.86
449.758	991.87
450.132	988.48
450.506	1025.76
450.88	1017.63
451.254	1005.65
451.628	1049.72
452.002	1033.9
452.376	1052.66
452.75	1071.64
453.123	1055.14
453.497	1087.01
453.871	1069.83
454.244	1096.27
454.618	1098.76
454.992	1097.17
455.365	1110.96
455.739	1172.43
456.112	1166.78
456.486	1181.92
456.859	1155.7
457.232	1192.54
457.606	1201.35
457.979	1192.09
458.352	1222.37
458.725	1229.6
459.099	1256.72
459.472	1256.72
459.845	1303.72
460.218	1288.36
460.591	1321.8
460.964	1325.19
461.337	1343.5
461.71	1361.57
462.083	1367
462.456	1388.24
462.829	1400.44
463.201	1448.13
463.574	1420.1
463.947	1470.95
464.32	1483.61
464.692	1501.68
465.065	1543.26
465.438	1536.94
465.81	1558.63
466.183	1593.66
466.555	1626.88
466.928	1626.65
467.3	1666.2
467.672	1656.71
468.045	1707.78
468.417	1735.35
468.789	1776.03
469.161	1763.15
469.534	1830.26
469.906	1863.71
470.278	1869.81
470.65	1896.25
471.022	1943.25
471.394	1962.46
471.766	2007.66
472.138	2031.39
472.51	2083.59
472.882	2114.77
473.253	2140.31
473.625	2227.99
473.997	2269.57
474.369	2298.72
474.74	2334.2
475.112	2411.26
475.484	2442
475.855	2514.54
476.227	2517.93
476.598	2648.32
476.97	2664.14
477.341	2760.18
477.713	2794.76
478.084	2839.5
478.455	2932.61
478.827	2984.58
479.198	3122.43
479.569	3104.81
479.94	3233.84
480.311	3294.63
480.682	3398.13
481.053	3544.12
481.424	3586.15
481.795	3642.87
482.166	3729.65
482.537	3825.92
482.908	3980.71
483.279	3990.43
483.65	4148.85
484.021	4274.04
484.391	4335.06
484.762	4457.76
485.133	4489.63
485.503	4616.63
485.874	4757.19
486.244	4881.48
486.615	5000.57
486.985	5047.81
487.356	5255.71
487.726	5291.41
488.097	5503.61
488.467	5519.21
488.837	5745.64
489.207	5904.51
489.578	6015.46
489.948	6064.5
490.318	6252.07
490.688	6367.32
491.058	6534.09
491.428	6632.4
491.798	6727.08
492.168	6951.94
492.538	7001.88
492.908	7218.82
493.278	7320.74
493.648	7385.82
494.017	7493.62
494.387	7656.55
494.757	7783.78
495.126	7979.25
495.496	7974.28
495.866	8094.73
496.235	8174.73
496.605	8359.81
496.974	8489.07
497.344	8641.83
497.713	8686.58
498.082	8823.75
498.452	8984.42
498.821	9113.91
499.19	9178.32
499.559	9312.33
499.928	9403.85
500.298	9437.07
500.667	9611.98
501.036	9586.44
501.405	9800.22
501.774	9755.7
502.143	9948.47
502.512	10064.62
502.88	10147.11
503.249	10173.32
503.618	10276.59
503.987	10364.73
504.356	10456.25
504.724	10583.93
505.093	10550.71
505.462	10671.84
505.83	10736.7
506.199	10825.51
506.567	10955.9
506.936	10986.86
507.304	11130.58
507.672	11149.57
508.041	11219.62
508.409	11349.79
508.777	11363.12
509.145	11421.87
509.514	11452.38
509.882	11552.49
510.25	11674.52
510.618	11687.18
510.986	11695.77
511.354	11840.62
511.722	11825.93
512.09	11926.49
512.458	11979.15
512.826	12037.9
513.193	12151.12
513.561	12113.38
513.929	12234.51
514.297	12335.75
514.664	12383.43
515.032	12361.29
515.4	12495.29
515.767	12530.77
516.135	12567.16
516.502	12479.02
516.869	12630.66
517.237	12640.6
517.604	12546.37
517.972	12716.3
518.339	12739.35
518.706	12857.09
519.073	12790.88
519.44	12826.81
519.808	12968.05
520.175	12948.39
520.542	12966.02
520.909	13072.45
521.276	12978.44
521.643	13140.7
522.009	13056.63
522.376	13197.42
522.743	13168.04
523.11	13271.54
523.477	13328.72
523.843	13410.52
524.21	13419.34
524.577	13552.89
524.943	13521.71
525.31	13573.91
525.676	13553.8
526.043	13644.42
526.409	13629.05
526.776	13691.87
527.142	13716.96
527.508	13755.15
527.874	13766.9
528.241	13755.6
528.607	13838.08
528.973	13902.26
529.339	13746.11
529.705	13852.77
530.071	14001.69
530.437	13988.36
530.803	13904.75
531.169	13883.51
531.535	13850.96
531.901	13813
532.267	13846.67
532.632	13927.57
532.998	13979.1
533.364	13987.68
533.73	13933
534.095	13965.76
534.461	13975.03
534.826	13926.89
535.192	13944.07
535.557	13998.98
535.923	13879.66
536.288	13840.57
536.653	13896.61
537.019	13818.42
537.384	13807.35
537.749	13818.87
538.114	13777.97
538.479	13636.05
538.845	13709.27
539.21	13667.01
539.575	13737.29
539.94	13711.53
540.305	13640.8
540.67	13648.03
541.034	13617.75
541.399	13587.24
541.764	13518.09
542.129	13555.38
542.494	13504.08
542.858	13477.64
543.223	13437.19
543.587	13472.89
543.952	13352.9
544.316	13363.52
544.681	13223.64
545.045	13424.76
545.41	13324.88
545.774	13325.1
546.138	13298.66
546.503	13260.02
546.867	13168.04
547.231	13282.84
547.595	13153.35
547.959	13142.06
548.324	13076.97
548.688	13115.62
549.052	13128.72
549.416	12989.07
549.779	13033.36
550.143	12945
550.507	12982.51
550.871	12875.62
551.235	12882.4
551.599	12940.03
551.962	12885.34
552.326	12902.97
552.689	12868.39
553.053	12787.26
553.417	12760.37
553.78	12884.66
554.143	12764.21
554.507	12792.46
554.87	12809.63
555.234	12844.21
555.597	12698.68
555.96	12776.64
556.323	12732.35
556.686	12755.4
557.05	12760.82
557.413	12811.89
557.776	12722.18
558.139	12731.9
558.502	12688.51
558.865	12690.99
559.228	12877.88
559.59	12744.78
559.953	12757.66
560.316	12766.25
560.679	12776.19
561.041	12773.25
561.404	12738.22
561.767	12723.08
562.129	12712.24
562.492	12822.97
562.854	12831.56
563.217	12756.53
563.579	12840.37
563.941	12882.18
564.304	12866.58
564.666	12806.47
565.028	12895.73
565.39	12876.3
565.753	12971.44
566.115	12957.2
566.477	12968.05
566.839	12973.47
567.201	13043.98
567.563	13003.98
567.925	13126.91
568.287	12957.2
568.648	13015.73
569.01	13090.31
569.372	13092.34
569.734	13093.47
570.095	13110.87
570.457	13144.54
570.819	13128.04
571.18	13187.7
571.542	13249.4
571.903	13201.72
572.265	13255.27
572.626	13209.85
572.987	13179.12
573.349	13234.48
573.71	13360.81
574.071	13201.72
574.432	13343.18
574.794	13427.92
575.155	13315.16
575.516	13294.59
575.877	13371.88
576.238	13274.03
576.599	13371.2
576.96	13337.76
577.32	13373.91
577.681	13440.8
578.042	13399.9
578.403	13446.91
578.763	13402.61
579.124	13410.52
579.485	13478.77
579.845	13392.9
580.206	13418.88
580.566	13429.28
580.927	13400.58
581.287	13420.01
581.648	13359.9
582.008	13466.11
582.368	13434.25
582.728	13476.74
583.089	13436.29
583.449	13426.57
583.809	13382.5
584.169	13412.78
584.529	13367.36
584.889	13413.91
585.249	13401.48
585.609	13387.47
585.969	13384.08
586.329	13287.81
586.688	13344.31
587.048	13339.34
587.408	13328.04
587.768	13304.99
588.127	13215.5
588.487	13288.27
588.846	13351.32
589.206	13229.96
589.565	13271.09
589.925	13313.35
590.284	13189.29
590.643	13288.27
591.003	13250.53
591.362	13259.57
591.721	13258.44
592.08	13234.71
592.44	13290.75
592.799	13260.24
593.158	13308.38
593.517	13307.7
593.876	13260.47
594.235	13211.88
594.593	13226.35
594.952	13244.2
595.311	13221.6
595.67	13210.75
596.029	13205.78
596.387	13304.31
596.746	13294.59
597.104	13134.37
597.463	13253.69
597.822	13216.63
598.18	13173.24
598.538	13245.1
598.897	13248.27
599.255	13150.87
599.613	13289.4
599.972	13253.24
600.33	13278.55
600.688	13190.42
601.046	13207.59
601.404	13273.8
601.762	13234.93
602.12	13228.16
602.478	13259.11
602.836	13283.97
603.194	13200.59
603.552	13229.51
603.91	13193.58
604.268	13246.91
604.625	13170.3
604.983	13285.78
605.341	13161.04
605.698	13295.05
606.056	13279.91
606.413	13163.3
606.771	13197.2
607.128	13261.15
607.485	13223.86
607.843	13292.11
608.2	13337.08
608.557	13325.55
608.914	13311.54
609.272	13342.05
609.629	13382.28
609.986	13348.38
610.343	13411.2
610.7	13383.18
611.057	13421.82
611.414	13343.41
611.771	13342.28
612.127	13390.41
612.484	13453.91
612.841	13506.34
613.198	13381.15
613.554	13411.88
613.911	13441.71
614.267	13465.21
614.624	13408.94
614.98	13426.12
615.337	13610.29
615.693	13564.19
616.05	13472.44
616.406	13508.6
616.762	13517.64
617.118	13520.35
617.475	13497.53
617.831	13583.4
618.187	13617.52
618.543	13618.88
618.899	13632.21
619.255	13637.41
619.611	13606
619.967	13688.26
620.323	13636.28
620.678	13627.47
621.034	13607.81
621.39	13647.35
621.746	13604.42
622.101	13750.4
622.457	13586.56
622.812	13667.47
623.168	13686.67
623.523	13685.09
623.879	13691.87
624.234	13599.9
624.589	13587.24
624.945	13685.32
625.3	13661.59
625.655	13640.8
626.01	13621.59
626.365	13695.04
626.72	13612.1
627.075	13580.91
627.43	13567.13
627.785	13617.98
628.14	13619.56
628.495	13514.25
628.85	13565.1
629.205	13564.42
629.559	13514.93
629.914	13521.93
630.269	13564.42
630.623	13531.88
630.978	13595.38
631.332	13530.29
631.687	13574.59
632.041	13498.2
632.396	13534.14
632.75	13487.58
633.104	13403.52
633.459	13421.6
633.813	13380.69
634.167	13401.94
634.521	13371.43
634.875	13444.87
635.229	13406
635.583	13358.55
635.937	13234.93
636.291	13275.84
636.645	13250.98
636.999	13326.91
637.352	13313.58
637.706	13182.96
638.06	13228.38
638.413	13187.93
638.767	13212.79
639.121	13226.8
639.474	13091.21
639.828	13157.42
640.181	13159.46
640.534	13168.04
640.888	13149.96
641.241	13093.24
641.594	13101.6
641.947	13079.01
642.301	13031.32
642.654	13072.45
643.007	13099.57
643.36	13061.38
643.713	13023.41
644.066	13022.74
644.419	13000.59
644.771	12852.57
645.124	12835.4
645.477	12744.1
645.83	12726.25
646.182	12723.08
646.535	12626.36
646.888	12618.45
647.24	12489.42
647.593	12607.15
647.945	12606.02
648.298	12537.33
648.65	12549.75
649.002	12487.38
649.355	12573.03
649.707	12593.82
650.059	12639.92
650.411	12796.53
650.763	12808.73
651.115	12874.72
651.467	12809.63
651.819	12928.73
652.171	12887.37
652.523	12858.22
652.875	12871.1
653.227	12801.5
653.578	12869.75
653.93	12895.06
654.282	12778.9
654.633	12800.6
654.985	12799.92
655.337	12703.42
655.688	12816.41
656.039	12810.76
656.391	12719.92
656.742	12813.25
657.094	12712.24
657.445	12792.91
657.796	12780.71
658.147	12749.07
658.498	12722.41
658.849	12799.69
659.2	12871.33
659.551	12827.71
659.902	12808.51
660.253	12826.81
660.604	12883.31
660.955	12751.11
661.306	12858.9
661.656	12795.4
662.007	12854.15
662.358	12859.13
662.708	12826.36
663.059	12855.51
663.409	12761.95
663.76	12897.99
664.11	12888.28
664.461	12945.45
664.811	12915.62
665.161	12846.7
665.511	12868.16
665.862	12858.9
666.212	12907.94
666.562	12907.03
666.912	12843.98
667.262	12813.93
667.612	12846.24
667.962	12884.66
668.312	12842.85
668.662	12808.51
669.011	12828.39
669.361	12768.96
669.711	12842.85
670.06	12790.2
670.41	12767.15
670.76	12797.66
671.109	12751.56
671.459	12813.7
671.808	12810.54
672.157	12792.69
672.507	12691.45
672.856	12772.8
673.205	12772.35
673.554	12707.49
673.904	12692.12
674.253	12825.68
674.602	12789.52
674.951	12627.72
675.3	12506.82
675.649	12641.28
675.998	12626.81
676.346	12701.16
676.695	12671.79
677.044	12610.77
677.393	12701.84
677.741	12623.88
678.09	12590.66
678.438	12459.59
678.787	12568.29
679.135	12578.91
679.484	12473.37
679.832	12547.72
680.181	12458.01
680.529	12519.93
680.877	12394.05
681.225	12439.02
681.573	12550.66
681.922	12389.98
682.27	12283.55
682.618	12363.09
682.966	12352.7
683.314	12373.26
683.661	12350.66
684.009	12293.26
684.357	12294.39
684.705	12232.93
685.053	12213.04
685.4	12200.61
685.748	12191.35
686.095	12191.57
686.443	12118.35
686.79	12120.16
687.138	12094.17
687.485	12028.19
687.832	12003.78
688.18	12026.6
688.527	11915.42
688.874	11900.05
689.221	11844.91
689.568	11817.8
689.915	11800.17
690.262	11857.12
690.609	11805.37
690.956	11708.65
691.303	11752.49
691.65	11654.86
691.997	11584.36
692.344	11531.02
692.69	11486.28
693.037	11507.07
693.383	11465.72
693.73	11414.42
694.077	11380.75
694.423	11335.78
694.769	11329
695.116	11319.96
695.462	11267.53
695.808	11166.74
696.155	11265.27
696.501	11181.2
696.847	11151.15
697.193	10976.24
697.539	11097.82
697.885	11050.81
698.231	10931.72
698.577	10935.33
698.923	10918.61
699.269	10880.42
699.614	10750.71
699.96	10712.29
700.306	10726.75
700.651	10717.26
700.997	10552.07
701.342	10632.74
701.688	10612.63
702.033	10587.32
702.379	10507.55
702.724	10555.68
703.069	10548.68
703.415	10414.9
703.76	10361.56
704.105	10406.31
704.45	10379.42
704.795	10261.45
705.14	10272.3
705.485	10259.42
705.83	10230.72
706.175	10208.57
706.52	10152.08
706.865	10077.5
707.209	10065.3
707.554	10026.43
707.899	10146.43
708.243	10014.91
708.588	10023.72
708.932	9926.77
709.277	9961.8
709.621	9912.76
709.966	9861.24
710.31	9903.27
710.654	9810.39
710.998	9811.52
711.342	9808.13
711.687	9668.7
712.031	9722.26
712.375	9731.75
712.719	9733.11
713.063	9714.12
713.407	9699.89
713.75	9602.26
714.094	9663.95
714.438	9543.96
714.782	9578.31
715.125	9570.62
715.469	9567.23
715.812	9572.66
716.156	9459.89
716.499	9472.55
716.843	9425.32
717.186	9410.85
717.53	9437.29
717.873	9470.97
718.216	9504.86
718.559	9347.35
718.902	9362.49
719.246	9330.4
719.589	9325.88
719.932	9324.75
720.275	9340.8
720.617	9316.62
720.96	9283.85
721.303	9286.56
721.646	9201.82
721.989	9254.25
722.331	9200.46
722.674	9251.31
723.016	9222.38
723.359	9190.75
723.701	9226.68
724.044	9118.88
724.386	9044.99
724.729	9096.29
725.071	9105.55
725.413	9122.73
725.755	9166.11
726.097	9082.5
726.439	9087.92
726.782	9066.68
727.124	9146
727.465	9071.88
727.807	9090.64
728.149	9092.22
728.491	9069.62
728.833	9005.67
729.175	8981.71
729.516	8982.84
729.858	9051.99
730.199	8979.23
730.541	8989.62
730.882	9028.94
731.224	9011.77
731.565	8981.71
731.906	9008.6
732.248	9019.45
732.589	8997.76
732.93	8937.87
733.271	8957.98
733.612	8974.03
733.953	8952.34
734.294	8970.41
734.635	8945.78
734.976	8951.66
735.317	8913.01
735.658	8920.25
735.999	8984.88
736.339	8922.05
736.68	8967.93
737.021	8929.28
737.361	8929.51
737.702	8976.97
738.042	8974.48
738.383	8998.89
738.723	8937.87
739.063	8970.19
739.404	8955.5
739.744	9011.54
740.084	8957.98
740.424	8967.02
740.764	9016.97
741.104	9025.78
741.444	8989.85
741.784	9051.54
742.124	9040.24
742.464	9024.42
742.804	9064.87
743.143	9060.58
743.483	9089.05
743.823	9068.49
744.162	9094.93
744.502	9195.04
744.841	9169.05
745.181	9179.22
745.52	9217.64
745.86	9335.38
746.199	9309.61
746.538	9297.86
746.877	9442.27
747.216	9367.69
747.556	9407.01
747.895	9468.25
748.234	9463.06
748.573	9554.35
748.911	9609.27
749.25	9640.45
749.589	9730.17
749.928	9748.92
750.267	9891.29
750.605	9835.93
750.944	9935.81
751.283	9986.43
751.621	10042.02
751.96	10157.95
752.298	10264.17
752.636	10331.06
752.975	10337.61
753.313	10410.38
753.651	10609.01
753.989	10647.43
754.327	10674.1
754.666	10820.08
755.004	10943.92
755.342	11053.3
755.679	11133.52
756.017	11273.63
756.355	11481.08
756.693	11470.46
757.031	11718.82
757.368	11701.19
757.706	11910
758.044	12006.72
758.381	12186.83
758.719	12191.35
759.056	12448.74
