Data from hue_60_FLMS001491_80.txt Node
Date: Mon Feb 06 15:17:55 GMT 2017
User: dcchb
Spectrometer: FLMS00149
Trigger mode: 0
Integration Time (sec): 2.000000E-2
Scans to average: 10
Electric dark correction enabled: true
Nonlinearity correction enabled: false
Boxcar width: 0
XAxis mode: Wavelengths
Number of Pixels in Spectrum: 2048
>>>>>Begin Spectral Data<<<<<
341.393	-8.94
341.776	-8.94
342.16	-8.94
342.543	-69.05
342.927	-43.29
343.31	-51.65
343.693	-69.96
344.077	-61.37
344.46	-41.71
344.843	-58.2
345.226	-30.86
345.61	-35.15
345.993	-24.53
346.376	-4.87
346.759	1.68
347.142	37.84
347.525	33.54
347.908	70.15
348.291	69.25
348.674	80.77
349.057	85.07
349.44	94.56
349.823	139.98
350.206	157.38
350.588	200.77
350.971	215.23
351.354	230.83
351.737	241.67
352.119	260.88
352.502	273.99
352.884	266.31
353.267	302.46
353.65	301.79
354.032	302.24
354.414	326.64
354.797	332.97
355.179	318.51
355.562	340.43
355.944	344.04
356.326	346.98
356.709	341.56
357.091	335.23
357.473	335.91
357.855	320.54
358.238	340.88
358.62	340.43
359.002	344.04
359.384	367.32
359.766	348.34
360.148	341.56
360.53	345.85
360.912	331.62
361.294	337.04
361.676	332.29
362.057	336.59
362.439	330.26
362.821	331.16
363.203	323.71
363.584	325.97
363.966	329.36
364.348	323.48
364.729	331.39
365.111	328
365.493	332.07
365.874	358.73
366.256	324.38
366.637	324.84
367.019	324.16
367.4	316.02
367.781	329.36
368.163	338.4
368.544	317.15
368.925	314.44
369.306	320.99
369.688	315.12
370.069	305.18
370.45	320.09
370.831	309.7
371.212	307.66
371.593	320.77
371.974	318.51
372.355	345.85
372.736	328.9
373.117	311.5
373.498	308.79
373.879	327.32
374.26	313.54
374.641	330.94
375.021	338.62
375.402	347.89
375.783	329.36
376.163	318.28
376.544	332.97
376.925	322.58
377.305	315.57
377.686	320.32
378.066	327.1
378.447	322.58
378.827	320.09
379.208	328.68
379.588	326.19
379.968	328
380.349	339.3
380.729	352.41
381.109	334.55
381.489	329.81
381.87	342.69
382.25	346.53
382.63	353.31
383.01	332.75
383.39	342.69
383.77	365.74
384.15	348.34
384.53	366.19
384.91	349.47
385.29	372.07
385.67	340.88
386.049	359.86
386.429	340.43
386.809	373.2
387.189	352.86
387.568	361.9
387.948	347.21
388.328	326.19
388.707	368.22
389.087	345.4
389.466	339.3
389.846	364.38
390.225	341.56
390.605	363.25
390.984	347.66
391.363	372.97
391.743	346.53
392.122	360.54
392.501	375.46
392.881	363.48
393.26	375.23
393.639	357.38
394.018	362.58
394.397	381.11
394.776	373.87
395.155	402.12
395.534	360.54
395.913	381.78
396.292	389.47
396.671	369.81
397.05	382.01
397.429	382.91
397.808	399.18
398.186	377.72
398.565	406.19
398.944	386.98
399.323	368.9
399.701	398.51
400.08	388.79
400.458	411.16
400.837	412.07
401.215	406.19
401.594	413.87
401.972	386.08
402.351	412.74
402.729	398.73
403.107	433.76
403.486	396.7
403.864	426.53
404.242	386.76
404.62	407.32
404.999	426.08
405.377	420.2
405.755	403.48
406.133	423.59
406.511	436.47
406.889	420.65
407.267	438.05
407.645	432.86
408.023	452.06
408.401	415.91
408.779	423.82
409.156	414.1
409.534	422.01
409.912	462.01
410.29	459.07
410.667	442.8
411.045	434.66
411.422	469.47
411.8	470.82
412.178	457.26
412.555	475.57
412.933	472.18
413.31	453.42
413.687	469.69
414.065	469.01
414.442	488
414.819	482.8
415.197	484.61
415.574	478.28
415.951	476.02
416.328	487.54
416.705	477.37
417.082	485.06
417.46	491.39
417.837	484.83
418.214	511.05
418.591	509.24
418.967	519.86
419.344	519.63
419.721	514.89
420.098	520.31
420.475	518.96
420.852	506.98
421.228	510.82
421.605	534.55
421.982	521.67
422.358	527.99
422.735	556.24
423.111	548.79
423.488	531.38
423.864	541.78
424.241	552.4
424.617	551.27
424.994	542.91
425.37	537.94
425.746	539.52
426.123	562.57
426.499	578.84
426.875	556.24
427.251	556.24
427.627	571.38
428.003	586.07
428.379	608.44
428.756	597.82
429.132	607.31
429.507	578.61
429.883	603.25
430.259	607.31
430.635	601.66
431.011	636.92
431.387	611.16
431.763	637.14
432.138	663.58
432.514	631.95
432.89	635.56
433.265	634.43
433.641	655.45
434.016	695.22
434.392	662.45
434.767	671.49
435.143	673.53
435.518	695.22
435.894	669.23
436.269	680.76
436.644	696.35
437.02	696.8
437.395	696.58
437.77	702
438.145	692.96
438.52	718.72
438.895	698.84
439.271	712.17
439.646	732.06
440.021	721.66
440.395	726.41
440.77	738.16
441.145	743.36
441.52	745.62
441.895	758.05
442.27	759.85
442.645	759.4
443.019	781.32
443.394	772.51
443.769	781.77
444.143	788.78
444.518	798.27
444.892	792.62
445.267	787.42
445.641	779.29
446.016	798.5
446.39	790.36
446.764	792.85
447.139	820.87
447.513	823.35
447.887	801.66
448.262	844.14
448.636	819.74
449.01	838.27
449.384	854.77
449.758	845.95
450.132	860.64
450.506	864.93
450.88	837.82
451.254	854.09
451.628	871.04
452.002	883.01
452.376	890.7
452.75	905.84
453.123	888.21
453.497	912.17
453.871	890.47
454.244	913.52
454.618	925.5
454.992	951.03
455.365	957.59
455.739	932.05
456.112	970.24
456.486	952.16
456.859	978.6
457.232	998.94
457.606	1008.66
457.979	1022.44
458.352	1019.96
458.725	1025.38
459.099	1016.57
459.472	1061.54
459.845	1076.91
460.218	1095.66
460.591	1080.3
460.964	1085.72
461.337	1132.5
461.71	1094.53
462.083	1119.17
462.456	1152.61
462.829	1169.11
463.201	1174.31
463.574	1184.47
463.947	1168.66
464.32	1243.68
464.692	1213.17
465.065	1247.98
465.438	1273.96
465.81	1271.03
466.183	1290.46
466.555	1321.42
466.928	1331.14
467.3	1333.85
467.672	1360.97
468.045	1417.46
468.417	1414.75
468.789	1424.47
469.161	1491.36
469.534	1471.92
469.906	1499.95
470.278	1536.33
470.65	1553.73
471.022	1606.84
471.394	1614.07
471.766	1626.5
472.138	1671.92
472.51	1721.41
472.882	1748.53
473.253	1789.66
473.625	1813.38
473.997	1848.64
474.369	1887.96
474.74	1895.64
475.112	1994.17
475.484	2041.18
475.855	2075.75
476.227	2087.28
476.598	2198.46
476.97	2253.82
477.341	2283.65
477.713	2343.77
478.084	2395.97
478.455	2484.33
478.827	2552.8
479.198	2640.71
479.569	2642.29
479.94	2737.2
480.311	2836.63
480.682	2910.08
481.053	2953.24
481.424	3081.37
481.795	3167.25
482.166	3263.52
482.537	3310.97
482.908	3413.34
483.279	3491.53
483.65	3629.38
484.021	3716.84
484.391	3825.54
484.762	3904.63
485.133	4036.6
485.503	4145.75
485.874	4255.58
486.244	4350.94
486.615	4540.09
486.985	4653.31
487.356	4849.91
487.726	4901.44
488.097	5080.19
488.467	5134.2
488.837	5340.3
489.207	5427.75
489.578	5611.93
489.948	5761.3
490.318	5909.32
490.688	6022.54
491.058	6161.97
491.428	6311.12
491.798	6542.07
492.168	6648.74
492.538	6811.67
492.908	6950.42
493.278	7094.83
493.648	7248.5
494.017	7364.65
494.387	7499.79
494.757	7749.27
495.126	7863.85
495.496	7970.51
495.866	8216.15
496.235	8322.82
496.605	8519.65
496.974	8674.67
497.344	8873.99
497.713	8960.32
498.082	9179.29
498.452	9328.89
498.821	9431.04
499.19	9585.16
499.559	9798.71
499.928	9939.95
500.298	10007.07
500.667	10273.05
501.036	10305.59
501.405	10500.61
501.774	10626.94
502.143	10753.94
502.512	10878
502.88	11135.17
503.249	11213.59
503.618	11409.74
503.987	11541.04
504.356	11637.08
504.724	11741.71
505.093	11923.18
505.462	12071.87
505.83	12218.53
506.199	12460.11
506.567	12564.97
506.936	12653.55
507.304	12948.91
507.672	13005.18
508.041	13139.19
508.409	13228
508.777	13497.37
509.145	13504.83
509.514	13694.65
509.882	13795.89
510.25	13996.57
510.618	14132.16
510.986	14159.5
511.354	14425.03
511.722	14593.39
512.09	14703.89
512.458	14763.55
512.826	14973.49
513.193	15006.48
513.561	15232.69
513.929	15377.77
514.297	15640.37
514.664	15747.48
515.032	15694.38
515.4	15960.58
515.767	16058.89
516.135	16210.52
516.502	16162.61
516.869	16550.62
517.237	16657.29
517.604	16580.23
517.972	16916.49
518.339	17005.75
518.706	17101.12
519.073	17245.07
519.44	17352.41
519.808	17540.65
520.175	17585.4
520.542	17925.05
520.909	18050.25
521.276	17970.02
521.643	18311.48
522.009	18361.42
522.376	18529.1
522.743	18670.79
523.11	18827.85
523.477	19057
523.843	19239.82
524.21	19392.13
524.577	19658.79
524.943	19669.19
525.31	19820.37
525.676	19971.55
526.043	20175.61
526.409	20325.44
526.776	20535.83
527.142	20566.79
527.508	20708.71
527.874	20769.04
528.241	21084.29
528.607	21070.73
528.973	21293.78
529.339	21295.81
529.705	21452.19
530.071	21683.82
530.437	21723.37
530.803	21971.95
531.169	22010.37
531.535	22120.2
531.901	22206.52
532.267	22340.08
532.632	22472.95
532.998	22554.53
533.364	22555.66
533.73	22803.57
534.095	22943.45
534.461	23022.09
534.826	23178.47
535.192	23211.01
535.557	23500.95
535.923	23335.08
536.288	23527.62
536.653	23706.14
537.019	23637.44
537.384	23748.18
537.749	23991.33
538.114	24024.78
538.479	24006.25
538.845	24168.05
539.21	24157.88
539.575	24261.61
539.94	24300.02
540.305	24461.15
540.67	24509.06
541.034	24628.6
541.399	24827.92
541.764	24782.5
542.129	24891.42
542.494	24932.78
542.858	25018.42
543.223	25133.9
543.587	25348.36
543.952	25158.53
544.316	25441.92
544.681	25319.66
545.045	25543.38
545.41	25622.48
545.774	25670.84
546.138	25768.01
546.503	25716.94
546.867	25741.34
547.231	26089.13
547.595	26057.72
547.959	26145.4
548.324	26288.22
548.688	26333.64
549.052	26492.51
549.416	26503.13
549.779	26555.78
550.143	26661.32
550.507	26809.79
550.871	26876.68
551.235	26972.27
551.599	27087.52
551.962	27093.62
552.326	27115.54
552.689	27424.24
553.053	27210
553.417	27377.68
553.78	27692.48
554.143	27709.2
554.507	27782.42
554.87	27866.94
555.234	28216.53
555.597	28010.66
555.96	28203.65
556.323	28303.76
556.686	28245.01
557.05	28520.03
557.413	28551.89
557.776	28796.4
558.139	28768.83
558.502	28999.34
558.865	29027.13
559.228	29221.93
559.59	29289.05
559.953	29315.03
560.316	29777.4
560.679	29713.67
561.041	29769.03
561.404	30072.08
561.767	30118.4
562.129	30067.78
562.492	30441.11
562.854	30521.78
563.217	30356.14
563.579	30642.91
563.941	30835.9
564.304	30890.13
564.666	31086.97
565.028	31203.8
565.39	31283.8
565.753	31452.38
566.115	31548.87
566.477	31678.81
566.839	31783.44
567.201	32077.22
567.563	31966.72
567.925	32308.4
568.287	32248.74
568.648	32307.72
569.01	32504.33
569.372	32709.3
569.734	32645.79
570.095	32871.55
570.457	33032.68
570.819	33128.95
571.18	33138.21
571.542	33317.41
571.903	33347.47
572.265	33331.43
572.626	33499.56
572.987	33650.74
573.349	33808.02
573.71	33959.66
574.071	33874.69
574.432	33966.21
574.794	34318.07
575.155	34271.74
575.516	34188.13
575.877	34405.75
576.238	34443.26
576.599	34571.17
576.96	34519.19
577.32	34629.24
577.681	34895.9
578.042	34952.17
578.403	34912.4
578.763	34886.87
579.124	35065.39
579.485	35119.18
579.845	35223.81
580.206	35158.27
580.566	35208.21
580.927	35195.56
581.287	35501.76
581.648	35356.46
582.008	35467.41
582.368	35455.44
582.728	35409.34
583.089	35480.97
583.449	35384.48
583.809	35587.86
584.169	35569.56
584.529	35552.84
584.889	35847.29
585.249	35551.93
585.609	35560.52
585.969	35813.39
586.329	35651.36
586.688	35764.13
587.048	35763.9
587.408	35781.08
587.768	35759.84
588.127	35776.11
588.487	35825.6
588.846	36049.55
589.206	35624.47
589.565	35655.21
589.925	35924.8
590.284	35733.17
590.643	35924.13
591.003	35764.13
591.362	36026.72
591.721	35905.14
592.08	36004.12
592.44	36035.08
592.799	36071.47
593.158	35965.25
593.517	36146.04
593.876	36213.84
594.235	36020.39
594.593	36101.07
594.952	36245.7
595.311	36091.81
595.67	36368.63
596.029	36380.61
596.387	36462.19
596.746	36496.31
597.104	36421.97
597.463	36399.14
597.822	36417.22
598.18	36501.06
598.538	36255.42
598.897	36680.49
599.255	36371.8
599.613	36949.18
599.972	36660.38
600.33	36788.06
600.688	36765.23
601.046	36875.51
601.404	36994.61
601.762	36890.43
602.12	36954.16
602.478	37033.02
602.836	37164.09
603.194	36839.81
603.552	36927.04
603.91	36928.17
604.268	37155.96
604.625	36929.52
604.983	37157.31
605.341	37117.54
605.698	37351.89
606.056	37377.65
606.413	37426.01
606.771	37450.19
607.128	37621.71
607.485	37485.21
607.843	37346.24
608.2	37616.74
608.557	37723.4
608.914	37678.2
609.272	37882.94
609.629	37906.9
609.986	38033.45
610.343	37835.49
610.7	38159.77
611.057	38148.25
611.414	38191.86
611.771	38373.33
612.127	38382.59
612.484	38157.06
612.841	38496.71
613.198	38363.84
613.554	38372.65
613.911	38678.18
614.267	38564.73
614.624	38637.95
614.98	38658.07
615.337	38882.24
615.693	38895.35
616.05	38831.62
616.406	39097.83
616.762	38781.68
617.118	38900.32
617.475	38932.41
617.831	39110.48
618.187	39132.18
618.543	39202.46
618.899	39390.7
619.255	39390.02
619.611	39206.07
619.967	39478.61
620.323	39448.55
620.678	39496.01
621.034	39538.72
621.39	39512.28
621.746	39414.43
622.101	39879.5
622.457	39546.63
622.812	39641.32
623.168	39841.54
623.523	39815.32
623.879	39882.89
624.234	39755.44
624.589	39718.15
624.945	39838.15
625.3	39928.09
625.655	39947.3
626.01	39887.86
626.365	39989.78
626.72	39786.62
627.075	39910.24
627.43	39916.34
627.785	39831.59
628.14	39903.46
628.495	40167.86
628.85	39936.22
629.205	39892.38
629.559	40133.96
629.914	39930.8
630.269	40030.23
630.623	40063.68
630.978	39810.58
631.332	40127.63
631.687	40113.17
632.041	40023.68
632.396	40033.85
632.75	39926.28
633.104	39858.94
633.459	39689.45
633.813	39755.89
634.167	39773.74
634.521	39792.72
634.875	39908.43
635.229	39804.48
635.583	39586.63
635.937	39749.56
636.291	39537.82
636.645	39500.76
636.999	39576.69
637.352	39700.75
637.706	39443.13
638.06	39552.96
638.413	39569.91
638.767	39319.29
639.121	39416.69
639.474	39390.02
639.828	39256.69
640.181	39304.15
640.534	39451.49
640.888	39133.76
641.241	39215.34
641.594	39130.82
641.947	39308.67
642.301	39147.32
642.654	39210.59
643.007	39135.79
643.36	39275.9
643.713	39103.48
644.066	39166.53
644.419	38883.14
644.771	38648.35
645.124	38409.71
645.477	38332.88
645.83	38178.3
646.182	37914.81
646.535	37958.87
646.888	37916.16
647.24	37582.39
647.593	37904.41
647.945	37746.9
648.298	37710.75
648.65	37449.51
649.002	37549.17
649.355	37710.52
649.707	37646.57
650.059	37828.48
650.411	38201.81
650.763	38365.42
651.115	38661
651.467	38525.64
651.819	38517.05
652.171	38428.47
652.523	38415.81
652.875	38359.09
653.227	38266.44
653.578	38503.04
653.93	38376.94
654.282	38162.94
654.633	38049.72
654.985	38190.51
655.337	38237.06
655.688	38196.38
656.039	38297.4
656.391	37972.21
656.742	38012.43
657.094	38134.46
657.445	38167.23
657.796	37993.68
658.147	37946.67
658.498	38062.6
658.849	37841.36
659.2	38047.69
659.551	37810.4
659.902	38079.78
660.253	37975.15
660.604	38042.71
660.955	37719.11
661.306	38006.33
661.656	37945.99
662.007	37768.15
662.358	37882.94
662.708	37873.23
663.059	37837.3
663.409	37673.01
663.76	37964.52
664.11	37898.31
664.461	37905.99
664.811	37923.85
665.161	37865.09
665.511	37652.22
665.862	37789.16
666.212	37824.42
666.562	38012.21
666.912	37898.54
667.262	37698.54
667.612	37743.51
667.962	37768.82
668.312	37902.83
668.662	37756.85
669.011	37685.44
669.361	37611.77
669.711	37684.76
670.06	37606.34
670.41	37453.58
670.76	37431.88
671.109	37707.81
671.459	37631.2
671.808	37473.01
672.157	37658.09
672.507	37444.09
672.856	37447.93
673.205	37537.87
673.554	37624.42
673.904	37452.67
674.253	37677.07
674.602	37498.32
674.951	36934.49
675.3	36890.2
675.649	37311.21
675.998	37388.49
676.346	37289.74
676.695	37498.1
677.044	37167.03
677.393	37386.91
677.741	37279.57
678.09	37204.09
678.438	37128.39
678.787	37159.12
679.135	37214.94
679.484	36932.46
679.832	37086.13
680.181	36918
680.529	36925.91
680.877	36892.24
681.225	36706.48
681.573	37100.82
681.922	36808.17
682.27	36648.63
682.618	36737.44
682.966	36676.65
683.314	36695.63
683.661	36556.2
684.009	36364.79
684.357	36348.3
684.705	36264.46
685.053	36249.54
685.4	36225.36
685.748	35984.24
686.095	36028.53
686.443	35854.75
686.79	35855.88
687.138	35961.87
687.485	35965.03
687.832	35697.69
688.18	35786.05
688.527	35600.07
688.874	35604.59
689.221	35622.21
689.568	35578.37
689.915	35313.52
690.262	35417.92
690.609	35229.91
690.956	35187.42
691.303	35049.57
691.65	34950.14
691.997	34934.1
692.344	34815.68
692.69	34764.38
693.037	34755.8
693.383	34532.98
693.73	34631.05
694.077	34392.87
694.423	34393.77
694.769	34377.27
695.116	34406.88
695.462	34310.16
695.808	34080.11
696.155	34243.04
696.501	33953.1
696.847	33824.07
697.193	33751.08
697.539	33872.2
697.885	33605.09
698.231	33497.98
698.577	33527.35
698.923	33459.56
699.269	33275.16
699.614	33100.47
699.96	33066.12
700.306	32957.42
700.651	32887.14
700.997	32867.71
701.342	32755.4
701.688	32708.84
702.033	32587.26
702.379	32428.4
702.724	32361.73
703.069	32472.01
703.415	32133.72
703.76	32090.78
704.105	32263.21
704.45	32046.04
704.795	31798.36
705.14	31809.43
705.485	31838.58
705.83	31607.4
706.175	31780.96
706.52	31556.33
706.865	31544.13
707.209	31407.86
707.554	31390.69
707.899	31412.61
708.243	31205.15
708.588	31196.57
708.932	31012.62
709.277	31049.45
709.621	31062.56
709.966	30777.82
710.31	31022.11
710.654	30635.23
710.998	30678.16
711.342	30704.6
711.687	30638.84
712.031	30423.71
712.375	30383.48
712.719	30432.29
713.063	30351.39
713.407	30299.64
713.75	30144.84
714.094	30351.17
714.438	30059.42
714.782	30061
715.125	30051.51
715.469	30045.41
715.812	29889.26
716.156	29670.51
716.499	29683.39
716.843	29755.02
717.186	29673.22
717.53	29663.73
717.873	29584.18
718.216	29575.59
718.559	29469.83
718.902	29317.97
719.246	29283.4
719.589	29212.44
719.932	29048.15
720.275	29065.55
720.617	28963.86
720.96	28935.16
721.303	29065.1
721.646	28920.69
721.989	28771.55
722.331	28927.47
722.674	28681.83
723.016	28777.2
723.359	28782.62
723.701	28726.12
724.044	28573.81
724.386	28390.31
724.729	28604.54
725.071	28571.33
725.413	28505.11
725.755	28386.25
726.097	28235.29
726.439	28116.42
726.782	28155.97
727.124	28323.65
727.465	28177.44
727.807	28167.04
728.149	28101.51
728.491	27925.24
728.833	28054.05
729.175	27924.11
729.516	27852.47
729.858	27852.25
730.199	27923.21
730.541	27864.9
730.882	27788.97
731.224	27873.26
731.565	27492.26
731.906	27541.52
732.248	27602.54
732.589	27479.83
732.93	27457.91
733.271	27420.85
733.612	27363.67
733.953	27445.7
734.294	27319.38
734.635	27182.89
734.976	27385.14
735.317	27147.63
735.658	27179.72
735.999	27117.58
736.339	27049.33
736.68	27069.9
737.021	26986.06
737.361	26824.03
737.702	27026.73
738.042	26852.95
738.383	26766.85
738.723	26946.06
739.063	26768.89
739.404	26884.14
739.744	26676.46
740.084	26575.9
740.424	26586.52
740.764	26512.85
741.104	26667.42
741.444	26425.62
741.784	26506.75
742.124	26410.7
742.464	26325.28
742.804	26334.32
743.143	26308.56
743.483	26418.39
743.823	26164.61
744.162	26190.6
744.502	26224.95
744.841	26062.46
745.181	26142.01
745.52	26012.3
745.86	26077.83
746.199	25978.85
746.538	25917.61
746.877	25901.11
747.216	25835.13
747.556	25843.04
747.895	25786.31
748.234	25725.98
748.573	25675.13
748.911	25710.16
749.25	25698.63
749.589	25535.7
749.928	25473.78
750.267	25591.06
750.605	25475.59
750.944	25227.91
751.283	25425.19
751.621	25368.47
751.96	25198.98
752.298	25240.57
752.636	25268.36
752.975	25078.54
753.313	24942.72
753.651	25029.95
753.989	24903.17
754.327	24832.44
754.666	24789.5
755.004	24850.97
755.342	24819.33
755.679	24801.03
756.017	24605.33
756.355	24562.84
756.693	24461.15
