Data from hue_140_FLMS001491_00028.txt Node
Date: Tue Feb 07 16:55:40 GMT 2017
User: dcchb
Spectrometer: FLMS00149
Trigger mode: 0
Integration Time (sec): 2.000000E-2
Scans to average: 10
Electric dark correction enabled: true
Nonlinearity correction enabled: false
Boxcar width: 0
XAxis mode: Wavelengths
Number of Pixels in Spectrum: 2048
>>>>>Begin Spectral Data<<<<<
341.393	-10.66
341.776	-10.66
342.16	-10.66
342.543	-53.83
342.927	-57.89
343.31	-64.9
343.693	-71
344.077	-51.79
344.46	-69.65
344.843	-51.34
345.226	-47.27
345.61	-21.96
345.993	-31.68
346.376	-5.69
346.759	6.74
347.142	31.82
347.525	40.18
347.908	58.71
348.291	86.28
348.674	101.42
349.057	90.12
349.44	116.56
349.823	132.61
350.206	172.38
350.588	190.24
350.971	226.39
351.354	234.75
351.737	281.76
352.119	257.8
352.502	272.94
352.884	281.08
353.267	266.62
353.65	297.12
354.032	306.84
354.414	305.03
354.797	303.45
355.179	324.92
355.562	335.32
355.944	335.77
356.326	328.31
356.709	346.16
357.091	347.97
357.473	346.62
357.855	342.32
358.238	343.68
358.62	334.64
359.002	346.39
359.384	355.65
359.766	335.99
360.148	323.56
360.53	347.52
360.912	362.43
361.294	331.7
361.676	348.42
362.057	334.86
362.439	348.2
362.821	319.72
363.203	330.57
363.584	328.31
363.966	338.25
364.348	336.67
364.729	328.54
365.111	317.92
365.493	317.01
365.874	313.17
366.256	319.05
366.637	334.86
367.019	328.08
367.4	331.47
367.781	310.01
368.163	308.88
368.544	315.88
368.925	311.14
369.306	314.07
369.688	309.33
370.069	309.78
370.45	303.45
370.831	321.31
371.212	310.01
371.593	315.88
371.974	293.96
372.355	312.49
372.736	296
373.117	319.05
373.498	321.53
373.879	333.51
374.26	307.52
374.641	289.67
375.021	319.95
375.402	345.03
375.783	314.07
376.163	331.02
376.544	313.17
376.925	338.48
377.305	319.05
377.686	343
378.066	326.28
378.447	310.23
378.827	342.55
379.208	345.71
379.588	330.34
379.968	333.51
380.349	347.07
380.729	350.23
381.109	335.54
381.489	359.27
381.87	336.45
382.25	348.65
382.63	328.99
383.01	354.3
383.39	341.42
383.77	352.72
384.15	369.44
384.53	347.97
384.91	336.67
385.29	364.92
385.67	327.18
386.049	354.07
386.429	353.17
386.809	338.93
387.189	361.3
387.568	379.38
387.948	349.78
388.328	361.3
388.707	357.24
389.087	368.54
389.466	358.37
389.846	363.11
390.225	374.19
390.605	380.29
390.984	362.21
391.363	355.65
391.743	384.35
392.122	360.17
392.501	381.87
392.881	400.85
393.26	382.77
393.639	387.97
394.018	399.27
394.397	392.72
394.776	367.63
395.155	378.03
395.534	380.29
395.913	383.45
396.292	385.26
396.671	397.91
397.05	412.83
397.429	396.78
397.808	393.62
398.186	387.97
398.565	390.91
398.944	394.52
399.323	398.37
399.701	406.05
400.08	384.35
400.458	388.2
400.837	399.72
401.215	408.99
401.594	400.17
401.972	416.22
402.351	413.96
402.729	427.29
403.107	405.6
403.486	406.5
403.864	423.9
404.242	402.43
404.62	418.25
404.999	420.51
405.377	453.51
405.755	436.1
406.133	428.42
406.511	433.62
406.889	435.43
407.267	421.87
407.645	444.92
408.023	441.98
408.401	465.93
408.779	452.38
409.156	429.55
409.534	442.43
409.912	471.81
410.29	451.92
410.667	472.94
411.045	466.16
411.422	443.34
411.8	484.92
412.178	484.46
412.555	485.14
412.933	467.06
413.31	483.11
413.687	487.4
414.065	488.98
414.442	482.2
414.819	504.13
415.197	499.38
415.574	492.15
415.951	523.11
416.328	496.67
416.705	509.77
417.082	521.98
417.46	509.32
417.837	514.52
418.214	519.94
418.591	527.85
418.967	515.65
419.344	541.86
419.721	539.83
420.098	530.57
420.475	540.06
420.852	524.69
421.228	527.85
421.605	537.57
421.982	551.58
422.358	550.45
422.735	569.66
423.111	571.47
423.488	561.07
423.864	566.5
424.241	580.51
424.617	567.4
424.994	596.78
425.37	582.54
425.746	600.39
426.123	587.06
426.499	572.15
426.875	597.68
427.251	615.99
427.627	601.07
428.003	597.91
428.379	603.56
428.756	629.32
429.132	614.63
429.507	621.64
429.883	623.67
430.259	623.22
430.635	628.87
431.011	645.14
431.387	652.37
431.763	652.14
432.138	643.33
432.514	677.68
432.89	689.43
433.265	693.5
433.641	680.17
434.016	707.96
434.392	682.88
434.767	705.25
435.143	722.42
435.518	704.8
435.894	719.26
436.269	721.75
436.644	706.38
437.02	746.15
437.395	751.8
437.77	774.85
438.145	758.36
438.52	764.46
438.895	780.28
439.271	766.94
439.646	792.71
440.021	784.12
440.395	787.96
440.77	796.09
441.145	807.17
441.52	811.01
441.895	807.62
442.27	806.94
442.645	825.25
443.019	804.46
443.394	821.86
443.769	839.26
444.143	799.71
444.518	862.76
444.892	855.98
445.267	860.5
445.641	890.78
446.016	858.24
446.39	851.69
446.764	883.78
447.139	895.08
447.513	878.35
447.887	890.33
448.262	885.81
448.636	913.38
449.01	916.54
449.384	925.36
449.758	905.47
450.132	926.49
450.506	961.74
450.88	943.21
451.254	952.47
451.628	943.44
452.002	987.28
452.376	985.24
452.75	988.86
453.123	991.8
453.497	989.31
453.871	996.32
454.244	1010.78
454.618	1018.69
454.992	1048.52
455.365	1048.52
455.739	1080.38
456.112	1062.53
456.486	1084.22
456.859	1081.96
457.232	1109.31
457.606	1118.12
457.979	1124
458.352	1131.45
458.725	1137.55
459.099	1169.64
459.472	1147.95
459.845	1194.05
460.218	1178.23
460.591	1199.02
460.964	1232.02
461.337	1220.49
461.71	1271.11
462.083	1289.42
462.456	1284.22
462.829	1294.61
463.201	1310.21
463.574	1326.02
463.947	1352.69
464.32	1396.76
464.692	1384.1
465.065	1402.86
465.438	1425.46
465.81	1417.55
466.183	1480.37
466.555	1505.23
466.928	1513.36
467.3	1530.09
467.672	1525.79
468.045	1598.79
468.417	1580.26
468.789	1609.63
469.161	1643.98
469.534	1681.72
469.906	1701.16
470.278	1728.05
470.65	1764.66
471.022	1797.2
471.394	1813.92
471.766	1851.21
472.138	1856.63
472.51	1937.08
472.882	1968.72
473.253	1993.35
473.625	2030.64
473.997	2101.82
474.369	2145.89
474.74	2182.05
475.112	2201.26
475.484	2237.41
475.855	2281.93
476.227	2362.61
476.598	2448.48
476.97	2440.12
477.341	2536.16
477.713	2619.1
478.084	2626.33
478.455	2726.44
478.827	2808.92
479.198	2907.9
479.569	2891.86
479.94	3029.48
480.311	3082.81
480.682	3158.29
481.053	3271.51
481.424	3365.74
481.795	3400.32
482.166	3526.19
482.537	3608
482.908	3697.71
483.279	3829.24
483.65	3927.99
484.021	4013.64
484.391	4124.82
484.762	4187.19
485.133	4302.44
485.503	4385.61
485.874	4556.22
486.244	4605.71
486.615	4771.13
486.985	4857.01
487.356	4999.37
487.726	5138.58
488.097	5288.63
488.467	5344.22
488.837	5491.79
489.207	5616.08
489.578	5742.41
489.948	5852.01
490.318	6030.99
490.688	6174.03
491.058	6295.61
491.428	6385.33
491.798	6559.56
492.168	6710.52
492.538	6868.7
492.908	6975.14
493.278	7119.54
493.648	7189.6
494.017	7365.64
494.387	7436.82
494.757	7590.94
495.126	7680.21
495.496	7862.12
495.866	7972.86
496.235	8073.64
496.605	8267.54
496.974	8396.57
497.344	8473.86
497.713	8607.41
498.082	8735.77
498.452	8930.57
498.821	8910.68
499.19	9017.12
499.559	9144.8
499.928	9275.42
500.298	9408.75
500.667	9567.16
501.036	9502.53
501.405	9641.06
501.774	9708.85
502.143	9856.65
502.512	9910.88
502.88	10067.26
503.249	10128.73
503.618	10147.26
503.987	10290.53
504.356	10377.99
504.724	10462.73
505.093	10511.77
505.462	10577.31
505.83	10658.43
506.199	10734.14
506.567	10930.74
506.936	10921.03
507.304	11041.02
507.672	11114.92
508.041	11227.01
508.409	11366.44
508.777	11316.27
509.145	11423.39
509.514	11392.88
509.882	11530.05
510.25	11580.67
510.618	11634.68
510.986	11689.37
511.354	11815.47
511.722	11891.85
512.09	11967.78
512.458	11910.6
512.826	12131.84
513.193	12112.63
513.561	12048.68
513.929	12297.71
514.297	12253.87
514.664	12322.57
515.032	12387.65
515.4	12487.99
515.767	12439.4
516.135	12530.48
516.502	12478.05
516.869	12646.86
517.237	12637.82
517.604	12584.94
517.972	12632.17
518.339	12803.91
518.706	12757.81
519.073	12792.84
519.44	12811.37
519.808	12906.96
520.175	12880.3
520.542	13056.79
520.909	13139.73
521.276	13045.49
521.643	13132.27
522.009	13154.64
522.376	13238.93
522.743	13232.83
523.11	13303.79
523.477	13322.32
523.843	13391.24
524.21	13424.01
524.577	13466.95
524.943	13510.34
525.31	13516.44
525.676	13668.75
526.043	13647.96
526.409	13626.72
526.776	13811.12
527.142	13722.08
527.508	13718.47
527.874	13819.48
528.241	13840.05
528.607	13715.08
528.973	13882.3
529.339	13810.67
529.705	13873.27
530.071	13906.71
530.437	13983.09
530.803	13971.12
531.169	13954.17
531.535	13938.57
531.901	13814.74
532.267	13861.51
532.632	13899.93
532.998	13828.29
533.364	13894.28
533.73	13930.44
534.095	13884.79
534.461	13915.3
534.826	13870.1
535.192	13865.58
535.557	13934.73
535.923	13890.21
536.288	13749.88
536.653	13823.77
537.019	13693.83
537.384	13829.42
537.749	13797.33
538.114	13814.06
538.479	13727.51
538.845	13720.73
539.21	13604.35
539.575	13741.07
539.94	13578.58
540.305	13638.7
540.67	13606.83
541.034	13652.71
541.399	13562.09
541.764	13544.01
542.129	13567.28
542.494	13487.06
542.858	13488.42
543.223	13455.42
543.587	13475.99
543.952	13367.29
544.316	13413.16
544.681	13222.21
545.045	13393.5
545.41	13298.37
545.774	13282.32
546.138	13265.82
546.503	13176.56
546.867	13124.58
547.231	13253.17
547.595	13142.89
547.959	13134.98
548.324	12990.12
548.688	13108.54
549.052	13028.99
549.416	12924.36
549.779	12969.79
550.143	13017.69
550.507	12930.92
550.871	12872.61
551.235	12855.66
551.599	12934.31
551.962	12855.89
552.326	12852.5
552.689	12881.43
553.053	12679.17
553.417	12779.96
553.78	12834.2
554.143	12690.7
554.507	12794.2
554.87	12720.3
555.234	12822.45
555.597	12640.08
555.96	12615.9
556.323	12728.44
556.686	12668.78
557.05	12652.73
557.413	12669
557.776	12648.44
558.139	12742.45
558.502	12595.33
558.865	12660.19
559.228	12702
559.59	12626.52
559.953	12629.46
560.316	12721.21
560.679	12649.79
561.041	12774.09
561.404	12737.7
561.767	12735.89
562.129	12647.76
562.492	12797.81
562.854	12698.15
563.217	12650.02
563.579	12679.62
563.941	12670.58
564.304	12706.29
564.666	12816.8
565.028	12712.84
565.39	12793.75
565.753	12787.19
566.115	12818.6
566.477	12860.86
566.839	12957.13
567.201	12853.86
567.563	12914.65
567.925	12899.73
568.287	12932.05
568.648	12891.37
569.01	12939.96
569.372	12957.36
569.734	12838.04
570.095	12965.49
570.457	13029.9
570.819	13064.47
571.18	13005.49
571.542	13074.42
571.903	12983.35
572.265	13040.07
572.626	13131.82
572.987	13080.74
573.349	13083
573.71	13129.56
574.071	13055.21
574.432	13167.07
574.794	13301.08
575.155	13136.56
575.516	13127.07
575.877	13194.86
576.238	13231.47
576.599	13266.5
576.96	13152.38
577.32	13209.33
577.681	13253.17
578.042	13182.89
578.403	13215.43
578.763	13212.49
579.124	13246.61
579.485	13215.88
579.845	13254.75
580.206	13304.01
580.566	13176.79
580.927	13216.79
581.287	13233.73
581.648	13161.87
582.008	13260.17
582.368	13184.47
582.728	13190.57
583.089	13188.54
583.449	13215.43
583.809	13278.93
584.169	13287.52
584.529	13133.17
584.889	13272.15
585.249	13165.94
585.609	13118.71
585.969	13175.66
586.329	13175.66
586.688	13103.12
587.048	13145.15
587.408	13089.56
587.768	13118.26
588.127	13096.34
588.487	12978.6
588.846	13080.07
589.206	13050.46
589.565	12986.06
589.925	13099.05
590.284	13060.63
590.643	13091.59
591.003	13134.08
591.362	13140.4
591.721	13083.46
592.08	13000.07
592.44	13063.79
592.799	13077.35
593.158	13024.02
593.517	13036.68
593.876	13017.47
594.235	12997.58
594.593	12941.99
594.952	13009.79
595.311	12970.92
595.67	13041.87
596.029	13042.55
596.387	13024.25
596.746	12969.11
597.104	13023.8
597.463	12953.74
597.822	12974.31
598.18	12912.16
598.538	12952.39
598.897	13001.65
599.255	12852.5
599.613	13040.29
599.972	12934.31
600.33	13031.48
600.688	12884.14
601.046	12989.67
601.404	13084.13
601.762	13055.43
602.12	13037.81
602.478	13077.13
602.836	13060.18
603.194	13031.71
603.552	13022.67
603.91	12945.15
604.268	13024.47
604.625	12932.72
604.983	13035.1
605.341	12972.05
605.698	13060.86
606.056	13078.26
606.413	13024.02
606.771	13080.74
607.128	13050.24
607.485	12951.03
607.843	12962.55
608.2	13017.69
608.557	13040.07
608.914	13009.33
609.272	13058.15
609.629	13129.78
609.986	13116
610.343	13103.34
610.7	13087.52
611.057	13158.93
611.414	13122.78
611.771	13107.41
612.127	13184.92
612.484	13105.38
612.841	13203
613.198	13212.49
613.554	13209.55
613.911	13247.52
614.267	13231.93
614.624	13143.79
614.98	13197.12
615.337	13285.03
615.693	13171.59
616.05	13268.99
616.406	13296.56
616.762	13292.72
617.118	13282.77
617.475	13250.68
617.831	13358.48
618.187	13339.95
618.543	13384.01
618.899	13441.19
619.255	13329.55
619.611	13362.09
619.967	13412.49
620.323	13448.64
620.678	13341.53
621.034	13330.91
621.39	13348.31
621.746	13315.77
622.101	13406.84
622.457	13326.61
622.812	13510.56
623.168	13390.79
623.523	13469.43
623.879	13437.57
624.234	13403
624.589	13479.6
624.945	13485.25
625.3	13380.4
625.655	13380.85
626.01	13466.27
626.365	13372.94
626.72	13384.69
627.075	13378.81
627.43	13350.12
627.785	13424.69
628.14	13339.72
628.495	13420.17
628.85	13432.82
629.205	13270.34
629.559	13320.96
629.914	13271.7
630.269	13308.31
630.623	13280.29
630.978	13308.08
631.332	13338.14
631.687	13326.16
632.041	13278.03
632.396	13336.1
632.75	13231.7
633.104	13231.93
633.459	13182.89
633.813	13220.63
634.167	13224.02
634.521	13210.91
634.875	13254.75
635.229	13127.75
635.583	13039.16
635.937	13101.99
636.291	13102.66
636.645	13078.71
636.999	13028.32
637.352	13069.9
637.706	13062.21
638.06	13119.84
638.413	13019.5
638.767	13001.2
639.121	12964.36
639.474	12888.21
639.828	12977.7
640.181	12943.8
640.534	12882.1
640.888	12899.28
641.241	12900.18
641.594	12818.15
641.947	12931.6
642.301	12784.48
642.654	12877.36
643.007	12853.63
643.36	12887.98
643.713	12733.41
644.066	12860.18
644.419	12746.29
644.771	12648.89
645.124	12562.34
645.477	12660.42
645.83	12520.76
646.182	12490.48
646.535	12418.84
646.888	12360.08
647.24	12429.01
647.593	12368.67
647.945	12349.92
648.298	12331.38
648.65	12341.78
649.002	12356.24
649.355	12342.68
649.707	12366.19
650.059	12380.88
650.411	12623.13
650.763	12599.4
651.115	12662.45
651.467	12647.76
651.819	12622.9
652.171	12668.55
652.523	12557.14
652.875	12693.18
653.227	12539.51
653.578	12574.54
653.93	12690.47
654.282	12558.27
654.633	12629.68
654.985	12587.88
655.337	12704.48
655.688	12560.08
656.039	12687.31
656.391	12591.72
656.742	12614.09
657.094	12648.44
657.445	12711.26
657.796	12646.4
658.147	12592.62
658.498	12648.44
658.849	12690.47
659.2	12617.03
659.551	12572.96
659.902	12636.91
660.253	12624.71
660.604	12652.73
660.955	12516.69
661.306	12633.75
661.656	12603.24
662.007	12596.24
662.358	12630.81
662.708	12622.68
663.059	12618.83
663.409	12527.76
663.76	12653.86
664.11	12634.2
664.461	12636.01
664.811	12714.88
665.161	12633.75
665.511	12654.09
665.862	12663.58
666.212	12750.13
666.562	12716.91
666.912	12664.71
667.262	12655.22
667.612	12705.61
667.962	12660.19
668.312	12700.19
668.662	12745.61
669.011	12663.35
669.361	12686.63
669.711	12645.73
670.06	12578.16
670.41	12529.12
670.76	12591.94
671.109	12592.39
671.459	12599.63
671.808	12533.64
672.157	12509.01
672.507	12555.33
672.856	12525.96
673.205	12576.12
673.554	12568.21
673.904	12471.95
674.253	12604.6
674.602	12505.84
674.951	12340.2
675.3	12333.42
675.649	12404.83
675.998	12510.36
676.346	12434.88
676.695	12488.89
677.044	12421.55
677.393	12397.15
677.741	12404.15
678.09	12347.2
678.438	12443.25
678.787	12423.13
679.135	12470.36
679.484	12241.67
679.832	12365.28
680.181	12231.73
680.529	12316.24
680.877	12206.19
681.225	12245.51
681.573	12234.21
681.922	12150.37
682.27	12196.93
682.618	12275.34
682.966	12082.13
683.314	12189.47
683.661	12211.61
684.009	12057.04
684.357	12050.04
684.705	12080.09
685.053	12038.06
685.4	11916.48
685.748	11968.91
686.095	11968.23
686.443	11940.66
686.79	11767.78
687.138	11837.61
687.485	11838.52
687.832	11772.08
688.18	11718.75
688.527	11741.8
688.874	11636.71
689.221	11671.97
689.568	11650.72
689.915	11615.47
690.262	11532.99
690.609	11537.06
690.956	11492.54
691.303	11529.37
691.65	11413.89
691.997	11516.04
692.344	11283.5
692.69	11277.18
693.037	11314.91
693.383	11264.97
693.73	11335.25
694.077	11204.63
694.423	11202.15
694.769	11207.57
695.116	11156.05
695.462	11074.02
695.808	11005.09
696.155	11077.86
696.501	10934.81
696.847	10915.83
697.193	10851.65
697.539	10943.62
697.885	10838.09
698.231	10745.89
698.577	10731.2
698.923	10742.5
699.269	10733.69
699.614	10677.42
699.96	10564.88
700.306	10550.64
700.651	10531.43
700.997	10490.76
701.342	10469.74
701.688	10464.99
702.033	10349.29
702.379	10367.59
702.724	10335.96
703.069	10335.96
703.415	10233.59
703.76	10177.09
704.105	10241.27
704.45	10199.92
704.795	10123.99
705.14	10153.36
705.485	10058.22
705.83	10063.65
706.175	10067.72
706.52	9973.93
706.865	9897.78
707.209	9878.79
707.554	9843.09
707.899	9984.1
708.243	9818.68
708.588	9849.87
708.932	9766.25
709.277	9809.64
709.621	9738.23
709.966	9682.64
710.31	9730.32
710.654	9572.14
710.998	9639.48
711.342	9643.09
711.687	9628.18
712.031	9592.02
712.375	9509.76
712.719	9520.16
713.063	9522.42
713.407	9545.47
713.75	9524.68
714.094	9438.81
714.438	9412.37
714.782	9457.56
715.125	9449.2
715.469	9433.61
715.812	9430.9
716.156	9278.58
716.499	9376.66
716.843	9338.7
717.186	9292.59
717.53	9299.83
717.873	9261.64
718.216	9223.67
718.559	9234.07
718.902	9134.86
719.246	9191.81
719.589	9185.03
719.932	9144.35
720.275	9178.25
720.617	9161.52
720.96	9115.42
721.303	9148.87
721.646	9148.87
721.989	9082.66
722.331	9063.67
722.674	9063.45
723.016	9144.35
723.359	9042.66
723.701	9048.76
724.044	9015.54
724.386	8941.42
724.729	9054.41
725.071	9039.95
725.413	9032.49
725.755	9016.22
726.097	8979.16
726.439	8922.21
726.782	8931.7
727.124	8983.22
727.465	8943.68
727.807	8944.13
728.149	8910.68
728.491	8856
728.833	8874.07
729.175	8879.5
729.516	8924.92
729.858	8885.15
730.199	8883.11
730.541	8892.38
730.882	8879.27
731.224	8875.66
731.565	8858.71
731.906	8852.83
732.248	8831.36
732.589	8800.4
732.93	8796.11
733.271	8784.36
733.612	8793.4
733.953	8844.7
734.294	8797.24
734.635	8790.91
734.976	8876.56
735.317	8775.32
735.658	8825.49
735.999	8850.12
736.339	8786.39
736.68	8887.63
737.021	8783.46
737.361	8795.66
737.702	8892.15
738.042	8862.32
738.383	8849.67
738.723	8815.55
739.063	8867.07
739.404	8904.58
739.744	8851.93
740.084	8858.71
740.424	8843.57
740.764	8851.02
741.104	8874.3
741.444	8919.05
741.784	8831.82
742.124	8957.01
742.464	8994.98
742.804	8931.25
743.143	9019.83
743.483	9004.47
743.823	8975.99
744.162	8987.29
744.502	8999.04
744.841	9107.51
745.181	9136.67
745.52	9189.77
745.86	9222.77
746.199	9211.47
746.538	9265.25
746.877	9280.17
747.216	9287.4
747.556	9300.96
747.895	9453.49
748.234	9405.59
748.573	9474.06
748.911	9503.66
749.25	9603.32
749.589	9640.61
749.928	9684
750.267	9746.37
750.605	9824.56
750.944	9881.51
751.283	10019.81
751.621	10111.1
751.96	10091.67
752.298	10215.51
752.636	10298.9
752.975	10349.74
753.313	10370.53
753.651	10614.82
753.989	10623.18
754.327	10781.37
754.666	10856.4
755.004	10970.74
755.342	11099.33
755.679	11159.44
756.017	11279.44
756.355	11381.13
756.693	11558.07
757.031	11785.41
757.368	11817.27
757.706	11968
758.044	12072.63
758.381	12217.72
758.719	12307.2
