Data from hue_20_FLMS001491_22.txt Node
Date: Mon Feb 06 15:33:49 GMT 2017
User: dcchb
Spectrometer: FLMS00149
Trigger mode: 0
Integration Time (sec): 2.000000E-2
Scans to average: 10
Electric dark correction enabled: true
Nonlinearity correction enabled: false
Boxcar width: 0
XAxis mode: Wavelengths
Number of Pixels in Spectrum: 2048
>>>>>Begin Spectral Data<<<<<
341.393	-17.37
341.776	-17.37
342.16	-17.37
342.543	-76.35
342.927	-49.01
343.31	-90.36
343.693	-78.84
344.077	-63.92
344.46	-49.24
344.843	-52.85
345.226	-24.38
345.61	-42
345.993	-21.89
346.376	-2.46
346.759	20.37
347.142	25.79
347.525	51.1
347.908	54.26
348.291	78.44
348.674	82.96
349.057	113.02
349.44	137.65
349.823	154.15
350.206	167.71
350.588	204.32
350.971	214.71
351.354	215.84
351.737	249.74
352.119	258.1
352.502	286.35
352.884	271.43
353.267	299.68
353.65	299.23
354.032	309.85
354.414	307.82
354.797	320.47
355.179	307.14
355.562	327.7
355.944	328.61
356.326	338.32
356.709	332.22
357.091	338.1
357.473	351.88
357.855	359.11
358.238	346.23
358.62	347.36
359.002	345.78
359.384	350.08
359.766	332.67
360.148	342.17
360.53	343.3
360.912	336.52
361.294	352.34
361.676	356.4
362.057	334.48
362.439	354.6
362.821	351.88
363.203	326.57
363.584	317.08
363.966	310.75
364.348	320.25
364.729	341.04
365.111	335.61
365.493	341.49
365.874	340.58
366.256	315.95
366.637	351.43
367.019	310.75
367.4	352.11
367.781	317.76
368.163	314.14
368.544	326.57
368.925	326.12
369.306	306.01
369.688	313.24
370.069	309.4
370.45	312.79
370.831	335.61
371.212	310.3
371.593	335.39
371.974	299.46
372.355	327.03
372.736	323.41
373.117	312.11
373.498	341.04
373.879	313.01
374.26	342.84
374.641	310.53
375.021	315.27
375.402	320.7
375.783	327.03
376.163	340.81
376.544	338.1
376.925	317.76
377.305	336.29
377.686	329.74
378.066	329.96
378.447	331.54
378.827	312.56
379.208	345.33
379.588	320.7
379.968	319.34
380.349	292.22
380.729	330.19
381.109	335.39
381.489	340.13
381.87	325.22
382.25	347.36
382.63	339.68
383.01	353.01
383.39	335.61
383.77	348.27
384.15	353.92
384.53	354.82
384.91	352.11
385.29	337.19
385.67	362.73
386.049	369.74
386.429	355.05
386.809	330.42
387.189	355.05
387.568	360.47
387.948	369.96
388.328	355.05
388.707	352.11
389.087	366.35
389.466	381.94
389.846	352.79
390.225	362.73
390.605	376.06
390.984	379
391.363	372
391.743	364.09
392.122	366.8
392.501	381.26
392.881	373.8
393.26	361.6
393.639	385.33
394.018	397.31
394.397	392.11
394.776	376.06
395.155	387.81
395.534	364.31
395.913	374.93
396.292	373.8
396.671	360.92
397.05	396.85
397.429	392.11
397.808	376.06
398.186	364.76
398.565	394.82
398.944	411.09
399.323	376.74
399.701	394.14
400.08	400.47
400.458	384.88
400.837	397.76
401.215	388.27
401.594	411.77
401.972	393.01
402.351	398.89
402.729	413.12
403.107	400.47
403.486	406.12
403.864	404.54
404.242	400.47
404.62	438.66
404.999	398.21
405.377	389.62
405.755	432.56
406.133	435.27
406.511	416.51
406.889	426.91
407.267	430.3
407.645	417.19
408.023	438.43
408.401	446.57
408.779	411.54
409.156	445.44
409.534	438.66
409.912	434.82
410.29	457.42
410.667	445.67
411.045	436.4
411.422	458.32
411.8	459
412.178	445.44
412.555	469.85
412.933	474.82
413.31	456.74
413.687	449.96
414.065	475.04
414.442	421.49
414.819	471.88
415.197	458.77
415.574	477.98
415.951	500.35
416.328	470.52
416.705	457.64
417.082	494.93
417.46	490.41
417.837	493.57
418.214	476.85
418.591	483.18
418.967	500.81
419.344	486.8
419.721	506
420.098	499.9
420.475	500.58
420.852	485.44
421.228	506.91
421.605	507.36
421.982	521.82
422.358	511.65
422.735	500.58
423.111	522.5
423.488	536.74
423.864	522.27
424.241	540.8
424.617	537.64
424.994	518.66
425.37	526.79
425.746	548.04
426.123	569.5
426.499	526.34
426.875	557.08
427.251	531.77
427.627	567.02
428.003	570.86
428.379	571.99
428.756	593.91
429.132	604.76
429.507	579.9
429.883	574.7
430.259	588.04
430.635	581.26
431.011	565.66
431.387	593.91
431.763	603.85
432.138	603.18
432.514	616.51
432.89	586.91
433.265	613.12
433.641	614.02
434.016	621.71
434.392	644.98
434.767	641.59
435.143	649.73
435.518	658.99
435.894	654.7
436.269	648.15
436.644	661.93
437.02	662.61
437.395	685.43
437.77	668.49
438.145	673.91
438.52	684.53
438.895	702.16
439.271	705.77
439.646	696.28
440.021	708.94
440.395	726.56
440.77	694.93
441.145	709.61
441.52	720.69
441.895	720.46
442.27	711.2
442.645	700.57
443.019	742.83
443.394	724.3
443.769	746.9
444.143	737.86
444.518	723.63
444.892	754.36
445.267	757.97
445.641	757.07
446.016	751.19
446.39	746.9
446.764	750.97
447.139	760.69
447.513	763.4
447.887	782.15
448.262	767.24
448.636	785.77
449.01	783.96
449.384	783.74
449.758	793.45
450.132	809.95
450.506	835.26
450.88	824.41
451.254	802.27
451.628	819.22
452.002	805.88
452.376	835.03
452.75	840.23
453.123	837.97
453.497	847.46
453.871	850.85
454.244	861.25
454.618	865.09
454.992	893.11
455.365	884.75
455.739	887.69
456.112	877.52
456.486	921.59
456.859	914.81
457.232	916.39
457.606	922.04
457.979	936.73
458.352	934.69
458.725	1001.36
459.099	954.58
459.472	969.72
459.845	990.28
460.218	988.25
460.591	1011.08
460.964	997.06
461.337	1014.01
461.71	1047.68
462.083	1045.42
462.456	1031.41
462.829	1056.95
463.201	1078.87
463.574	1084.07
463.947	1091.75
464.32	1093.33
464.692	1091.07
465.065	1118.87
465.438	1143.28
465.81	1134.69
466.183	1182.82
466.555	1166.55
466.928	1199.54
467.3	1193.22
467.672	1198.64
468.045	1219.43
468.417	1219.43
468.789	1239.32
469.161	1269.83
469.534	1260.33
469.906	1297.85
470.278	1298.75
470.65	1335.13
471.022	1363.61
471.394	1365.19
471.766	1375.81
472.138	1413.55
472.51	1473.21
472.882	1447.67
473.253	1471.85
473.625	1489.25
473.997	1503.27
474.369	1549.37
474.74	1530.84
475.112	1583.26
475.484	1636.37
475.855	1637.27
476.227	1649.93
476.598	1722.24
476.97	1737.16
477.341	1757.72
477.713	1800.66
478.084	1818.74
478.455	1834.33
478.827	1898.28
479.198	1920.43
479.569	1957.72
479.94	1986.19
480.311	2040.65
480.682	2078.84
481.053	2128.11
481.424	2184.15
481.795	2189.8
482.166	2233.42
482.537	2265.73
482.908	2311.61
483.279	2357.71
483.65	2389.57
484.021	2417.59
484.391	2446.52
484.762	2508.66
485.133	2531.26
485.503	2609.23
485.874	2663.01
486.244	2675.66
486.615	2733.52
486.985	2760.86
487.356	2797.92
487.726	2846.28
488.097	2949.1
488.467	2920.4
488.837	3011.7
489.207	3051.47
489.578	3105.94
489.948	3149.78
490.318	3193.39
490.688	3222.99
491.058	3308.42
491.428	3327.17
491.798	3366.95
492.168	3385.7
492.538	3458.92
492.908	3473.38
493.278	3542.53
493.648	3528.75
494.017	3639.25
494.387	3657.79
494.757	3681.51
495.126	3725.58
495.496	3731.91
495.866	3760.38
496.235	3847.61
496.605	3868.63
496.974	3922.41
497.344	3982.3
497.713	3927.61
498.082	3965.57
498.452	4006.02
498.821	4062.52
499.19	4065.23
499.559	4091.45
499.928	4106.13
500.298	4179.13
500.667	4199.69
501.036	4189.75
501.405	4235.62
501.774	4262.97
502.143	4288.5
502.512	4328.73
502.88	4370.31
503.249	4336.41
503.618	4388.84
503.987	4441.04
504.356	4458.44
504.724	4439.69
505.093	4475.84
505.462	4498.67
505.83	4523.3
506.199	4548.61
506.567	4589.29
506.936	4623.64
507.304	4633.58
507.672	4627.93
508.041	4726.68
508.409	4753.58
508.777	4738.43
509.145	4775.72
509.514	4777.08
509.882	4809.62
510.25	4754.71
510.618	4807.36
510.986	4857.75
511.354	4868.83
511.722	4867.47
512.09	4931.42
512.458	4937.98
512.826	4893.91
513.193	4900.92
513.561	4969.16
513.929	5020.69
514.297	5024.75
514.664	5081.93
515.032	5043.74
515.4	5103.85
515.767	5149.27
516.135	5165.77
516.502	5111.76
516.869	5171.42
517.237	5124.87
517.604	5216.84
517.972	5203.06
518.339	5264.52
518.706	5241.25
519.073	5231.08
519.44	5278.08
519.808	5294.13
520.175	5279.21
520.542	5386.78
520.909	5392.88
521.276	5337.74
521.643	5383.62
522.009	5418.19
522.376	5442.82
522.743	5518.08
523.11	5502.48
523.477	5538.19
523.843	5520.11
524.21	5591.52
524.577	5613.44
524.943	5610.5
525.31	5642.82
525.676	5657.28
526.043	5717.62
526.409	5770.95
526.776	5830.16
527.142	5826.09
527.508	5870.38
527.874	5886.2
528.241	5896.82
528.607	5925.75
528.973	5953.77
529.339	5966.43
529.705	6044.84
530.071	6031.73
530.437	6040.55
530.803	6113.77
531.169	6132.75
531.535	6089.13
531.901	6149.92
532.267	6200.77
532.632	6190.6
532.998	6233.76
533.364	6286.87
533.73	6279.86
534.095	6255.46
534.461	6342.01
534.826	6361.44
535.192	6390.14
535.557	6454.32
535.923	6446.19
536.288	6471.27
536.653	6481.21
537.019	6492.96
537.384	6534.77
537.749	6629.01
538.114	6566.18
538.479	6594.88
538.845	6593.3
539.21	6591.95
539.575	6643.92
539.94	6711.49
540.305	6703.13
540.67	6734.77
541.034	6723.02
541.399	6837.81
541.764	6833.29
542.129	6877.36
542.494	6927.98
542.858	6934.08
543.223	6946.96
543.587	6983.35
543.952	7014.99
544.316	7062.44
544.681	6997.81
545.045	7110.8
545.41	7109.9
545.774	7135.89
546.138	7197.35
546.503	7165.72
546.867	7201.42
547.231	7217.69
547.595	7320.06
547.959	7329.1
548.324	7336.11
548.688	7270.12
549.052	7339.95
549.416	7395.31
549.779	7399.38
550.143	7407.74
550.507	7486.39
550.871	7485.71
551.235	7474.41
551.599	7587.17
551.962	7586.95
552.326	7619.71
552.689	7673.27
553.053	7639.83
553.417	7673.72
553.78	7788.3
554.143	7714.63
554.507	7716.89
554.87	7809.77
555.234	7903.32
555.597	7777.45
555.96	7825.36
556.323	7864.45
556.686	7878.24
557.05	7929.99
557.413	7898.8
557.776	7971.12
558.139	8005.47
558.502	8008.86
558.865	7995.98
559.228	8078.91
559.59	8110.32
559.953	8138.35
560.316	8159.81
560.679	8193.71
561.041	8174.05
561.404	8203.2
561.767	8333.37
562.129	8243.43
562.492	8345.57
562.854	8370.88
563.217	8296.31
563.579	8344.89
563.941	8433.25
564.304	8453.82
564.666	8562.29
565.028	8548.5
565.39	8514.38
565.753	8518.67
566.115	8614.72
566.477	8625.34
566.839	8667.6
567.201	8709.4
567.563	8768.16
567.925	8752.11
568.287	8718.22
568.648	8856.74
569.01	8907.14
569.372	8956.4
569.734	8911.21
570.095	8879.34
570.457	9020.58
570.819	9101.03
571.18	9001.6
571.542	9065.55
571.903	9139
572.265	9187.13
572.626	9237.07
572.987	9352.32
573.349	9299.44
573.71	9411.76
574.071	9403.17
574.432	9547.8
574.794	9588.02
575.155	9691.98
575.516	9633
575.877	9773.1
576.238	9847.45
576.599	9886.1
576.96	9998.64
577.32	10010.84
577.681	10167.9
578.042	10310.27
578.403	10363.82
578.763	10417.16
579.124	10537.15
579.485	10675
579.845	10779.63
580.206	10882
580.566	10991.83
580.927	11129.45
581.287	11302.78
581.648	11414.42
582.008	11557.69
582.368	11817.57
582.728	11890.11
583.089	12044.68
583.449	12312.47
583.809	12398.35
584.169	12740.26
584.529	12818.9
584.889	13113.58
585.249	13270.64
585.609	13511.09
585.969	13762.38
586.329	13971.86
586.688	14239.2
587.048	14501.57
587.408	14814.55
587.768	14968.9
588.127	15267.65
588.487	15494.54
588.846	15876.9
589.206	16074.86
589.565	16445.02
589.925	16726.37
590.284	17102.18
590.643	17409.74
591.003	17754.14
591.362	18057.63
591.721	18320
592.08	18703.04
592.44	18950.04
592.799	19377.6
593.158	19744.14
593.517	20012.16
593.876	20441.52
594.235	20774.17
594.593	21170.32
594.952	21549.74
595.311	21906.8
595.67	22261.59
596.029	22669.94
596.387	23057.95
596.746	23524.16
597.104	23652.97
597.463	24005.5
597.822	24503.79
598.18	24773.84
598.538	25086.83
598.897	25498.34
599.255	25945.79
599.613	26472.33
599.972	26628.03
600.33	27049.71
600.688	27349.59
601.046	27846.53
601.404	28315.44
601.762	28420.3
602.12	28933.28
602.478	29271.12
602.836	29562.87
603.194	29724.22
603.552	30105.9
603.91	30379.79
604.268	30827.47
604.625	31046.9
604.983	31543.83
605.341	31754.22
605.698	32166.87
606.056	32486.18
606.413	32750.81
606.771	33203.67
607.128	33474.63
607.485	33535.42
607.843	33883.43
608.2	34288.84
608.557	34576.07
608.914	34788.04
609.272	35278.65
609.629	35487.68
609.986	35843.61
610.343	35937.16
610.7	36393.87
611.057	36554.32
611.414	36627.99
611.771	37060.75
612.127	37377.35
612.484	37607.85
612.841	37879.26
613.198	37892.37
613.554	38125.81
613.911	38603.53
614.267	38711.1
614.624	38984.54
614.98	39019.79
615.337	39460.91
615.693	39567.12
616.05	39646.9
616.406	40200.1
616.762	40210.5
617.118	40321.91
617.475	40424.95
617.831	40768.67
618.187	40989.91
618.543	41172.5
618.899	41484.14
619.255	41536.56
619.611	41563.68
619.967	41835.54
620.323	42222.42
620.678	42042.99
621.034	42143.1
621.39	42320.05
621.746	42277.79
622.101	42828.73
622.457	42563.2
622.812	42761.62
623.168	43101.49
623.523	43185.56
623.879	43420.36
624.234	43117.09
624.589	43498.09
624.945	43529.28
625.3	43698.31
625.655	43625.77
626.01	43755.49
626.365	43890.63
626.72	43858.08
627.075	43937.4
627.43	44120.45
627.785	44044.07
628.14	44266.89
628.495	44402.93
628.85	44253.78
629.205	44371.97
629.559	44673.66
629.914	44475.02
630.269	44463.27
630.623	44461.68
630.978	44507.33
631.332	44720.43
631.687	44871.16
632.041	44818.74
632.396	44763.6
632.75	44718.63
633.104	44716.37
633.459	44619.42
633.813	44818.28
634.167	44764.95
634.521	44742.58
634.875	44794.78
635.229	44825.06
635.583	44647.44
635.937	44770.15
636.291	44682.47
636.645	44750.26
636.999	44817.38
637.352	44818.06
637.706	44654.67
638.06	44901.22
638.413	44763.37
638.767	44741
639.121	44746.2
639.474	44606.54
639.828	44676.59
640.181	44756.82
640.534	44779.87
640.888	44690.38
641.241	44438.86
641.594	44549.82
641.947	44747.33
642.301	44629.82
642.654	44670.27
643.007	44775.12
643.36	44626.2
643.713	44564.28
644.066	44663.26
644.419	44493.32
644.771	44243.38
645.124	43883.39
645.477	43907.12
645.83	43623.74
646.182	43580.13
646.535	43372.67
646.888	43583.29
647.24	43379.45
647.593	43598.88
647.945	43477.76
648.298	43310.08
648.65	43298.78
649.002	43167.25
649.355	43447.25
649.707	43241.15
650.059	43434.37
650.411	43895.37
650.763	43904.41
651.115	44328.58
651.467	44245.19
651.819	44269.15
652.171	44195.25
652.523	44117.96
652.875	44075.25
653.227	43927.23
653.578	44184.86
653.93	44137.85
654.282	44033.67
654.633	43842.49
654.985	44094.01
655.337	43887.24
655.688	43968.59
656.039	43939.21
656.391	43670.07
656.742	43911.42
657.094	43936.05
657.445	44007.01
657.796	43992.77
658.147	43763.85
658.498	43856.05
658.849	43898.08
659.2	43980.57
659.551	43705.32
659.902	43864.86
660.253	43819.44
660.604	43887.91
660.955	43621.25
661.306	43832.32
661.656	43929.72
662.007	43734.92
662.358	43804.07
662.708	43799.33
663.059	43624.87
663.409	43437.76
663.76	43656.73
664.11	43619.22
664.461	43834.81
664.811	43848.14
665.161	43678.88
665.511	43524.53
665.862	43665.55
666.212	43619.9
666.562	43702.38
666.912	43646.34
667.262	43574.48
667.612	43650.86
667.962	43748.93
668.312	43567.47
668.662	43841.36
669.011	43645.43
669.361	43549.62
669.711	43462.39
670.06	43481.82
670.41	43577.64
670.76	43533.8
671.109	43633.23
671.459	43566.79
671.808	43385.55
672.157	43594.36
672.507	43321.38
672.856	43258.78
673.205	43388.27
673.554	43460.81
673.904	43304.65
674.253	43500.81
674.602	43324.09
674.951	42783.08
675.3	42661.28
675.649	43292.22
675.998	43100.36
676.346	43316.4
676.695	43350.98
677.044	43164.54
677.393	43077.31
677.741	43242.51
678.09	43184.2
678.438	42961.84
678.787	43065.34
679.135	43151.21
679.484	42819.47
679.832	42970.88
680.181	42744.44
680.529	42872.57
680.877	42866.02
681.225	42687.72
681.573	42896.98
681.922	42544.67
682.27	42512.36
682.618	42424
682.966	42354.62
683.314	42505.58
683.661	42328.63
684.009	42270.56
684.357	42116.66
684.705	41898.81
685.053	42083.67
685.4	41981.07
685.748	41833.05
686.095	41792.83
686.443	41689.1
686.79	41809.78
687.138	41757.8
687.485	41775.43
687.832	41648.42
688.18	41748.99
688.527	41395.78
688.874	41245.5
689.221	41295.44
689.568	41284.14
689.915	41116.01
690.262	41228.77
690.609	41042.56
690.956	40935.22
691.303	40784.72
691.65	40662.69
691.997	40712.18
692.344	40509.47
692.69	40379.08
693.037	40459.76
693.383	40141.8
693.73	40221.8
694.077	40056.15
694.423	39977.28
694.769	39773.9
695.116	39742.94
695.462	39767.34
695.808	39641.47
696.155	39618.65
696.501	39403.74
696.847	39412.33
697.193	39133.69
697.539	39213.46
697.885	39033.58
698.231	38900.7
698.577	38863.41
698.923	38789.06
699.269	38617.77
699.614	38408.51
699.96	38407.38
700.306	38289.19
700.651	38304.56
700.997	38087.16
701.342	38133.49
701.688	38185.92
702.033	38082.42
702.379	37937.34
702.724	37713.61
703.069	37762.65
703.415	37357.92
703.76	37465.94
704.105	37550.23
704.45	37435.65
704.795	37197.92
705.14	37127.87
705.485	37157.7
705.83	36793.64
706.175	36912.96
706.52	36758.61
706.865	36655.56
707.209	36730.81
707.554	36451.95
707.899	36562.91
708.243	36322.46
708.588	36300.09
708.932	36055.58
709.277	36263.48
709.621	36155.01
709.966	35923.38
710.31	36038.18
710.654	35581.92
710.998	35814.91
711.342	35766.09
711.687	35515.25
712.031	35510.28
712.375	35471.41
712.719	35408.81
713.063	35271.19
713.407	35284.98
713.75	35132.21
714.094	35150.97
714.438	35055.38
714.782	35056.51
715.125	34800.47
715.469	34977.41
715.812	34758.44
716.156	34570.64
716.499	34609.74
716.843	34737.65
717.186	34399.35
717.53	34673.92
717.873	34694.26
718.216	34455.85
718.559	34422.4
718.902	34214.5
719.246	34293.36
719.589	34078.91
719.932	33994.39
720.275	34050.66
720.617	33971.34
720.96	33860.83
721.303	33883.66
721.646	33821.74
721.989	33687.96
722.331	33791.68
722.674	33675.53
723.016	33552.14
723.359	33566.6
723.701	33537.23
724.044	33323.9
724.386	33269.44
724.729	33434.4
725.071	33281.64
725.413	33286.16
725.755	33104.92
726.097	33074.41
726.439	32908.99
726.782	33062.21
727.124	32985.15
727.465	32858.6
727.807	32810.69
728.149	32822.89
728.491	32724.14
728.833	32701.09
729.175	32598.72
729.516	32486.86
729.858	32400.98
730.199	32449.8
730.541	32393.3
730.882	32376.35
731.224	32450.93
731.565	32178.39
731.906	32272.17
732.248	32287.54
732.589	32184.94
732.93	32063.59
733.271	31972.29
733.612	31945.4
733.953	31991.05
734.294	31982.46
734.635	31861.79
734.976	31891.62
735.317	31702.7
735.658	31753.09
735.999	31684.62
736.339	31573.44
736.68	31850.26
737.021	31561.46
737.361	31480.56
737.702	31719.87
738.042	31585.41
738.383	31448.24
738.723	31417.06
739.063	31307.23
739.404	31413.44
739.744	31220.45
740.084	31195.59
740.424	31235.37
740.764	31080.34
741.104	31194.01
741.444	31009.83
741.784	30829.5
742.124	30891.19
742.464	30784.98
742.804	30779.11
743.143	30822.72
743.483	30819.33
743.823	30678.32
744.162	30632.22
744.502	30672.22
744.841	30574.59
745.181	30556.96
745.52	30418.89
745.86	30438.1
746.199	30359.68
746.538	30499.11
746.877	30516.97
747.216	30432.45
747.556	30310.42
747.895	30343.41
748.234	30163.53
748.573	30141.61
748.911	30138.67
749.25	30204.66
749.589	29998.11
749.928	29982.97
750.267	30104.1
750.605	29856.42
750.944	29935.74
751.283	29770.77
751.621	29924.21
751.96	29643.99
752.298	29795.4
752.636	29706.37
752.975	29468.63
753.313	29501.4
753.651	29477.22
753.989	29441.97
754.327	29476.32
754.666	29281.74
755.004	29346.15
755.342	29222.08
755.679	29244.23
756.017	29048.76
756.355	29160.17
756.693	29007.85
757.031	29085.37
757.368	28887.4
757.706	28869.78
758.044	28797.01
758.381	28785.26
758.719	28588.2
759.056	28706.84
759.394	28508.21
759.731	28360.86
760.068	28345.72
760.405	28262.11
760.743	28176.46
