Data from hue_80_FLMS001491_75.txt Node
Date: Mon Feb 06 15:23:32 GMT 2017
User: dcchb
Spectrometer: FLMS00149
Trigger mode: 0
Integration Time (sec): 2.000000E-2
Scans to average: 10
Electric dark correction enabled: true
Nonlinearity correction enabled: false
Boxcar width: 0
XAxis mode: Wavelengths
Number of Pixels in Spectrum: 2048
>>>>>Begin Spectral Data<<<<<
341.393	-18.91
341.776	-18.91
342.16	-18.91
342.543	-62.3
342.927	-53.94
343.31	-76.99
343.693	-71.79
344.077	-75.18
344.46	-47.16
344.843	-44.45
345.226	-34.05
345.61	-43.32
345.993	-7.16
346.376	-4.9
346.759	4.14
347.142	35.78
347.525	28.54
347.908	66.28
348.291	69.45
348.674	91.82
349.057	108.99
349.44	128.43
349.823	150.12
350.206	173.4
350.588	175.89
350.971	176.79
351.354	221.31
351.737	238.03
352.119	250.01
352.502	256.34
352.884	275.77
353.267	268.31
353.65	283.45
354.032	301.76
354.414	293.17
354.797	310.34
355.179	318.71
355.562	323.23
355.944	326.39
356.326	323
356.709	330.68
357.091	330.91
357.473	357.8
357.855	338.82
358.238	347.63
358.62	337.91
359.002	344.02
359.384	348.99
359.766	328.65
360.148	342.43
360.53	335.43
360.912	321.19
361.294	338.82
361.676	331.59
362.057	344.92
362.439	323.45
362.821	334.98
363.203	306.28
363.584	320.74
363.966	334.3
364.348	319.38
364.729	309.89
365.111	319.38
365.493	307.41
365.874	317.8
366.256	315.09
366.637	311.47
367.019	328.2
367.4	332.49
367.781	341.76
368.163	318.93
368.544	321.64
368.925	324.58
369.306	331.59
369.688	322.32
370.069	316.22
370.45	317.12
370.831	294.3
371.212	312.15
371.593	307.63
371.974	324.58
372.355	322.55
372.736	301.98
373.117	311.47
373.498	305.15
373.879	336.11
374.26	314.86
374.641	319.38
375.021	305.15
375.402	328.2
375.783	310.34
376.163	321.42
376.544	337.91
376.925	322.77
377.305	327.75
377.686	302.89
378.066	305.37
378.447	323
378.827	313.28
379.208	330.91
379.588	337.69
379.968	336.33
380.349	323.68
380.729	317.35
381.109	320.29
381.489	325.03
381.87	328.42
382.25	328.42
382.63	351.47
383.01	338.82
383.39	349.21
383.77	347.86
384.15	331.81
384.53	339.04
384.91	329.33
385.29	332.49
385.67	341.76
386.049	350.57
386.429	338.37
386.809	360.51
387.189	351.25
387.568	366.84
387.948	355.09
388.328	347.63
388.707	361.19
389.087	347.63
389.466	352.38
389.846	363.9
390.225	381.3
390.605	353.96
390.984	348.31
391.363	369.33
391.743	352.6
392.122	377.46
392.501	355.09
392.881	356.9
393.26	362.55
393.639	355.54
394.018	372.04
394.397	373.39
394.776	385.6
395.155	368.2
395.534	370
395.913	388.76
396.292	376.56
396.671	361.64
397.05	397.12
397.429	396.22
397.808	386.73
398.186	378.37
398.565	381.3
398.944	383.56
399.323	370.46
399.701	393.51
400.08	371.13
400.458	373.62
400.837	397.57
401.215	403.9
401.594	396.44
401.972	390.57
402.351	375.43
402.729	377.46
403.107	409.78
403.486	385.82
403.864	420.17
404.242	419.04
404.62	386.28
404.999	403.45
405.377	421.98
405.755	403.45
406.133	413.39
406.511	421.08
406.889	424.01
407.267	436.67
407.645	409.33
408.023	437.12
408.401	462.66
408.779	425.37
409.156	436.22
409.534	462.66
409.912	449.1
410.29	442.77
410.667	455.2
411.045	435.77
411.422	468.53
411.8	453.39
412.178	465.37
412.555	472.6
412.933	435.77
413.31	462.88
413.687	475.31
414.065	461.53
414.442	469.21
414.819	470.57
415.197	468.08
415.574	478.93
415.951	480.06
416.328	477.8
416.705	489.32
417.082	511.02
417.46	509.44
417.837	493.16
418.214	488.42
418.591	499.72
418.967	511.02
419.344	510.57
419.721	493.16
420.098	508.98
420.475	510.11
420.852	513.5
421.228	497.23
421.605	529.1
421.982	522.09
422.358	523.9
422.735	513.5
423.111	536.78
423.488	528.19
423.864	541.3
424.241	547.4
424.617	525.48
424.994	536.55
425.37	562.54
425.746	553.73
426.123	579.72
426.499	548.76
426.875	575.2
427.251	572.48
427.627	542.43
428.003	561.64
428.379	574.74
428.756	582.2
429.132	588.98
429.507	583.11
429.883	592.6
430.259	594.41
430.635	596.67
431.011	604.57
431.387	638.02
431.763	617.68
432.138	651.13
432.514	628.53
432.89	666.72
433.265	650.67
433.641	633.5
434.016	670.11
434.392	642.99
434.767	647.96
435.143	668.3
435.518	689.32
435.894	680.73
436.269	692.93
436.644	687.96
437.02	693.84
437.395	694.52
437.77	687.74
438.145	690.67
438.52	716.44
438.895	729.09
439.271	713.5
439.646	740.16
440.021	737
440.395	736.77
440.77	736.77
441.145	752.82
441.52	755.76
441.895	759.82
442.27	752.37
442.645	758.02
443.019	776.55
443.394	774.29
443.769	769.99
444.143	779.94
444.518	789.88
444.892	779.26
445.267	795.53
445.641	794.85
446.016	800.73
446.39	817.22
446.764	786.26
447.139	800.28
447.513	823.78
447.887	818.35
448.262	812.48
448.636	811.57
449.01	844.57
449.384	847.51
449.758	858.81
450.132	865.58
450.506	848.86
450.88	880.5
451.254	859.26
451.628	897.9
452.002	883.44
452.376	896.54
452.75	893.38
453.123	895.19
453.497	924.57
453.871	944.23
454.244	923.21
454.618	939.25
454.992	959.59
455.365	950.1
455.739	986.49
456.112	969.54
456.486	984.45
456.859	1000.72
457.232	1015.64
457.606	1014.96
457.979	1032.13
458.352	1056.09
458.725	1056.31
459.099	1059.03
459.472	1083.88
459.845	1085.47
460.218	1108.06
460.591	1114.39
460.964	1116.88
461.337	1129.08
461.71	1143.54
462.083	1196.2
462.456	1151.23
462.829	1181.73
463.201	1195.07
463.574	1205.69
463.947	1238.23
464.32	1222.19
464.692	1240.72
465.065	1285.69
465.438	1309.41
465.81	1318.68
466.183	1327.72
466.555	1329.08
466.928	1385.57
467.3	1362.97
467.672	1417.66
468.045	1459.24
468.417	1440.26
468.789	1420.82
469.161	1470.99
469.534	1494.95
469.906	1527.49
470.278	1560.03
470.65	1570.2
471.022	1604.32
471.394	1630.54
471.766	1650.42
472.138	1697.2
472.51	1750.99
472.882	1781.49
473.253	1817.88
473.625	1853.13
473.997	1877.76
474.369	1900.59
474.74	1950.53
475.112	1968.83
475.484	2058.32
475.855	2078.66
476.227	2164.08
476.598	2212.89
476.97	2250.41
477.341	2335.38
477.713	2412.21
478.084	2424.41
478.455	2494.47
478.827	2573.34
479.198	2650.85
479.569	2671.64
479.94	2764.52
480.311	2835.48
480.682	2911.41
481.053	3027.34
481.424	3093.77
481.795	3138.97
482.166	3252.87
482.537	3327.89
482.908	3434.78
483.279	3524.72
483.65	3661.44
484.021	3779.18
484.391	3852.62
484.762	3964.26
485.133	3992.28
485.503	4081.32
485.874	4290.58
486.244	4348.88
486.615	4474.98
486.985	4604.47
487.356	4746.16
487.726	4814.41
488.097	4948.64
488.467	5049.2
488.837	5185.25
489.207	5299.59
489.578	5509.3
489.948	5574.84
490.318	5803.76
490.688	5870.2
491.058	5977.09
491.428	6165.56
491.798	6305.44
492.168	6487.13
492.538	6612.1
492.908	6729.39
493.278	6931.19
493.648	7007.8
494.017	7114.46
494.387	7228.36
494.757	7427.22
495.126	7625.41
495.496	7664.5
495.866	7766.65
496.235	7943.14
496.605	8086.41
496.974	8233.75
497.344	8349.46
497.713	8494.76
498.082	8643.91
498.452	8719.62
498.821	8889.55
499.19	9030.34
499.559	9137.68
499.928	9303.33
500.298	9367.28
500.667	9448.86
501.036	9547.84
501.405	9714.84
501.774	9793.49
502.143	9926.59
502.512	9983.76
502.88	10127.26
503.249	10227.37
503.618	10347.82
503.987	10479.34
504.356	10616.74
504.724	10720.01
505.093	10718.21
505.462	10868.94
505.83	11000.23
506.199	11040.01
506.567	11335.82
506.936	11348.25
507.304	11483.16
507.672	11521.58
508.041	11571.97
508.409	11729.71
508.777	11796.6
509.145	11988
509.514	11956.37
509.882	12092.63
510.25	12215.34
510.618	12236.59
510.986	12332.63
511.354	12544.6
511.722	12625.95
512.09	12728.78
512.458	12732.62
512.826	12841.54
513.193	12862.33
513.561	12944.81
513.929	13020.75
514.297	13112.95
514.664	13277.46
515.032	13234.07
515.4	13461.64
515.767	13443.78
516.135	13504.35
516.502	13489.66
516.869	13730.56
517.237	13725.13
517.604	13754.51
517.972	13875.86
518.339	13929.65
518.706	13989.76
519.073	14021.4
519.44	14076.76
519.808	14221.84
520.175	14188.85
520.542	14437.66
520.909	14416.41
521.276	14451.44
521.643	14540.03
522.009	14589.74
522.376	14605.11
522.743	14795.16
523.11	14891.88
523.477	15004.2
523.843	15091.2
524.21	15193.34
524.577	15187.92
524.943	15251.87
525.31	15302.04
525.676	15423.39
526.043	15486.44
526.409	15518.08
526.776	15652.31
527.142	15618.64
527.508	15681.24
527.874	15768.92
528.241	15872.87
528.607	15841.69
528.973	15902.7
529.339	15902.93
529.705	16024.73
530.071	16026.09
530.437	16026.32
530.803	16147.22
531.169	16202.81
531.535	16150.61
531.901	16190.38
532.267	16096.82
532.632	16291.39
532.998	16265.18
533.364	16361
533.73	16410.03
534.095	16349.02
534.461	16401.45
534.826	16431.95
535.192	16410.26
535.557	16538.39
535.923	16517.15
536.288	16504.27
536.653	16521.67
537.019	16495.91
537.384	16550.37
537.749	16510.82
538.114	16586.75
538.479	16579.97
538.845	16571.39
539.21	16489.13
539.575	16573.19
539.94	16561.67
540.305	16714.43
540.67	16591.95
541.034	16490.71
541.399	16581.56
541.764	16513.31
542.129	16500.2
542.494	16542.69
542.858	16545.85
543.223	16465.85
543.587	16579.52
543.952	16564.38
544.316	16551.95
544.681	16496.81
545.045	16492.74
545.41	16588.11
545.774	16563.25
546.138	16515.79
546.503	16438.73
546.867	16453.88
547.231	16537.94
547.595	16499.98
547.959	16589.69
548.324	16497.04
548.688	16432.41
549.052	16439.41
549.416	16462.91
549.779	16475.12
550.143	16370.71
550.507	16542.46
550.871	16558.73
551.235	16482.35
551.599	16553.99
551.962	16503.14
552.326	16533.2
552.689	16559.18
553.053	16441.45
553.417	16504.5
553.78	16681.67
554.143	16520.31
554.507	16581.56
554.87	16591.72
555.234	16628.33
555.597	16403.48
555.96	16456.36
556.323	16475.8
556.686	16588.79
557.05	16604.61
557.413	16581.56
557.776	16600.99
558.139	16659.07
558.502	16672.63
558.865	16583.59
559.228	16562.8
559.59	16649.8
559.953	16764.38
560.316	16794.43
560.679	16819.29
561.041	16838.27
561.404	16884.37
561.767	16892.28
562.129	16821.1
562.492	16968.89
562.854	16945.16
563.217	16906.29
563.579	16978.61
563.941	17031.71
564.304	17041.66
564.666	17069
565.028	17109.68
565.39	17144.03
565.753	17207.3
566.115	17226.96
566.477	17212.05
566.839	17234.19
567.201	17329.78
567.563	17309.67
567.925	17400.74
568.287	17508.99
568.648	17390.8
569.01	17583.56
569.372	17492.04
569.734	17440.29
570.095	17574.75
570.457	17603.68
570.819	17610
571.18	17629.66
571.542	17649.1
571.903	17743.56
572.265	17754.41
572.626	17716.67
572.987	17747.63
573.349	17751.69
573.71	17804.8
574.071	17816.33
574.432	17862.43
574.794	17971.35
575.155	17943.78
575.516	17867.62
575.877	18027.85
576.238	18021.07
576.599	17968.19
576.96	18014.29
577.32	17982.2
577.681	17971.35
578.042	18082.08
578.403	18066.94
578.763	18125.02
579.124	18106.94
579.485	18116.88
579.845	18129.54
580.206	18108.52
580.566	18138.12
580.927	18173.15
581.287	18270.32
581.648	18109.88
582.008	18203.43
582.368	18121.63
582.728	18173.83
583.089	18133.83
583.449	18172.93
583.809	18186.71
584.169	18170.89
584.529	18167.5
584.889	18294.73
585.249	18124.34
585.609	18055.19
585.969	18181.74
586.329	18080.27
586.688	18091.35
587.048	18110.78
587.408	18111.91
587.768	18089.54
588.127	18021.97
588.487	18000.05
588.846	18145.81
589.206	17907.85
589.565	17915.31
589.925	18074.62
590.284	17941.29
590.643	17992.14
591.003	17946.72
591.362	18019.26
591.721	17976.77
592.08	17974.29
592.44	18014.06
592.799	18018.13
593.158	18042.99
593.517	18001.63
593.876	18053.83
594.235	17982.65
594.593	18056.09
594.952	17998.24
595.311	17873.05
595.67	17930.45
596.029	18066.71
596.387	17995.76
596.746	18083.44
597.104	17997.56
597.463	18002.54
597.822	18021.52
598.18	17907.85
598.538	18022.65
598.897	18082.31
599.255	17911.69
599.613	18187.16
599.972	17954.4
600.33	18023.33
600.688	17883.67
601.046	17969.32
601.404	18078.47
601.762	18024.91
602.12	18111.01
602.478	18041.86
602.836	18077.34
603.194	17905.36
603.552	17947.62
603.91	17968.64
604.268	17998.92
604.625	17965.47
604.983	18062.42
605.341	17992.82
605.698	18047.51
606.056	18112.36
606.413	18094.28
606.771	18125.92
607.128	18086.15
607.485	18166.37
607.843	18026.26
608.2	18057.45
608.557	18122.31
608.914	18085.92
609.272	18293.83
609.629	18166.6
609.986	18245.24
610.343	18203.43
610.7	18352.58
611.057	18246.37
611.414	18182.42
611.771	18313.94
612.127	18358.46
612.484	18383.54
612.841	18393.94
613.198	18342.41
613.554	18371.34
613.911	18452.69
614.267	18490.21
614.624	18444.11
614.98	18464.22
615.337	18496.99
615.693	18472.58
616.05	18542.63
616.406	18525.46
616.762	18447.04
617.118	18527.95
617.475	18655.85
617.831	18596.42
618.187	18665.34
618.543	18671.44
618.899	18675.06
619.255	18645.68
619.611	18616.76
619.967	18729.97
620.323	18859.24
620.678	18733.14
621.034	18644.33
621.39	18715.51
621.746	18712.8
622.101	18894.94
622.457	18667.6
622.812	18672.8
623.168	18805
623.523	18752.57
623.879	18866.24
624.234	18672.12
624.589	18769.97
624.945	18794.83
625.3	18820.14
625.655	18764.55
626.01	18753.48
626.365	18790.31
626.72	18788.28
627.075	18836.41
627.43	18661.27
627.785	18700.82
628.14	18712.57
628.495	18730.65
628.85	18748.28
629.205	18676.19
629.559	18804.55
629.914	18647.49
630.269	18677.55
630.623	18651.56
630.978	18611.11
631.332	18689.3
631.687	18739.01
632.041	18600.71
632.396	18633.93
632.75	18656.3
633.104	18614.5
633.459	18530.2
633.813	18484.78
634.167	18525.23
634.521	18470.77
634.875	18576.08
635.229	18365.01
635.583	18377.67
635.937	18414.05
636.291	18390.77
636.645	18333.6
636.999	18307.16
637.352	18425.12
637.706	18342.19
638.06	18325.46
638.413	18319.36
638.767	18282.3
639.121	18353.49
639.474	18141.29
639.828	18203.43
640.181	18275.52
640.534	18233.26
640.888	18207.73
641.241	18170.21
641.594	18218.12
641.947	18280.04
642.301	18041.4
642.654	18148.29
643.007	18132.7
643.36	18194.85
643.713	18102.87
644.066	18136.09
644.419	17970.45
644.771	17861.07
645.124	17795.31
645.477	17796.21
645.83	17584.47
646.182	17551.25
646.535	17577.24
646.888	17585.14
647.24	17372.27
647.593	17575.43
647.945	17461.98
648.298	17403.68
648.65	17414.98
649.002	17413.4
649.355	17383.79
649.707	17451.82
650.059	17514.64
650.411	17650.91
650.763	17750.11
651.115	17805.48
651.467	17846.61
651.819	17812.71
652.171	17843.44
652.523	17828.75
652.875	17860.84
653.227	17691.58
653.578	17841.41
653.93	17797.12
654.282	17800.05
654.633	17669.89
654.985	17746.04
655.337	17740.17
655.688	17805.03
656.039	17860.17
656.391	17724.8
656.742	17660.85
657.094	17746.04
657.445	17805.48
657.796	17850
658.147	17789.43
658.498	17771.35
658.849	17844.8
659.2	17694.07
659.551	17724.58
659.902	17874.85
660.253	17774.74
660.604	17846.61
660.955	17739.72
661.306	17967.06
661.656	17831.01
662.007	17806.61
662.358	17843.9
662.708	17851.35
663.059	17795.99
663.409	17855.42
663.76	17980.39
664.11	17924.57
664.461	17931.35
664.811	17902.2
665.161	17893.61
665.511	17917.57
665.862	17902.42
666.212	17900.84
666.562	17934.74
666.912	17840.05
667.262	17812.26
667.612	17863.78
667.962	17899.94
668.312	17822.88
668.662	17921.41
669.011	17812.71
669.361	17765.25
669.711	17840.51
670.06	17807.29
670.41	17763.22
670.76	17781.98
671.109	17841.64
671.459	17764.35
671.808	17758.02
672.157	17815.2
672.507	17692.71
672.856	17675.76
673.205	17715.99
673.554	17772.48
673.904	17770.45
674.253	17760.06
674.602	17722.09
674.951	17431.93
675.3	17389.9
675.649	17664.92
675.998	17670.79
676.346	17576.78
676.695	17689.1
677.044	17570
677.393	17577.91
677.741	17578.82
678.09	17553.28
678.438	17473.28
678.787	17502.44
679.135	17581.3
679.484	17356.45
679.832	17498.14
680.181	17410.01
680.529	17329.33
680.877	17348.99
681.225	17356.22
681.573	17380.63
681.922	17313.74
682.27	17221.09
682.618	17247.53
682.966	17223.57
683.314	17213.4
683.661	17181.31
684.009	17123.91
684.357	17066.06
684.705	17050.02
685.053	16990.13
685.4	16960.98
685.748	16915.33
686.095	16883.47
686.443	16778.84
686.79	16726.86
687.138	16877.59
687.485	16839.63
687.832	16762.12
688.18	16723.7
688.527	16612.97
688.874	16564.15
689.221	16617.71
689.568	16550.14
689.915	16453.42
690.262	16463.59
690.609	16493.42
690.956	16371.17
691.303	16361.9
691.65	16241.68
691.997	16147.44
692.344	16105.64
692.69	16105.86
693.037	16012.08
693.383	16045.75
693.73	16075.58
694.077	15992.87
694.423	15952.65
694.769	15882.14
695.116	15758.07
695.462	15678.3
695.808	15743.16
696.155	15678.98
696.501	15572.09
696.847	15584.52
697.193	15428.82
697.539	15483.96
697.885	15369.61
698.231	15206.22
698.577	15338.88
698.923	15235.83
699.269	15186.56
699.614	15113.8
699.96	15038.77
700.306	15032.22
700.651	15015.5
700.997	14900.7
701.342	14885.1
701.688	14742.51
702.033	14739.12
702.379	14726.92
702.724	14653.02
703.069	14719.68
703.415	14512.91
703.76	14512.23
704.105	14461.16
704.45	14476.98
704.795	14375.96
705.14	14258.23
705.485	14264.78
705.83	14196.99
706.175	14243.76
706.52	14050.32
706.865	14110.66
707.209	14078.8
707.554	14014.17
707.899	14024.33
708.243	14011.23
708.588	13973.26
708.932	13806.94
709.277	13889.42
709.621	13872.02
709.966	13707.28
710.31	13749.77
710.654	13596.55
710.998	13704.34
711.342	13683.55
711.687	13650.79
712.031	13519.49
712.375	13589.54
712.719	13561.75
713.063	13540.28
713.407	13528.3
713.75	13372.83
714.094	13447.17
714.438	13347.06
714.782	13337.12
715.125	13362.88
715.469	13295.54
715.812	13298.93
716.156	13150.23
716.499	13216.9
716.843	13192.72
717.186	13127.86
717.53	13159.72
717.873	13202.44
718.216	13166.05
718.559	13041.76
718.902	13020.52
719.246	13059.16
719.589	12981.88
719.932	12894.19
720.275	12913.18
720.617	12877.47
720.96	12858.72
721.303	12845.83
721.646	12936.68
721.989	12792.95
722.331	12825.5
722.674	12821.2
723.016	12802.9
723.359	12791.37
723.701	12823.46
724.044	12690.36
724.386	12654.65
724.729	12768.77
725.071	12710.92
725.413	12649.91
725.755	12729.91
726.097	12582.79
726.439	12679.29
726.782	12547.76
727.124	12707.31
727.465	12529.68
727.807	12606.74
728.149	12679.96
728.491	12568.55
728.833	12625.28
729.175	12539.85
729.516	12549.12
729.858	12560.64
730.199	12521.1
730.541	12552.96
730.882	12558.61
731.224	12587.31
731.565	12478.39
731.906	12461.89
732.248	12467.54
732.589	12527.42
732.93	12545.96
733.271	12524.49
733.612	12490.36
733.953	12531.27
734.294	12420.99
734.635	12373.3
734.976	12492.4
735.317	12395.45
735.658	12451.49
735.999	12453.53
736.339	12382.57
736.68	12480.65
737.021	12518.61
737.361	12451.72
737.702	12523.81
738.042	12464.6
738.383	12416.69
738.723	12522.91
739.063	12505.96
739.404	12461.66
739.744	12491.49
740.084	12459.63
740.424	12510.02
740.764	12455.34
741.104	12566.97
741.444	12479.06
741.784	12477.03
742.124	12528.55
742.464	12524.49
742.804	12591.6
743.143	12614.43
743.483	12562
743.823	12573.53
744.162	12619.63
744.502	12697.59
744.841	12667.31
745.181	12796.8
745.52	12704.6
745.86	12832.95
746.199	12868.88
746.538	12913.86
746.877	12941.43
747.216	12962.67
747.556	13011.48
747.895	13035.66
748.234	13037.02
748.573	13006.06
748.911	13169.22
749.25	13152.72
749.589	13167.63
749.928	13400.17
750.267	13501.86
750.605	13413.05
750.944	13459.15
751.283	13515.2
751.621	13627.96
751.96	13705.47
752.298	13770.33
752.636	13848.75
752.975	13891.46
753.313	14031.11
753.651	14233.59
753.989	14208.51
754.327	14312.46
754.666	14376.42
755.004	14478.79
755.342	14556.3
755.679	14650.31
756.017	14750.87
756.355	14863.63
756.693	14891.43
757.031	15098.66
