Data from hue_190_FLMS001491_00089.txt Node
Date: Tue Feb 07 16:45:55 GMT 2017
User: dcchb
Spectrometer: FLMS00149
Trigger mode: 0
Integration Time (sec): 2.000000E-2
Scans to average: 10
Electric dark correction enabled: true
Nonlinearity correction enabled: false
Boxcar width: 0
XAxis mode: Wavelengths
Number of Pixels in Spectrum: 2048
>>>>>Begin Spectral Data<<<<<
341.393	-25.65
341.776	-25.65
342.16	-25.65
342.543	-45.99
342.927	-67.68
343.31	-67.46
343.693	-60.22
344.077	-60
344.46	-55.03
344.843	-65.65
345.226	-56.16
345.61	-21.81
345.993	-50.96
346.376	-0.34
346.759	-3.95
347.142	37.17
347.525	41.92
347.908	59.32
348.291	73.78
348.674	97.96
349.057	131.41
349.44	137.74
349.823	138.41
350.206	165.31
350.588	188.36
350.971	212.08
351.354	237.62
351.737	224.97
352.119	264.74
352.502	243.72
352.884	283.72
353.267	290.27
353.65	267.9
354.032	281.01
354.414	306.77
354.797	318.07
355.179	316.26
355.562	317.84
355.944	315.36
356.326	325.08
356.709	337.73
357.091	358.52
357.473	351.97
357.855	331.18
358.238	338.86
358.62	340.89
359.002	359.43
359.384	339.09
359.766	348.13
360.148	332.76
360.53	324.4
360.912	339.31
361.294	326.88
361.676	321.69
362.057	328.92
362.439	347.22
362.821	344.74
363.203	321.91
363.584	345.87
363.966	339.77
364.348	322.82
364.729	318.97
365.111	307.45
365.493	337.05
365.874	314
366.256	314.46
366.637	298.18
367.019	315.36
367.4	314.46
367.781	335.25
368.163	308.81
368.544	325.98
368.925	316.26
369.306	306.32
369.688	300.22
370.069	302.03
370.45	306.55
370.831	316.49
371.212	318.75
371.593	304.51
371.974	311.97
372.355	312.87
372.736	311.97
373.117	308.13
373.498	339.77
373.879	324.85
374.26	303.83
374.641	315.36
375.021	292.08
375.402	307
375.783	315.13
376.163	335.02
376.544	337.05
376.925	319.43
377.305	323.72
377.686	342.02
378.066	315.58
378.447	328.01
378.827	334.79
379.208	317.39
379.588	328.69
379.968	362.36
380.349	323.27
380.729	338.18
381.109	345.19
381.489	343.38
381.87	339.77
382.25	345.19
382.63	342.93
383.01	341.35
383.39	345.64
383.77	348.58
384.15	349.26
384.53	355.36
384.91	339.31
385.29	342.93
385.67	358.52
386.049	339.99
386.429	342.02
386.809	363.27
387.189	355.36
387.568	360.78
387.948	329.37
388.328	347.67
388.707	362.14
389.087	370.27
389.466	345.87
389.846	347.9
390.225	361.46
390.605	372.53
390.984	353.1
391.363	347.9
391.743	383.38
392.122	377.73
392.501	388.58
392.881	371.85
393.26	369.59
393.639	385.64
394.018	362.14
394.397	375.92
394.776	408.69
395.155	376.83
395.534	370.72
395.913	389.03
396.292	394.68
396.671	398.75
397.05	402.81
397.429	400.78
397.808	382.48
398.186	397.16
398.565	387.67
398.944	393.32
399.323	401.68
399.701	399.2
400.08	430.84
400.458	414.34
400.837	399.65
401.215	436.03
401.594	421.34
401.972	441.91
402.351	435.58
402.729	410.05
403.107	436.26
403.486	439.65
403.864	428.8
404.242	449.59
404.62	432.87
404.999	432.64
405.377	459.99
405.755	456.37
406.133	456.6
406.511	435.58
406.889	463.83
407.267	463.83
407.645	481.46
408.023	494.79
408.401	479.2
408.779	489.14
409.156	506.31
409.534	504.73
409.912	492.98
410.29	498.4
410.667	530.72
411.045	528.91
411.422	521
411.8	524.84
412.178	557.16
412.555	577.5
412.933	575.01
413.31	582.47
413.687	590.38
414.065	603.94
414.442	610.72
414.819	612.98
415.197	631.28
415.574	620.66
415.951	629.02
416.328	644.39
416.705	638.74
417.082	646.88
417.46	662.47
417.837	665.63
418.214	648.46
418.591	670.15
418.967	677.38
419.344	705.86
419.721	717.83
420.098	701.11
420.475	737.04
420.852	719.19
421.228	743.14
421.605	769.36
421.982	736.59
422.358	808.68
422.735	803.48
423.111	788.79
423.488	831.96
423.864	810.94
424.241	840.09
424.617	851.16
424.994	860.66
425.37	870.82
425.746	906.76
426.123	902.91
426.499	913.31
426.875	916.25
427.251	950.6
427.627	965.06
428.003	980.65
428.379	968.45
428.756	979.52
429.132	983.14
429.507	1025.62
429.883	1032.18
430.259	1033.98
430.635	1025.62
431.011	1049.8
431.387	1084.6
431.763	1080.99
432.138	1085.96
432.514	1130.25
432.89	1139.29
433.265	1156.69
433.641	1181.1
434.016	1182.91
434.392	1228.33
434.767	1243.92
435.143	1287.31
435.518	1275.79
435.894	1323.69
436.269	1314.65
436.644	1333.64
437.02	1349.23
437.395	1386.97
437.77	1397.82
438.145	1402.79
438.52	1443.01
438.895	1491.15
439.271	1500.64
439.646	1527.3
440.021	1536.12
440.395	1576.12
440.77	1556.68
441.145	1584.7
441.52	1638.71
441.895	1615.66
442.27	1636.91
442.645	1618.83
443.019	1718.49
443.394	1707.64
443.769	1716.23
444.143	1722.33
444.518	1746.28
444.892	1742.44
445.267	1774.3
445.641	1764.59
446.016	1794.42
446.39	1835.32
446.764	1828.31
447.139	1825.38
447.513	1855.66
447.887	1868.76
448.262	1905.83
448.636	1928.65
449.01	1947.18
449.384	1944.24
449.758	1941.08
450.132	1954.64
450.506	2039.16
450.88	2033.96
451.254	2027.86
451.628	2045.03
452.002	2030.12
452.376	2106.95
452.75	2135.88
453.123	2147.85
453.497	2167.29
453.871	2187.85
454.244	2227.4
454.618	2253.16
454.992	2262.2
455.365	2288.19
455.739	2333.16
456.112	2355.98
456.486	2378.81
456.859	2387.62
457.232	2475.75
457.606	2448.86
457.979	2486.15
458.352	2548.07
458.725	2573.6
459.099	2571.12
459.472	2633.26
459.845	2646.82
460.218	2698.57
460.591	2706.93
460.964	2730.44
461.337	2783.99
461.71	2846.82
462.083	2857.89
462.456	2892.69
462.829	2903.54
463.201	2988.28
463.574	2987.83
463.947	3032.35
464.32	3117.09
464.692	3099.92
465.065	3138.34
465.438	3201.84
465.81	3240.71
466.183	3252.91
466.555	3330.19
466.928	3370.42
467.3	3340.59
467.672	3428.95
468.045	3492
468.417	3548.04
468.789	3562.96
469.161	3607.7
469.534	3690.86
469.906	3741.71
470.278	3779.45
470.65	3843.4
471.022	3913.91
471.394	3939.22
471.766	3949.16
472.138	4042.94
472.51	4160.91
472.882	4165.88
473.253	4234.8
473.625	4310.28
473.997	4440.9
474.369	4412.43
474.74	4500.79
475.112	4595.25
475.484	4649.93
475.855	4722.02
476.227	4765.64
476.598	4929.7
476.97	4997.27
477.341	5053.54
477.713	5163.82
478.084	5244.49
478.455	5325.17
478.827	5372.85
479.198	5578.27
479.569	5542.34
479.94	5712.51
480.311	5767.42
480.682	5877.7
481.053	6006.06
481.424	6096.9
481.795	6216.22
482.166	6309.78
482.537	6385.48
482.908	6503.22
483.279	6507.29
483.65	6709.77
484.021	6778.92
484.391	6907.05
484.762	6982.53
485.133	6999.7
485.503	7111.34
485.874	7303.88
486.244	7290.77
486.615	7521.27
486.985	7567.15
487.356	7726.69
487.726	7790.87
488.097	7981.15
488.467	8000.13
488.837	8075.83
489.207	8227.92
489.578	8412.55
489.948	8438.31
490.318	8518.76
490.688	8561.02
491.058	8746.55
491.428	8799.88
491.798	8898.64
492.168	9087.33
492.538	9103.83
492.908	9182.47
493.278	9350.6
493.648	9322.35
494.017	9433.09
494.387	9448
494.757	9592.18
495.126	9649.8
495.496	9655.23
495.866	9809.35
496.235	9835.79
496.605	9884.6
496.974	9977.03
497.344	10071.71
497.713	10155.1
498.082	10144.48
498.452	10240.97
498.821	10269
499.19	10209.56
499.559	10362.78
499.928	10376.34
500.298	10436.9
500.667	10558.71
501.036	10542.66
501.405	10499.05
501.774	10612.49
502.143	10668.08
502.512	10668.99
502.88	10763.67
503.249	10756.21
503.618	10858.81
503.987	10840.73
504.356	10893.16
504.724	10896.32
505.093	10929.09
505.462	10939.94
505.83	11008.86
506.199	11106.94
506.567	11141.29
506.936	11126.6
507.304	11221.06
507.672	11266.48
508.041	11251.57
508.409	11366.14
508.777	11311.23
509.145	11442.07
509.514	11385.35
509.882	11412.24
510.25	11445.46
510.618	11446.14
510.986	11478
511.354	11570.43
511.722	11598.45
512.09	11672.8
512.458	11650.43
512.826	11605.68
513.193	11699.92
513.561	11694.49
513.929	11706.02
514.297	11747.83
514.664	11781.27
515.032	11844.55
515.4	11837.77
515.767	11833.47
516.135	11858.11
516.502	11784.66
516.869	11956.41
517.237	11970.65
517.604	11864.43
517.972	11941.72
518.339	11978.78
518.706	11938.56
519.073	12022.62
519.44	11898.33
519.808	12045.45
520.175	12072.11
520.542	12139
520.909	12139.45
521.276	11975.39
521.643	12128.38
522.009	12067.14
522.376	12202.73
522.743	12186.91
523.11	12194.82
523.477	12193.69
523.843	12203.41
524.21	12276.85
524.577	12318.66
524.943	12310.75
525.31	12294.93
525.676	12348.94
526.043	12257.19
526.409	12296.74
526.776	12342.39
527.142	12308.94
527.508	12350.97
527.874	12362.05
528.241	12316.85
528.607	12319.56
528.973	12345.55
529.339	12208.15
529.705	12300.58
530.071	12255.61
530.437	12303.97
530.803	12341.71
531.169	12263.52
531.535	12223.52
531.901	12109.4
532.267	12163.63
532.632	12216.06
532.998	12170.41
533.364	12127.25
533.73	12092
534.095	12082.28
534.461	12047.71
534.826	12041.6
535.192	12013.13
535.557	12013.36
535.923	11925.45
536.288	11987.37
536.653	11867.15
537.019	11748.73
537.384	11755.96
537.749	11824.43
538.114	11758.45
538.479	11720.48
538.845	11679.81
539.21	11626.7
539.575	11540.15
539.94	11509.41
540.305	11532.47
540.67	11417.89
541.034	11407.27
541.399	11365.01
541.764	11322.98
542.129	11252.25
542.494	11270.78
542.858	11211.8
543.223	11181.74
543.587	11122.98
543.952	11071.91
544.316	11003.21
544.681	10959.15
545.045	10944.01
545.41	10873.05
545.774	10858.81
546.138	10767.97
546.503	10836.21
546.867	10682.77
547.231	10737.68
547.595	10677.8
547.959	10626.27
548.324	10570.46
548.688	10490.91
549.052	10520.06
549.416	10449.33
549.779	10398.94
550.143	10280.07
550.507	10386.51
550.871	10224.02
551.235	10197.36
551.599	10154.42
551.962	10243.69
552.326	10141.77
552.689	10086.85
553.053	10059.51
553.417	9974.99
553.78	9987.2
554.143	9844.6
554.507	9914.65
554.87	9945.39
555.234	9962.34
555.597	9830.14
555.96	9891.38
556.323	9764.38
556.686	9709.91
557.05	9763.47
557.413	9707.43
557.776	9678.28
558.139	9673.98
558.502	9631.95
558.865	9664.94
559.228	9599.41
559.59	9628.11
559.953	9583.82
560.316	9637.83
560.679	9591.95
561.041	9601.44
561.404	9563.7
561.767	9587.88
562.129	9504.27
562.492	9652.97
562.854	9488.45
563.217	9477.6
563.579	9501.33
563.941	9547.66
564.304	9510.82
564.666	9557.83
565.028	9546.98
565.39	9495
565.753	9488.23
566.115	9555.12
566.477	9582.23
566.839	9525.96
567.201	9533.87
567.563	9512.86
567.925	9633.53
568.287	9569.13
568.648	9580.43
569.01	9534.78
569.372	9609.8
569.734	9485.97
570.095	9547.88
570.457	9607.77
570.819	9502.24
571.18	9457.49
571.542	9552.63
571.903	9482.8
572.265	9579.3
572.626	9526.19
572.987	9511.5
573.349	9599.86
573.71	9558.28
574.071	9578.62
574.432	9684.83
574.794	9609.13
575.155	9509.92
575.516	9549.01
575.877	9599.41
576.238	9530.26
576.599	9596.47
576.96	9590.6
577.32	9544.72
577.681	9574.1
578.042	9575.45
578.403	9549.47
578.763	9571.39
579.124	9559.18
579.485	9578.17
579.845	9579.52
580.206	9514.67
580.566	9529.13
580.927	9613.19
581.287	9652.06
581.648	9577.71
582.008	9561.67
582.368	9544.27
582.728	9527.77
583.089	9526.64
583.449	9505.63
583.809	9517.83
584.169	9542.91
584.529	9471.95
584.889	9543.14
585.249	9490.48
585.609	9437.38
585.969	9463.14
586.329	9400.32
586.688	9429.47
587.048	9449.81
587.408	9469.02
587.768	9406.87
588.127	9402.58
588.487	9446.87
588.846	9445.51
589.206	9378.85
589.565	9350.6
589.925	9396.48
590.284	9376.36
590.643	9378.17
591.003	9343.37
591.362	9286.42
591.721	9394.67
592.08	9316.93
592.44	9431.5
592.799	9359.41
593.158	9345.4
593.517	9307.21
593.876	9377.49
594.235	9346.99
594.593	9321.68
594.952	9315.8
595.311	9248.23
595.67	9204.84
596.029	9323.03
596.387	9304.28
596.746	9277.38
597.104	9262.02
597.463	9264.5
597.822	9269.25
598.18	9260.66
598.538	9230.6
598.897	9312.64
599.255	9181.34
599.613	9321.22
599.972	9223.6
600.33	9274.45
600.688	9212.53
601.046	9240.55
601.404	9245.07
601.762	9271.28
602.12	9215.01
602.478	9242.36
602.836	9277.84
603.194	9185.18
603.552	9199.19
603.91	9219.76
604.268	9263.15
604.625	9183.37
604.983	9232.86
605.341	9177.27
605.698	9200.32
606.056	9232.86
606.413	9246.88
606.771	9205.75
607.128	9231.73
607.485	9236.25
607.843	9216.14
608.2	9277.61
608.557	9295.01
608.914	9233.54
609.272	9271.73
609.629	9275.35
609.986	9311.73
610.343	9315.12
610.7	9272.86
611.057	9335.91
611.414	9326.65
611.771	9293.65
612.127	9310.83
612.484	9340.88
612.841	9359.87
613.198	9306.08
613.554	9384.5
613.911	9319.64
614.267	9360.77
614.624	9377.49
614.98	9349.7
615.337	9342.47
615.693	9353.99
616.05	9377.27
616.406	9459.75
616.762	9339.3
617.118	9386.08
617.475	9387.21
617.831	9491.39
618.187	9443.48
618.543	9458.62
618.899	9449.58
619.255	9408.91
619.611	9414.1
619.967	9458.62
620.323	9469.92
620.678	9445.06
621.034	9408.91
621.39	9435.57
621.746	9413.2
622.101	9512.63
622.457	9384.05
622.812	9398.06
623.168	9420.66
623.523	9406.87
623.879	9466.98
624.234	9443.71
624.589	9477.15
624.945	9436.93
625.3	9482.12
625.655	9516.92
626.01	9452.52
626.365	9489.58
626.72	9447.77
627.075	9346.08
627.43	9372.75
627.785	9353.09
628.14	9436.25
628.495	9447.77
628.85	9438.51
629.205	9355.8
629.559	9403.48
629.914	9375.01
630.269	9403.26
630.623	9333.88
630.978	9330.26
631.332	9335.23
631.687	9352.86
632.041	9294.78
632.396	9326.65
632.75	9319.42
633.104	9303.82
633.459	9277.61
633.813	9278.74
634.167	9253.43
634.521	9228.8
634.875	9223.6
635.229	9262.92
635.583	9174.34
635.937	9223.15
636.291	9146.54
636.645	9157.39
636.999	9151.06
637.352	9172.75
637.706	9099.31
638.06	9089.59
638.413	9162.81
638.767	9160.1
639.121	9123.26
639.474	9063.38
639.828	9052.3
640.181	9087.33
640.534	9042.59
640.888	8998.75
641.241	8982.7
641.594	9093.66
641.947	9076.26
642.301	9084.62
642.654	8987.45
643.007	8992.42
643.36	9033.32
643.713	9014.57
644.066	9029.71
644.419	8918.97
644.771	8976.83
645.124	8851.86
645.477	8823.61
645.83	8825.64
646.182	8735.7
646.535	8727.34
646.888	8673.56
647.24	8678.3
647.593	8727.34
647.945	8656.38
648.298	8657.51
648.65	8669.49
649.002	8608.02
649.355	8718.98
649.707	8659.09
650.059	8742.26
650.411	8831.07
650.763	8760.33
651.115	8840.78
651.467	8862.25
651.819	8859.32
652.171	8855.02
652.523	8837.62
652.875	8848.02
653.227	8803.95
653.578	8831.75
653.93	8784.06
654.282	8736.15
654.633	8762.14
654.985	8829.26
655.337	8786.77
655.688	8880.33
656.039	8899.77
656.391	8780
656.742	8840.11
657.094	8792.2
657.445	8869.48
657.796	8836.04
658.147	8866.77
658.498	8856.38
658.849	8814.8
659.2	8845.08
659.551	8834.23
659.902	8819.54
660.253	8890.5
660.604	8865.42
660.955	8857.73
661.306	8922.82
661.656	8858.41
662.007	8822.48
662.358	8893.44
662.708	8832.42
663.059	8897.96
663.409	8819.09
663.76	8893.44
664.11	8901.12
664.461	8860.44
664.811	8919.65
665.161	8912.42
665.511	8866.32
665.862	8847.34
666.212	8934.12
666.562	8887.56
666.912	8850.05
667.262	8904.29
667.612	8774.35
667.962	8834.91
668.312	8870.39
668.662	8861.12
669.011	8899.09
669.361	8831.29
669.711	8851.86
670.06	8848.24
670.41	8820.45
670.76	8781.35
671.109	8911.29
671.459	8831.52
671.808	8779.54
672.157	8871.07
672.507	8756.04
672.856	8840.56
673.205	8802.59
673.554	8845.53
673.904	8782.71
674.253	8820.22
674.602	8827.9
674.951	8682.37
675.3	8594.46
675.649	8741.8
675.998	8777.28
676.346	8747.45
676.695	8741.58
677.044	8674.91
677.393	8692.99
677.741	8683.5
678.09	8729.37
678.438	8701.81
678.787	8648.25
679.135	8723.73
679.484	8623.16
679.832	8619.55
680.181	8561.7
680.529	8598.3
680.877	8540.68
681.225	8582.03
681.573	8617.29
681.922	8488.48
682.27	8554.01
682.618	8525.54
682.966	8508.59
683.314	8539.78
683.661	8455.03
684.009	8413.23
684.357	8464.75
684.705	8389.72
685.053	8401.47
685.4	8420.91
685.748	8398.31
686.095	8324.19
686.443	8245.32
686.79	8253.68
687.138	8300.46
687.485	8319.67
687.832	8248.26
688.18	8297.75
688.527	8252.78
688.874	8234.92
689.221	8176.62
689.568	8170.52
689.915	8179.78
690.262	8099.34
690.609	8080.58
690.956	8100.01
691.303	8062.73
691.65	7979.56
691.997	7998.09
692.344	7958.55
692.69	7930.3
693.037	7970.98
693.383	7812.79
693.73	7934.82
694.077	7773.24
694.423	7807.82
694.769	7804.88
695.116	7793.58
695.462	7754.94
695.808	7723.75
696.155	7782.96
696.501	7631.78
696.847	7664.09
697.193	7635.62
697.539	7582.29
697.885	7528.95
698.231	7526.24
698.577	7507.03
698.923	7503.19
699.269	7459.58
699.614	7422.52
699.96	7361.5
700.306	7348.17
700.651	7277.66
700.997	7294.16
701.342	7283.99
701.688	7268.4
702.033	7275.4
702.379	7290.99
702.724	7186.82
703.069	7199.02
703.415	7149.53
703.76	7135.97
704.105	7105.69
704.45	7054.39
704.795	7048.52
705.14	7018.91
705.485	6997.9
705.83	6983.43
706.175	7032.47
706.52	6928.29
706.865	6959.25
707.209	6864.11
707.554	6881.97
707.899	6867.5
708.243	6865.7
708.588	6795.41
708.932	6789.99
709.277	6774.85
709.621	6802.87
709.966	6720.16
710.31	6742.31
710.654	6686.94
710.998	6720.39
711.342	6643.78
711.687	6720.16
712.031	6642.42
712.375	6674.97
712.719	6633.61
713.063	6570.34
713.407	6589.77
713.75	6559.04
714.094	6564.01
714.438	6580.05
714.782	6592.71
715.125	6483.78
715.469	6540.96
715.812	6441.3
716.156	6465.25
716.499	6478.81
716.843	6430.23
717.186	6445.37
717.53	6495.99
717.873	6418.02
718.216	6417.35
718.559	6440.85
718.902	6339.83
719.246	6435.88
719.589	6397.01
719.932	6356.56
720.275	6351.81
720.617	6328.31
720.96	6332.38
721.303	6359.72
721.646	6352.49
721.989	6358.59
722.331	6361.75
722.674	6303
723.016	6272.72
723.359	6244.02
723.701	6317.69
724.044	6268.2
724.386	6250.57
724.729	6296.9
725.071	6294.64
725.413	6296.9
725.755	6226.84
726.097	6235.88
726.439	6260.74
726.782	6242.66
727.124	6245.37
727.465	6190.68
727.807	6202.89
728.149	6237.24
728.491	6230.23
728.833	6225.71
729.175	6197.24
729.516	6234.53
729.858	6184.58
730.199	6252.83
730.541	6210.57
730.882	6234.3
731.224	6255.09
731.565	6192.04
731.906	6238.82
732.248	6211.48
732.589	6224.81
732.93	6185.04
733.271	6177.13
733.612	6215.54
733.953	6215.99
734.294	6200.18
734.635	6187.97
734.976	6277.01
735.317	6204.24
735.658	6198.82
735.999	6168.31
736.339	6223.45
736.68	6201.76
737.021	6184.58
737.361	6242.66
737.702	6291.47
738.042	6223.23
738.383	6215.54
738.723	6232.27
739.063	6236.33
739.404	6293.28
739.744	6254.19
740.084	6231.59
740.424	6286.05
740.764	6266.16
741.104	6306.61
741.444	6252.38
741.784	6337.12
742.124	6324.92
742.464	6326.27
742.804	6317.69
743.143	6349.32
743.483	6373.05
743.823	6354.52
744.162	6378.93
744.502	6449.66
744.841	6440.4
745.181	6529.43
745.52	6565.59
745.86	6572.6
746.199	6592.03
746.538	6603.78
746.877	6585.7
747.216	6674.06
747.556	6721.52
747.895	6754.74
748.234	6784.34
748.573	6837.9
748.911	6891.01
749.25	6975.3
749.589	7001.28
749.928	7069.08
750.267	7151.11
750.605	7153.82
750.944	7271.56
751.283	7312.69
751.621	7407.15
751.96	7423.87
752.298	7552.91
752.636	7677.65
752.975	7717.2
753.313	7779.57
753.651	7945.44
753.989	7997.87
754.327	8083.06
754.666	8182.72
755.004	8365.32
755.342	8477.18
755.679	8542.71
756.017	8655.03
756.355	8846.21
756.693	8915.81
757.031	9107.44
757.368	9166.88
757.706	9346.76
758.044	9440.99
758.381	9687.54
758.719	9768.67
759.056	9949.46
759.394	10133.63
759.731	10244.59
760.068	10400.52
760.405	10562.55
760.743	10745.37
761.08	10931.58
761.417	11091.35
761.754	11315.3
762.091	11379.7
762.428	11591.22
762.765	11731.78
763.102	11907.82
763.438	12070.3
763.775	12162.28
764.112	12453.34
764.449	12546.22
764.785	12765.2
765.122	12867.35
765.458	13036.61
765.795	13241.8
766.131	13369.93
