Data from hue_160_FLMS001491_00005.txt Node
Date: Tue Feb 07 16:50:40 GMT 2017
User: dcchb
Spectrometer: FLMS00149
Trigger mode: 0
Integration Time (sec): 2.000000E-2
Scans to average: 10
Electric dark correction enabled: true
Nonlinearity correction enabled: false
Boxcar width: 0
XAxis mode: Wavelengths
Number of Pixels in Spectrum: 2048
>>>>>Begin Spectral Data<<<<<
341.393	-22.01
341.776	-22.01
342.16	-22.01
342.543	-92.74
342.927	-67.2
343.31	-64.26
343.693	-73.3
344.077	-62.23
344.46	-48.22
344.843	-68.33
345.226	-46.64
345.61	-44.15
345.993	-23.59
346.376	2.85
346.759	3.53
347.142	40.82
347.525	44.66
347.908	57.09
348.291	81.72
348.674	85.79
349.057	114.26
349.44	117.2
349.823	135.05
350.206	145.9
350.588	195.84
350.971	199.46
351.354	218.89
351.737	221.38
352.119	246.69
352.502	274.26
352.884	266.35
353.267	307.25
353.65	288.95
354.032	323.52
354.414	323.97
354.797	312
355.179	301.15
355.562	324.65
355.944	335.5
356.326	330.53
356.709	334.6
357.091	348.38
357.473	325.56
357.855	342.28
358.238	323.97
358.62	331.21
359.002	332.11
359.384	326.01
359.766	342.28
360.148	326.46
360.53	350.87
360.912	330.08
361.294	319.23
361.676	320.36
362.057	344.09
362.439	318.78
362.821	333.47
363.203	323.97
363.584	310.64
363.966	323.3
364.348	310.42
364.729	338.89
365.111	320.36
365.493	307.48
365.874	306.35
366.256	284.65
366.637	323.97
367.019	312.45
367.4	308.38
367.781	301.15
368.163	312
368.544	280.36
368.925	295.5
369.306	314.03
369.688	310.87
370.069	317.42
370.45	295.05
370.831	315.39
371.212	297.31
371.593	307.48
371.974	309.06
372.355	317.87
372.736	304.99
373.117	319.23
373.498	316.97
373.879	319.68
374.26	299.57
374.641	303.18
375.021	307.48
375.402	299.79
375.783	309.29
376.163	310.19
376.544	334.37
376.925	317.2
377.305	310.64
377.686	318.32
378.066	322.39
378.447	329.62
378.827	319.91
379.208	319.91
379.588	335.05
379.968	351.32
380.349	322.62
380.729	327.82
381.109	313.81
381.489	324.65
381.87	339.79
382.25	350.87
382.63	330.08
383.01	337.76
383.39	337.99
383.77	346.35
384.15	344.99
384.53	347.48
384.91	341.38
385.29	338.66
385.67	328.04
386.049	365.78
386.429	322.39
386.809	350.64
387.189	340.47
387.568	352.22
387.948	339.79
388.328	344.54
388.707	361.49
389.087	337.99
389.466	360.58
389.846	329.17
390.225	348.61
390.605	367.36
390.984	347.93
391.363	371.2
391.743	366.69
392.122	357.87
392.501	373.69
392.881	372.79
393.26	372.33
393.639	350.19
394.018	359.68
394.397	388.15
394.776	368.72
395.155	369.17
395.534	361.04
395.913	371.88
396.292	389.96
396.671	403.07
397.05	365.78
397.429	380.02
397.808	395.16
398.186	364.88
398.565	385.22
398.944	366.01
399.323	376.63
399.701	399.45
400.08	393.8
400.458	392.22
400.837	390.64
401.215	372.56
401.594	382.28
401.972	405.78
402.351	417.08
402.729	384.99
403.107	409.85
403.486	401.71
403.864	398.1
404.242	421.6
404.62	410.3
404.999	417.53
405.377	433.58
405.755	426.12
406.133	428.6
406.511	422.5
406.889	429.96
407.267	428.15
407.645	440.13
408.023	444.88
408.401	450.75
408.779	443.07
409.156	443.07
409.534	443.75
409.912	449.17
410.29	443.52
410.667	445.33
411.045	462.28
411.422	467.25
411.8	464.54
412.178	500.69
412.555	465.89
412.933	470.86
413.31	469.96
413.687	481.03
414.065	466.8
414.442	469.28
414.819	491.88
415.197	489.17
415.574	492.56
415.951	476.74
416.328	513.35
416.705	519.68
417.082	518.55
417.46	497.08
417.837	499.11
418.214	502.27
418.591	514.7
418.967	524.87
419.344	530.97
419.721	520.35
420.098	500.47
420.475	536.4
420.852	542.73
421.228	547.25
421.605	539.56
421.982	525.78
422.358	571.2
422.735	532.1
423.111	565.78
423.488	576.85
423.864	585.44
424.241	577.75
424.617	589.96
424.994	590.18
425.37	597.64
425.746	572.1
426.123	597.19
426.499	593.8
426.875	568.04
427.251	594.7
427.627	622.95
428.003	619.79
428.379	624.08
428.756	644.42
429.132	630.63
429.507	638.77
429.883	643.51
430.259	641.03
430.635	646.23
431.011	662.27
431.387	663.17
431.763	684.87
432.138	672.89
432.514	690.74
432.89	687.35
433.265	692.55
433.641	695.49
434.016	736.39
434.392	711.08
434.767	721.03
435.143	731.2
435.518	741.82
435.894	736.39
436.269	741.82
436.644	739.78
437.02	763.06
437.395	765.09
437.77	787.01
438.145	786.79
438.52	804.87
438.895	782.49
439.271	799.22
439.646	809.39
440.021	824.98
440.395	833.57
440.77	832.89
441.145	827.69
441.52	851.19
441.895	838.09
442.27	850.29
442.645	871.76
443.019	858.42
443.394	863.85
443.769	867.24
444.143	886.22
444.518	887.8
444.892	897.29
445.267	895.26
445.641	898.65
446.016	920.34
446.39	933.45
446.764	935.03
447.139	930.96
447.513	931.19
447.887	940.91
448.262	949.49
448.636	922.83
449.01	953.11
449.384	964.86
449.758	969.83
450.132	974.13
450.506	994.69
450.88	1002.6
451.254	985.2
451.628	1016.84
452.002	1029.04
452.376	1016.16
452.75	1035.37
453.123	1023.39
453.497	1054.35
453.871	1056.16
454.244	1092.77
454.618	1091.19
454.992	1097.51
455.365	1139.09
455.739	1145.2
456.112	1150.62
456.486	1152.43
456.859	1148.13
457.232	1167.79
457.606	1191.75
457.979	1189.04
458.352	1251.18
458.725	1236.94
459.099	1251.18
459.472	1254.8
459.845	1306.1
460.218	1295.02
460.591	1300.9
460.964	1325.53
461.337	1340.22
461.71	1366.43
462.083	1388.35
462.456	1415.25
462.829	1389.03
463.201	1420.22
463.574	1440.56
463.947	1444.62
464.32	1462.7
464.692	1487.11
465.065	1538.18
465.438	1549.25
465.81	1580.44
466.183	1573.89
466.555	1648.01
466.928	1636.93
467.3	1634
467.672	1642.36
468.045	1732.3
468.417	1749.02
468.789	1751.28
469.161	1786.08
469.534	1819.08
469.906	1867.44
470.278	1858.4
470.65	1851.17
471.022	1956.93
471.394	1967.1
471.766	2015.23
472.138	2056.36
472.51	2117.37
472.882	2143.59
473.253	2167.54
473.625	2217.03
473.997	2276.69
474.369	2302.23
474.74	2343.13
475.112	2394.43
475.484	2434.2
475.855	2540.19
476.227	2582.9
476.598	2652.27
476.97	2666.96
477.341	2815.21
477.713	2841.42
478.084	2866.73
478.455	2964.81
478.827	3008.2
479.198	3171.36
479.569	3155.31
479.94	3279.38
480.311	3347.17
480.682	3431.46
481.053	3569.09
481.424	3627.39
481.795	3735.18
482.166	3821.51
482.537	3895.41
482.908	4042.75
483.279	4126.13
483.65	4208.62
484.021	4298.56
484.391	4404.32
484.762	4532.45
485.133	4547.82
485.503	4712.56
485.874	4811.77
486.244	4914.59
486.615	5051.08
486.985	5201.59
487.356	5320
487.726	5417.4
488.097	5543.72
488.467	5641.35
488.837	5800.44
489.207	5954.56
489.578	6093.77
489.948	6206.31
490.318	6354.32
490.688	6433.64
491.058	6600.19
491.428	6741.88
491.798	6856.23
492.168	6992.27
492.538	7117.69
492.908	7245.15
493.278	7438.59
493.648	7435.65
494.017	7624.57
494.387	7704.8
494.757	7863.21
495.126	8021.63
495.496	8113.15
495.866	8212.35
496.235	8284.44
496.605	8449.86
496.974	8557.66
497.344	8684.88
497.713	8744.09
498.082	8888.72
498.452	9009.17
498.821	9088.49
499.19	9166.45
499.559	9283.96
499.928	9388.59
500.298	9436.73
500.667	9556.95
501.036	9645.09
501.405	9772.54
501.774	9777.96
502.143	9961.46
502.512	10005.98
502.88	10105.86
503.249	10158.52
503.618	10228.12
503.987	10287.33
504.356	10364.16
504.724	10509.02
505.093	10503.14
505.462	10553.31
505.83	10638.73
506.199	10763.25
506.567	10873.53
506.936	10932.96
507.304	10961.21
507.672	11061.32
508.041	11106.52
508.409	11200.98
508.777	11260.18
509.145	11346.74
509.514	11350.58
509.882	11423.8
510.25	11436.9
510.618	11584.92
510.986	11530.23
511.354	11749.66
511.722	11826.27
512.09	11819.04
512.458	11759.15
512.826	11911.24
513.193	11884.12
513.561	11942.88
513.929	11989.66
514.297	12097
514.664	12125.02
515.032	12100.39
515.4	12299.7
515.767	12297.67
516.135	12271.23
516.502	12189.65
516.869	12335.86
517.237	12326.14
517.604	12394.17
517.972	12435.75
518.339	12511
518.706	12490.21
519.073	12515.07
519.44	12531.11
519.808	12621.05
520.175	12593.48
520.542	12678.9
520.909	12757.09
521.276	12686.14
521.643	12793.93
522.009	12827.83
522.376	12857.88
522.743	12868.73
523.11	13034.15
523.477	13039.8
523.843	13032.34
524.21	13113.69
524.577	13168.61
524.943	13085.9
525.31	13113.92
525.676	13215.16
526.043	13154.37
526.409	13228.95
526.776	13235.95
527.142	13222.84
527.508	13283.86
527.874	13276.18
528.241	13287.02
528.607	13313.46
528.973	13332.9
529.339	13298.1
529.705	13368.83
530.071	13442.5
530.437	13376.29
530.803	13312.79
531.169	13369.28
531.535	13310.07
531.901	13332.9
532.267	13223.07
532.632	13254.71
532.998	13259.91
533.364	13373.35
533.73	13323.41
534.095	13372.44
534.461	13231.43
534.826	13387.59
535.192	13287.02
535.557	13360.69
535.923	13310.75
536.288	13198.66
536.653	13195.73
537.019	13183.98
537.384	13113.47
537.749	13169.96
538.114	13063.75
538.479	13099.23
538.845	13036.41
539.21	12950.08
539.575	12983.75
539.94	12957.99
540.305	12902.85
540.67	12887.94
541.034	12892.91
541.399	12809.75
541.764	12784.66
542.129	12803.19
542.494	12736.76
542.858	12723.65
543.223	12733.14
543.587	12593.48
543.952	12577.21
544.316	12623.99
544.681	12538.79
545.045	12519.13
545.41	12582.86
545.774	12480.94
546.138	12416.31
546.503	12463.09
546.867	12311.23
547.231	12346.48
547.595	12327.05
547.959	12275.52
548.324	12299.48
548.688	12258.58
549.052	12291.57
549.416	12184.45
549.779	12141.74
550.143	12084.8
550.507	12087.51
550.871	12132.93
551.235	11930.45
551.599	12069.2
551.962	11995.98
552.326	11954.18
552.689	12012.71
553.053	11901.3
553.417	11921.86
553.78	11890.68
554.143	11883.67
554.507	11825.59
554.87	11787.85
555.234	11829.43
555.597	11662.89
555.96	11736.56
556.323	11762.77
556.686	11770.23
557.05	11709.66
557.413	11689.33
557.776	11722.77
558.139	11759.38
558.502	11657.24
558.865	11690.23
559.228	11621.53
559.59	11769.32
559.953	11689.1
560.316	11748.98
560.679	11731.58
561.041	11706.5
561.404	11760.28
561.767	11718.03
562.129	11654.75
562.492	11754.18
562.854	11743.11
563.217	11647.52
563.579	11679.16
563.941	11714.18
564.304	11777.91
564.666	11787.85
565.028	11738.59
565.39	11700.17
565.753	11678.25
566.115	11738.36
566.477	11802.99
566.839	11727.06
567.201	11799.83
567.563	11767.29
567.925	11820.4
568.287	11789.44
568.648	11772.94
569.01	11900.39
569.372	11925.48
569.734	11834.63
570.095	11910.34
570.457	11937
570.819	11868.3
571.18	11884.8
571.542	11944.01
571.903	11902.88
572.265	11938.36
572.626	11995.76
572.987	11920.96
573.349	12008.19
573.71	11935.19
574.071	11988.07
574.432	11941.97
574.794	12103.55
575.155	11972.03
575.516	11934.52
575.877	12067.17
576.238	11992.37
576.599	12003.89
576.96	12028.53
577.32	12066.94
577.681	12019.71
578.042	12016.77
578.403	12054.97
578.763	11964.12
579.124	12099.71
579.485	12070.33
579.845	12057.68
580.206	12005.7
580.566	12071.69
580.927	12081.41
581.287	12132.25
581.648	12045.25
582.008	12095.19
582.368	12082.99
582.728	12080.28
583.089	12003.44
583.449	12017
583.809	11938.36
584.169	11965.25
584.529	11983.55
584.889	12011.58
585.249	11950.79
585.609	11928.19
585.969	12019.49
586.329	11888.64
586.688	11990.11
587.048	11914.4
587.408	11931.35
587.768	11944.46
588.127	11912.37
588.487	11957.11
588.846	11920.73
589.206	11873.95
589.565	11901.75
589.925	11872.37
590.284	11840.96
590.643	11791.47
591.003	11910.11
591.362	11923.67
591.721	11815.65
592.08	11871.47
592.44	11906.49
592.799	11830.56
593.158	11902.43
593.517	11836.21
593.876	11725.03
594.235	11792.83
594.593	11811.13
594.952	11860.62
595.311	11737.69
595.67	11791.7
596.029	11854.74
596.387	11866.27
596.746	11847.06
597.104	11730.68
597.463	11774.29
597.822	11835.54
598.18	11712.6
598.538	11724.8
598.897	11783.33
599.255	11688.65
599.613	11795.09
599.972	11730.91
600.33	11757.8
600.688	11758.7
601.046	11732.26
601.404	11841.64
601.762	11748.08
602.12	11794.18
602.478	11797.35
602.836	11838.7
603.194	11715.77
603.552	11739.27
603.91	11683.22
604.268	11698.82
604.625	11694.75
604.983	11818.14
605.341	11725.48
605.698	11766.16
606.056	11695.43
606.413	11781.07
606.771	11759.38
607.128	11774.97
607.485	11793.28
607.843	11786.72
608.2	11774.97
608.557	11832.6
608.914	11743.34
609.272	11842.09
609.629	11791.02
609.986	11774.52
610.343	11848.64
610.7	11873.28
611.057	11786.05
611.414	11864.69
611.771	11814.75
612.127	11930.67
612.484	11824.92
612.841	11895.87
613.198	11973.39
613.554	11907.85
613.911	11985.36
614.267	11916.44
614.624	11825.14
614.98	12000.05
615.337	11965.25
615.693	11968.19
616.05	11909.66
616.406	12058.36
616.762	11935.42
617.118	12023.78
617.475	11972.48
617.831	12060.16
618.187	12013.38
618.543	12059.71
618.899	12142.19
619.255	12075.3
619.611	12001.18
619.967	12092.25
620.323	12071.91
620.678	12102.42
621.034	12012.03
621.39	12053.16
621.746	12024.01
622.101	12183.55
622.457	12018.58
622.812	12057.23
623.168	12085.02
623.523	12205.02
623.879	12140.16
624.234	12109.43
624.589	12097.45
624.945	12032.37
625.3	12076.89
625.655	12079.6
626.01	12045.7
626.365	12071.46
626.72	12083.89
627.075	12065.59
627.43	12047.28
627.785	12032.82
628.14	12129.09
628.495	12043.44
628.85	12133.61
629.205	12008.41
629.559	12093.38
629.914	11970.9
630.269	11991.69
630.623	11968.19
630.978	11951.69
631.332	12008.87
631.687	12031.01
632.041	11932.71
632.396	12022.2
632.75	11944.23
633.104	11927.29
633.459	11925.25
633.813	11947.4
634.167	11934.97
634.521	11871.02
634.875	11920.51
635.229	11870.11
635.583	11840.96
635.937	11782.43
636.291	11820.85
636.645	11774.52
636.999	11683.68
637.352	11777.46
637.706	11661.98
638.06	11705.37
638.413	11723.9
638.767	11679.83
639.121	11727.97
639.474	11608.2
639.828	11595.99
640.181	11631.93
640.534	11653.85
640.888	11611.81
641.241	11560.97
641.594	11593.28
641.947	11606.39
642.301	11592.83
642.654	11543.34
643.007	11637.8
643.36	11551.02
643.713	11536.56
644.066	11622.66
644.419	11550.8
644.771	11418.15
645.124	11377.7
645.477	11276.45
645.83	11235.78
646.182	11236
646.535	11246.85
646.888	11167.08
647.24	11082.11
647.593	11169.57
647.945	11121.66
648.298	11137.25
648.65	11107.42
649.002	11082.56
649.355	11213.63
649.707	11185.16
650.059	11206.17
650.411	11349
650.763	11319.17
651.115	11408.65
651.467	11407.98
651.819	11363.46
652.171	11431.71
652.523	11318.94
652.875	11304.93
653.227	11324.36
653.578	11373.85
653.93	11362.1
654.282	11337.24
654.633	11352.84
654.985	11384.7
655.337	11362.33
655.688	11450.24
656.039	11340.18
656.391	11292.05
656.742	11386.96
657.094	11389.9
657.445	11359.16
657.796	11482.33
658.147	11390.58
658.498	11324.14
658.849	11427.86
659.2	11391.93
659.551	11440.52
659.902	11464.02
660.253	11408.43
660.604	11391.93
660.955	11396.9
661.306	11395.1
661.656	11391.03
662.007	11413.63
662.358	11447.07
662.708	11395.77
663.059	11363.91
663.409	11359.84
663.76	11457.02
664.11	11440.74
664.461	11468.99
664.811	11358.71
665.161	11450.24
665.511	11426.96
665.862	11438.03
666.212	11439.84
666.562	11443
666.912	11457.69
667.262	11400.52
667.612	11408.88
667.962	11470.12
668.312	11380.63
668.662	11531.14
669.011	11439.84
669.361	11417.47
669.711	11440.07
670.06	11419.28
670.41	11397.36
670.76	11360.97
671.109	11385.38
671.459	11376.11
671.808	11373.18
672.157	11400.07
672.507	11270.35
672.856	11385.83
673.205	11411.59
673.554	11396.45
673.904	11311.26
674.253	11358.03
674.602	11328.66
674.951	11165.72
675.3	11116.69
675.649	11340.86
675.998	11248.43
676.346	11292.5
676.695	11244.82
677.044	11188.55
677.393	11256.79
677.741	11256.34
678.09	11221.54
678.438	11122.33
678.787	11214.54
679.135	11130.02
679.484	11138.15
679.832	11147.87
680.181	11130.02
680.529	11074.43
680.877	11089.57
681.225	11089.34
681.573	11088.44
681.922	11033.98
682.27	10997.59
682.618	10949.68
682.966	10984.03
683.314	11001.21
683.661	10996.24
684.009	10911.72
684.357	10918.27
684.705	10800.76
685.053	10869.23
685.4	10806.18
685.748	10763.02
686.095	10800.76
686.443	10700.42
686.79	10685.06
687.138	10692.97
687.485	10716.24
687.832	10620.65
688.18	10656.81
688.527	10589.47
688.874	10596.7
689.221	10599.41
689.568	10511.28
689.915	10547.43
690.262	10470.6
690.609	10450.04
690.956	10431.28
691.303	10414.1
691.65	10355.35
691.997	10314.9
692.344	10324.84
692.69	10195.35
693.037	10260.44
693.383	10133.66
693.73	10160.78
694.077	10082.36
694.423	10092.08
694.769	10072.64
695.116	10125.3
695.462	9994
695.808	10008.69
696.155	9996.26
696.501	9961.24
696.847	9932.31
697.193	9856.83
697.539	9844.18
697.885	9803.95
698.231	9787.45
698.577	9748.81
698.923	9711.75
699.269	9661.81
699.614	9613.9
699.96	9510.4
700.306	9553.11
700.651	9457.52
700.997	9502.94
701.342	9420.91
701.688	9420.68
702.033	9418.88
702.379	9349.73
702.724	9372.78
703.069	9288.26
703.415	9194.02
703.76	9181.82
704.105	9202.61
704.45	9168.04
704.795	9098.21
705.14	9059.56
705.485	9046.46
705.83	9057.08
706.175	9040.58
706.52	8988.61
706.865	8967.36
707.209	8943.18
707.554	8899.79
707.899	8944.99
708.243	8828.61
708.588	8829.29
708.932	8810.31
709.277	8742.06
709.621	8856.18
709.966	8732.12
710.31	8784.32
710.654	8672.68
710.998	8678.78
711.342	8665.22
711.687	8614.15
712.031	8594.72
712.375	8591.33
712.719	8555.4
713.063	8558.33
713.407	8565.57
713.75	8483.76
714.094	8549.29
714.438	8498.9
714.782	8512.46
715.125	8460.94
715.469	8501.16
715.812	8414.38
716.156	8375.74
716.499	8419.58
716.843	8366.02
717.186	8288.74
717.53	8375.29
717.873	8358.34
718.216	8279.02
718.559	8333.71
718.902	8261.17
719.246	8289.64
719.589	8243.77
719.932	8201.51
720.275	8188.63
720.617	8209.19
720.96	8219.81
721.303	8195.18
721.646	8155.18
721.989	8232.69
722.331	8206.48
722.674	8191.11
723.016	8218.46
723.359	8147.5
723.701	8134.16
724.044	8170.77
724.386	8084.22
724.729	8121.96
725.071	8107.72
725.413	8089.65
725.755	8087.61
726.097	8094.17
726.439	8033.6
726.782	8060.04
727.124	8105.46
727.465	8075.64
727.807	8033.83
728.149	8053.71
728.491	8064.11
728.833	8051
729.175	8071.79
729.516	8032.02
729.858	7961.74
730.199	8043.32
730.541	7991.34
730.882	7992.25
731.224	8005.13
731.565	8030.66
731.906	7937.79
732.248	8026.37
732.589	7989.99
732.93	8047.61
733.271	7999.25
733.612	7959.93
733.953	7979.37
734.294	7962.64
734.635	7987.05
734.976	8046.71
735.317	8002.42
735.658	7959.25
735.999	8027.5
736.339	7978.91
736.68	8015.98
737.021	7985.24
737.361	7968.29
737.702	8030.89
738.042	8061.17
738.383	7987.73
738.723	7983.21
739.063	8006.48
739.404	8029.76
739.744	8070.66
740.084	7996.54
740.424	8038.57
740.764	8056.2
741.104	8094.84
741.444	8109.08
741.784	8131.68
742.124	8193.6
742.464	8094.17
742.804	8129.42
743.143	8192.02
743.483	8198.8
743.823	8197.21
744.162	8221.39
744.502	8220.04
744.841	8324.44
745.181	8345.46
745.52	8335.52
745.86	8418.22
746.199	8427.04
746.538	8457.09
746.877	8532.12
747.216	8571.67
747.556	8577.77
747.895	8659.35
748.234	8608.95
748.573	8705.9
748.911	8771.21
749.25	8831.77
749.589	8873.13
749.928	8927.14
750.267	9011.2
750.605	9089.17
750.944	9103.63
751.283	9220.46
751.621	9333.91
751.96	9332.55
752.298	9462.04
752.636	9589.95
752.975	9622.49
753.313	9757.17
753.651	9811.86
753.989	10011.86
754.327	10008.69
754.666	10099.99
755.004	10268.12
755.342	10413.88
755.679	10515.57
756.017	10645.74
756.355	10782.68
756.693	10847.99
757.031	10993.52
757.368	11117.82
757.706	11260.64
758.044	11416.11
758.381	11672.15
758.719	11754.63
759.056	11881.41
759.394	12007.06
759.731	12172.02
