Data from hue_22_FLMS001491_00014.txt Node
Date: Tue Feb 07 17:09:40 GMT 2017
User: dcchb
Spectrometer: FLMS00149
Trigger mode: 0
Integration Time (sec): 2.000000E-2
Scans to average: 10
Electric dark correction enabled: true
Nonlinearity correction enabled: false
Boxcar width: 0
XAxis mode: Wavelengths
Number of Pixels in Spectrum: 2048
>>>>>Begin Spectral Data<<<<<
341.393	-19.7
341.776	-19.7
342.16	-19.7
342.543	-69.42
342.927	-84.79
343.31	-73.94
343.693	-62.41
344.077	-56.76
344.46	-57.22
344.843	-60.38
345.226	-48.85
345.61	-40.72
345.993	-17.67
346.376	-1.62
346.759	18.49
347.142	45.83
347.525	44.48
347.908	49
348.291	66.85
348.674	88.99
349.057	105.94
349.44	122.44
349.823	148.65
350.206	171.03
350.588	200.63
350.971	222.78
351.354	249.67
351.737	259.39
352.119	241.08
352.502	235.43
352.884	273.4
353.267	297.12
353.65	281.31
354.032	292.61
354.414	307.97
354.797	317.92
355.179	333.96
355.562	319.27
355.944	340.74
356.326	347.75
356.709	346.39
357.091	329.67
357.473	337.12
357.855	352.94
358.238	340.29
358.62	348.88
359.002	325.82
359.384	341.64
359.766	343.45
360.148	329.89
360.53	332.83
360.912	325.15
361.294	321.76
361.676	337.12
362.057	327.41
362.439	338.71
362.821	342.55
363.203	343.45
363.584	336.9
363.966	323.56
364.348	324.69
364.729	325.15
365.111	313.62
365.493	314.75
365.874	283.57
366.256	317.92
366.637	332.83
367.019	315.43
367.4	324.47
367.781	318.59
368.163	342.1
368.544	310.01
368.925	307.07
369.306	324.69
369.688	327.18
370.069	316.56
370.45	324.47
370.831	351.81
371.212	332.15
371.593	314.3
371.974	314.98
372.355	329.44
372.736	323.34
373.117	334.41
373.498	316.33
373.879	321.76
374.26	336.22
374.641	320.63
375.021	315.43
375.402	320.18
375.783	343.23
376.163	327.86
376.544	315.88
376.925	345.71
377.305	315.66
377.686	319.27
378.066	338.48
378.447	334.41
378.827	337.8
379.208	322.44
379.588	347.29
379.968	331.47
380.349	337.35
380.729	332.15
381.109	341.64
381.489	337.58
381.87	347.52
382.25	361.3
382.63	340.74
383.01	345.03
383.39	341.64
383.77	339.16
384.15	356.11
384.53	345.94
384.91	340.51
385.29	340.97
385.67	357.91
386.049	376.67
386.429	343.9
386.809	336.9
387.189	363.34
387.568	355.43
387.948	354.98
388.328	360.63
388.707	358.82
389.087	378.03
389.466	357.69
389.846	375.31
390.225	357.46
390.605	377.12
390.984	374.19
391.363	354.07
391.743	373.96
392.122	387.52
392.501	402.88
392.881	383.45
393.26	383.22
393.639	393.39
394.018	372.15
394.397	394.07
394.776	383.45
395.155	404.24
395.534	384.81
395.913	366.28
396.292	391.81
396.671	391.36
397.05	397.01
397.429	407.63
397.808	411.02
398.186	392.49
398.565	383.9
398.944	419.38
399.323	422.32
399.701	406.05
400.08	393.17
400.458	411.92
400.837	421.64
401.215	385.94
401.594	393.85
401.972	406.27
402.351	418.48
402.729	430.23
403.107	427.52
403.486	441.98
403.864	421.42
404.242	421.19
404.62	432.26
404.999	434.52
405.377	436.1
405.755	438.36
406.133	430
406.511	438.36
406.889	442.66
407.267	442.66
407.645	452.83
408.023	437.01
408.401	464.58
408.779	440.17
409.156	448.99
409.534	466.84
409.912	469.55
410.29	491.7
410.667	463.67
411.045	471.13
411.422	479.49
411.8	484.01
412.178	489.21
412.555	512.94
412.933	481.07
413.31	502.09
413.687	494.41
414.065	515.88
414.442	513.39
414.819	501.19
415.197	497.35
415.574	518.36
415.951	528.31
416.328	505.48
416.705	528.08
417.082	508.87
417.46	541.64
417.837	533.28
418.214	521.98
418.591	527.63
418.967	520.17
419.344	547.06
419.721	536.89
420.098	559.49
420.475	568.08
420.852	557.23
421.228	542.54
421.605	561.52
421.982	555.88
422.358	555.42
422.735	575.76
423.111	575.31
423.488	568.08
423.864	552.71
424.241	596.55
424.617	586.16
424.994	612.14
425.37	597.46
425.746	584.8
426.123	599.04
426.499	590.68
426.875	610.11
427.251	620.05
427.627	638.36
428.003	626.16
428.379	620.05
428.756	646.95
429.132	633.16
429.507	632.03
429.883	676.32
430.259	659.38
430.635	654.18
431.011	658.25
431.387	699.15
431.763	681.07
432.138	683.33
432.514	688.75
432.89	688.75
433.265	709.77
433.641	697.34
434.016	699.6
434.392	708.64
434.767	728.07
435.143	763.33
435.518	709.32
435.894	744.12
436.269	737.79
436.644	742.99
437.02	744.34
437.395	755.42
437.77	748.19
438.145	767.85
438.52	759.71
438.895	787.28
439.271	765.59
439.646	799.03
440.021	805.13
440.395	815.08
440.77	787.73
441.145	794.06
441.52	820.95
441.895	825.25
442.27	852.36
442.645	834.51
443.019	818.92
443.394	841.52
443.769	877.9
444.143	852.14
444.518	860.27
444.892	866.15
445.267	851.69
445.641	862.76
446.016	881.52
446.39	887.62
446.764	847.62
447.139	869.77
447.513	880.84
447.887	903.89
448.262	901.4
448.636	891.46
449.01	915.64
449.384	922.65
449.758	939.59
450.132	920.61
450.506	940.95
450.88	931.01
451.254	952.7
451.628	952.7
452.002	955.41
452.376	947.96
452.75	978.69
453.123	978.46
453.497	982.08
453.871	999.48
454.244	1034.51
454.618	1025.69
454.992	1032.02
455.365	1028.18
455.739	1045.35
456.112	1068.63
456.486	1051.23
456.859	1075.41
457.232	1105.01
457.606	1082.87
457.979	1118.35
458.352	1113.15
458.725	1121.96
459.099	1145.24
459.472	1175.07
459.845	1179.14
460.218	1170.55
460.591	1197.89
460.964	1177.1
461.337	1211.23
461.71	1227.72
462.083	1224.78
462.456	1267.72
462.829	1267.95
463.201	1276.31
463.574	1292.13
463.947	1307.27
464.32	1343.2
464.692	1336.87
465.065	1353.37
465.438	1333.93
465.81	1347.72
466.183	1407.83
466.555	1415.51
466.928	1422.97
467.3	1447.83
467.672	1460.26
468.045	1475.4
468.417	1474.72
468.789	1522.4
469.161	1526.02
469.534	1563.76
469.906	1550.65
470.278	1600.14
470.65	1610.31
471.022	1655.06
471.394	1646.02
471.766	1661.38
472.138	1692.12
472.51	1744.09
472.882	1748.16
473.253	1768.5
473.625	1802.62
473.997	1820.47
474.369	1877.2
474.74	1867.71
475.112	1923.75
475.484	1942.28
475.855	1973.24
476.227	2012.11
476.598	2050.75
476.97	2093.69
477.341	2102.5
477.713	2150.41
478.084	2184.08
478.455	2222.72
478.827	2255.72
479.198	2324.42
479.569	2300.69
479.94	2399.44
480.311	2412.55
480.682	2494.81
481.053	2568.03
481.424	2579.78
481.795	2605.31
482.166	2666.55
482.537	2674.46
482.908	2776.83
483.279	2757.17
483.65	2799.43
484.021	2890.5
484.391	2948.81
484.762	2963.04
485.133	3003.95
485.503	3052.08
485.874	3109.25
486.244	3172.3
486.615	3264.5
486.985	3239.65
487.356	3296.37
487.726	3354.22
488.097	3493.65
488.467	3475.57
488.837	3544.5
489.207	3574.55
489.578	3646.42
489.948	3663.36
490.318	3766.19
490.688	3751.95
491.058	3820.2
491.428	3892.06
491.798	3876.24
492.168	4005.05
492.538	4027.87
492.908	4059.51
493.278	4123.69
493.648	4179.06
494.017	4270.81
494.387	4270.81
494.757	4285.04
495.126	4367.07
495.496	4329.56
495.866	4377.02
496.235	4425.6
496.605	4466.05
496.974	4543.57
497.344	4557.13
497.713	4586.5
498.082	4662.89
498.452	4662.89
498.821	4744.01
499.19	4748.31
499.559	4799.61
499.928	4826.05
500.298	4854.52
500.667	4827.18
501.036	4878.7
501.405	4926.16
501.774	4945.14
502.143	5004.35
502.512	5055.42
502.88	5042.76
503.249	5109.88
503.618	5081.86
503.987	5151.69
504.356	5170.22
504.724	5211.12
505.093	5237.11
505.462	5273.49
505.83	5308.52
506.199	5324.56
506.567	5391.45
506.936	5454.96
507.304	5469.19
507.672	5474.84
508.041	5471.68
508.409	5485.01
508.777	5582.64
509.145	5577.89
509.514	5617.66
509.882	5631.9
510.25	5679.36
510.618	5649.98
510.986	5668.06
511.354	5743.76
511.722	5769.98
512.09	5843.42
512.458	5802.52
512.826	5859.24
513.193	5851.56
513.561	5885.23
513.929	5935.39
514.297	5988.73
514.664	6020.59
515.032	6041.38
515.4	6068.05
515.767	6082.74
516.135	6121.83
516.502	5998.9
516.869	6237.76
517.237	6188.27
517.604	6120.25
517.972	6221.71
518.339	6229.17
518.706	6233.69
519.073	6271.88
519.44	6353.91
519.808	6346.23
520.175	6385.33
520.542	6495.15
520.909	6490.86
521.276	6477.08
521.643	6510.07
522.009	6615.15
522.376	6566.34
522.743	6628.71
523.11	6675.71
523.477	6787.35
523.843	6780.57
524.21	6835.94
524.577	6814.69
524.943	6905.09
525.31	6878.42
525.676	7038.64
526.043	7015.14
526.409	7080.22
526.776	7090.84
527.142	7157.28
527.508	7160
527.874	7244.06
528.241	7259.88
528.607	7252.87
528.973	7296.04
529.339	7301.46
529.705	7390.95
530.071	7439.76
530.437	7470.27
530.803	7488.8
531.169	7527.44
531.535	7592.53
531.901	7596.59
532.267	7647.89
532.632	7653.32
532.998	7689.92
533.364	7719.08
533.73	7767.66
534.095	7792.52
534.461	7778.06
534.826	7911.84
535.192	7915
535.557	7996.81
535.923	7998.84
536.288	8027.77
536.653	8080.42
537.019	8006.53
537.384	8034.1
537.749	8178.5
538.114	8146.18
538.479	8174.88
538.845	8230.02
539.21	8218.5
539.575	8281.1
539.94	8273.86
540.305	8347.08
540.67	8341.21
541.034	8469.11
541.399	8392.28
541.764	8501.88
542.129	8465.27
542.494	8481.32
542.858	8557.47
543.223	8583.69
543.587	8594.99
543.952	8663.91
544.316	8699.16
544.681	8702.55
545.045	8739.16
545.41	8783.46
545.774	8844.02
546.138	8842.66
546.503	8913.4
546.867	8853.06
547.231	8969.67
547.595	8990.46
547.959	9032.04
548.324	9034.52
548.688	9076.33
549.052	9062.32
549.416	9078.14
549.779	9212.14
550.143	9152.94
550.507	9241.3
550.871	9241.75
551.235	9310.45
551.599	9266.83
551.962	9328.75
552.326	9331.01
552.689	9419.37
553.053	9459.82
553.417	9385.25
553.78	9526.49
554.143	9595.19
554.507	9585.47
554.87	9561.74
555.234	9640.38
555.597	9641.96
555.96	9681.51
556.323	9754.5
556.686	9709.98
557.05	9848.29
557.413	9873.37
557.776	9825.46
558.139	9902.3
558.502	9963.99
558.865	9938.45
559.228	10022.52
559.59	10018.9
559.953	10083.08
560.316	10137.77
560.679	10126.02
561.041	10203.98
561.404	10256.41
561.767	10271.78
562.129	10286.47
562.492	10363.53
562.854	10348.61
563.217	10368.5
563.579	10452.11
563.941	10469.29
564.304	10469.51
564.666	10526.46
565.028	10621.6
565.39	10659.56
565.753	10754.7
566.115	10763.74
566.477	10772.33
566.839	10768.04
567.201	10911.31
567.563	10824.76
567.925	10914.92
568.287	10923.06
568.648	10979.56
569.01	10991.98
569.372	11139.33
569.734	11111.76
570.095	11168.25
570.457	11230.4
570.819	11254.8
571.18	11269.94
571.542	11332.54
571.903	11299.1
572.265	11396.49
572.626	11528.92
572.987	11519.65
573.349	11586.32
573.71	11616.38
574.071	11672.19
574.432	11753.55
574.794	11844.39
575.155	11851.62
575.516	11927.33
575.877	11969.36
576.238	12090.49
576.599	12174.78
576.96	12203.25
577.32	12236.25
577.681	12463.13
578.042	12455.68
578.403	12540.42
578.763	12649.79
579.124	12670.81
579.485	12781.09
579.845	12965.94
580.206	13078.03
580.566	13105.83
580.927	13285.94
581.287	13447.29
581.648	13445.25
582.008	13691.58
582.368	13827.84
582.728	14012.92
583.089	14019.02
583.449	14214.95
583.809	14370.88
584.169	14572.91
584.529	14737.88
584.889	14981.48
585.249	15080.01
585.609	15280.46
585.969	15554.12
586.329	15652.88
586.688	15958.41
587.048	16167.67
587.408	16340.09
587.768	16560.65
588.127	16859.18
588.487	17023.92
588.846	17388.43
589.206	17489.67
589.565	17684.01
589.925	18071.57
590.284	18277.9
590.643	18600.6
591.003	18874.72
591.362	19134.6
591.721	19462.04
592.08	19766.44
592.44	20213.21
592.799	20367.78
593.158	20667.44
593.517	20938.39
593.876	21236.46
594.235	21502.9
594.593	21837.12
594.952	22238.24
595.311	22439.37
595.67	22849.75
596.029	23400.47
596.387	23626.91
596.746	23962.04
597.104	24096.05
597.463	24456.04
597.822	24960.43
598.18	25139.18
598.538	25383.25
598.897	25880.86
599.255	26037.92
599.613	26604
599.972	26811
600.33	27225.68
600.688	27377.77
601.046	27673.58
601.404	28157.18
601.762	28367.12
602.12	28814.79
602.478	29098.18
602.836	29386.08
603.194	29657.03
603.552	30007.98
603.91	30184.25
604.268	30579.72
604.625	30704.69
604.983	31111
605.341	31435.74
605.698	31750.08
606.056	32047.93
606.413	32341.48
606.771	32647.46
607.128	32990.5
607.485	33002.93
607.843	33284.05
608.2	33712.97
608.557	34085.39
608.914	34144.37
609.272	34595.21
609.629	34898.93
609.986	35293.04
610.343	35331.46
610.7	35698.68
611.057	35853.25
611.414	36229.06
611.771	36371.88
612.127	36696.62
612.484	36905.43
612.841	37221.35
613.198	37183.16
613.554	37422.25
613.911	37719.64
614.267	37989.02
614.624	37995.57
614.98	38334.54
615.337	38578.15
615.693	38757.13
616.05	38925.26
616.406	39321.41
616.762	39328.87
617.118	39382.42
617.475	39590.78
617.831	39736.09
618.187	39988.06
618.543	40228.28
618.899	40496.29
619.255	40515.5
619.611	40587.59
619.967	40965.66
620.323	41122.72
620.678	41059.89
621.034	41020.57
621.39	41266.9
621.746	41482.03
622.101	41858.29
622.457	41696.26
622.812	41717.5
623.168	42050.15
623.523	42117.27
623.879	42280.88
624.234	42098.51
624.589	42431.84
624.945	42508.9
625.3	42620.31
625.655	42679.97
626.01	42715.67
626.365	42857.36
626.72	42961.09
627.075	43013.97
627.43	43051.48
627.785	42942.78
628.14	43284.47
628.495	43260.29
628.85	43330.57
629.205	43310.46
629.559	43480.85
629.914	43288.99
630.269	43613.27
630.623	43580.28
630.978	43516.33
631.332	43727.4
631.687	43711.58
632.041	43566.27
632.396	43909.76
632.75	43640.17
633.104	43730.56
633.459	43697.34
633.813	43619.38
634.167	43682.65
634.521	43894.4
634.875	43898.92
635.229	43955.64
635.583	43678.13
635.937	43862.53
636.291	43740.73
636.645	43857.34
636.999	43834.96
637.352	43867.73
637.706	43746.15
638.06	43968.97
638.413	43801.74
638.767	43789.99
639.121	43798.35
639.474	43547.51
639.828	43764.46
640.181	43703.89
640.534	43792.25
640.888	43617.57
641.241	43498.93
641.594	43637.23
641.947	43775.98
642.301	43694.63
642.654	43713.84
643.007	43834.74
643.36	43786.15
643.713	43624.8
644.066	43885.58
644.419	43630.67
644.771	43450.11
645.124	43042.89
645.477	43091.25
645.83	42876.8
646.182	42580.08
646.535	42522.23
646.888	42645.84
647.24	42415.79
647.593	42634.54
647.945	42709.34
648.298	42475.45
648.65	42392.06
649.002	42371.95
649.355	42680.42
649.707	42460.99
650.059	42633.86
650.411	43115.89
650.763	43121.54
651.115	43590.45
651.467	43338.03
651.819	43299.84
652.171	43163.57
652.523	43194.08
652.875	43179.16
653.227	43194.08
653.578	43432.71
653.93	43182.1
654.282	43183
654.633	43065.94
654.985	43165.15
655.337	43067.98
655.688	43283.11
656.039	43215.54
656.391	42950.01
656.742	43051.26
657.094	43124.93
657.445	43266.39
657.796	43001.99
658.147	43038.6
658.498	42908.89
658.849	43131.25
659.2	42990.24
659.551	43044.02
659.902	43004.7
660.253	43055.77
660.604	43105.26
660.955	42893.52
661.306	43127.41
661.656	43021.43
662.007	42962.22
662.358	42947.75
662.708	43026.4
663.059	42981.2
663.409	42664.82
663.76	43029.56
664.11	42994.99
664.461	42914.08
664.811	43078.82
665.161	42954.76
665.511	42782.56
665.862	42894.2
666.212	42911.82
666.562	42922.67
666.912	42802
667.262	42832.28
667.612	42891.94
667.962	42887.87
668.312	42832.05
668.662	43036.11
669.011	42982.1
669.361	42803.58
669.711	42773.97
670.06	42896.68
670.41	42690.36
670.76	42688.1
671.109	42727.87
671.459	42874.31
671.808	42798.15
672.157	42776.46
672.507	42588.22
672.856	42538.05
673.205	42512.29
673.554	42606.52
673.904	42636.12
674.253	42773.97
674.602	42496.92
674.951	42067.55
675.3	41955.92
675.649	42455.34
675.998	42475
676.346	42595.45
676.695	42597.03
677.044	42297.6
677.393	42605.84
677.741	42471.61
678.09	42524.72
678.438	42280.88
678.787	42336.7
679.135	42444.94
679.484	42164.05
679.832	42366.08
680.181	41960.44
680.529	42120.21
680.877	42070.49
681.225	41954.79
681.573	42223.93
681.922	41961.34
682.27	41904.17
682.618	41966.76
682.966	41656.72
683.314	41814.45
683.661	41714.79
684.009	41484.52
684.357	41509.6
684.705	41341.47
685.053	41471.41
685.4	41438.64
685.748	41202.72
686.095	41209.72
686.443	41000.24
686.79	41010.18
687.138	41225.77
687.485	41082.72
687.832	41045.66
688.18	41019.9
688.527	40753.69
688.874	40744.87
689.221	40648.61
689.568	40579.91
689.915	40684.54
690.262	40516.41
690.609	40333.36
690.956	40356.18
691.303	40254.04
691.65	40120.94
691.997	39927.72
692.344	39875.07
692.69	39778.8
693.037	39676.65
693.383	39432.14
693.73	39655.41
694.077	39353.05
694.423	39425.36
694.769	39183.79
695.116	39175.2
695.462	39066.73
695.808	39119.16
696.155	39179.04
696.501	38764.36
696.847	38810.46
697.193	38476.46
697.539	38804.14
697.885	38439.4
698.231	38350.36
698.577	38355.79
698.923	38281.66
699.269	38021.56
699.614	37906.31
699.96	37886.65
700.306	37843.48
700.651	37615.92
700.997	37681.23
701.342	37581.34
701.688	37485.98
702.033	37433.1
702.379	37318.52
702.724	37201.01
703.069	37315.81
703.415	36963.51
703.76	36932.55
704.105	36953.56
704.45	36848.71
704.795	36685.32
705.14	36615.94
705.485	36564.87
705.83	36304.99
706.175	36464.99
706.52	36400.81
706.865	36339.12
707.209	36218.44
707.554	36027.03
707.899	36115.62
708.243	35871.33
708.588	35926.02
708.932	35662.75
709.277	35671.56
709.621	35622.98
709.966	35386.82
710.31	35572.58
710.654	35207.39
710.998	35321.29
711.342	35341.85
711.687	35154.51
712.031	35004.23
712.375	34876.33
712.719	34906.16
713.063	34904.8
713.407	34980.96
713.75	34570.8
714.094	34687.86
714.438	34580.52
714.782	34600.86
715.125	34352.05
715.469	34571.03
715.812	34442.89
716.156	34330.13
716.499	34234.99
716.843	34225.95
717.186	34106.41
717.53	34199.06
717.873	34069.57
718.216	34034.99
718.559	33957.93
718.902	33759.75
719.246	33798.84
719.589	33686.53
719.932	33512.3
720.275	33510.71
720.617	33556.59
720.96	33479.08
721.303	33563.82
721.646	33420.1
721.989	33327.89
722.331	33465.97
722.674	33313.43
723.016	33186.43
723.359	33144.17
723.701	33202.02
724.044	32862.14
724.386	32833.9
724.729	32957.74
725.071	32790.28
725.413	32746.67
725.755	32774.69
726.097	32650.17
726.439	32471.65
726.782	32427.35
727.124	32599.55
727.465	32398.43
727.807	32448.14
728.149	32388.48
728.491	32229.84
728.833	32343.74
729.175	32162.28
729.516	32189.62
729.858	32072.11
730.199	32171.77
730.541	32142.39
730.882	32038.44
731.224	32020.58
731.565	31851.55
731.906	31863.75
732.248	31968.16
732.589	31600.03
732.93	31568.39
733.271	31718.45
733.612	31642.06
733.953	31621.95
734.294	31519.35
734.635	31429.19
734.976	31563.87
735.317	31318.46
735.658	31369.98
735.999	31321.17
736.339	31305.35
736.68	31561.39
737.021	31284.11
737.361	31127.73
737.702	31224
738.042	31117.11
738.383	31081.85
738.723	31080.5
739.063	30995.98
739.404	31071.01
739.744	30904.46
740.084	30788.53
740.424	30871.69
740.764	30701.3
741.104	30899.94
741.444	30657
741.784	30661.07
742.124	30711.47
742.464	30451.81
742.804	30621.3
743.143	30491.81
743.483	30529.32
743.823	30235.09
744.162	30361.42
744.502	30463.34
744.841	30153.29
745.181	30369.55
745.52	30152.61
745.86	30265.6
746.199	30191.48
746.538	30140.63
746.877	30159.62
747.216	29988.55
747.556	30160.52
747.895	30058.83
748.234	29820.87
748.573	29832.17
748.911	29716.69
749.25	29825.16
749.589	29696.8
749.928	29688.67
750.267	29697.26
750.605	29659.29
750.944	29518.5
751.283	29375.23
751.621	29410.48
751.96	29382.69
752.298	29431.95
752.636	29331.16
752.975	29343.14
753.313	29025.41
753.651	29258.85
753.989	29057.05
754.327	29108.57
754.666	28915.81
755.004	28983.15
755.342	28992.19
755.679	28848.92
756.017	28718.98
756.355	28853.89
756.693	28714.46
757.031	28690.5
757.368	28543.84
757.706	28432.66
758.044	28401.47
758.381	28435.59
758.719	28282.83
759.056	28365.09
759.394	28142.72
