Data from hue_60_FLMS001491_52.txt Node
Date: Mon Feb 06 15:17:35 GMT 2017
User: dcchb
Spectrometer: FLMS00149
Trigger mode: 0
Integration Time (sec): 2.000000E-2
Scans to average: 10
Electric dark correction enabled: true
Nonlinearity correction enabled: false
Boxcar width: 0
XAxis mode: Wavelengths
Number of Pixels in Spectrum: 2048
>>>>>Begin Spectral Data<<<<<
341.393	-10.25
341.776	-10.25
342.16	-10.25
342.543	-64.26
342.927	-87.09
343.31	-60.65
343.693	-71.72
344.077	-57.94
344.46	-64.72
344.843	-59.74
345.226	-35.79
345.61	-36.92
345.993	-3.25
346.376	-8.22
346.759	19.12
347.142	37.43
347.525	38.33
347.908	36.98
348.291	63.64
348.674	92.34
349.057	111.1
349.44	126.24
349.823	143.19
350.206	156.97
350.588	219.12
350.971	212.79
351.354	227.48
351.737	238.55
352.119	234.49
352.502	278.78
352.884	254.15
353.267	280.13
353.65	299.79
354.032	313.13
354.414	308.38
354.797	324.65
355.179	308.83
355.562	323.3
355.944	331.88
356.326	329.85
356.709	324.2
357.091	338.89
357.473	340.47
357.855	348.83
358.238	341.6
358.62	350.19
359.002	341.6
359.384	345.44
359.766	333.24
360.148	330.53
360.53	345.44
360.912	336.18
361.294	340.25
361.676	327.82
362.057	334.82
362.439	328.95
362.821	335.27
363.203	326.91
363.584	344.31
363.966	362.62
364.348	322.84
364.729	317.65
365.111	325.56
365.493	304.54
365.874	329.85
366.256	298.66
366.637	307.03
367.019	326.69
367.4	328.72
367.781	317.2
368.163	341.15
368.544	327.14
368.925	310.19
369.306	309.96
369.688	307.25
370.069	318.32
370.45	305.22
370.831	325.56
371.212	315.84
371.593	322.17
371.974	297.53
372.355	321.26
372.736	312.9
373.117	311.09
373.498	326.01
373.879	319.45
374.26	315.16
374.641	315.84
375.021	344.76
375.402	311.09
375.783	323.52
376.163	312.22
376.544	329.62
376.925	323.07
377.305	309.06
377.686	314.26
378.066	349.06
378.447	327.36
378.827	315.39
379.208	345.67
379.588	313.58
379.968	327.14
380.349	331.88
380.729	326.01
381.109	339.79
381.489	324.2
381.87	340.7
382.25	320.36
382.63	333.69
383.01	347.02
383.39	345.89
383.77	341.83
384.15	339.57
384.53	354.48
384.91	330.98
385.29	355.39
385.67	337.31
386.049	354.03
386.429	341.6
386.809	341.15
387.189	357.87
387.568	358.32
387.948	334.82
388.328	354.48
388.707	364.65
389.087	363.75
389.466	357.19
389.846	344.54
390.225	349.74
390.605	367.59
390.984	367.59
391.363	360.36
391.743	343.41
392.122	356.74
392.501	383.63
392.881	351.77
393.26	357.19
393.639	371.2
394.018	356.29
394.397	370.75
394.776	377.76
395.155	382.28
395.534	373.24
395.913	359
396.292	375.72
396.671	358.32
397.05	391.09
397.429	364.88
397.808	389.74
398.186	376.4
398.565	370.75
398.944	382.5
399.323	372.56
399.701	393.58
400.08	387.25
400.458	390.64
400.837	375.05
401.215	405.33
401.594	394.26
401.972	399.45
402.351	396.51
402.729	381.15
403.107	419.79
403.486	404.42
403.864	391.77
404.242	425.67
404.62	409.85
404.999	412.33
405.377	393.35
405.755	415.05
406.133	375.95
406.511	409.85
406.889	426.8
407.267	421.37
407.645	403.97
408.023	399.45
408.401	399.45
408.779	413.69
409.156	422.28
409.534	427.25
409.912	424.08
410.29	430.86
410.667	421.6
411.045	436.29
411.422	423.63
411.8	452.33
412.178	464.08
412.555	449.85
412.933	449.39
413.31	448.27
413.687	451.88
414.065	460.92
414.442	436.51
414.819	481.71
415.197	446.23
415.574	461.82
415.951	457.08
416.328	471.32
416.705	479
417.082	459.56
417.46	464.99
417.837	488.49
418.214	484.2
418.591	483.29
418.967	487.13
419.344	489.62
419.721	490.98
420.098	493.24
420.475	491.2
420.852	509.96
421.228	516.51
421.605	496.4
421.982	496.17
422.358	489.85
422.735	525.33
423.111	503.63
423.488	538.66
423.864	510.86
424.241	508.83
424.617	537.75
424.994	528.94
425.37	539.56
425.746	533.01
426.123	526.68
426.499	520.13
426.875	546.79
427.251	553.8
427.627	580.92
428.003	562.39
428.379	563.97
428.756	558.09
429.132	568.26
429.507	570.3
429.883	548.6
430.259	573.01
430.635	603.97
431.011	591.76
431.387	600.58
431.763	602.16
432.138	598.09
432.514	588.83
432.89	624.31
433.265	606.68
433.641	598.09
434.016	616.85
434.392	629.28
434.767	631.54
435.143	633.12
435.518	629.73
435.894	643.97
436.269	648.49
436.644	674.25
437.02	654.36
437.395	674.93
437.77	686.68
438.145	674.93
438.52	691.87
438.895	700.01
439.271	662.95
439.646	668.15
440.021	721.03
440.395	687.58
440.77	675.83
441.145	690.74
441.52	718.31
441.895	719.9
442.27	691.87
442.645	701.14
443.019	704.76
443.394	722.83
443.769	693.46
444.143	718.09
444.518	745.43
444.892	739.78
445.267	740.01
445.641	742.49
446.016	740.69
446.39	774.13
446.764	749.27
447.139	751.53
447.513	779.56
447.887	783.62
448.262	766
448.636	755.6
449.01	787.92
449.384	805.54
449.758	809.61
450.132	808.93
450.506	820.68
450.88	798.31
451.254	814.81
451.628	823.4
452.002	825.88
452.376	824.75
452.75	855.71
453.123	831.08
453.497	843.28
453.871	888.93
454.244	851.19
454.618	869.95
454.992	873.34
455.365	877.86
455.739	915.82
456.112	907.69
456.486	923.05
456.859	926.22
457.232	926.44
457.606	942.72
457.979	963.51
458.352	947.23
458.725	954.01
459.099	976.84
459.472	979.1
459.845	966.9
460.218	1023.39
460.591	1029.72
460.964	1026.78
461.337	1033.11
461.71	1041.02
462.083	1055.71
462.456	1080.56
462.829	1091.19
463.201	1107.23
463.574	1083.5
463.947	1120.34
464.32	1168.92
464.692	1171.64
465.065	1144.97
465.438	1197.17
465.81	1185.42
466.183	1210.73
466.555	1240.33
466.928	1221.35
467.3	1251.41
467.672	1249.6
468.045	1300.22
468.417	1316.26
468.789	1313.55
469.161	1334.12
469.534	1346.32
469.906	1402.59
470.278	1412.53
470.65	1461.35
471.022	1463.15
471.394	1509.71
471.766	1523.04
472.138	1561
472.51	1605.3
472.882	1628.57
473.253	1674
473.625	1699.31
473.997	1702.02
474.369	1743.6
474.74	1793.77
475.112	1850.26
475.484	1872.18
475.855	1932.97
476.227	1965.51
476.598	2030.6
476.97	2066.75
477.341	2123.93
477.713	2183.81
478.084	2219.74
478.455	2271.95
478.827	2344.71
479.198	2440.3
479.569	2476.01
479.94	2539.51
480.311	2647.98
480.682	2713.06
481.053	2820.63
481.424	2910.8
481.795	2957.8
482.166	3020.4
482.537	3108.76
482.908	3235.31
483.279	3287.74
483.65	3442.08
484.021	3501.52
484.391	3605.47
484.762	3704.22
485.133	3763.66
485.503	3919.36
485.874	4052.92
486.244	4122.74
486.615	4259.69
486.985	4367.48
487.356	4536.97
487.726	4616.74
488.097	4754.82
488.467	4858.54
488.837	5042.49
489.207	5163.85
489.578	5275.71
489.948	5426.21
490.318	5552.54
490.688	5650.16
491.058	5825.52
491.428	5962.7
491.798	6083.82
492.168	6346.19
492.538	6460.99
492.908	6559.52
493.278	6732.17
493.648	6830.02
494.017	7010.35
494.387	7129.67
494.757	7268.65
495.126	7495.54
495.496	7535.99
495.866	7777.56
496.235	7960.16
496.605	8027.73
496.974	8212.35
497.344	8330.32
497.713	8535.51
498.082	8642.17
498.452	8762.85
498.821	8956.97
499.19	9133.23
499.559	9277.41
499.928	9364.64
500.298	9485.99
500.667	9647.12
501.036	9749.72
501.405	9939.77
501.774	10093.66
502.143	10325.97
502.512	10384.73
502.88	10494.55
503.249	10575.46
503.618	10710.37
503.987	10885.28
504.356	11024.48
504.724	11182.67
505.093	11324.14
505.462	11361.2
505.83	11588.76
506.199	11739.95
506.567	11837.57
506.936	11940.39
507.304	12236.88
507.672	12220.16
508.041	12369.08
508.409	12517.1
508.777	12704.44
509.145	12868.5
509.514	12933.13
509.882	12988.27
510.25	13089.06
510.618	13323.86
510.986	13404.53
511.354	13494.02
511.722	13802.49
512.09	13957.97
512.458	13901.47
512.826	14126.32
513.193	14234.34
513.561	14275.92
513.929	14447.9
514.297	14689.02
514.664	14767.66
515.032	14918.62
515.4	15030.93
515.767	15131.72
516.135	15279.51
516.502	15158.16
516.869	15544.37
517.237	15749.33
517.604	15687.19
517.972	15787.75
518.339	15962.66
518.706	16114.29
519.073	16239.71
519.44	16369.43
519.808	16526.71
520.175	16527.39
520.542	16731.23
520.909	16888.06
521.276	16974.38
521.643	17175.96
522.009	17340.48
522.376	17399.91
522.743	17612.79
523.11	17671.32
523.477	17961.93
523.843	18041.93
524.21	18236.27
524.577	18426.1
524.943	18443.05
525.31	18573.89
525.676	18740.67
526.043	18943.15
526.409	19064.95
526.776	19195.57
527.142	19334.32
527.508	19435.11
527.874	19640.53
528.241	19752.62
528.607	19734.09
528.973	19979.05
529.339	19939.05
529.705	20312.83
530.071	20424.01
530.437	20523.22
530.803	20540.39
531.169	20797.79
531.535	20718.47
531.901	20872.59
532.267	20955.97
532.632	21041.85
532.998	21226.02
533.364	21327.49
533.73	21294.5
534.095	21546.02
534.461	21579.01
534.826	21705.11
535.192	21864.2
535.557	22041.6
535.923	21901.71
536.288	22111.88
536.653	22182.83
537.019	22288.37
537.384	22341.02
537.749	22469.38
538.114	22531.3
538.479	22549.38
538.845	22717.51
539.21	22628.7
539.575	22904.4
539.94	22927
540.305	23054.45
540.67	22891.52
541.034	23176.93
541.399	23181.45
541.764	23264.16
542.129	23404.72
542.494	23294.22
542.858	23527.88
543.223	23610.37
543.587	23660.31
543.952	23674.55
544.316	23780.76
544.681	23757.93
545.045	23957.7
545.41	24098.94
545.774	24095.33
546.138	24033.18
546.503	24226.4
546.867	24282.44
547.231	24449.44
547.595	24398.82
547.959	24518.59
548.324	24607.4
548.688	24600.85
549.052	24785.03
549.416	24816.66
549.779	24876.1
550.143	24942.31
550.507	25170.78
550.871	25236.31
551.235	25246.03
551.599	25408.29
551.962	25452.81
552.326	25524.44
552.689	25757.2
553.053	25664.33
553.417	25688.51
553.78	26038.55
554.143	25845.79
554.507	25949.74
554.87	26153.13
555.234	26453.23
555.597	26214.82
555.96	26464.76
556.323	26495.94
556.686	26588.82
557.05	26852.54
557.413	26890.73
557.776	26981.13
558.139	27141.57
558.502	27152.65
558.865	27211.63
559.228	27483.71
559.59	27551.73
559.953	27574.56
560.316	27815
560.679	27868.79
561.041	28040.08
561.404	28214.09
561.767	28268.55
562.129	28274.88
562.492	28615.43
562.854	28491.82
563.217	28599.16
563.579	28746.73
563.941	28800.51
564.304	28955.99
564.666	29124.57
565.028	29361.63
565.39	29375.41
565.753	29540.16
566.115	29568.4
566.477	29672.36
566.839	29825.35
567.201	29922.52
567.563	30121.84
567.925	30268.72
568.287	30114.6
568.648	30315.05
569.01	30644.76
569.372	30775.38
569.734	30674.81
570.095	30891.31
570.457	30999.55
570.819	31082.26
571.18	31131.3
571.542	31209.49
571.903	31257.62
572.265	31455.81
572.626	31574.9
572.987	31511.86
573.349	31652.64
573.71	31812.41
574.071	31936.25
574.432	31928.34
574.794	32237.03
575.155	32170.37
575.516	32064.16
575.877	32365.39
576.238	32225.28
576.599	32426.63
576.96	32562
577.32	32536.23
577.681	32683.58
578.042	32792.27
578.403	32690.36
578.763	32756.57
579.124	32820.07
579.485	32952.72
579.845	33104.36
580.206	33012.15
580.566	33044.47
580.927	33180.51
581.287	33208.53
581.648	33206.27
582.008	33248.08
582.368	33205.6
582.728	33364.46
583.089	33319.94
583.449	33321.52
583.809	33311.36
584.169	33477
584.529	33253.96
584.889	33528.75
585.249	33456.89
585.609	33416.44
585.969	33540.28
586.329	33459.6
586.688	33540.73
587.048	33587.28
587.408	33475.65
587.768	33465.7
588.127	33468.64
588.487	33404.46
588.846	33680.84
589.206	33590.44
589.565	33564.46
589.925	33731.01
590.284	33659.14
590.643	33700.95
591.003	33784.56
591.362	33793.83
591.721	33905.01
592.08	33866.6
592.44	33884.22
592.799	33953.15
593.158	33914.05
593.517	33901.4
593.876	34020.26
594.235	33939.14
594.593	33931.45
594.952	33998.8
595.311	33860.27
595.67	34064.78
596.029	34282.86
596.387	34295.96
596.746	34451.66
597.104	34141.39
597.463	34250.54
597.822	34227.49
598.18	34169.64
598.538	34245.12
598.897	34387.26
599.255	34115.85
599.613	34727.59
599.972	34352.46
600.33	34509.06
600.688	34305.45
601.046	34536.63
601.404	34646.01
601.762	34745.22
602.12	34829.73
602.478	34750.19
602.836	34860.92
603.194	34728.95
603.552	34740.92
603.91	34664.31
604.268	34947.92
604.625	34868.83
604.983	34980.01
605.341	34796.29
605.698	35040.12
606.056	35106.34
606.413	35205.54
606.771	35293.45
607.128	35336.16
607.485	35175.49
607.843	35222.27
608.2	35350.62
608.557	35460
608.914	35416.84
609.272	35554.01
609.629	35677.4
609.986	35867.45
610.343	35678.07
610.7	35931.4
611.057	35857.28
611.414	35807.79
611.771	35950.38
612.127	36139.53
612.484	36100.43
612.841	36225.4
613.198	36184.73
613.554	36175.46
613.911	36317.6
614.267	36418.84
614.624	36417.04
614.98	36505.62
615.337	36648.44
615.693	36548.56
616.05	36634.21
616.406	36636.24
616.762	36710.81
617.118	36640.08
617.475	36655.45
617.831	36737.71
618.187	37005.5
618.543	36931.15
618.899	37001.43
619.255	37050.92
619.611	37112.84
619.967	37202.1
620.323	37222.89
620.678	37145.61
621.034	37168.88
621.39	37191.03
621.746	37127.75
622.101	37565.26
622.457	37189.45
622.812	37289.56
623.168	37448.65
623.523	37468.08
623.879	37452.49
624.234	37259.73
624.589	37553.05
624.945	37545.37
625.3	37574.07
625.655	37480.96
626.01	37495.43
626.365	37625.37
626.72	37563.67
627.075	37583.11
627.43	37468.99
627.785	37601.41
628.14	37563.22
628.495	37569.55
628.85	37593.96
629.205	37477.8
629.559	37622.43
629.914	37517.8
630.269	37579.04
630.623	37592.83
630.978	37492.04
631.332	37682.99
631.687	37711.01
632.041	37586.05
632.396	37621.3
632.75	37544.24
633.104	37593.05
633.459	37451.13
633.813	37457.01
634.167	37459.72
634.521	37440.96
634.875	37466.73
635.229	37607.74
635.583	37403.68
635.937	37328.88
636.291	37227.41
636.645	37200.75
636.999	37186.96
637.352	37317.13
637.706	36961.2
638.06	37234.42
638.413	37063.8
638.767	37021.54
639.121	37082.56
639.474	36905.61
639.828	36975.89
640.181	37007.76
640.534	36944.25
640.888	36892.5
641.241	36693.19
641.594	36879.62
641.947	36974.99
642.301	36841.43
642.654	36727.99
643.007	36842.34
643.36	36783.58
643.713	36691.15
644.066	36915.1
644.419	36556.92
644.771	36399.64
645.124	35999.42
645.477	36040.32
645.83	35786.32
646.182	35745.87
646.535	35595.36
646.888	35665.19
647.24	35367.35
647.593	35660.67
647.945	35651.41
648.298	35478.76
648.65	35472.88
649.002	35311.76
649.355	35384.97
649.707	35414.13
650.059	35652.09
650.411	36033.32
650.763	36103.37
651.115	36369.35
651.467	36130.49
651.819	36327.32
652.171	36243.48
652.523	35995.13
652.875	36180.88
653.227	35929.59
653.578	36123.49
653.93	35995.13
654.282	35971.85
654.633	35787.67
654.985	35858.86
655.337	35969.59
655.688	35913.55
656.039	36086.65
656.391	35789.26
656.742	35852.98
657.094	35684.85
657.445	35800.78
657.796	35868.58
658.147	35815.47
658.498	35678.75
658.849	35821.57
659.2	35699.54
659.551	35735.92
659.902	35805.98
660.253	35684.4
660.604	35761.01
660.955	35626.55
661.306	35694.57
661.656	35628.58
662.007	35657.28
662.358	35617.74
662.708	35566.89
663.059	35530.51
663.409	35424.97
663.76	35713.1
664.11	35606.44
664.461	35659.77
664.811	35586.55
665.161	35595.82
665.511	35420
665.862	35620.9
666.212	35631.75
666.562	35566.21
666.912	35574.57
667.262	35463.84
667.612	35622.93
667.962	35557.85
668.312	35561.01
668.662	35620
669.011	35501.81
669.361	35414.8
669.711	35407.57
670.06	35439.21
670.41	35333.68
670.76	35233.34
671.109	35476.95
671.459	35393.33
671.808	35312.21
672.157	35392.88
672.507	35183.85
672.856	35155.15
673.205	35286.22
673.554	35398.53
673.904	35242.83
674.253	35359.44
674.602	35331.42
674.951	34697.31
675.3	34679.23
675.649	35236.73
675.998	35127.81
676.346	35114.02
676.695	35274.24
677.044	34866.34
677.393	34979.56
677.741	35109.05
678.09	34980.69
678.438	34916.06
678.787	35044.42
679.135	35058.2
679.484	34672.9
679.832	34793.35
680.181	34604.2
680.529	34838.77
680.877	34680.81
681.225	34659.12
681.573	34903.18
681.922	34530.76
682.27	34522.4
682.618	34545.22
682.966	34547.93
683.314	34463.64
683.661	34467.26
684.009	34284.89
684.357	34227.49
684.705	34143.65
685.053	34177.55
685.4	34073.14
685.748	34039.02
686.095	33980.04
686.443	33869.99
686.79	33839.03
687.138	33891.68
687.485	33820.49
687.832	33714.73
688.18	33692.36
688.527	33557.22
688.874	33497.79
689.221	33284.92
689.568	33422.54
689.915	33263.22
690.262	33299.6
690.609	33274.29
690.956	33123.79
691.303	33031.82
691.65	32979.61
691.997	32981.19
692.344	32673.18
692.69	32678.38
693.037	32668.89
693.383	32495.33
693.73	32565.61
694.077	32256.69
694.423	32328.1
694.769	32182.12
695.116	32162.23
695.462	32152.97
695.808	31993.88
696.155	32175.34
696.501	31860.09
696.847	31915.46
697.193	31676.14
697.539	31863.71
697.885	31589.59
698.231	31423.04
698.577	31402.03
698.923	31421.01
699.269	31281.13
699.614	31206.33
699.96	31046.33
700.306	31207.23
700.651	30825.55
700.997	30838.43
701.342	30759.78
701.688	30768.15
702.033	30727.02
702.379	30684.76
702.724	30568.38
703.069	30499
703.415	30075.06
703.76	30254.26
704.105	30244.32
704.45	30248.16
704.795	30023.98
705.14	29954.16
705.485	29963.2
705.83	29744.44
706.175	29838.23
706.52	29723.2
706.865	29600.27
707.209	29650.89
707.554	29458.8
707.899	29642.07
708.243	29348.3
708.588	29305.59
708.932	29240.05
709.277	29149.66
709.621	29165.25
709.966	28972.94
710.31	29095.42
710.654	28860.63
710.998	28923.67
711.342	28826.05
711.687	28769.78
712.031	28633.06
712.375	28549.67
712.719	28544.48
713.063	28494.99
713.407	28643.23
713.75	28449.79
714.094	28456.34
714.438	28294.99
714.782	28386.97
715.125	28149.91
715.469	28250.92
715.812	28080.08
716.156	27894.55
716.499	28074.66
716.843	27963.47
717.186	27816.13
717.53	27811.84
717.873	27858.39
718.216	27812.29
718.559	27689.36
718.902	27463.37
719.246	27614.33
719.589	27457.05
719.932	27445.97
720.275	27364.62
720.617	27235.81
720.96	27278.97
721.303	27316.71
721.646	27315.36
721.989	27176.15
722.331	27250.95
722.674	27164.17
723.016	27114.23
723.359	27074.23
723.701	27013.67
724.044	26898.87
724.386	26782.26
724.729	26991.75
725.071	26892.32
725.413	26826.78
725.755	26811.87
726.097	26634.47
726.439	26530.97
726.782	26573.45
727.124	26548.6
727.465	26447.58
727.807	26466.56
728.149	26339.56
728.491	26313.35
728.833	26399
729.175	26262.05
729.516	26199.45
729.858	26170.53
730.199	26170.07
730.541	26210.98
730.882	26041.49
731.224	26125.56
731.565	25979.8
731.906	25979.57
732.248	25972.11
732.589	25892.57
732.93	25703.65
733.271	25772.57
733.612	25825.22
733.953	25770.99
734.294	25688.73
734.635	25714.72
734.976	25733.02
735.317	25521.05
735.658	25605.57
735.999	25642.4
736.339	25397.21
736.68	25454.61
737.021	25486.02
737.361	25329.87
737.702	25408.06
738.042	25288.74
738.383	25410.77
738.723	25360.6
739.063	25261.62
739.404	25302.07
739.744	25103.89
740.084	25013.27
740.424	25084
740.764	24895.08
741.104	25115.87
741.444	24976.21
741.784	24877
742.124	24869.32
742.464	24814.86
742.804	24910.67
743.143	24684.01
743.483	24807.85
743.823	24634.07
744.162	24696.44
744.502	24668.87
744.841	24503
745.181	24709.1
745.52	24515.88
745.86	24560.85
746.199	24460.97
746.538	24416.67
746.877	24415.09
747.216	24424.81
747.556	24386.62
747.895	24405.15
748.234	24239.96
748.573	24188.88
748.911	24141.2
749.25	24230.92
749.589	24090.13
749.928	24040.64
750.267	24205.38
750.605	23940.3
750.944	23941.88
751.283	23814.66
751.621	23914.31
751.96	23721.78
752.298	23839.97
752.636	23737.82
752.975	23667.99
753.313	23542.57
753.651	23678.16
753.989	23575.79
754.327	23374.22
754.666	23315.23
755.004	23490.37
755.342	23335.12
755.679	23294.44
756.017	23153.2
756.355	23294.9
756.693	23111.85
757.031	23230.49
