Data from hue_210_FLMS001491_00050.txt Node
Date: Tue Feb 07 16:41:16 GMT 2017
User: dcchb
Spectrometer: FLMS00149
Trigger mode: 0
Integration Time (sec): 2.000000E-2
Scans to average: 10
Electric dark correction enabled: true
Nonlinearity correction enabled: false
Boxcar width: 0
XAxis mode: Wavelengths
Number of Pixels in Spectrum: 2048
>>>>>Begin Spectral Data<<<<<
341.393	-24.28
341.776	-24.28
342.16	-24.28
342.543	-53.43
342.927	-58.18
343.31	-69.93
343.693	-54.11
344.077	-52.07
344.46	-81.23
344.843	-52.53
345.226	-40.32
345.61	-45.3
345.993	-14.56
346.376	-9.59
346.759	11.88
347.142	23.18
347.525	43.52
347.908	56.85
348.291	68.37
348.674	94.59
349.057	121.25
349.44	126.45
349.823	156.06
350.206	164.87
350.588	185.88
350.971	177.52
351.354	221.36
351.737	240.12
352.119	247.58
352.502	257.52
352.884	281.25
353.267	281.02
353.65	281.25
354.032	293.68
354.414	307.46
354.797	302.94
355.179	311.76
355.562	311.76
355.944	318.54
356.326	334.36
356.709	329.16
357.091	317.41
357.473	344.75
357.855	300.91
358.238	352.21
358.62	347.91
359.002	327.12
359.384	326.22
359.766	331.87
360.148	324.19
360.53	337.29
360.912	311.08
361.294	321.02
361.676	319.21
362.057	323.06
362.439	324.41
362.821	313.11
363.203	330.51
363.584	320.57
363.966	307.69
364.348	328.93
364.729	305.2
365.111	326.67
365.493	323.06
365.874	288.93
366.256	303.62
366.637	325.99
367.019	276.73
367.4	290.29
367.781	313.11
368.163	328.48
368.544	303.17
368.925	297.29
369.306	312.89
369.688	304.75
370.069	303.4
370.45	292.77
370.831	311.76
371.212	312.66
371.593	299.1
371.974	298.65
372.355	311.98
372.736	319.89
373.117	299.33
373.498	307.01
373.879	305.2
374.26	309.72
374.641	312.89
375.021	320.8
375.402	349.5
375.783	330.74
376.163	315.83
376.544	311.76
376.925	317.63
377.305	334.13
377.686	312.21
378.066	316.73
378.447	326.67
378.827	318.99
379.208	344.75
379.588	323.96
379.968	343.17
380.349	305.66
380.729	328.03
381.109	311.08
381.489	338.88
381.87	341.81
382.25	323.96
382.63	360.8
383.01	344.07
383.39	357.41
383.77	336.84
384.15	352.43
384.53	323.73
384.91	328.03
385.29	331.87
385.67	347.91
386.049	363.51
386.429	335.03
386.809	345.2
387.189	356.73
387.568	353.56
387.948	347.24
388.328	362.83
388.707	349.27
389.087	339.1
389.466	359.44
389.846	357.86
390.225	359.67
390.605	368.25
390.984	359.67
391.363	352.21
391.743	377.97
392.122	371.64
392.501	367.35
392.881	391.3
393.26	362.83
393.639	389.04
394.018	378.65
394.397	353.79
394.776	409.61
395.155	395.6
395.534	391.53
395.913	378.42
396.292	388.14
396.671	373.22
397.05	384.07
397.429	384.75
397.808	398.08
398.186	383.85
398.565	407.57
398.944	401.7
399.323	408.7
399.701	391.76
400.08	392.66
400.458	414.35
400.837	405.77
401.215	410.74
401.594	398.53
401.972	415.48
402.351	424.52
402.729	422.26
403.107	409.83
403.486	435.6
403.864	443.73
404.242	465.2
404.62	442.38
404.999	464.52
405.377	459.1
405.755	458.65
406.133	467.01
406.511	469.49
406.889	461.36
407.267	462.04
407.645	469.27
408.023	490.96
408.401	483.73
408.779	512.43
409.156	483.73
409.534	527.12
409.912	493.67
410.29	517.85
410.667	529.15
411.045	539.55
411.422	529.6
411.8	560.34
412.178	571.19
412.555	568.93
412.933	569.15
413.31	576.38
413.687	590.62
414.065	594.01
414.442	598.3
414.819	608.02
415.197	602.6
415.574	624.74
415.951	662.48
416.328	653.44
416.705	655.48
417.082	657.51
417.46	645.99
417.837	679.88
418.214	674.69
418.591	696.38
418.967	676.04
419.344	701.35
419.721	718.75
420.098	728.7
420.475	749.94
420.852	749.49
421.228	754.23
421.605	769.6
421.982	776.15
422.358	813.21
422.735	840.56
423.111	845.53
423.488	825.42
423.864	842.82
424.241	874.91
424.617	878.97
424.994	889.6
425.37	895.92
425.746	905.64
426.123	923.94
426.499	936.6
426.875	965.75
427.251	961.68
427.627	1007.56
428.003	981.57
428.379	999.65
428.756	1038.07
429.132	1018.41
429.507	1054.79
429.883	1083.26
430.259	1076.71
430.635	1099.99
431.011	1078.97
431.387	1098.63
431.763	1136.37
432.138	1116.48
432.514	1154.45
432.89	1156.48
433.265	1197.16
433.641	1211.62
434.016	1214.11
434.392	1243.48
434.767	1307.21
435.143	1281.45
435.518	1327.32
435.894	1332.52
436.269	1380.43
436.644	1364.61
437.02	1415.01
437.395	1439.41
437.77	1455.46
438.145	1466.76
438.52	1506.08
438.895	1517.38
439.271	1538.39
439.646	1565.06
440.021	1589.01
440.395	1618.62
440.77	1609.35
441.145	1637.82
441.52	1682.57
441.895	1691.16
442.27	1711.04
442.645	1698.39
443.019	1749.91
443.394	1764.6
443.769	1767.09
444.143	1783.58
444.518	1811.6
444.892	1801.44
445.267	1830.81
445.641	1861.1
446.016	1867.65
446.39	1913.98
446.764	1884.15
447.139	1908.78
447.513	1927.08
447.887	1936.57
448.262	1942
448.636	1945.16
449.01	1979.74
449.384	2013.18
449.758	2016.12
450.132	2057.02
450.506	2023.58
450.88	2077.36
451.254	2084.59
451.628	2101.54
452.002	2144.25
452.376	2129.11
452.75	2162.33
453.123	2152.39
453.497	2205.49
453.871	2204.59
454.244	2266.06
454.618	2287.52
454.992	2289.33
455.365	2291.59
455.739	2363
456.112	2398.71
456.486	2418.37
456.859	2457.92
457.232	2487.97
457.606	2442.32
457.979	2487.75
458.352	2528.87
458.725	2565.03
459.099	2553.96
459.472	2647.74
459.845	2642.09
460.218	2660.85
460.591	2711.24
460.964	2683.22
461.337	2754.86
461.71	2783.33
462.083	2873.05
462.456	2847.74
462.829	2848.19
463.201	2920.95
463.574	2919.15
463.947	2975.87
464.32	3038.69
464.692	3009.09
465.065	3031.91
465.438	3091.8
465.81	3116.43
466.183	3122.3
466.555	3249.08
466.928	3267.16
467.3	3230.1
467.672	3290.44
468.045	3407.27
468.417	3392.35
468.789	3372.47
469.161	3467.15
469.534	3484.78
469.906	3580.37
470.278	3559.36
470.65	3651.78
471.022	3684.32
471.394	3747.37
471.766	3750.54
472.138	3814.04
472.51	3879.57
472.882	3894.71
473.253	3952.11
473.625	4037.76
473.997	4094.71
474.369	4099.45
474.74	4207.47
475.112	4260.58
475.484	4309.39
475.855	4410.18
476.227	4387.81
476.598	4462.83
476.97	4500.12
477.341	4560.69
477.713	4637.52
478.084	4633.23
478.455	4789.61
478.827	4834.12
479.198	4964.97
479.569	4953.22
479.94	5078.64
480.311	5102.82
480.682	5227.33
481.053	5303.94
481.424	5441.57
481.795	5427.33
482.166	5517.95
482.537	5533.54
482.908	5619.64
483.279	5665.06
483.65	5790.94
484.021	5899.41
484.391	5928.78
484.762	6003.36
485.133	6034.77
485.503	6072.06
485.874	6252.39
486.244	6286.74
486.615	6342.79
486.985	6413.97
487.356	6469.56
487.726	6553.63
488.097	6662.55
488.467	6704.13
488.837	6835.43
489.207	6852.6
489.578	6954.29
489.948	6951.13
490.318	7061.86
490.688	7102.09
491.058	7253.04
491.428	7254.85
491.798	7302.31
492.168	7443.55
492.538	7382.31
492.908	7515.41
493.278	7645.8
493.648	7607.61
494.017	7764.44
494.387	7764.67
494.757	7840.37
495.126	7907.04
495.496	7858.23
495.866	7958.11
496.235	8047.37
496.605	8008.96
496.974	8097.77
497.344	8120.37
497.713	8168.27
498.082	8209.18
498.452	8295.95
498.821	8284.2
499.19	8295.5
499.559	8430.64
499.928	8374.6
500.298	8405.1
500.667	8548.15
501.036	8463.86
501.405	8589.51
501.774	8558.32
502.143	8574.82
502.512	8585.21
502.88	8681.48
503.249	8674.02
503.618	8718.54
503.987	8677.64
504.356	8762.16
504.724	8808.26
505.093	8826.56
505.462	8768.48
505.83	8856.62
506.199	8881.48
506.567	8975.94
506.936	8966.9
507.304	9009.61
507.672	9006.9
508.041	9025.43
508.409	9070.85
508.777	9093.67
509.145	9178.42
509.514	9108.59
509.882	9175.25
510.25	9141.81
510.618	9176.61
510.986	9213.22
511.354	9234.91
511.722	9340.9
512.09	9408.47
512.458	9293.89
512.826	9372.76
513.193	9345.64
513.561	9387.9
513.929	9338.64
514.297	9486.21
514.664	9450.73
515.032	9457.05
515.4	9441.01
515.767	9529.59
516.135	9479.43
516.502	9462.25
516.869	9565.98
517.237	9563.49
517.604	9469.48
517.972	9622.25
518.339	9573.21
518.706	9548.12
519.073	9528.01
519.44	9516.71
519.808	9603.26
520.175	9547.45
520.542	9626.77
520.909	9670.16
521.276	9626.99
521.643	9662.7
522.009	9672.42
522.376	9697.05
522.743	9690.27
523.11	9800.1
523.477	9805.07
523.843	9766.42
524.21	9902.01
524.577	9942.01
524.943	9873.09
525.31	9824.05
525.676	9894.1
526.043	9882.58
526.409	9897.49
526.776	9979.07
527.142	9934.56
527.508	9959.64
527.874	9935.69
528.241	9931.62
528.607	9938.62
528.973	10020.65
529.339	9913.09
529.705	9901.11
530.071	9986.31
530.437	9949.24
530.803	9945.63
531.169	9949.92
531.535	9909.92
531.901	9873.54
532.267	9919.64
532.632	9913.09
532.998	9932.52
533.364	9902.01
533.73	9872.86
534.095	9869.25
534.461	9873.54
534.826	9850.26
535.192	9837.61
535.557	9807.1
535.923	9760.77
536.288	9779.53
536.653	9652.53
537.019	9622.47
537.384	9645.98
537.749	9691.17
538.114	9654.56
538.479	9659.08
538.845	9675.58
539.21	9584.73
539.575	9543.83
539.94	9534.57
540.305	9590.38
540.67	9549.25
541.034	9513.78
541.399	9470.16
541.764	9494.57
542.129	9465.64
542.494	9429.03
542.858	9428.13
543.223	9328.24
543.587	9427.22
543.952	9340.45
544.316	9304.06
544.681	9244.18
545.045	9229.71
545.41	9242.14
545.774	9214.12
546.138	9218.42
546.503	9109.49
546.867	9133.22
547.231	9139.1
547.595	9093.67
547.959	9077.85
548.324	9031.53
548.688	9033.11
549.052	8972.55
549.416	8987.46
549.779	8936.39
550.143	8887.8
550.507	8899.78
550.871	8911.98
551.235	8831.53
551.599	8857.3
551.962	8812.1
552.326	8840.35
552.689	8842.83
553.053	8739.78
553.417	8760.57
553.78	8776.17
554.143	8662.05
554.507	8707.02
554.87	8654.36
555.234	8740.91
555.597	8634.48
555.96	8650.52
556.323	8662.95
556.686	8559
557.05	8615.04
557.413	8629.73
557.776	8550.41
558.139	8570.52
558.502	8568.94
558.865	8550.41
559.228	8569.17
559.59	8480.36
559.953	8537.76
560.316	8563.29
560.679	8567.13
561.041	8617.75
561.404	8587.25
561.767	8591.31
562.129	8553.57
562.492	8564.2
562.854	8547.92
563.217	8544.76
563.579	8568.72
563.941	8566
564.304	8603.06
564.666	8560.81
565.028	8603.52
565.39	8637.87
565.753	8580.69
566.115	8636.96
566.477	8664.53
566.839	8601.48
567.201	8629.96
567.563	8636.74
567.925	8645.32
568.287	8678.77
568.648	8674.7
569.01	8701.82
569.372	8738.43
569.734	8656.85
570.095	8745.66
570.457	8824.3
570.819	8768.26
571.18	8752.67
571.542	8787.69
571.903	8769.61
572.265	8764.19
572.626	8761.25
572.987	8758.31
573.349	8794.47
573.71	8839.22
574.071	8841.93
574.432	8838.31
574.794	8868.14
575.155	8850.74
575.516	8788.82
575.877	8859.56
576.238	8861.36
576.599	8953.56
576.96	8884.87
577.32	8926.45
577.681	8930.29
578.042	8965.77
578.403	8938.2
578.763	8918.99
579.124	8944.75
579.485	9024.97
579.845	8965.77
580.206	8999.89
580.566	9002.6
580.927	9049.38
581.287	9041.25
581.648	9003.05
582.008	9020.91
582.368	9042.6
582.728	9076.5
583.089	8976.39
583.449	9095.71
583.809	8981.59
584.169	9047.8
584.529	8989.04
584.889	9155.59
585.249	9046.67
585.609	9084.86
585.969	9090.06
586.329	9105.42
586.688	9091.41
587.048	9076.27
587.408	9106.78
587.768	9063.62
588.127	9079.21
588.487	9112.43
588.846	9095.03
589.206	9108.36
589.565	9094.58
589.925	9162.82
590.284	9098.64
590.643	9162.15
591.003	9094.8
591.362	9177.96
591.721	9096.39
592.08	9214.8
592.44	9188.59
592.799	9129.83
593.158	9128.25
593.517	9132.54
593.876	9168.7
594.235	9165.99
594.593	9141.36
594.952	9206.44
595.311	9161.47
595.67	9158.08
596.029	9166.21
596.387	9223.61
596.746	9212.77
597.104	9195.14
597.463	9157.63
597.822	9172.32
598.18	9091.64
598.538	9109.72
598.897	9237.17
599.255	9146.78
599.613	9298.19
599.972	9210.05
600.33	9257.51
600.688	9183.61
601.046	9240.34
601.404	9283.5
601.762	9227.46
602.12	9267.45
602.478	9178.42
602.836	9335.25
603.194	9172.32
603.552	9227.46
603.91	9177.29
604.268	9259.32
604.625	9193.11
604.983	9242.37
605.341	9251.86
605.698	9237.62
606.056	9194.46
606.413	9243.73
606.771	9283.27
607.128	9244.18
607.485	9231.07
607.843	9235.59
608.2	9336.38
608.557	9311.75
608.914	9340.45
609.272	9305.42
609.629	9331.41
609.986	9326.89
610.343	9333.89
610.7	9418.86
611.057	9369.15
611.414	9335.7
611.771	9348.36
612.127	9328.47
612.484	9360.33
612.841	9377.51
613.198	9400.33
613.554	9365.98
613.911	9442.59
614.267	9431.29
614.624	9400.56
614.98	9440.78
615.337	9475.58
615.693	9447.34
616.05	9409.6
616.406	9439.65
616.762	9368.47
617.118	9454.12
617.475	9406.21
617.831	9488.69
618.187	9460.22
618.543	9497.5
618.899	9516.04
619.255	9552.42
619.611	9506.77
619.967	9545.19
620.323	9507.45
620.678	9514.68
621.034	9510.39
621.39	9466.32
621.746	9475.13
622.101	9610.5
622.457	9502.48
622.812	9469.71
623.168	9531.63
623.523	9433.78
623.879	9541.12
624.234	9517.84
624.589	9493.44
624.945	9455.47
625.3	9537.5
625.655	9547.9
626.01	9518.29
626.365	9427.68
626.72	9528.69
627.075	9472.87
627.43	9505.64
627.785	9439.65
628.14	9563.49
628.495	9481.23
628.85	9480.56
629.205	9418.18
629.559	9512.42
629.914	9453.21
630.269	9453.89
630.623	9491.4
630.978	9402.59
631.332	9436.72
631.687	9419.99
632.041	9371.41
632.396	9427.68
632.75	9391.74
633.104	9371.41
633.459	9329.37
633.813	9360.78
634.167	9377.96
634.521	9400.33
634.875	9261.13
635.229	9228.59
635.583	9263.16
635.937	9242.6
636.291	9257.28
636.645	9299.54
636.999	9252.99
637.352	9238.3
637.706	9233.1
638.06	9226.55
638.413	9214.12
638.767	9175.03
639.121	9208.02
639.474	9122.15
639.828	9164.63
640.181	9168.25
640.534	9119.21
640.888	9144.75
641.241	9145.88
641.594	9127.8
641.947	9171.64
642.301	9087.35
642.654	9099.77
643.007	9159.89
643.36	9129.6
643.713	9028.59
644.066	9156.72
644.419	9098.42
644.771	8962.6
645.124	8922.83
645.477	8927.8
645.83	8873.79
646.182	8773
646.535	8818.65
646.888	8778.65
647.24	8706.11
647.593	8784.53
647.945	8775.49
648.298	8689.39
648.65	8767.35
649.002	8666.34
649.355	8741.14
649.707	8727.36
650.059	8759.44
650.411	8906.11
650.763	8897.07
651.115	8993.56
651.467	8944.75
651.819	8957.63
652.171	8949.04
652.523	8937.75
652.875	8842.61
653.227	8993.56
653.578	8981.36
653.93	8971.42
654.282	8943.85
654.633	8897.29
654.985	8908.82
655.337	8957.41
655.688	8973.9
656.039	8963.51
656.391	8898.42
656.742	8899.55
657.094	8859.33
657.445	8966.45
657.796	8969.83
658.147	8901.14
658.498	8854.36
658.849	8973
659.2	8947.46
659.551	8920.12
659.902	8962.38
660.253	8995.37
660.604	9001.7
660.955	8954.24
661.306	9003.51
661.656	8951.76
662.007	8978.87
662.358	8963.06
662.708	8970.06
663.059	8884.41
663.409	8972.32
663.76	9040.79
664.11	8947.01
664.461	8952.43
664.811	8998.08
665.161	8970.96
665.511	8923.96
665.862	8931.64
666.212	9008.7
666.562	8964.41
666.912	9001.25
667.262	8962.38
667.612	8998.53
667.962	8980.23
668.312	8905.88
668.662	9018.2
669.011	8971.19
669.361	9013.9
669.711	8936.62
670.06	8972.32
670.41	9006.67
670.76	8958.08
671.109	8992.66
671.459	8863.4
671.808	8914.47
672.157	8919.67
672.507	8934.36
672.856	8831.99
673.205	8902.04
673.554	8928.25
673.904	8872.89
674.253	8870.63
674.602	8907.01
674.951	8793.79
675.3	8694.81
675.649	8857.97
675.998	8872.66
676.346	8861.14
676.695	8875.37
677.044	8808.03
677.393	8775.72
677.741	8872.89
678.09	8794.47
678.438	8802.83
678.787	8827.47
679.135	8805.32
679.484	8728.26
679.832	8723.74
680.181	8707.24
680.529	8780.69
680.877	8734.81
681.225	8665.89
681.573	8693.46
681.922	8664.98
682.27	8614.59
682.618	8635.38
682.966	8612.33
683.314	8575.95
683.661	8615.72
684.009	8532.33
684.357	8603.97
684.705	8496.17
685.053	8472.67
685.4	8486.46
685.748	8460.02
686.095	8403.07
686.443	8339.12
686.79	8377.31
687.138	8396.74
687.485	8323.75
687.832	8357.42
688.18	8299.57
688.527	8336.86
688.874	8288.95
689.221	8262.96
689.568	8194.49
689.915	8243.75
690.262	8258.22
690.609	8193.13
690.956	8152.46
691.303	8126.69
691.65	8140.93
691.997	8054.15
692.344	7989.3
692.69	8016.19
693.037	8025.23
693.383	7937.09
693.73	7980.48
694.077	7902.29
694.423	7895.96
694.769	7815.06
695.116	7828.62
695.462	7836.31
695.808	7770.77
696.155	7720.6
696.501	7768.74
696.847	7720.6
697.193	7658.68
697.539	7692.13
697.885	7575.75
698.231	7565.58
698.577	7531.23
698.923	7585.01
699.269	7515.18
699.614	7429.31
699.96	7430.44
700.306	7434.96
700.651	7416.43
700.997	7385.47
701.342	7355.87
701.688	7331.91
702.033	7299.82
702.379	7288.52
702.724	7248.3
703.069	7248.75
703.415	7220.73
703.76	7226.15
704.105	7182.99
704.45	7131.69
704.795	7121.3
705.14	7089.88
705.485	7083.1
705.83	7062.09
706.175	7090.11
706.52	7048.76
706.865	6933.5
707.209	6970.11
707.554	6935.09
707.899	6926.72
708.243	6919.04
708.588	6865.26
708.932	6835.2
709.277	6799.04
709.621	6837.69
709.966	6788.65
710.31	6805.37
710.654	6710.46
710.998	6697.35
711.342	6742.1
711.687	6707.97
712.031	6652.61
712.375	6633.63
712.719	6708.65
713.063	6627.98
713.407	6694.64
713.75	6609.44
714.094	6656.22
714.438	6588.2
714.782	6588.65
715.125	6639.27
715.469	6566.28
715.812	6571.25
716.156	6507.75
716.499	6555.21
716.843	6515.89
717.186	6480.41
717.53	6484.02
717.873	6458.71
718.216	6505.94
718.559	6478.6
718.902	6385.95
719.246	6449.9
719.589	6443.35
719.932	6424.82
720.275	6392.5
720.617	6378.94
720.96	6342.11
721.303	6374.42
721.646	6369
721.989	6373.97
722.331	6459.62
722.674	6394.31
723.016	6409.68
723.359	6374.42
723.701	6424.82
724.044	6333.29
724.386	6349.56
724.729	6334.65
725.071	6350.92
725.413	6326.06
725.755	6331.03
726.097	6266.63
726.439	6268.89
726.782	6272.05
727.124	6361.99
727.465	6245.39
727.807	6293.29
728.149	6270.02
728.491	6290.13
728.833	6263.47
729.175	6266.18
729.516	6293.52
729.858	6245.61
730.199	6281.54
730.541	6283.35
730.882	6256.91
731.224	6258.27
731.565	6238.61
731.906	6213.75
732.248	6283.13
732.589	6239.96
732.93	6263.47
733.271	6217.36
733.612	6245.61
733.953	6303.46
734.294	6193.18
734.635	6253.52
734.976	6298.72
735.317	6240.42
735.658	6235.67
735.999	6251.71
736.339	6279.28
736.68	6303.92
737.021	6271.37
737.361	6218.95
737.702	6296.01
738.042	6242.45
738.383	6255.78
738.723	6291.26
739.063	6287.42
739.404	6361.32
739.744	6318.15
740.084	6333.52
740.424	6338.04
740.764	6372.16
741.104	6375.78
741.444	6319.28
741.784	6353.63
742.124	6411.48
742.464	6455.32
742.804	6430.01
743.143	6420.07
743.483	6483.12
743.823	6444.25
744.162	6448.32
744.502	6528.54
744.841	6514.08
745.181	6579.16
745.52	6597.92
745.86	6631.14
746.199	6636.56
746.538	6656.45
746.877	6688.09
747.216	6779.84
747.556	6757.46
747.895	6783
748.234	6891.47
748.573	6919.04
748.911	6991.81
749.25	7030.45
749.589	7073.84
749.928	7124.91
750.267	7198.13
750.605	7254.63
750.944	7299.14
751.283	7370.55
751.621	7439.25
751.96	7484
752.298	7555.41
752.636	7691.45
752.975	7736.19
753.313	7813.71
753.651	7958.34
753.989	8051.21
754.327	8149.52
754.666	8194.26
755.004	8385.67
755.342	8430.64
755.679	8611.43
756.017	8668.6
756.355	8822.49
756.693	8938.42
757.031	9129.6
757.368	9237.17
757.706	9318.3
758.044	9483.27
758.381	9607.78
758.719	9773.66
759.056	9897.49
759.394	10051.39
759.731	10106.98
760.068	10348.33
760.405	10512.39
760.743	10504.03
761.08	10821.76
761.417	11001.42
761.754	11165.94
762.091	11304.24
762.428	11439.83
762.765	11604.79
763.102	11728.18
763.438	11913.49
763.775	11996.65
764.112	12249.07
764.449	12424.21
764.785	12522.06
765.122	12683.41
765.458	12828.94
765.795	12995.49
766.131	13173.34
766.467	13297.63
766.804	13420.57
767.14	13531.75
767.476	13726.09
767.812	13799.99
768.148	14052.86
768.485	14070.49
