Data from hue_22_FLMS001491_00030.txt Node
Date: Tue Feb 07 17:09:53 GMT 2017
User: dcchb
Spectrometer: FLMS00149
Trigger mode: 0
Integration Time (sec): 2.000000E-2
Scans to average: 10
Electric dark correction enabled: true
Nonlinearity correction enabled: false
Boxcar width: 0
XAxis mode: Wavelengths
Number of Pixels in Spectrum: 2048
>>>>>Begin Spectral Data<<<<<
341.393	-35.72
341.776	-35.72
342.16	-35.72
342.543	-58.09
342.927	-77.3
343.31	-75.49
343.693	-70.52
344.077	-49.28
344.46	-70.75
344.843	-49.73
345.226	-32.78
345.61	-28.26
345.993	-25.78
346.376	-15.61
346.759	15.13
347.142	18.06
347.525	38.4
347.908	57.61
348.291	82.24
348.674	103.71
349.057	103.03
349.44	139.19
349.823	162.69
350.206	161.34
350.588	184.39
350.971	213.31
351.354	227.1
351.737	230.26
352.119	238.17
352.502	238.85
352.884	285.18
353.267	315.68
353.65	315.46
354.032	290.83
354.414	321.56
354.797	311.16
355.179	312.07
355.562	325.18
355.944	338.06
356.326	353.2
356.709	352.29
357.091	358.39
357.473	349.36
357.855	347.32
358.238	340.77
358.62	362.69
359.002	368.56
359.384	365.4
359.766	353.42
360.148	357.94
360.53	332.41
360.912	327.89
361.294	331.73
361.676	333.54
362.057	341.22
362.439	338.51
362.821	350.94
363.203	337.6
363.584	323.82
363.966	324.72
364.348	311.84
364.729	318.4
365.111	333.76
365.493	299.86
365.874	324.5
366.256	316.59
366.637	299.41
367.019	315.91
367.4	307.1
367.781	309.58
368.163	315.91
368.544	322.69
368.925	327.89
369.306	338.96
369.688	319.3
370.069	305.97
370.45	308.68
370.831	323.37
371.212	338.06
371.593	307.55
371.974	339.41
372.355	315.23
372.736	330.6
373.117	334.67
373.498	326.53
373.879	330.37
374.26	308.68
374.641	325.63
375.021	329.69
375.402	322.92
375.783	338.28
376.163	343.03
376.544	364.04
376.925	339.86
377.305	324.5
377.686	338.73
378.066	313.65
378.447	332.18
378.827	317.49
379.208	333.76
379.588	319.75
379.968	328.56
380.349	344.84
380.729	323.59
381.109	360.43
381.489	343.03
381.87	343.25
382.25	332.63
382.63	334.89
383.01	357.72
383.39	359.3
383.77	334.89
384.15	360.43
384.53	342.12
384.91	350.49
385.29	360.65
385.67	349.58
386.049	368.11
386.429	336.02
386.809	368.11
387.189	360.43
387.568	338.96
387.948	348.9
388.328	362.01
388.707	381.9
389.087	352.52
389.466	368.79
389.846	364.95
390.225	363.37
390.605	382.8
390.984	375.8
391.363	359.98
391.743	372.63
392.122	363.14
392.501	364.5
392.881	370.82
393.26	388.68
393.639	393.2
394.018	376.47
394.397	379.86
394.776	380.99
395.155	382.12
395.534	376.7
395.913	385.96
396.292	396.36
396.671	377.38
397.05	380.31
397.429	402.91
397.808	389.35
398.186	388.68
398.565	400.65
398.944	401.11
399.323	410.6
399.701	393.65
400.08	403.59
400.458	407.88
400.837	414.66
401.215	399.75
401.594	434.32
401.972	418.96
402.351	402.24
402.729	411.73
403.107	410.14
403.486	422.57
403.864	417.83
404.242	427.32
404.62	417.6
404.999	414.44
405.377	417.15
405.755	441.1
406.133	441.56
406.511	423.93
406.889	440.43
407.267	418.73
407.645	444.72
408.023	457.83
408.401	432.06
408.779	444.95
409.156	434.32
409.534	466.87
409.912	448.79
410.29	453.31
410.667	454.21
411.045	479.75
411.422	465.51
411.8	458.96
412.178	465.06
412.555	475.23
412.933	488.79
413.31	479.97
413.687	486.3
414.065	486.98
414.442	479.75
414.819	491.5
415.197	469.13
415.574	498.5
415.951	483.36
416.328	503.02
416.705	504.83
417.082	504.38
417.46	504.15
417.837	499.63
418.214	522.91
418.591	510.03
418.967	526.75
419.344	519.29
419.721	523.59
420.098	512.06
420.475	528.33
420.852	539.63
421.228	544.38
421.605	535.79
421.982	523.81
422.358	528.11
422.735	566.75
423.111	558.16
423.488	567.65
423.864	566.3
424.241	568.33
424.617	556.13
424.994	547.99
425.37	578.05
425.746	581.21
426.123	549.12
426.499	578.28
426.875	580.08
427.251	599.52
427.627	597.26
428.003	596.81
428.379	576.69
428.756	614.43
429.132	602
429.507	616.47
429.883	597.94
430.259	626.64
430.635	605.85
431.011	621.44
431.387	635.22
431.763	640.87
432.138	630.25
432.514	658.5
432.89	643.13
433.265	663.02
433.641	661.21
434.016	682.45
434.392	685.62
434.767	680.19
435.143	682
435.518	683.81
435.894	700.31
436.269	697.59
436.644	705.96
437.02	708.89
437.395	723.13
437.77	740.53
438.145	722.68
438.52	732.62
438.895	734.88
439.271	711.61
439.646	764.03
440.021	760.19
440.395	748.89
440.77	767.88
441.145	750.93
441.52	766.07
441.895	778.95
442.27	776.69
442.645	781.21
443.019	794.77
443.394	796.12
443.769	802.9
444.143	792.28
444.518	819.85
444.892	799.29
445.267	792.96
445.641	786.86
446.016	815.78
446.39	799.06
446.764	813.75
447.139	807.65
447.513	834.31
447.887	828.44
448.262	858.49
448.636	826.18
449.01	828.89
449.384	857.36
449.758	849.91
450.132	875.9
450.506	878.38
450.88	879.51
451.254	873.86
451.628	910.02
452.002	887.42
452.376	917.48
452.75	912.96
453.123	924.48
453.497	917.48
453.871	945.72
454.244	922
454.618	941.88
454.992	952.28
455.365	959.28
455.739	971.49
456.112	1011.94
456.486	982.56
456.859	981.43
457.232	1011.26
457.606	1031.37
457.979	1014.65
458.352	1012.61
458.725	1050.81
459.099	1074.31
459.472	1064.82
459.845	1078.6
460.218	1080.18
460.591	1095.55
460.964	1088.77
461.337	1100.3
461.71	1097.13
462.083	1171.48
462.456	1168.77
462.829	1157.24
463.201	1165.15
463.574	1177.81
463.947	1199.05
464.32	1198.37
464.692	1223.91
465.065	1199.73
465.438	1244.7
465.81	1236.79
466.183	1260.97
466.555	1295.09
466.928	1282.44
467.3	1289.67
467.672	1297.13
468.045	1358.14
468.417	1371.48
468.789	1379.16
469.161	1407.41
469.534	1421.87
469.906	1431.36
470.278	1444.69
470.65	1452.6
471.022	1489.44
471.394	1489.89
471.766	1540.51
472.138	1577.35
472.51	1563.33
472.882	1589.32
473.253	1631.13
473.625	1675.42
473.997	1680.85
474.369	1684.91
474.74	1706.61
475.112	1730.79
475.484	1790.22
475.855	1794.29
476.227	1826.83
476.598	1885.81
476.97	1894.17
477.341	1971.69
477.713	1963.78
478.084	1977.34
478.455	2013.49
478.827	2053.04
479.198	2087.61
479.569	2095.98
479.94	2173.04
480.311	2162.19
480.682	2262.98
481.053	2256.42
481.424	2325.57
481.795	2396.53
482.166	2408.96
482.537	2432.24
482.908	2490.54
483.279	2524.67
483.65	2589.07
484.021	2641.5
484.391	2660.25
484.762	2704.1
485.133	2730.08
485.503	2753.81
485.874	2847.37
486.244	2883.3
486.615	2920.14
486.985	2966.69
487.356	3011.21
487.726	3064.76
488.097	3121.26
488.467	3142.73
488.837	3246.91
489.207	3273.57
489.578	3268.15
489.948	3354.02
490.318	3397.86
490.688	3434.7
491.058	3516.5
491.428	3555.82
491.798	3553.56
492.168	3631.3
492.538	3648.93
492.908	3714.69
493.278	3772.32
493.648	3812.54
494.017	3855.03
494.387	3922.82
494.757	3933.22
495.126	3970.28
495.496	3994.23
495.866	4010.05
496.235	4031.29
496.605	4123.04
496.974	4139.76
497.344	4219.76
497.713	4207.78
498.082	4230.16
498.452	4272.19
498.821	4295.92
499.19	4331.17
499.559	4361
499.928	4392.86
500.298	4429.93
500.667	4465.63
501.036	4483.48
501.405	4532.52
501.774	4538.4
502.143	4589.24
502.512	4551.05
502.88	4631.05
503.249	4652.29
503.618	4700.2
503.987	4655
504.356	4739.07
504.724	4769.8
505.093	4796.02
505.462	4789.69
505.83	4878.95
506.199	4888.22
506.567	4916.24
506.936	4935.22
507.304	5019.06
507.672	5039.85
508.041	4986.07
508.409	5056.12
508.777	5085.95
509.145	5105.39
509.514	5129.57
509.882	5120.98
510.25	5156.23
510.618	5177.02
510.986	5185.16
511.354	5183.58
511.722	5272.84
512.09	5268.32
512.458	5294.54
512.826	5346.51
513.193	5409.79
513.561	5386.74
513.929	5410.47
514.297	5494.76
514.664	5474.87
515.032	5539.28
515.4	5489.56
515.767	5551.93
516.135	5594.87
516.502	5598.71
516.869	5648.88
517.237	5650.68
517.604	5603
517.972	5692.94
518.339	5708.76
518.706	5749.21
519.073	5685.03
519.44	5734.52
519.808	5813.84
520.175	5819.27
520.542	5910.79
520.909	5915.54
521.276	5896.1
521.643	5952.15
522.009	6020.62
522.376	5978.36
522.743	5974.74
523.11	6022.2
523.477	6127.73
523.843	6153.95
524.21	6182.65
524.577	6246.6
524.943	6247.05
525.31	6284.57
525.676	6305.36
526.043	6328.41
526.409	6369.54
526.776	6445.92
527.142	6473.94
527.508	6497.22
527.874	6529.31
528.241	6582.19
528.607	6574.95
528.973	6636.87
529.339	6611.11
529.705	6667.83
530.071	6750.54
530.437	6752.12
530.803	6797.77
531.169	6801.16
531.535	6862.63
531.901	6893.82
532.267	6908.5
532.632	6969.07
532.998	6972.23
533.364	6946.7
533.73	7023.3
534.095	7054.04
534.461	7109.63
534.826	7149.85
535.192	7162.51
535.557	7210.64
535.923	7185.79
536.288	7282.51
536.653	7348.72
537.019	7319.79
537.384	7284.54
537.749	7358.44
538.114	7393.24
538.479	7368.15
538.845	7436.63
539.21	7432.33
539.575	7481.37
539.94	7461.48
540.305	7564.98
540.67	7554.14
541.034	7617.41
541.399	7614.25
541.764	7671.87
542.129	7688.15
542.494	7707.35
542.858	7703.51
543.223	7779.89
543.587	7879.1
543.952	7848.37
544.316	7804.98
544.681	7880.46
545.045	7940.57
545.41	7950.06
545.774	8026.89
546.138	8022.83
546.503	8019.89
546.867	8100.34
547.231	8125.42
547.595	8162.03
547.959	8094.46
548.324	8175.59
548.688	8229.6
549.052	8204.74
549.416	8278.86
549.779	8289.94
550.143	8335.59
550.507	8352.08
550.871	8330.84
551.235	8370.61
551.599	8462.36
551.962	8481.12
552.326	8541.23
552.689	8504.4
553.053	8534.68
553.417	8537.39
553.78	8701.45
554.143	8653.09
554.507	8642.02
554.87	8687.67
555.234	8748.91
555.597	8758.63
555.96	8789.13
556.323	8795.91
556.686	8838.17
557.05	8843.82
557.413	8895.12
557.776	8871.62
558.139	9007.66
558.502	9036.36
558.865	8951.61
559.228	8989.58
559.59	9081.55
559.953	9157.71
560.316	9150.03
560.679	9203.13
561.041	9266.63
561.404	9287.43
561.767	9314.32
562.129	9259.63
562.492	9398.61
562.854	9313.64
563.217	9344.6
563.579	9392.51
563.941	9456.91
564.304	9502.79
564.666	9561.54
565.028	9587.76
565.39	9585.72
565.753	9658.71
566.115	9693.74
566.477	9743.46
566.839	9738.71
567.201	9850.8
567.563	9834.08
567.925	9897.8
568.287	9886.96
568.648	9904.58
569.01	9965.6
569.372	10008.99
569.734	10056.9
570.095	10190.45
570.457	10070.91
570.819	10136.67
571.18	10196.55
571.542	10243.78
571.903	10320.39
572.265	10327.62
572.626	10371.46
572.987	10416.44
573.349	10501.4
573.71	10538.69
574.071	10561.97
574.432	10634.96
574.794	10711.34
575.155	10753.6
575.516	10722.42
575.877	10898.46
576.238	10896.65
576.599	11064.78
576.96	11110.88
577.32	11161.95
577.681	11201.27
578.042	11318.56
578.403	11463.87
578.763	11490.76
579.124	11605.56
579.485	11749.28
579.845	11747.02
580.206	11881.03
580.566	11979.78
580.927	12152.89
581.287	12275.37
581.648	12325.76
582.008	12474.91
582.368	12655.47
582.728	12772.31
583.089	12971.17
583.449	13037.38
583.809	13285.74
584.169	13401.67
584.529	13569.8
584.889	13875.1
585.249	13918.94
585.609	14137.24
585.969	14337.24
586.329	14513.28
586.688	14725.02
587.048	14860.39
587.408	15154.84
587.768	15351.67
588.127	15549.86
588.487	15823.98
588.846	16232.55
589.206	16284.3
589.565	16611.53
589.925	17005.64
590.284	17148.24
590.643	17362.47
591.003	17720.42
591.362	18072.96
591.721	18298.04
592.08	18553.62
592.44	18847.17
592.799	19151.35
593.158	19401.51
593.517	19719.69
593.876	20002.17
594.235	20276.74
594.593	20611.87
594.952	20855.03
595.311	21097.28
595.67	21528.46
596.029	21954.21
596.387	22367.76
596.746	22602.1
597.104	22778.82
597.463	23080.96
597.822	23502.19
598.18	23666.71
598.538	23992.58
598.897	24474.82
599.255	24734.48
599.613	25282.26
599.972	25364.29
600.33	25759.99
600.688	25978.74
601.046	26430.25
601.404	26774.88
601.762	26952.5
602.12	27331.7
602.478	27663.67
602.836	28078.57
603.194	28159.7
603.552	28579.35
603.91	28658.89
604.268	29089.62
604.625	29318.99
604.983	29641.69
605.341	29908.58
605.698	30321
606.056	30524.38
606.413	30753.3
606.771	31000.98
607.128	31410.69
607.485	31595.09
607.843	31810.45
608.2	32181.06
608.557	32570.2
608.914	32543.76
609.272	33012.9
609.629	33277.75
609.986	33543.06
610.343	33661.93
610.7	34039.77
611.057	34140.33
611.414	34335.13
611.771	34661.45
612.127	34988.44
612.484	35079.74
612.841	35447.64
613.198	35373.29
613.554	35784.13
613.911	36005.14
614.267	36158.81
614.624	36297.34
614.98	36618.46
615.337	36895.29
615.693	36956.08
616.05	37066.13
616.406	37476.97
616.762	37446.23
617.118	37624.31
617.475	37598.09
617.831	37982.94
618.187	38205.76
618.543	38382.48
618.899	38680.1
619.255	38650.27
619.611	38959.87
619.967	39052.97
620.323	39300.2
620.678	39390.59
621.034	39299.29
621.39	39439.4
621.746	39485.05
622.101	40031.7
622.457	39875.1
622.812	40005.04
623.168	40134.07
623.523	40270.11
623.879	40544.46
624.234	40428.08
624.589	40572.93
624.945	40693.38
625.3	40836.65
625.655	40764.11
626.01	40968.4
626.365	41121.62
626.72	41151.45
627.075	41077.32
627.43	41182.63
627.785	41140.83
628.14	41369.52
628.495	41400.71
628.85	41432.34
629.205	41411.55
629.559	41749.62
629.914	41553.24
630.269	41517.31
630.623	41494.04
630.978	41566.35
631.332	41892.44
631.687	41862.39
632.041	41679.34
632.396	41862.16
632.75	41747.14
633.104	41939.45
633.459	41940.35
633.813	41938.77
634.167	42045.89
634.521	41958.43
634.875	42067.81
635.229	41998.2
635.583	41880.47
635.937	42085.66
636.291	41796.4
636.645	42072.78
636.999	42024.42
637.352	42122.04
637.706	41916.62
638.06	42010.41
638.413	41936.51
638.767	41838.21
639.121	41932.22
639.474	41928.6
639.828	41859.45
640.181	41866.68
640.534	41875.27
640.888	41946
641.241	41736.06
641.594	41844.99
641.947	42026.9
642.301	41824.65
642.654	41942.84
643.007	41874.59
643.36	41963.63
643.713	41870.98
644.066	42036.39
644.419	41791.88
644.771	41499.91
645.124	41213.37
645.477	41188.96
645.83	40905.8
646.182	40682.76
646.535	40775.86
646.888	40791.91
647.24	40540.39
647.593	40904.9
647.945	40743.55
648.298	40573.16
648.65	40557.11
649.002	40437.57
649.355	40687.05
649.707	40497.68
650.059	40918.46
650.411	41122.97
650.763	41251.56
651.115	41661.26
651.467	41527.26
651.819	41375.4
652.171	41565.67
652.523	41365.9
652.875	41443.64
653.227	41255.62
653.578	41525.67
653.93	41467.14
654.282	41256.08
654.633	41309.86
654.985	41424.21
655.337	41407.71
655.688	41362.74
656.039	41447.48
656.391	41220.6
656.742	41229.41
657.094	41289.07
657.445	41437.54
657.796	41271.9
658.147	41286.58
658.498	41132.24
658.849	41301.5
659.2	41304.21
659.551	41103.76
659.902	41449.29
660.253	41205
660.604	41209.07
660.955	41059.92
661.306	41294.27
661.656	41171.56
662.007	41093.82
662.358	41272.12
662.708	41142.63
663.059	41193.03
663.409	40871.91
663.76	41203.87
664.11	41205
664.461	41301.72
664.811	41115.29
665.161	41214.04
665.511	40994.84
665.862	40908.74
666.212	41273.93
666.562	41224.21
666.912	41022.86
667.262	41015.63
667.612	41087.49
667.962	41213.82
668.312	40921.62
668.662	41117.55
669.011	40898.35
669.361	40947.38
669.711	41008.4
670.06	40990.32
670.41	40861.51
670.76	40834.17
671.109	41006.37
671.459	40842.75
671.808	40817.44
672.157	40993.48
672.507	40776.09
672.856	40671.23
673.205	40795.52
673.554	41008.4
673.904	40888.85
674.253	40957.1
674.602	40813.38
674.951	40402.99
675.3	40134.98
675.649	40781.29
675.998	40737.22
676.346	40683.21
676.695	40791
677.044	40461.97
677.393	40714.85
677.741	40695.41
678.09	40684.79
678.438	40576.55
678.787	40458.58
679.135	40605.47
679.484	40401.41
679.832	40404.35
680.181	40187.4
680.529	40217.69
680.877	40321.41
681.225	40189.89
681.573	40520.05
681.922	40230.34
682.27	40103.79
682.618	40140.17
682.966	39948.99
683.314	40040.29
683.661	39883.68
684.009	39788.54
684.357	39557.82
684.705	39625.38
685.053	39671.49
685.4	39700.18
685.748	39466.74
686.095	39518.72
686.443	39243.02
686.79	39304.26
687.138	39431.72
687.485	39339.74
687.832	39201.89
688.18	39279.41
688.527	38965.29
688.874	39002.8
689.221	38958.28
689.568	38836.93
689.915	38624.06
690.262	38784.5
690.609	38598.29
690.956	38500.67
691.303	38412.54
691.65	38283.05
691.997	38269.26
692.344	38019.78
692.69	38030.85
693.037	38155.59
693.383	37824.3
693.73	38020
694.077	37693.46
694.423	37700.69
694.769	37500.92
695.116	37524.65
695.462	37515.38
695.808	37319.91
696.155	37383.41
696.501	37143.42
696.847	37177.77
697.193	36958.79
697.539	36928.96
697.885	36627.27
698.231	36598.57
698.577	36802.41
698.923	36688.06
699.269	36417.56
699.614	36337.79
699.96	36258.24
700.306	36255.08
700.651	36008.08
700.997	35950.23
701.342	35969.89
701.688	35886.5
702.033	35671.36
702.379	35767.63
702.724	35655.55
703.069	35696
703.415	35279.96
703.76	35343.24
704.105	35394.54
704.45	35252.39
704.795	35118.16
705.14	35020.99
705.485	34939.86
705.83	34833.19
706.175	34819.64
706.52	34907.54
706.865	34677.04
707.209	34702.58
707.554	34386.2
707.899	34680.66
708.243	34338.07
708.588	34312.3
708.932	34084.29
709.277	34120.44
709.621	34058.53
709.966	34023.95
710.31	34022.37
710.654	33565.66
710.998	33737.63
711.342	33680.68
711.687	33712.32
712.031	33391.88
712.375	33382.38
712.719	33393.46
713.063	33398.88
713.407	33514.58
713.75	33092
714.094	33163.86
714.438	33089.29
714.782	33162.28
715.125	32831.21
715.469	32995.5
715.812	32809.97
716.156	32735.85
716.499	32710.54
716.843	32775.62
717.186	32586.25
717.53	32722.29
717.873	32672.8
718.216	32552.35
718.559	32494.95
718.902	32274.62
719.246	32372.92
719.589	32193.72
719.932	32000.73
720.275	32143.77
720.617	32013.61
720.96	31961.18
721.303	31971.35
721.646	31977.22
721.989	31753.95
722.331	31871.69
722.674	31809.09
723.016	31757.34
723.359	31685.48
723.701	31593.51
724.044	31437.8
724.386	31307.41
724.729	31598.48
725.071	31317.35
725.413	31346.05
725.755	31327.3
726.097	31211.59
726.439	31091.37
726.782	31109
727.124	31258.37
727.465	30933.64
727.807	30956.69
728.149	30882.34
728.491	31029.23
728.833	30960.98
729.175	30817.71
729.516	30728.22
729.858	30757.14
730.199	30790.36
730.541	30580.42
730.882	30657.48
731.224	30732.06
731.565	30451.39
731.906	30518.51
732.248	30401.67
732.589	30365.29
732.93	30154.22
733.271	30222.69
733.612	30318.06
733.953	30263.6
734.294	30181.11
734.635	30043.94
734.976	30142.7
735.317	29951.06
735.658	30041.46
735.999	29902.02
736.339	29970.27
736.68	29935.24
737.021	29848.92
737.361	29763.95
737.702	29910.61
738.042	29888.24
738.383	29757.85
738.723	29783.84
739.063	29632.65
739.404	29737.51
739.744	29707.45
740.084	29538.19
740.424	29524.41
740.764	29433.56
741.104	29563.05
741.444	29449.38
741.784	29146.11
742.124	29388.14
742.464	29201.93
742.804	29182.27
743.143	29221.36
743.483	29096.17
743.823	28978.21
744.162	28958.09
744.502	29108.83
744.841	28955.16
745.181	29059.11
745.52	28849.62
745.86	28974.59
746.199	28797.42
746.538	28812.79
746.877	28882.62
747.216	28729.85
747.556	28786.35
747.895	28662.74
748.234	28552.68
748.573	28560.82
748.911	28605.56
749.25	28492.57
749.589	28367.38
749.928	28495.06
750.267	28485.79
750.605	28353.36
750.944	28333.03
751.283	28195.4
751.621	28336.87
751.96	28138.23
752.298	28074.5
752.636	28197.21
752.975	28006.48
753.313	27883.77
753.651	27963.77
753.989	27794.51
754.327	27733.49
754.666	27683.33
755.004	27701.86
755.342	27662.99
755.679	27642.87
756.017	27443.56
756.355	27554.97
756.693	27351.81
757.031	27350.91
757.368	27219.16
757.706	27213.96
758.044	27091.48
758.381	27129.67
758.719	27107.52
759.056	27009.9
759.394	26951.82
759.731	26726.06
760.068	26837.47
760.405	26767.19
