Data from hue_70_FLMS001491_13.txt Node
Date: Mon Feb 06 15:20:11 GMT 2017
User: dcchb
Spectrometer: FLMS00149
Trigger mode: 0
Integration Time (sec): 2.000000E-2
Scans to average: 10
Electric dark correction enabled: true
Nonlinearity correction enabled: false
Boxcar width: 0
XAxis mode: Wavelengths
Number of Pixels in Spectrum: 2048
>>>>>Begin Spectral Data<<<<<
341.393	-27.5
341.776	-27.5
342.16	-27.5
342.543	-59.59
342.927	-73.37
343.31	-66.59
343.693	-55.3
344.077	-72.47
344.46	-67.72
344.843	-64.56
345.226	-36.76
345.61	-42.19
345.993	-35.63
346.376	6.4
346.759	12.27
347.142	29.9
347.525	36.68
347.908	56.34
348.291	86.62
348.674	114.64
349.057	98.37
349.44	124.36
349.823	146.28
350.206	165.49
350.588	215.21
350.971	222.21
351.354	208.2
351.737	252.27
352.119	247.75
352.502	266.5
352.884	270.8
353.267	292.94
353.65	286.84
354.032	315.99
354.414	325.71
354.797	333.17
355.179	339.95
355.562	324.36
355.944	337.91
356.326	334.98
356.709	339.5
357.091	321.87
357.473	344.69
357.855	352.6
358.238	347.86
358.62	369.78
359.002	340.17
359.384	347.41
359.766	358.48
360.148	360.51
360.53	325.94
360.912	341.08
361.294	333.85
361.676	336.11
362.057	343.34
362.439	332.49
362.821	321.87
363.203	322.77
363.584	337.46
363.966	330.23
364.348	324.58
364.729	296.79
365.111	326.84
365.493	319.16
365.874	325.94
366.256	302.21
366.637	310.12
367.019	306.05
367.4	316.45
367.781	312.6
368.163	314.86
368.544	308.09
368.925	303.34
369.306	326.39
369.688	341.53
370.069	330.91
370.45	310.34
370.831	316.67
371.212	321.42
371.593	325.49
371.974	300.85
372.355	326.39
372.736	317.58
373.117	312.6
373.498	301.08
373.879	317.58
374.26	330.91
374.641	322.77
375.021	313.51
375.402	315.77
375.783	327.29
376.163	316.9
376.544	345.37
376.925	316.45
377.305	335.88
377.686	312.83
378.066	323.9
378.447	316.22
378.827	324.58
379.208	331.59
379.588	307.63
379.968	334.53
380.349	329.78
380.729	345.6
381.109	341.76
381.489	335.2
381.87	343.34
382.25	332.04
382.63	337.24
383.01	357.8
383.39	317.58
383.77	340.85
384.15	335.2
384.53	358.03
384.91	331.81
385.29	350.12
385.67	354.64
386.049	326.62
386.429	357.58
386.809	351.7
387.189	355.09
387.568	346.5
387.948	362.77
388.328	348.76
388.707	349.21
389.087	349.67
389.466	349.21
389.846	384.02
390.225	350.57
390.605	359.84
390.984	348.99
391.363	351.02
391.743	354.64
392.122	355.99
392.501	347.86
392.881	352.6
393.26	385.37
393.639	390.79
394.018	375.65
394.397	367.07
394.776	368.42
395.155	357.12
395.534	377.69
395.913	392.83
396.292	372.49
396.671	367.74
397.05	378.59
397.429	371.36
397.808	370.91
398.186	388.08
398.565	395.31
398.944	387.41
399.323	390.12
399.701	379.95
400.08	397.35
400.458	394.18
400.837	414.75
401.215	380.17
401.594	379.5
401.972	388.53
402.351	396.22
402.729	402.77
403.107	383.79
403.486	379.95
403.864	393.28
404.242	408.87
404.62	401.64
404.999	389.89
405.377	397.8
405.755	419.04
406.133	392.6
406.511	395.77
406.889	406.16
407.267	397.35
407.645	407.29
408.023	401.64
408.401	418.36
408.779	398.93
409.156	421.08
409.534	426.5
409.912	424.47
410.29	446.84
410.667	436.22
411.045	422.66
411.422	438.03
411.8	417.01
412.178	425.6
412.555	426.73
412.933	441.87
413.31	439.38
413.687	462.43
414.065	442.54
414.442	439.16
414.819	438.03
415.197	454.75
415.574	439.38
415.951	459.27
416.328	422.43
416.705	471.02
417.082	474.18
417.46	470.34
417.837	488.42
418.214	462.43
418.591	463.56
418.967	478.25
419.344	491.58
419.721	487.29
420.098	478.7
420.475	475.09
420.852	489.78
421.228	469.89
421.605	507.63
421.982	489.78
422.358	505.37
422.735	500.85
423.111	513.28
423.488	494.29
423.864	524.35
424.241	523.67
424.617	522.99
424.994	517.35
425.37	530
425.746	515.54
426.123	537.91
426.499	508.31
426.875	528.19
427.251	517.12
427.627	549.21
428.003	549.66
428.379	538.14
428.756	549.21
429.132	570
429.507	565.03
429.883	572.94
430.259	548.08
430.635	565.93
431.011	572.94
431.387	558.93
431.763	562.77
432.138	570.23
432.514	570.23
432.89	582.2
433.265	610.22
433.641	605.48
434.016	605.7
434.392	619.72
434.767	633.95
435.143	617.23
435.518	591.47
435.894	613.84
436.269	645.03
436.644	608.87
437.02	618.59
437.395	641.18
437.77	657.23
438.145	652.71
438.52	664.46
438.895	666.95
439.271	639.83
439.646	672.37
440.021	658.81
440.395	653.39
440.77	670.56
441.145	686.38
441.52	696.55
441.895	696.32
442.27	695.42
442.645	688.19
443.019	690.45
443.394	656.78
443.769	690.22
444.143	695.65
444.518	697.45
444.892	690.67
445.267	706.94
445.641	731.35
446.016	714.85
446.39	716.89
446.764	748.07
447.139	714.63
447.513	732.25
447.887	742.2
448.262	731.12
448.636	738.81
449.01	741.52
449.384	762.31
449.758	777.9
450.132	768.19
450.506	754.18
450.88	760.73
451.254	767.28
451.628	790.56
452.002	781.52
452.376	811.8
452.75	788.98
453.123	771.8
453.497	812.93
453.871	816.09
454.244	838.01
454.618	836.43
454.992	838.24
455.365	863.78
455.739	859.48
456.112	868.07
456.486	863.32
456.859	874.62
457.232	894.51
457.606	902.42
457.979	917.11
458.352	923.21
458.725	901.06
459.099	931.8
459.472	956.2
459.845	960.5
460.218	963.44
460.591	924.34
460.964	961.85
461.337	1016.09
461.71	1016.09
462.083	1020.38
462.456	1020.16
462.829	1035.3
463.201	1039.37
463.574	1064.22
463.947	1038.01
464.32	1089.08
464.692	1086.82
465.065	1102.41
465.438	1107.39
465.81	1097.89
466.183	1145.13
466.555	1179.25
466.928	1190.32
467.3	1187.84
467.672	1193.94
468.045	1236.2
468.417	1216.99
468.789	1270.55
469.161	1285.69
469.534	1312.13
469.906	1341.28
470.278	1353.26
470.65	1370.66
471.022	1385.34
471.394	1436.19
471.766	1432.35
472.138	1473.25
472.51	1507.15
472.882	1531.56
473.253	1534.95
473.625	1601.84
473.997	1619.01
474.369	1634.83
474.74	1686.58
475.112	1710.76
475.484	1760.02
475.855	1810.19
476.227	1863.98
476.598	1914.6
476.97	1950.3
477.341	2014.48
477.713	2067.81
478.084	2112.56
478.455	2148.71
478.827	2222.39
479.198	2291.99
479.569	2318.2
479.94	2402.72
480.311	2454.24
480.682	2541.25
481.053	2613.34
481.424	2658.08
481.795	2732.65
482.166	2848.81
482.537	2894.23
482.908	3019.2
483.279	3060.1
483.65	3195.24
484.021	3275.01
484.391	3350.72
484.762	3463.26
485.133	3526.98
485.503	3635.91
485.874	3779.18
486.244	3837.03
486.615	3948.67
486.985	4073.41
487.356	4211.71
487.726	4317.47
488.097	4435.43
488.467	4481.99
488.837	4641.76
489.207	4768.53
489.578	4913.61
489.948	5033.16
490.318	5158.13
490.688	5260.05
491.058	5412.13
491.428	5562.86
491.798	5648.51
492.168	5827.49
492.538	5956.3
492.908	6068.84
493.278	6228.61
493.648	6294.37
494.017	6407.81
494.387	6554.25
494.757	6773
495.126	6879.21
495.496	6944.29
495.866	7145.87
496.235	7273.78
496.605	7409.37
496.974	7526.2
497.344	7640.77
497.713	7805.29
498.082	7899.75
498.452	7987.43
498.821	8155.34
499.19	8292.73
499.559	8376.8
499.928	8482.11
500.298	8657.7
500.667	8794.42
501.036	8854.3
501.405	9004.13
501.774	9058.14
502.143	9262.43
502.512	9359.37
502.88	9522.31
503.249	9548.52
503.618	9747.84
503.987	9895.63
504.356	9885.23
504.724	10054.27
505.093	10096.08
505.462	10237.77
505.83	10423.53
506.199	10514.6
506.567	10646.34
506.936	10698.09
507.304	10842.72
507.672	10906.45
508.041	11060.34
508.409	11075.03
508.777	11296.27
509.145	11411.3
509.514	11429.83
509.882	11512.08
510.25	11661.91
510.618	11782.59
510.986	11898.74
511.354	11935.8
511.722	12087.89
512.09	12204.72
512.458	12248.56
512.826	12359.29
513.193	12514.54
513.561	12525.62
513.929	12652.17
514.297	12735.78
514.664	12790.92
515.032	12874.76
515.4	13063.46
515.767	13133.28
516.135	13218.71
516.502	13144.36
516.869	13382.77
517.237	13377.8
517.604	13485.59
517.972	13597.91
518.339	13692.82
518.706	13780.05
519.073	13794.51
519.44	13855.75
519.808	14058.01
520.175	14130.09
520.542	14199.25
520.909	14302.07
521.276	14290.77
521.643	14470.88
522.009	14479.92
522.376	14661.38
522.743	14813.01
523.11	14932.56
523.477	14935.5
523.843	15038.77
524.21	15190.41
524.577	15220.69
524.943	15301.14
525.31	15345.88
525.676	15472.43
526.043	15571.86
526.409	15713.78
526.776	15822.93
527.142	15802.37
527.508	15905.19
527.874	15880.56
528.241	16093.21
528.607	16069.93
528.973	16281.45
529.339	16211.62
529.705	16319.87
530.071	16470.6
530.437	16520.99
530.803	16587.43
531.169	16684.38
531.535	16602.12
531.901	16757.6
532.267	16770.7
532.632	16750.14
532.998	16857.93
533.364	16904.71
533.73	16957.14
534.095	17061.09
534.461	17010.47
534.826	17093.86
535.192	17236.91
535.557	17278.26
535.923	17187.87
536.288	17206.4
536.653	17295.44
537.019	17228.77
537.384	17351.25
537.749	17332.72
538.114	17393.06
538.479	17319.39
538.845	17429.44
539.21	17446.17
539.575	17478.93
539.94	17509.67
540.305	17573.17
540.67	17545.82
541.034	17520.29
541.399	17580.63
541.764	17687.97
542.129	17682.32
542.494	17693.39
542.858	17744.69
543.223	17691.13
543.587	17797.12
543.952	17731.81
544.316	17818.81
544.681	17772.03
545.045	17799.38
545.41	17934.97
545.774	17923.22
546.138	17896.1
546.503	17970.22
546.867	17890
547.231	17996.43
547.595	18002.08
547.959	18056.09
548.324	17989.43
548.688	17917.57
549.052	18138.8
549.416	18033.49
549.779	18021.74
550.143	18050.22
550.507	18166.82
550.871	18274.39
551.235	18192.13
551.599	18281.62
551.962	18269.42
552.326	18351.68
552.689	18317.33
553.053	18320.04
553.417	18308.97
553.78	18583.54
554.143	18372.69
554.507	18400.72
554.87	18470.55
555.234	18599.13
555.597	18471.45
555.96	18534.72
556.323	18645
556.686	18574.72
557.05	18776.75
557.413	18614.27
557.776	18774.72
558.139	18840.03
558.502	18760.48
558.865	18873.02
559.228	18909.63
559.59	18933.13
559.953	18985.11
560.316	19190.3
560.679	19037.54
561.041	19139.23
561.404	19256.51
561.767	19310.98
562.129	19336.51
562.492	19437.53
562.854	19409.05
563.217	19395.04
563.579	19441.82
563.941	19560.91
564.304	19623.06
564.666	19685.43
565.028	19650.63
565.39	19798.19
565.753	19863.05
566.115	19875.93
566.477	19975.14
566.839	20002.71
567.201	20113.67
567.563	20016.49
567.925	20223.95
568.287	20174.68
568.648	20244.74
569.01	20252.87
569.372	20371.06
569.734	20306.66
570.095	20446.54
570.457	20568.12
570.819	20537.16
571.18	20580.32
571.542	20663.03
571.903	20672.75
572.265	20782.8
572.626	20851.73
572.987	20871.84
573.349	20908.45
573.71	20953.42
574.071	20983.02
574.432	20944.6
574.794	21217.82
575.155	21064.15
575.516	21026.86
575.877	21121.78
576.238	21131.04
576.599	21246.74
576.96	21171.72
577.32	21216.69
577.681	21310.92
578.042	21376.68
578.403	21278.38
578.763	21342.11
579.124	21380.07
579.485	21429.34
579.845	21554.08
580.206	21500.75
580.566	21390.69
580.927	21481.54
581.287	21531.93
581.648	21463.24
582.008	21601.08
582.368	21509.34
582.728	21578.49
583.089	21460.3
583.449	21513.86
583.809	21580.52
584.169	21550.92
584.529	21392.05
584.889	21663.23
585.249	21514.99
585.609	21536.91
585.969	21635.21
586.329	21545.72
586.688	21576.23
587.048	21613.51
587.408	21640.41
587.768	21616.45
588.127	21637.69
588.487	21540.3
588.846	21634.3
589.206	21555.44
589.565	21554.31
589.925	21585.94
590.284	21460.52
590.643	21597.92
591.003	21516.34
591.362	21725.38
591.721	21578.71
592.08	21632.04
592.44	21700.74
592.799	21637.24
593.158	21650.57
593.517	21641.54
593.876	21681.08
594.235	21564.48
594.593	21662.55
594.952	21585.72
595.311	21667.75
595.67	21730.8
596.029	21751.36
596.387	21783.45
596.746	21867.07
597.104	21672.95
597.463	21700.97
597.822	21842.89
598.18	21698.71
598.538	21806.95
598.897	21764.7
599.255	21564.93
599.613	21938.02
599.972	21754.75
600.33	21754.98
600.688	21683.57
601.046	21805.82
601.404	21836.11
601.762	21805.37
602.12	21861.64
602.478	21895.09
602.836	21854.64
603.194	21858.03
603.552	21895.31
603.91	21797.01
604.268	21968.08
604.625	21814.64
604.983	22013.96
605.341	21871.59
605.698	21985.48
606.056	21940.06
606.413	22018.02
606.771	22127.17
607.128	22152.93
607.485	22026.84
607.843	22049.89
608.2	22092.6
608.557	22283.1
608.914	22144.8
609.272	22234.97
609.629	22303.66
609.986	22339.82
610.343	22246.27
610.7	22425.02
611.057	22356.77
611.414	22433.83
611.771	22327.62
612.127	22459.59
612.484	22383.21
612.841	22424.57
613.198	22469.99
613.554	22602.19
613.911	22656.2
614.267	22658.23
614.624	22594.73
614.98	22650.1
615.337	22766.03
615.693	22757.66
616.05	22606.03
616.406	22785.69
616.762	22733.71
617.118	22788.85
617.475	22827.94
617.831	22855.06
618.187	22986.36
618.543	22860.03
618.899	23141.16
619.255	23039.69
619.611	22898.45
619.967	23081.05
620.323	23129.18
620.678	23095.51
621.034	23068.16
621.39	23010.54
621.746	22910.2
622.101	23260.02
622.457	23051.67
622.812	23110.88
623.168	23203.08
623.523	23170.99
623.879	23251.89
624.234	23100.48
624.589	23201.49
624.945	23270.42
625.3	23261.83
625.655	23181.38
626.01	23293.7
626.365	23334.82
626.72	23189.29
627.075	23234.94
627.43	23210.08
627.785	23311.32
628.14	23222.28
628.495	23227.26
628.85	23079.69
629.205	23201.27
629.559	23263.87
629.914	23100.93
630.269	23179.8
630.623	23102.06
630.978	23238.56
631.332	23121.04
631.687	23245.79
632.041	23118.33
632.396	23192.23
632.75	23025.68
633.104	23093.47
633.459	22955.4
633.813	23072.91
634.167	22968.05
634.521	23083.76
634.875	23104.32
635.229	23074.94
635.583	22907.72
635.937	22934.38
636.291	22901.39
636.645	22936.87
636.999	22822.07
637.352	22934.38
637.706	22801.05
638.06	22938.22
638.413	22842.18
638.767	22773.71
639.121	22826.82
639.474	22617.56
639.828	22758.57
640.181	22795.86
640.534	22734.61
640.888	22683.09
641.241	22716.54
641.594	22781.39
641.947	22691.45
642.301	22591.34
642.654	22523.32
643.007	22730.32
643.36	22558.12
643.713	22552.47
644.066	22694.84
644.419	22406.71
644.771	22389.99
645.124	22241.97
645.477	22123.33
645.83	21917.01
646.182	21809.89
646.535	21959.27
646.888	21917.23
647.24	21748.88
647.593	22029.32
647.945	21878.82
648.298	21850.57
648.65	21728.09
649.002	21632.5
649.355	21797.01
649.707	21756.79
650.059	21900.74
650.411	22089.21
650.763	22184.57
651.115	22429.31
651.467	22380.95
651.819	22313.16
652.171	22245.14
652.523	22202.42
652.875	22262.31
653.227	22168.75
653.578	22275.19
653.93	22216.21
654.282	22182.76
654.633	22197.45
654.985	22117.68
655.337	22132.6
655.688	22125.82
656.039	22185.48
656.391	22189.77
656.742	22238.81
657.094	22151.8
657.445	22288.75
657.796	22239.03
658.147	22088.08
658.498	22125.14
658.849	22171.24
659.2	22292.37
659.551	22165.36
659.902	22247.17
660.253	22150.22
660.604	22207.4
660.955	22044.01
661.306	22132.14
661.656	22133.5
662.007	22150.67
662.358	22056.67
662.708	22167.85
663.059	22237.9
663.409	22127.85
663.76	22237
664.11	22070.45
664.461	22159.71
664.811	22277.45
665.161	22159.71
665.511	22134.63
665.862	22260.95
666.212	22225.25
666.562	22267.28
666.912	22145.25
667.262	22090.56
667.612	22111.81
667.962	22187.96
668.312	22138.92
668.662	22187.06
669.011	22201.75
669.361	22018.93
669.711	22075.2
670.06	22037.68
670.41	22081.07
670.76	21989.32
671.109	22117.46
671.459	22035.88
671.808	22026.16
672.157	22063.67
672.507	21973.28
672.856	21952.49
673.205	22002.2
673.554	22072.71
673.904	22038.14
674.253	21897.35
674.602	21925.6
674.951	21670.24
675.3	21550.46
675.649	21969.21
675.998	21799.05
676.346	21829.1
676.695	21950.23
677.044	21698.94
677.393	21805.6
677.741	21865.48
678.09	21833.17
678.438	21724.92
678.787	21825.49
679.135	21795.43
679.484	21628.43
679.832	21680.18
680.181	21558.37
680.529	21608.32
680.877	21517.47
681.225	21580.29
681.573	21716.56
681.922	21581.65
682.27	21416.91
682.618	21573.06
682.966	21358.61
683.314	21469.79
683.661	21304.14
684.009	21230.25
684.357	21260.75
684.705	21119.52
685.053	21201.55
685.4	21111.83
685.748	20981.89
686.095	21031.38
686.443	20959.97
686.79	20961.33
687.138	20930.14
687.485	20951.84
687.832	20854.21
688.18	20908
688.527	20749.13
688.874	20693.76
689.221	20729.02
689.568	20590.49
689.915	20556.82
690.262	20626.42
690.609	20442.47
690.956	20412.42
691.303	20376.26
691.65	20273.21
691.997	20324.06
692.344	20225.53
692.69	20055.14
693.037	20114.8
693.383	20012.2
693.73	20032.99
694.077	19886.33
694.423	19835.48
694.769	19853.33
695.116	19801.36
695.462	19783.28
695.808	19658.99
696.155	19745.54
696.501	19510.29
696.847	19499.9
697.193	19445.66
697.539	19386
697.885	19297.87
698.231	19146.69
698.577	19139.45
698.923	19224.88
699.269	19054.48
699.614	18946.01
699.96	18975.84
700.306	19006.12
700.651	18733.82
700.997	18877.09
701.342	18752.35
701.688	18580.82
702.033	18610.43
702.379	18553.71
702.724	18496.53
703.069	18646.36
703.415	18413.82
703.76	18393.26
704.105	18419.25
704.45	18303.09
704.795	18099.48
705.14	18123.66
705.485	18064.45
705.83	18018.58
706.175	18003.21
706.52	17998.69
706.865	17891.8
707.209	17857.91
707.554	17715.99
707.899	17861.07
708.243	17695.42
708.588	17654.3
708.932	17599.16
709.277	17464.02
709.621	17588.99
709.966	17537.24
710.31	17420.63
710.654	17298.6
710.998	17341.54
711.342	17375.43
711.687	17324.36
712.031	17227.41
712.375	17159.62
712.719	17227.41
713.063	17263.57
713.407	17281.2
713.75	17015.67
714.094	17103.8
714.438	16983.58
714.782	17080.3
715.125	16951.04
715.469	16938.61
715.812	16772.51
716.156	16825.39
716.499	16753.98
716.843	16793.08
717.186	16709.24
717.53	16770.03
717.873	16688.22
718.216	16683.02
718.559	16727.54
718.902	16475.8
719.246	16480.77
719.589	16501.78
719.932	16455.68
720.275	16504.95
720.617	16442.35
720.96	16334.78
721.303	16443.03
721.646	16402.8
721.989	16338.17
722.331	16406.19
722.674	16207.78
723.016	16361.22
723.359	16266.08
723.701	16329.36
724.044	16222.47
724.386	16133.88
724.729	16265.18
725.071	16101.34
725.413	16097.05
725.755	16153.54
726.097	16036.94
726.439	15941.12
726.782	16037.16
727.124	16099.08
727.465	15925.08
727.807	15939.99
728.149	15892.53
728.491	15992.87
728.833	15924.85
729.175	15827.9
729.516	15852.31
729.858	15874.91
730.199	15848.24
730.541	15845.3
730.882	15811.86
731.224	15874.68
731.565	15777.96
731.906	15723.5
732.248	15827.68
732.589	15688.47
732.93	15678.75
733.271	15730.96
733.612	15737.51
733.953	15736.83
734.294	15658.42
734.635	15666.1
734.976	15679.66
735.317	15619.32
735.658	15660.45
735.999	15692.54
736.339	15661.13
736.68	15619.77
737.021	15622.48
737.361	15531.41
737.702	15703.84
738.042	15668.36
738.383	15628.59
738.723	15604.18
739.063	15568.25
739.404	15733.44
739.744	15623.84
740.084	15610.28
740.424	15595.82
740.764	15512.21
741.104	15653.44
741.444	15587.46
741.784	15574.35
742.124	15613.45
742.464	15542.26
742.804	15610.06
743.143	15525.54
743.483	15605.08
743.823	15511.53
744.162	15560.57
744.502	15612.09
744.841	15481.02
745.181	15689.38
745.52	15666.55
745.86	15734.12
746.199	15686.89
746.538	15744.29
746.877	15793.78
747.216	15766.89
747.556	15832.2
747.895	15952.19
748.234	15867.45
748.573	15817.06
748.911	15923.72
749.25	15960.33
749.589	15938.63
749.928	16018.41
750.267	16003.94
750.605	16089.59
750.944	16075.35
751.283	16170.72
751.621	16305.18
751.96	16236.03
752.298	16296.14
752.636	16307.21
752.975	16341.34
753.313	16347.89
753.651	16576.36
753.989	16516.02
754.327	16536.81
754.666	16656.13
755.004	16698.39
755.342	16802.79
755.679	16814.54
756.017	16762.12
756.355	16916.01
756.693	16890.93
