Data from hue_180_FLMS001491_00090.txt Node
Date: Tue Feb 07 16:47:37 GMT 2017
User: dcchb
Spectrometer: FLMS00149
Trigger mode: 0
Integration Time (sec): 2.000000E-2
Scans to average: 10
Electric dark correction enabled: true
Nonlinearity correction enabled: false
Boxcar width: 0
XAxis mode: Wavelengths
Number of Pixels in Spectrum: 2048
>>>>>Begin Spectral Data<<<<<
341.393	-8.26
341.776	-8.26
342.16	-8.26
342.543	-52.56
342.927	-54.36
343.31	-84.87
343.693	-59.33
344.077	-57.98
344.46	-51.2
344.843	-57.53
345.226	-53.01
345.61	-8.94
345.993	-23.18
346.376	-1.48
346.759	0.55
347.142	22.47
347.525	56.37
347.908	47.78
348.291	64.05
348.674	97.27
349.057	109.02
349.44	117.61
349.823	135.01
350.206	161.68
350.588	194.22
350.971	184.05
351.354	222.92
351.737	234.67
352.119	233.77
352.502	266.31
352.884	276.48
353.267	295.68
353.65	294.78
354.032	297.72
354.414	293.88
354.797	290.26
355.179	307.89
355.562	320.09
355.944	304.72
356.326	318.51
356.709	309.7
357.091	307.21
357.473	327.55
357.855	327.55
358.238	337.04
358.62	343.82
359.002	328
359.384	333.88
359.766	324.84
360.148	337.04
360.53	336.36
360.912	311.96
361.294	323.48
361.676	334.55
362.057	341.33
362.439	330.03
362.821	318.73
363.203	334.1
363.584	323.03
363.966	322.35
364.348	302.01
364.729	322.58
365.111	300.2
365.493	323.03
365.874	302.46
366.256	310.37
366.637	297.49
367.019	284.39
367.4	315.12
367.781	319.64
368.163	303.37
368.544	311.96
368.925	318.06
369.306	312.63
369.688	315.12
370.069	321.45
370.45	305.18
370.831	317.6
371.212	311.05
371.593	318.73
371.974	301.33
372.355	309.24
372.736	316.02
373.117	312.41
373.498	318.28
373.879	317.15
374.26	276.93
374.641	302.24
375.021	313.54
375.402	306.53
375.783	311.73
376.163	319.19
376.544	334.55
376.925	332.75
377.305	333.42
377.686	337.94
378.066	322.35
378.447	345.17
378.827	331.16
379.208	316.25
379.588	336.81
379.968	310.15
380.349	337.72
380.729	338.62
381.109	316.93
381.489	334.78
381.87	320.99
382.25	333.88
382.63	343.37
383.01	311.73
383.39	324.16
383.77	343.82
384.15	343.59
384.53	355.57
384.91	332.29
385.29	345.63
385.67	343.82
386.049	347.89
386.429	327.77
386.809	339.07
387.189	346.76
387.568	333.42
387.948	351.5
388.328	351.95
388.707	355.12
389.087	358.51
389.466	349.02
389.846	355.57
390.225	363.03
390.605	358.73
390.984	357.6
391.363	370.94
391.743	342.91
392.122	361.22
392.501	372.29
392.881	354.67
393.26	369.13
393.639	356.47
394.018	371.16
394.397	362.35
394.776	354.21
395.155	387.66
395.534	384.95
395.913	377.72
396.292	386.3
396.671	384.04
397.05	385.63
397.429	387.66
397.808	367.32
398.186	376.13
398.565	408.68
398.944	408.45
399.323	401.67
399.701	407.55
400.08	402.35
400.458	398.73
400.837	400.54
401.215	401.44
401.594	389.02
401.972	415.46
402.351	403.03
402.729	416.36
403.107	433.99
403.486	436.47
403.864	439.41
404.242	429.47
404.62	438.51
404.999	427.21
405.377	421.56
405.755	428.56
406.133	446.19
406.511	447.54
406.889	442.8
407.267	445.28
407.645	462.69
408.023	469.92
408.401	469.47
408.779	463.59
409.156	467.21
409.534	485.96
409.912	483.02
410.29	487.77
410.667	501.55
411.045	532.74
411.422	529.35
411.8	528.9
412.178	535.68
412.555	550.59
412.933	532.74
413.31	538.39
413.687	541.33
414.065	566.86
414.442	588.11
414.819	587.43
415.197	577.03
415.574	595.79
415.951	587.88
416.328	603.02
416.705	596.02
417.082	621.55
417.46	613.87
417.837	629.01
418.214	610.7
418.591	635.34
418.967	652.96
419.344	662.68
419.721	659.06
420.098	676.01
420.475	673.3
420.852	684.83
421.228	704.94
421.605	719.63
421.982	719.85
422.358	732.51
422.735	749.46
423.111	733.19
423.488	766.86
423.864	765.28
424.241	772.06
424.617	804.37
424.994	807.99
425.37	823.35
425.746	833.07
426.123	818.61
426.499	868.32
426.875	863.13
427.251	853.86
427.627	878.72
428.003	905.61
428.379	887.76
428.756	906.97
429.132	905.39
429.507	938.83
429.883	935.89
430.259	952.16
430.635	950.58
431.011	965.95
431.387	983.35
431.763	1006.63
432.138	987.64
432.514	1013.86
432.89	1024.25
433.265	1056.12
433.641	1076.91
434.016	1090.01
434.392	1110.35
434.767	1132.95
435.143	1116.68
435.518	1152.61
435.894	1144.48
436.269	1160.75
436.644	1195.55
437.02	1211.14
437.395	1238.26
437.77	1247.07
438.145	1253.4
438.52	1285.71
438.895	1318.48
439.271	1314.64
439.646	1337.01
440.021	1349.67
440.395	1343.34
440.77	1363.45
441.145	1386.28
441.52	1426.28
441.895	1445.71
442.27	1449.33
442.645	1468.99
443.019	1472.15
443.394	1468.53
443.769	1496.33
444.143	1487.29
444.518	1548.76
444.892	1535.43
445.267	1531.13
445.641	1561.87
446.016	1563.9
446.39	1574.07
446.764	1597.8
447.139	1598.25
447.513	1650
447.887	1617.46
448.262	1625.82
448.636	1637.34
449.01	1675.31
449.384	1676.89
449.758	1718.25
450.132	1738.81
450.506	1731.8
450.88	1747.17
451.254	1758.92
451.628	1778.81
452.002	1791.01
452.376	1819.94
452.75	1819.94
453.123	1869.2
453.497	1882.54
453.871	1886.15
454.244	1931.8
454.618	1960.73
454.992	1962.76
455.365	1987.39
455.739	2010.89
456.112	2032.81
456.486	2015.87
456.859	2055.19
457.232	2107.16
457.606	2111.68
457.979	2134.28
458.352	2175.18
458.725	2223.54
459.099	2192.13
459.472	2281.85
459.845	2299.25
460.218	2309.19
460.591	2368.85
460.964	2347.61
461.337	2380.6
461.71	2441.84
462.083	2457.66
462.456	2484.33
462.829	2533.37
463.201	2563.42
463.574	2582.18
463.947	2640.48
464.32	2682.51
464.692	2667.6
465.065	2685.68
465.438	2739.69
465.81	2796.86
466.183	2806.8
466.555	2865.33
466.928	2865.33
467.3	2902.17
467.672	2936.07
468.045	3013.58
468.417	3037.76
468.789	3092.22
469.161	3126.34
469.534	3172.9
469.906	3246.79
470.278	3296.06
470.65	3316.85
471.022	3380.57
471.394	3471.19
471.766	3496.73
472.138	3541.7
472.51	3641.81
472.882	3700.34
473.253	3738.76
473.625	3787.8
473.997	3888.81
474.369	3881.13
474.74	3999.54
475.112	3991.63
475.484	4088.58
475.855	4237.05
476.227	4219.2
476.598	4370.61
476.97	4435.01
477.341	4491.51
477.713	4586.19
478.084	4637.72
478.455	4728.34
478.827	4814.66
479.198	4979.85
479.569	4940.76
479.94	5117.25
480.311	5170.81
480.682	5296.46
481.053	5467.75
481.424	5496
481.795	5568.31
482.166	5744.13
482.537	5779.83
482.908	5935.54
483.279	5991.58
483.65	6133.72
484.021	6218.47
484.391	6325.13
484.762	6399.48
485.133	6475.86
485.503	6520.38
485.874	6700.04
486.244	6773.48
486.615	6933.7
486.985	7008.05
487.356	7192.23
487.726	7234.71
488.097	7358.78
488.467	7394.03
488.837	7620.69
489.207	7696.39
489.578	7824.75
489.948	7911.98
490.318	8027.23
490.688	8103.39
491.058	8226.1
491.428	8304.74
491.798	8419.31
492.168	8578.86
492.538	8650.27
492.908	8774.56
493.278	8907.21
493.648	8892.97
494.017	8997.83
494.387	9040.09
494.757	9138.16
495.126	9240.76
495.496	9320.31
495.866	9372.06
496.235	9476.46
496.605	9537.25
496.974	9584.48
497.344	9704.25
497.713	9702.44
498.082	9829.22
498.452	9902.21
498.821	9986.5
499.19	9971.36
499.559	10103.34
499.928	10112.38
500.298	10169.55
500.667	10206.16
501.036	10136.33
501.405	10343.56
501.774	10364.12
502.143	10412.93
502.512	10494.29
502.88	10589.42
503.249	10531.12
503.618	10598.24
503.987	10632.81
504.356	10640.5
504.724	10709.42
505.093	10745.13
505.462	10753.26
505.83	10878.23
506.199	10927.04
506.567	11029.41
506.936	10980.83
507.304	11066.25
507.672	11086.36
508.041	11134.5
508.409	11200.03
508.777	11280.93
509.145	11310.99
509.514	11289.29
509.882	11269.63
510.25	11309.63
510.618	11327.94
510.986	11356.41
511.354	11477.09
511.722	11464.2
512.09	11511.21
512.458	11454.26
512.826	11563.64
513.193	11598.21
513.561	11574.26
513.929	11695.38
514.297	11671.43
514.664	11735.38
515.032	11769.73
515.4	11804.53
515.767	11814.03
516.135	11837.08
516.502	11751.2
516.869	11840.92
517.237	11867.58
517.604	11800.69
517.972	11934.25
518.339	11885.89
518.706	11928.6
519.073	11954.13
519.44	12019.9
519.808	12038.88
520.175	11907.36
520.542	12143.73
520.909	12134.92
521.276	12055.6
521.643	12100.8
522.009	12153.68
522.376	12160.23
522.743	12190.74
523.11	12267.57
523.477	12249.95
523.843	12315.71
524.21	12304.41
524.577	12350.51
524.943	12317.29
525.31	12287.91
525.676	12425.31
526.043	12335.82
526.409	12362.03
526.776	12454.91
527.142	12360.9
527.508	12424.86
527.874	12512.31
528.241	12437.51
528.607	12454.01
528.973	12471.86
529.339	12379.43
529.705	12484.29
530.071	12426.66
530.437	12428.92
530.803	12383.95
531.169	12386.67
531.535	12336.72
531.901	12325.88
532.267	12286.1
532.632	12348.93
532.998	12270.28
533.364	12274.8
533.73	12268.93
534.095	12423.28
534.461	12198.65
534.826	12271.64
535.192	12238.2
535.557	12251.08
535.923	12124.98
536.288	12184.41
536.653	12101.25
537.019	12051.99
537.384	11949.84
537.749	11943.74
538.114	11941.48
538.479	11838.66
538.845	11888.15
539.21	11753.69
539.575	11791.43
539.94	11760.47
540.305	11645.22
540.67	11687.02
541.034	11584.43
541.399	11613.35
541.764	11607.93
542.129	11465.79
542.494	11512.34
542.858	11466.92
543.223	11439.12
543.587	11442.06
543.952	11297.65
544.316	11221.05
544.681	11251.55
545.045	11194.15
545.41	11145.12
545.774	11149.41
546.138	11079.81
546.503	11114.83
546.867	11017.21
547.231	10918.46
547.595	10902.19
547.959	10918
548.324	10777.22
548.688	10821.51
549.052	10836.2
549.416	10724.11
549.779	10673.26
550.143	10621.51
550.507	10631.01
550.871	10641.63
551.235	10460.39
551.599	10538.8
551.962	10463.78
552.326	10404.12
552.689	10437.11
553.053	10316.21
553.417	10280.05
553.78	10311.69
554.143	10310.79
554.507	10268.76
554.87	10171.36
555.234	10211.81
555.597	10196.67
555.96	10126.16
556.323	10046.61
556.686	10059.27
557.05	10124.58
557.413	10051.59
557.776	10026.05
558.139	9974.98
558.502	9941.08
558.865	9958.26
559.228	10004.58
559.59	9937.46
559.953	9907.86
560.316	9934.53
560.679	9928.88
561.041	9945.37
561.404	9912.38
561.767	9895.66
562.129	9794.19
562.492	9871.03
562.854	9853.17
563.217	9833.06
563.579	9839.16
563.941	9759.84
564.304	9874.87
564.666	9843
565.028	9870.35
565.39	9810.46
565.753	9881.19
566.115	9793.29
566.477	9766.85
566.839	9792.84
567.201	9892.49
567.563	9826.73
567.925	9859.05
568.287	9793.74
568.648	9761.65
569.01	9877.81
569.372	9833.06
569.734	9779.5
570.095	9779.05
570.457	9857.24
570.819	9801.88
571.18	9797.81
571.542	9875.32
571.903	9754.64
572.265	9803.91
572.626	9843.23
572.987	9773.63
573.349	9851.37
573.71	9848.65
574.071	9831.03
574.432	9842.33
574.794	9952.61
575.155	9868.99
575.516	9759.62
575.877	9844.59
576.238	9865.83
576.599	9870.12
576.96	9811.14
577.32	9836.68
577.681	9845.04
578.042	9884.36
578.403	9880.74
578.763	9788.09
579.124	9761.88
579.485	9843.91
579.845	9840.52
580.206	9784.93
580.566	9843
580.927	9825.38
581.287	9777.47
581.648	9780.63
582.008	9815.43
582.368	9763.46
582.728	9808.65
583.089	9790.58
583.449	9664.93
583.809	9736.79
584.169	9735.44
584.529	9756.9
584.889	9797.81
585.249	9718.94
585.609	9665.61
585.969	9647.75
586.329	9661.54
586.688	9706.96
587.048	9713.74
587.408	9636.68
587.768	9645.95
588.127	9611.6
588.487	9653.18
588.846	9666.51
589.206	9611.82
589.565	9604.82
589.925	9615.21
590.284	9570.47
590.643	9562.33
591.003	9615.67
591.362	9630.13
591.721	9505.84
592.08	9596.68
592.44	9588.77
592.799	9603.01
593.158	9480.3
593.517	9504.93
593.876	9463.8
594.235	9483.69
594.593	9487.08
594.952	9534.31
595.311	9446.63
595.67	9488.66
596.029	9475.56
596.387	9503.35
596.746	9456.35
597.104	9506.97
597.463	9471.94
597.822	9469
598.18	9385.39
598.538	9405.5
598.897	9430.36
599.255	9358.5
599.613	9522.11
599.972	9433.07
600.33	9413.86
600.688	9368.89
601.046	9421.55
601.404	9422.45
601.762	9366.18
602.12	9330.25
602.478	9446.86
602.836	9391.49
603.194	9367.54
603.552	9391.26
603.91	9319.63
604.268	9336.12
604.625	9315.33
604.983	9407.08
605.341	9379.51
605.698	9376.12
606.056	9361.66
606.413	9367.54
606.771	9417.93
607.128	9397.59
607.485	9407.76
607.843	9382
608.2	9407.08
608.557	9396.01
608.914	9359.63
609.272	9426.29
609.629	9461.55
609.986	9433.52
610.343	9467.87
610.7	9502.67
611.057	9404.82
611.414	9419.96
611.771	9400.98
612.127	9417.03
612.484	9433.07
612.841	9503.8
613.198	9479.17
613.554	9395.33
613.911	9502.45
614.267	9450.02
614.624	9478.95
614.98	9457.25
615.337	9488.21
615.693	9530.02
616.05	9535.22
616.406	9556.91
616.762	9516.46
617.118	9488.44
617.475	9496.8
617.831	9504.26
618.187	9491.83
618.543	9517.59
618.899	9556.68
619.255	9554.2
619.611	9547.87
619.967	9584.93
620.323	9585.84
620.678	9542.22
621.034	9544.03
621.39	9511.49
621.746	9486.4
622.101	9586.97
622.457	9611.15
622.812	9554.2
623.168	9586.97
623.523	9591.71
623.879	9645.72
624.234	9532.96
624.589	9603.91
624.945	9577.47
625.3	9589.9
625.655	9624.7
626.01	9579.28
626.365	9549.23
626.72	9595.33
627.075	9491.37
627.43	9586.74
627.785	9482.56
628.14	9527.53
628.495	9559.4
628.85	9524.14
629.205	9467.19
629.559	9509.68
629.914	9450.7
630.269	9455.9
630.623	9411.38
630.978	9486.86
631.332	9439.85
631.687	9511.04
632.041	9430.13
632.396	9408.21
632.75	9414.54
633.104	9410.92
633.459	9333.19
633.813	9343.13
634.167	9302.45
634.521	9331.83
634.875	9383.13
635.229	9338.61
635.583	9312.17
635.937	9299.74
636.291	9311.72
636.645	9291.15
636.999	9290.48
637.352	9233.3
637.706	9261.1
638.06	9261.78
638.413	9266.52
638.767	9214.77
639.121	9172.51
639.474	9176.58
639.828	9215
640.181	9189.46
640.534	9197.37
640.888	9178.84
641.241	9135.68
641.594	9210.7
641.947	9185.85
642.301	9125.28
642.654	9117.37
643.007	9134.32
643.36	9141.78
643.713	9061.78
644.066	9153.53
644.419	9070.37
644.771	9096.13
645.124	8950.15
645.477	8969.13
645.83	8924.38
646.182	8863.37
646.535	8839.87
646.888	8837.61
647.24	8807.55
647.593	8802.35
647.945	8890.03
648.298	8770.49
648.65	8810.71
649.002	8766.42
649.355	8762.13
649.707	8850.26
650.059	8830.6
650.411	8970.03
650.763	8928.68
651.115	9052.74
651.467	9024.95
651.819	9065.85
652.171	9055.68
652.523	8988.34
652.875	9116.24
653.227	9001.44
653.578	9099.07
653.93	9056.13
654.282	8999.18
654.633	9005.96
654.985	8975.91
655.337	9036.25
655.688	9002.35
656.039	9019.97
656.391	9009.35
656.742	8983.14
657.094	9073.53
657.445	8998.51
657.796	9030.82
658.147	9054.78
658.498	9006.64
658.849	9014.78
659.2	9044.61
659.551	9023.36
659.902	9018.39
660.253	8973.42
660.604	9074.89
660.955	9049.8
661.306	9079.63
661.656	9039.41
662.007	9063.36
662.358	9091.84
662.708	9125.51
663.059	9019.97
663.409	9035.34
663.76	9087.54
664.11	9127.32
664.461	9114.21
664.811	9067.21
665.161	9092.74
665.511	9034.66
665.862	9100.2
666.212	9145.17
666.562	9082.12
666.912	9112.4
667.262	9049.35
667.612	9048.45
667.962	9122.34
668.312	9085.06
668.662	9132.29
669.011	9063.36
669.361	9081.67
669.711	9042.57
670.06	9059.75
670.41	9153.53
670.76	9097.26
671.109	9063.82
671.459	9008.68
671.808	9033.31
672.157	9068.56
672.507	9007.32
672.856	9031.05
673.205	9043.48
673.554	9091.39
673.904	9004.61
674.253	9046.64
674.602	8981.11
674.951	8843.26
675.3	8769.81
675.649	8930.94
675.998	8941.78
676.346	8943.82
676.695	8981.78
677.044	8886.42
677.393	8929.81
677.741	8908.34
678.09	8916.02
678.438	8900.66
678.787	8870.37
679.135	8870.6
679.484	8811.84
679.832	8890.94
680.181	8811.17
680.529	8906.98
680.877	8789.25
681.225	8812.52
681.573	8824.95
681.922	8788.57
682.27	8719.87
682.618	8790.83
682.966	8706.54
683.314	8747.89
683.661	8708.12
684.009	8667.44
684.357	8630.15
684.705	8649.14
685.053	8702.69
685.4	8647.78
685.748	8551.06
686.095	8583.15
686.443	8525.52
686.79	8487.33
687.138	8528.46
687.485	8450.72
687.832	8435.81
688.18	8490.5
688.527	8390.39
688.874	8322.59
689.221	8359.43
689.568	8311.07
689.915	8299.54
690.262	8342.7
690.609	8303.84
690.956	8294.57
691.303	8249.83
691.65	8229.26
691.997	8179.09
692.344	8126.21
692.69	8126.44
693.037	8113.78
693.383	8010.74
693.73	8112.2
694.077	8077.4
694.423	7960.12
694.769	7965.09
695.116	7910.17
695.462	7927.57
695.808	7904.98
696.155	7890.29
696.501	7828.82
696.847	7813.68
697.193	7686.9
697.539	7770.74
697.885	7719.22
698.231	7624.76
698.577	7666.34
698.923	7682.83
699.269	7578.66
699.614	7519.68
699.96	7507.47
700.306	7521.03
700.651	7476.29
700.997	7430.19
701.342	7457.76
701.688	7398.1
702.033	7335.5
702.379	7354.26
702.724	7347.25
703.069	7350.87
703.415	7269.51
703.76	7255.5
704.105	7198.33
704.45	7154.26
704.795	7180.93
705.14	7134.15
705.485	7152.45
705.83	7055.05
706.175	7079.69
706.52	7058.67
706.865	7043.08
707.209	7008.5
707.554	6987.94
707.899	7015.73
708.243	6890.31
708.588	6940.93
708.932	6842.4
709.277	6865
709.621	6858.45
709.966	6851.9
710.31	6854.38
710.654	6857.77
710.998	6814.16
711.342	6760.15
711.687	6763.99
712.031	6715.4
712.375	6666.59
712.719	6752.46
713.063	6782.75
713.407	6716.08
713.75	6668.62
714.094	6667.27
714.438	6641.05
714.782	6665.46
715.125	6617.1
715.469	6664.1
715.812	6599.02
716.156	6516.99
716.499	6545.24
716.843	6562.19
717.186	6555.18
717.53	6540.49
717.873	6506.37
718.216	6576.42
718.559	6558.34
718.902	6453.49
719.246	6473.37
719.589	6447.61
719.932	6415.75
720.275	6453.04
720.617	6431.12
720.96	6442.19
721.303	6464.34
721.646	6426.37
721.989	6427.95
722.331	6427.05
722.674	6380.5
723.016	6393.15
723.359	6424.34
723.701	6398.8
724.044	6367.84
724.386	6340.95
724.729	6335.98
725.071	6354.96
725.413	6397.44
725.755	6361.06
726.097	6340.95
726.439	6330.78
726.782	6344.79
727.124	6314.06
727.465	6309.76
727.807	6314.96
728.149	6296.66
728.491	6237
728.833	6322.64
729.175	6299.82
729.516	6305.24
729.858	6357.22
730.199	6306.6
730.541	6322.64
730.882	6314.06
731.224	6326.03
731.565	6287.39
731.906	6314.74
732.248	6303.21
732.589	6330.55
732.93	6267.5
733.271	6302.08
733.612	6310.89
733.953	6330.1
734.294	6334.4
734.635	6267.28
734.976	6359.48
735.317	6267.5
735.658	6307.05
735.999	6359.25
736.339	6366.03
736.68	6326.71
737.021	6355.19
737.361	6302.98
737.702	6360.61
738.042	6318.8
738.383	6381.17
738.723	6401.74
739.063	6368.74
739.404	6332.81
739.744	6412.36
740.084	6394.28
740.424	6392.02
740.764	6401.06
741.104	6441.74
741.444	6434.51
741.784	6476.09
742.124	6513.6
742.464	6554.05
742.804	6527.38
743.143	6554.95
743.483	6523.54
743.823	6524.22
744.162	6623.88
744.502	6669.75
744.841	6629.3
745.181	6695.52
745.52	6657.78
745.86	6758.79
746.199	6783.65
746.538	6782.97
746.877	6866.36
747.216	6923.53
747.556	6951.1
747.895	6912.46
748.234	7042.63
748.573	7084.66
748.911	7099.12
749.25	7135.28
749.589	7260.02
749.928	7291.43
750.267	7361.94
750.605	7454.59
750.944	7470.41
751.283	7561.03
751.621	7675.15
751.96	7742.04
752.298	7852.32
752.636	7951.75
752.975	7974.35
753.313	8025.42
753.651	8199.21
753.989	8218.19
754.327	8382.7
754.666	8442.59
755.004	8604.17
755.342	8791.73
755.679	8861.11
756.017	8968.68
756.355	9113.53
756.693	9192.17
757.031	9400.53
757.368	9574.76
757.706	9647.53
758.044	9807.52
758.381	10056.33
758.719	10068.31
759.056	10283.22
759.394	10479.37
759.731	10540.16
760.068	10705.35
760.405	10898.8
760.743	10985.12
761.08	11222.63
761.417	11339.69
761.754	11547.14
762.091	11642.05
762.428	11787.81
762.765	11914.81
763.102	12172.89
763.438	12347.12
763.775	12474.8
764.112	12631.86
764.449	12755.24
764.785	12976.25
765.122	13026.42
765.458	13250.6
765.795	13416.47
