Data from hue_230_FLMS001491_00012.txt Node
Date: Tue Feb 07 16:36:51 GMT 2017
User: dcchb
Spectrometer: FLMS00149
Trigger mode: 0
Integration Time (sec): 2.000000E-2
Scans to average: 10
Electric dark correction enabled: true
Nonlinearity correction enabled: false
Boxcar width: 0
XAxis mode: Wavelengths
Number of Pixels in Spectrum: 2048
>>>>>Begin Spectral Data<<<<<
341.393	-14.9
341.776	-14.9
342.16	-14.9
342.543	-85.41
342.927	-81.34
343.31	-76.37
343.693	-80.66
344.077	-63.04
344.46	-76.14
344.843	-57.84
345.226	-26.2
345.61	-28.69
345.993	-31.62
346.376	3.63
346.759	12.67
347.142	37.3
347.525	51.99
347.908	73.68
348.291	67.81
348.674	79.11
349.057	114.36
349.44	140.58
349.823	138.09
350.206	151.87
350.588	188.03
350.971	202.04
351.354	203.4
351.737	221.7
352.119	225.77
352.502	224.87
352.884	267.35
353.267	260.12
353.65	280.46
354.032	293.34
354.414	291.08
354.797	311.87
355.179	321.14
355.562	304.41
355.944	307.35
356.326	300.57
356.709	336.5
357.091	323.17
357.473	325.88
357.855	313.68
358.238	341.93
358.62	330.85
359.002	331.3
359.384	304.41
359.766	340.34
360.148	319.33
360.53	341.93
360.912	347.8
361.294	321.36
361.676	329.5
362.057	330.85
362.439	334.69
362.821	319.33
363.203	301.7
363.584	289.5
363.966	313.45
364.348	316.39
364.729	300.8
365.111	307.35
365.493	312.77
365.874	328.14
366.256	316.62
366.637	310.74
367.019	316.39
367.4	300.12
367.781	293.34
368.163	308.71
368.544	290.85
368.925	308.25
369.306	290.85
369.688	302.61
370.069	294.02
370.45	305.32
370.831	306.67
371.212	294.47
371.593	305.32
371.974	282.49
372.355	316.84
372.736	297.18
373.117	320.91
373.498	287.69
373.879	310.06
374.26	314.36
374.641	280.91
375.021	287.69
375.402	300.12
375.783	311.19
376.163	327.92
376.544	327.69
376.925	331.98
377.305	322.27
377.686	324.75
378.066	317.29
378.447	311.64
378.827	331.3
379.208	339.44
379.588	320.01
379.968	330.4
380.349	317.97
380.729	310.74
381.109	312.32
381.489	329.05
381.87	332.89
382.25	340.12
382.63	324.75
383.01	325.43
383.39	319.78
383.77	322.94
384.15	334.02
384.53	321.81
384.91	333.56
385.29	326.79
385.67	331.08
386.049	338.76
386.429	347.35
386.809	345.99
387.189	356.84
387.568	340.8
387.948	367.69
388.328	348.03
388.707	358.2
389.087	368.59
389.466	365.2
389.846	362.26
390.225	373.34
390.605	364.07
390.984	359.55
391.363	346.9
391.743	372.43
392.122	373.34
392.501	366.56
392.881	396.16
393.26	380.34
393.639	368.37
394.018	353.68
394.397	383.05
394.776	391.64
395.155	371.08
395.534	371.08
395.913	370.4
396.292	388.7
396.671	392.09
397.05	381.7
397.429	387.35
397.808	378.31
398.186	396.39
398.565	384.41
398.944	381.25
399.323	382.38
399.701	411.98
400.08	411.08
400.458	384.41
400.837	412.43
401.215	396.16
401.594	395.71
401.972	421.25
402.351	425.31
402.729	409.49
403.107	449.04
403.486	422.38
403.864	415.6
404.242	435.71
404.62	425.77
404.999	439.55
405.377	432.09
405.755	420.34
406.133	434.13
406.511	436.84
406.889	466.67
407.267	449.49
407.645	460.57
408.023	451.53
408.401	480
408.779	463.5
409.156	473.22
409.534	490.4
409.912	494.46
410.29	520.45
410.667	491.98
411.045	528.14
411.422	519.1
411.8	538.98
412.178	536.72
412.555	560.68
412.933	533.56
413.31	544.63
413.687	565.42
414.065	586.21
414.442	566.33
414.819	591.41
415.197	590.51
415.574	570.39
415.951	600
416.328	608.13
416.705	604.07
417.082	610.85
417.46	623.27
417.837	632.31
418.214	649.71
418.591	648.81
418.967	642.48
419.344	652.88
419.721	676.15
420.098	651.3
420.475	674.35
420.852	681.58
421.228	719.54
421.605	705.31
421.982	727.45
422.358	737.4
422.735	739.43
423.111	747.79
423.488	743.27
423.864	770.16
424.241	777.85
424.617	776.94
424.994	799.32
425.37	796.83
425.746	830.5
426.123	824.17
426.499	836.15
426.875	849.48
427.251	858.97
427.627	892.65
428.003	860.33
428.379	882.48
428.756	901.46
429.132	912.53
429.507	943.72
429.883	902.82
430.259	933.1
430.635	944.85
431.011	976.49
431.387	974
431.763	998.41
432.138	1005.19
432.514	1018.07
432.89	995.47
433.265	1024.39
433.641	1045.86
434.016	1067.78
434.392	1099.65
434.767	1127.67
435.143	1109.14
435.518	1142.58
435.894	1129.93
436.269	1162.92
436.644	1170.15
437.02	1207.44
437.395	1225.07
437.77	1212.86
438.145	1225.29
438.52	1291.96
438.895	1290.6
439.271	1309.36
439.646	1301.45
440.021	1347.1
440.395	1323.6
440.77	1348.45
441.145	1383.25
441.52	1415.8
441.895	1398.62
442.27	1420.54
442.645	1414.44
443.019	1461.67
443.394	1434.33
443.769	1467.55
444.143	1461.22
444.518	1492.86
444.892	1517.26
445.267	1514.32
445.641	1522.01
446.016	1528.79
446.39	1528.34
446.764	1531.27
447.139	1574.66
447.513	1523.59
447.887	1593.19
448.262	1572.85
448.636	1603.36
449.01	1624.83
449.384	1652.85
449.758	1649.69
450.132	1642.46
450.506	1672.96
450.88	1680.87
451.254	1671.16
451.628	1702.34
452.002	1748.44
452.376	1711.16
452.75	1734.43
453.123	1770.82
453.497	1789.57
453.871	1815.33
454.244	1827.99
454.618	1825.95
454.992	1865.05
455.365	1866.41
455.739	1896.69
456.112	1931.26
456.486	1966.06
456.859	1960.87
457.232	1967.87
457.606	1981.88
457.979	2044.93
458.352	2018.49
458.725	2076.12
459.099	2124.7
459.472	2085.61
459.845	2138.26
460.218	2146.17
460.591	2129.45
460.964	2217.81
461.337	2242.44
461.71	2257.81
462.083	2267.98
462.456	2231.14
462.829	2251.48
463.201	2303.23
463.574	2330.35
463.947	2366.28
464.32	2410.57
464.692	2442.66
465.065	2434.75
465.438	2471.36
465.81	2517.91
466.183	2528.31
466.555	2608.31
466.928	2572.83
467.3	2611.7
467.672	2623.9
468.045	2674.52
468.417	2717
468.789	2714.07
469.161	2721.3
469.534	2776.44
469.906	2810.34
470.278	2824.8
470.65	2918.36
471.022	2955.42
471.394	3013.27
471.766	2953.38
472.138	3049.88
472.51	3050.1
472.882	3109.76
473.253	3164.45
473.625	3162.64
473.997	3245.35
474.369	3269.98
474.74	3282.19
475.112	3349.76
475.484	3408.96
475.855	3446.03
476.227	3448.96
476.598	3558.79
476.97	3582.07
477.341	3658.45
477.713	3662.52
478.084	3729.18
478.455	3815.96
478.827	3815.06
479.198	3914.49
479.569	3950.19
479.94	4059.34
480.311	4037.87
480.682	4069.74
481.053	4185.21
481.424	4240.13
481.795	4325.32
482.166	4324.42
482.537	4408.26
482.908	4445.77
483.279	4516.05
483.65	4602.15
484.021	4641.47
484.391	4635.15
484.762	4757.18
485.133	4765.09
485.503	4823.62
485.874	4940.68
486.244	4959.21
486.615	4992.65
486.985	5085.3
487.356	5168.24
487.726	5194
488.097	5342.02
488.467	5338.63
488.837	5392.19
489.207	5466.31
489.578	5497.95
489.948	5561.68
490.318	5572.3
490.688	5630.15
491.058	5690.49
491.428	5723.25
491.798	5814.1
492.168	5916.69
492.538	5892.51
492.908	5967.77
493.278	6014.55
493.648	6086.63
494.017	6100.19
494.387	6129.34
494.757	6204.14
495.126	6268.32
495.496	6306.51
495.866	6292.96
496.235	6353.29
496.605	6397.13
496.974	6433.97
497.344	6546.73
497.713	6506.74
498.082	6578.82
498.452	6575.43
498.821	6587.19
499.19	6629.9
499.559	6663.79
499.928	6689.56
500.298	6700.18
500.667	6754.41
501.036	6781.3
501.405	6848.42
501.774	6798.71
502.143	6890.23
502.512	6898.82
502.88	6995.99
503.249	6935.88
503.618	6959.83
503.987	6979.49
504.356	7017.68
504.724	7070.79
505.093	7042.09
505.462	7062.43
505.83	7080.73
506.199	7142.65
506.567	7208.64
506.936	7141.07
507.304	7301.52
507.672	7314.85
508.041	7280.95
508.409	7280.5
508.777	7373.61
509.145	7381.97
509.514	7406.37
509.882	7381.97
510.25	7445.24
510.618	7430.55
510.986	7506.94
511.354	7507.16
511.722	7550.55
512.09	7548.97
512.458	7581.28
512.826	7632.58
513.193	7610.89
513.561	7645.46
513.929	7652.24
514.297	7711.22
514.664	7760.04
515.032	7763.65
515.4	7720.72
515.767	7794.61
516.135	7804.33
516.502	7783.09
516.869	7870.09
517.237	7796.65
517.604	7822.41
517.972	7848.62
518.339	7875.06
518.706	7847.72
519.073	7839.58
519.44	7939.69
519.808	7978.34
520.175	7924.78
520.542	7986.24
520.909	7983.76
521.276	7982.18
521.643	8022.85
522.009	8059.24
522.376	8048.62
522.743	8133.81
523.11	8146.92
523.477	8197.31
523.843	8166.35
524.21	8220.36
524.577	8238.89
524.943	8233.92
525.31	8268.27
525.676	8302.62
526.043	8396.86
526.409	8327.7
526.776	8351.88
527.142	8415.16
527.508	8381.26
527.874	8440.92
528.241	8404.09
528.607	8470.75
528.973	8457.64
529.339	8432.33
529.705	8471.66
530.071	8542.16
530.437	8512.33
530.803	8392.34
531.169	8510.07
531.535	8508.72
531.901	8520.92
532.267	8482.28
532.632	8538.09
532.998	8526.12
533.364	8500.58
533.73	8553.46
534.095	8555.5
534.461	8560.47
534.826	8604.53
535.192	8457.87
535.557	8613.8
535.923	8510.52
536.288	8533.8
536.653	8575.61
537.019	8494.25
537.384	8453.8
537.749	8537.19
538.114	8534.03
538.479	8442.73
538.845	8475.05
539.21	8452.67
539.575	8422.39
539.94	8513.01
540.305	8441.15
540.67	8439.57
541.034	8444.31
541.399	8398.21
541.764	8448.15
542.129	8454.48
542.494	8481.83
542.858	8387.14
543.223	8378.1
543.587	8464.42
543.952	8379.45
544.316	8400.25
544.681	8334.03
545.045	8369.96
545.41	8349.63
545.774	8313.47
546.138	8311.66
546.503	8324.09
546.867	8353.47
547.231	8322.06
547.595	8268.27
547.959	8301.72
548.324	8258.1
548.688	8204.54
549.052	8307.14
549.416	8302.62
549.779	8215.39
550.143	8270.76
550.507	8201.83
550.871	8154.83
551.235	8198.67
551.599	8218.33
551.962	8155.73
552.326	8195.5
552.689	8239.57
553.053	8137.65
553.417	8198.67
553.78	8235.5
554.143	8158.9
554.507	8224.2
554.87	8111.67
555.234	8260.59
555.597	8203.87
555.96	8176.75
556.323	8206.13
556.686	8103.76
557.05	8204.09
557.413	8163.19
557.776	8129.07
558.139	8192.12
558.502	8237.54
558.865	8223.07
559.228	8239.57
559.59	8239.57
559.953	8216.75
560.316	8271.44
560.679	8233.47
561.041	8208.61
561.404	8261.49
561.767	8259.68
562.129	8221.27
562.492	8288.84
562.854	8242.51
563.217	8293.13
563.579	8351.88
563.941	8302.62
564.304	8310.53
564.666	8420.81
565.028	8365.67
565.39	8421.04
565.753	8437.76
566.115	8462.39
566.477	8377.42
566.839	8449.51
567.201	8481.15
567.563	8475.95
567.925	8540.81
568.287	8557.76
568.648	8551.88
569.01	8560.69
569.372	8587.36
569.734	8621.26
570.095	8655.15
570.457	8622.39
570.819	8668.26
571.18	8672.78
571.542	8684.76
571.903	8713.01
572.265	8701.93
572.626	8701.93
572.987	8725.43
573.349	8781.93
573.71	8778.31
574.071	8823.74
574.432	8820.35
574.794	8880.68
575.155	8870.52
575.516	8802.95
575.877	8854.02
576.238	8927.46
576.599	8938.54
576.96	8927.69
577.32	8949.16
577.681	8927.01
578.042	9023.51
578.403	9029.61
578.763	8989.61
579.124	9063.28
579.485	9088.14
579.845	9106.67
580.206	9100.57
580.566	9086.33
580.927	9081.13
581.287	9148.7
581.648	9165.42
582.008	9165.2
582.368	9205.2
582.728	9230.28
583.089	9210.85
583.449	9231.18
583.809	9261.24
584.169	9210.17
584.529	9216.95
584.889	9289.26
585.249	9249.94
585.609	9228.47
585.969	9361.12
586.329	9329.94
586.688	9260.56
587.048	9330.39
587.408	9303.05
587.768	9320.45
588.127	9350.5
588.487	9303.72
588.846	9406.55
589.206	9357.28
589.565	9357.06
589.925	9418.07
590.284	9428.92
590.643	9409.71
591.003	9505.3
591.362	9503.72
591.721	9513.66
592.08	9438.64
592.44	9522.7
592.799	9470.95
593.158	9539.65
593.517	9497.39
593.876	9538.29
594.235	9482.25
594.593	9531.51
594.952	9535.13
595.311	9477.96
595.67	9512.76
596.029	9584.17
596.387	9610.38
596.746	9579.65
597.104	9521.12
597.463	9576.26
597.822	9631.63
598.18	9543.04
598.538	9581.01
598.897	9681.57
599.255	9570.16
599.613	9715.01
599.972	9692.19
600.33	9698.74
600.688	9636.6
601.046	9650.16
601.404	9689.25
601.762	9646.77
602.12	9762.02
602.478	9717.05
602.836	9733.54
603.194	9659.2
603.552	9692.19
603.91	9617.61
604.268	9711.4
604.625	9650.83
604.983	9771.73
605.341	9715.69
605.698	9708.23
606.056	9662.81
606.413	9746.88
606.771	9713.43
607.128	9828.46
607.485	9750.04
607.843	9685.86
608.2	9766.31
608.557	9816.93
608.914	9815.8
609.272	9867.33
609.629	9871.17
609.986	9893.31
610.343	9884.73
610.7	9920.21
611.057	9931.28
611.414	9903.48
611.771	9903.71
612.127	9913.65
612.484	9893.77
612.841	9966.76
613.198	9867.1
613.554	9902.58
613.911	9945.06
614.267	9996.14
614.624	9949.81
614.98	9956.14
615.337	9988.9
615.693	9966.76
616.05	10004.04
616.406	10005.63
616.762	9933.99
617.118	10002.24
617.475	10020.09
617.831	10038.39
618.187	10027.1
618.543	10035.23
618.899	10049.02
619.255	10025.29
619.611	10094.89
619.967	10086.08
620.323	10088.56
620.678	10062.35
621.034	10048.11
621.39	10051.5
621.746	10155.23
622.101	10155.91
622.457	10063.7
622.812	10094.89
623.168	10147.09
623.523	10107.54
623.879	10177.37
624.234	10078.39
624.589	10075.46
624.945	10103.25
625.3	10091.05
625.655	10097.83
626.01	10099.18
626.365	10023.93
626.72	10060.09
627.075	10073.87
627.43	10087.43
627.785	10031.39
628.14	10052.18
628.495	10051.73
628.85	10143.48
629.205	9975.8
629.559	9999.53
629.914	9955.68
630.269	10010.15
630.623	10051.5
630.978	9948.45
631.332	10045.4
631.687	10027.1
632.041	9923.37
632.396	10006.98
632.75	9876.82
633.104	10028.23
633.459	10004.95
633.813	9891.28
634.167	9933.54
634.521	9885.63
634.875	9911.62
635.229	9866.65
635.583	9821.45
635.937	9858.74
636.291	9818.51
636.645	9872.3
636.999	9797.72
637.352	9846.76
637.706	9772.64
638.06	9831.62
638.413	9782.81
638.767	9722.7
639.121	9782.81
639.474	9671.17
639.828	9764.96
640.181	9732.19
640.534	9712.08
640.888	9687.89
641.241	9687.22
641.594	9715.46
641.947	9725.63
642.301	9681.57
642.654	9639.99
643.007	9691.96
643.36	9642.7
643.713	9663.04
644.066	9657.39
644.419	9620.33
644.771	9559.08
645.124	9479.31
645.477	9481.57
645.83	9386.43
646.182	9301.24
646.535	9355.47
646.888	9345.31
647.24	9314.12
647.593	9374.46
647.945	9335.81
648.298	9264.18
648.65	9297.62
649.002	9267.79
649.355	9247.91
649.707	9341.01
650.059	9338.75
650.411	9407.22
650.763	9468.47
651.115	9537.39
651.467	9513.44
651.819	9551.18
652.171	9537.62
652.523	9445.19
652.875	9443.38
653.227	9395.02
653.578	9527.45
653.93	9483.61
654.282	9390.05
654.633	9459.2
654.985	9380.33
655.337	9493.55
655.688	9443.83
656.039	9566.09
656.391	9414.91
656.742	9421.91
657.094	9461.01
657.445	9497.17
657.796	9459.2
658.147	9467.56
658.498	9417.17
658.849	9474.79
659.2	9455.13
659.551	9434.79
659.902	9477.05
660.253	9447.9
660.604	9458.07
660.955	9433.66
661.306	9443.83
661.656	9461.91
662.007	9494
662.358	9418.07
662.708	9458.52
663.059	9442.03
663.409	9445.19
663.76	9419.88
664.11	9548.69
664.461	9439.99
664.811	9452.19
665.161	9490.84
665.511	9429.14
665.862	9509.59
666.212	9470.5
666.562	9488.35
666.912	9502.82
667.262	9447
667.612	9504.85
667.962	9421.24
668.312	9428.24
668.662	9447.45
669.011	9488.58
669.361	9486.54
669.711	9489.71
670.06	9451.52
670.41	9407.9
670.76	9425.75
671.109	9469.6
671.459	9432.31
671.808	9504.4
672.157	9433.66
672.507	9425.98
672.856	9356.6
673.205	9400.44
673.554	9376.49
673.904	9395.47
674.253	9390.5
674.602	9336.27
674.951	9221.01
675.3	9212.65
675.649	9355.02
675.998	9354.12
676.346	9311.41
676.695	9381.01
677.044	9229.6
677.393	9314.35
677.741	9304.18
678.09	9270.73
678.438	9284.52
678.787	9257.17
679.135	9303.27
679.484	9162.26
679.832	9232.09
680.181	9187.12
680.529	9190.73
680.877	9171.52
681.225	9182.82
681.573	9216.95
681.922	9158.19
682.27	9087.23
682.618	9094.92
682.966	9065.31
683.314	9063.05
683.661	9049.95
684.009	8992.09
684.357	8999.33
684.705	8957.74
685.053	8953.68
685.4	8917.75
685.748	8925.88
686.095	8913.23
686.443	8876.62
686.79	8754.13
687.138	8860.57
687.485	8914.81
687.832	8842.27
688.18	8778.54
688.527	8774.92
688.874	8748.03
689.221	8768.15
689.568	8750.74
689.915	8751.65
690.262	8732.44
690.609	8654.93
690.956	8669.84
691.303	8610.64
691.65	8556.63
691.997	8548.94
692.344	8529.96
692.69	8492.9
693.037	8514.37
693.383	8489.06
693.73	8511.65
694.077	8355.05
694.423	8379.45
694.769	8374.71
695.116	8362.51
695.462	8325.67
695.808	8285.22
696.155	8336.74
696.501	8209.74
696.847	8247.48
697.193	8162.74
697.539	8142.17
697.885	8134.49
698.231	8137.2
698.577	8091.1
698.923	8024.89
699.269	8055.62
699.614	7983.31
699.96	7960.71
700.306	7935.17
700.651	7953.48
700.997	7821.05
701.342	7869.86
701.688	7852.69
702.033	7883.42
702.379	7814.05
702.724	7812.46
703.069	7819.02
703.415	7688.4
703.76	7664.9
704.105	7694.05
704.45	7640.72
704.795	7592.58
705.14	7571.57
705.485	7543.77
705.83	7506.48
706.175	7532.92
706.52	7511.46
706.865	7450.89
707.209	7467.16
707.554	7401.4
707.899	7435.07
708.243	7388.29
708.588	7331.8
708.932	7302.65
709.277	7297.9
709.621	7330.44
709.966	7223.55
710.31	7257.22
710.654	7168.87
710.998	7220.16
711.342	7152.59
711.687	7178.81
712.031	7209.99
712.375	7135.65
712.719	7154.18
713.063	7219.49
713.407	7161.63
713.75	7128.64
714.094	7135.87
714.438	7065.59
714.782	7039.15
715.125	7028.76
715.469	7077.79
715.812	7001.19
716.156	7015.42
716.499	7004.12
716.843	7018.13
717.186	7018.13
717.53	6978.81
717.873	7003.22
718.216	6979.04
718.559	6894.97
718.902	6881.87
719.246	6925.03
719.589	6865.14
719.932	6885.93
720.275	6852.94
720.617	6867.18
720.96	6882.77
721.303	6816.78
721.646	6935.88
721.989	6822.66
722.331	6819.27
722.674	6803.9
723.016	6823.79
723.359	6792.6
723.701	6831.7
724.044	6759.16
724.386	6707.41
724.729	6781.3
725.071	6742.89
725.413	6732.94
725.755	6711.48
726.097	6719.16
726.439	6715.09
726.782	6734.53
727.124	6759.61
727.465	6706.73
727.807	6693.4
728.149	6696.11
728.491	6670.57
728.833	6704.47
729.175	6650.69
729.516	6710.8
729.858	6677.13
730.199	6713.96
730.541	6684.36
730.882	6681.42
731.224	6679.84
731.565	6632.16
731.906	6670.8
732.248	6675.32
732.589	6711.25
732.93	6635.55
733.271	6638.26
733.612	6650.46
733.953	6642.33
734.294	6663.34
734.635	6654.98
734.976	6721.87
735.317	6653.85
735.658	6697.47
735.999	6668.77
736.339	6664.92
736.68	6645.04
737.021	6666.96
737.361	6637.35
737.702	6653.85
738.042	6663.57
738.383	6671.25
738.723	6724.13
739.063	6672.16
739.404	6675.32
739.744	6704.47
740.084	6642.1
740.424	6677.8
740.764	6680.52
741.104	6658.14
741.444	6689.56
741.784	6754.86
742.124	6728.88
742.464	6746.96
742.804	6804.81
743.143	6737.01
743.483	6791.93
743.823	6768.88
744.162	6747.41
744.502	6826.05
744.841	6795.77
745.181	6889.55
745.52	6905.37
745.86	6902.43
746.199	6932.04
746.538	6967.51
746.877	7007.74
747.216	6966.84
747.556	7045.48
747.895	7111.92
748.234	7048.42
748.573	7096.55
748.911	7170.45
749.25	7260.16
749.589	7220.84
749.928	7306.49
750.267	7314.85
750.605	7399.14
750.944	7452.7
751.283	7466.26
751.621	7546.93
751.96	7641.17
752.298	7688.63
752.636	7751.45
752.975	7810.66
753.313	7895.85
753.651	7952.35
753.989	7946.25
754.327	8115.51
754.666	8094.72
755.004	8289.29
755.342	8344.88
755.679	8436.63
756.017	8491.54
756.355	8641.82
756.693	8686.57
757.031	8778.54
757.368	8891.08
757.706	9044.75
758.044	9111.86
758.381	9301.69
758.719	9299.66
759.056	9419.88
759.394	9586.65
759.731	9702.36
760.068	9820.09
760.405	9843.82
760.743	9993.65
761.08	10105.29
761.417	10167.43
761.754	10321.55
762.091	10480.64
762.428	10543.01
762.765	10703.69
763.102	10842.89
763.438	10867.3
763.775	10978.71
764.112	11149.55
764.449	11251.7
764.785	11300.73
765.122	11445.36
765.458	11560.16
765.795	11643.78
766.131	11757.9
766.467	11907.72
766.804	11876.99
767.14	11985.69
767.476	12149.53
767.812	12160.15
768.148	12278.79
