Data from hue_250_FLMS001491_00015.txt Node
Date: Tue Feb 07 16:00:37 GMT 2017
User: dcchb
Spectrometer: FLMS00149
Trigger mode: 0
Integration Time (sec): 2.000000E-2
Scans to average: 10
Electric dark correction enabled: true
Nonlinearity correction enabled: false
Boxcar width: 0
XAxis mode: Wavelengths
Number of Pixels in Spectrum: 2048
>>>>>Begin Spectral Data<<<<<
341.393	0.17
341.776	0.17
342.16	0.17
342.543	-82.09
342.927	-66.27
343.31	-66.5
343.693	-60.62
344.077	-66.95
344.46	-47.29
344.843	-43.67
345.226	-44.8
345.61	-33.28
345.993	-21.07
346.376	-15.65
346.759	5.37
347.142	26.84
347.525	21.86
347.908	69.32
348.291	72.03
348.674	99.83
349.057	104.57
349.44	102.77
349.823	136.66
350.206	174.18
350.588	176.66
350.971	206.72
351.354	201.52
351.737	234.97
352.119	243.55
352.502	242.65
352.884	253.04
353.267	255.76
353.65	269.09
354.032	295.75
354.414	301.18
354.797	307.73
355.179	304.12
355.562	323.32
355.944	311.12
356.326	326.71
356.709	314.29
357.091	332.59
357.473	337.79
357.855	326.04
358.238	339.82
358.62	324.68
359.002	318.13
359.384	293.5
359.766	332.14
360.148	330.1
360.53	321.74
360.912	326.94
361.294	317.9
361.676	312.93
362.057	324.45
362.439	328.97
362.821	322.65
363.203	308.18
363.584	325.81
363.966	308.41
364.348	309.99
364.729	317
365.111	304.34
365.493	309.54
365.874	316.77
366.256	298.47
366.637	303.44
367.019	302.53
367.4	287.39
367.781	314.51
368.163	303.21
368.544	308.18
368.925	288.75
369.306	305.47
369.688	297.56
370.069	310.44
370.45	299.6
370.831	303.21
371.212	306.38
371.593	302.53
371.974	311.57
372.355	306.38
372.736	303.89
373.117	297.79
373.498	288.07
373.879	299.37
374.26	299.14
374.641	306.15
375.021	305.47
375.402	278.35
375.783	314.51
376.163	299.6
376.544	313.61
376.925	317
377.305	308.86
377.686	317.45
378.066	328.97
378.447	299.37
378.827	328.75
379.208	319.03
379.588	335.53
379.968	323.55
380.349	328.97
380.729	318.81
381.109	324.68
381.489	319.48
381.87	334.4
382.25	318.35
382.63	349.99
383.01	350.44
383.39	340.73
383.77	323.32
384.15	328.52
384.53	348.63
384.91	333.72
385.29	334.4
385.67	347.05
386.049	337.56
386.429	330.33
386.809	358.13
387.189	339.6
387.568	356.32
387.948	340.05
388.328	349.76
388.707	347.73
389.087	351.35
389.466	343.89
389.846	355.87
390.225	363.32
390.605	360.84
390.984	365.58
391.363	357.9
391.743	349.76
392.122	372.14
392.501	356.09
392.881	376.43
393.26	363.55
393.639	374.4
394.018	373.72
394.397	346.6
394.776	352.7
395.155	381.85
395.534	372.36
395.913	362.87
396.292	392.02
396.671	361.97
397.05	392.48
397.429	360.39
397.808	377.56
398.186	388.86
398.565	380.05
398.944	388.18
399.323	394.51
399.701	400.16
400.08	389.54
400.458	393.61
400.837	415.98
401.215	396.09
401.594	385.7
401.972	410.33
402.351	405.13
402.729	427.05
403.107	404.23
403.486	406.94
403.864	427.73
404.242	428.86
404.62	423.89
404.999	443.1
405.377	430.67
405.755	439.48
406.133	439.71
406.511	428.63
406.889	461.4
407.267	457.78
407.645	455.98
408.023	468.63
408.401	463.89
408.779	455.3
409.156	457.56
409.534	465.92
409.912	470.89
410.29	477.67
410.667	477.45
411.045	476.77
411.422	509.31
411.8	528.52
412.178	509.31
412.555	547.73
412.933	510.21
413.31	543.88
413.687	552.47
414.065	541.4
414.442	538.69
414.819	567.61
415.197	562.19
415.574	564.22
415.951	564.45
416.328	586.37
416.705	584.79
417.082	593.37
417.46	604.67
417.837	583.88
418.214	604.67
418.591	628.63
418.967	634.05
419.344	636.99
419.721	636.54
420.098	657.33
420.475	679.02
420.852	647.84
421.228	668.85
421.605	685.12
421.982	685.58
422.358	697.55
422.735	728.06
423.111	703.2
423.488	707.95
423.864	744.33
424.241	736.42
424.617	749.3
424.994	758.34
425.37	763.09
425.746	792.24
426.123	783.88
426.499	809.19
426.875	804.67
427.251	813.26
427.627	836.08
428.003	833.82
428.379	825.68
428.756	869.75
429.132	859.81
429.507	874.95
429.883	892.58
430.259	890.32
430.635	900.26
431.011	879.69
431.387	936.64
431.763	932.57
432.138	923.54
432.514	972.12
432.89	987.94
433.265	995.85
433.641	985.45
434.016	1011.22
434.392	1028.17
434.767	1023.87
435.143	1075.62
435.518	1070.42
435.894	1062.06
436.269	1086.47
436.644	1109.97
437.02	1130.31
437.395	1132.57
437.77	1145
438.145	1174.6
438.52	1182.29
438.895	1226.8
439.271	1217.09
439.646	1230.19
440.021	1269.06
440.395	1239.91
440.77	1241.94
441.145	1268.16
441.52	1331.66
441.895	1309.74
442.27	1320.59
442.645	1319.68
443.019	1333.47
443.394	1381.15
443.769	1351.77
444.143	1385.22
444.518	1392.68
444.892	1390.19
445.267	1414.82
445.641	1410.75
446.016	1450.75
446.39	1437.42
446.764	1425.22
447.139	1422.05
447.513	1472.22
447.887	1454.59
448.262	1509.96
448.636	1479.23
449.01	1487.14
449.384	1514.71
449.758	1509.28
450.132	1535.5
450.506	1565.33
450.88	1545.21
451.254	1576.4
451.628	1580.24
452.002	1610.97
452.376	1615.27
452.75	1632.89
453.123	1637.19
453.497	1654.59
453.871	1663.85
454.244	1714.47
454.618	1713.12
454.992	1725.32
455.365	1698.43
455.739	1787.69
456.112	1779.56
456.486	1804.64
456.859	1802.38
457.232	1835.15
457.606	1833.57
457.979	1846.67
458.352	1907.92
458.725	1917.86
459.099	1911.76
459.472	1969.16
459.845	1942.27
460.218	1991.76
460.591	2010.51
460.964	1995.37
461.337	2044.86
461.71	2083.73
462.083	2124.18
462.456	2100.91
462.829	2118.31
463.201	2133.45
463.574	2122.37
463.947	2184.52
464.32	2217.06
464.692	2281.24
465.065	2275.14
465.438	2271.75
465.81	2318.3
466.183	2325.98
466.555	2366.21
466.928	2394.91
467.3	2408.24
467.672	2437.39
468.045	2466.55
468.417	2450.27
468.789	2496.15
469.161	2527.33
469.534	2563.49
469.906	2587.22
470.278	2641.46
470.65	2634.68
471.022	2700.89
471.394	2726.65
471.766	2738.85
472.138	2779.53
472.51	2877.83
472.882	2861.34
473.253	2869.02
473.625	2909.47
473.997	2979.98
474.369	2998.28
474.74	3018.4
475.112	3054.33
475.484	3127.32
475.855	3181.78
476.227	3181.78
476.598	3304.49
476.97	3280.54
477.341	3374.77
477.713	3410.02
478.084	3431.72
478.455	3499.51
478.827	3569.57
479.198	3572.28
479.569	3613.41
479.94	3726.85
480.311	3699.96
480.682	3794.65
481.053	3833.74
481.424	3890.69
481.795	3948.09
482.166	3980.86
482.537	3984.25
482.908	4113.96
483.279	4130.91
483.65	4232.6
484.021	4266.05
484.391	4295.2
484.762	4298.81
485.133	4301.75
485.503	4408.64
485.874	4489.77
486.244	4539.49
486.615	4593.5
486.985	4594.85
487.356	4695.64
487.726	4754.85
488.097	4825.35
488.467	4885.24
488.837	4910.32
489.207	4959.36
489.578	5032.35
489.948	5059.7
490.318	5120.71
490.688	5106.93
491.058	5179.69
491.428	5256.53
491.798	5305.11
492.168	5440.25
492.538	5381.04
492.908	5480.03
493.278	5481.16
493.648	5538.55
494.017	5627.37
494.387	5574.26
494.757	5622.17
495.126	5690.19
495.496	5700.58
495.866	5779
496.235	5825.1
496.605	5864.2
496.974	5789.4
497.344	5870.98
497.713	5906.23
498.082	5956.4
498.452	6004.08
498.821	5999.11
499.19	6023.29
499.559	6063.06
499.928	6127.69
500.298	6096.51
500.667	6192.78
501.036	6120.23
501.405	6257.86
501.774	6219.44
502.143	6241.81
502.512	6337.63
502.88	6286.11
503.249	6243.17
503.618	6391.64
503.987	6333.11
504.356	6371.75
504.724	6425.76
505.093	6432.09
505.462	6429.6
505.83	6554.57
506.199	6506.44
506.567	6559.77
506.936	6578.75
507.304	6640.45
507.672	6657.85
508.041	6633.89
508.409	6682.03
508.777	6704.17
509.145	6781.69
509.514	6736.72
509.882	6746.21
510.25	6761.12
510.618	6797.5
510.986	6759.99
511.354	6850.61
511.722	6938.52
512.09	6951.4
512.458	6956.14
512.826	6958.4
513.193	6920.67
513.561	6936.03
513.929	7035.46
514.297	7056.48
514.664	7065.29
515.032	7057.84
515.4	7130.6
515.767	7072.98
516.135	7121.79
516.502	7026.88
516.869	7203.82
517.237	7155.69
517.604	7153.88
517.972	7204.95
518.339	7208.34
518.706	7173.99
519.073	7193.43
519.44	7170.15
519.808	7289.92
520.175	7268.45
520.542	7311.39
520.909	7313.88
521.276	7261.45
521.643	7390.48
522.009	7372.41
522.376	7405.4
522.743	7385.29
523.11	7469.13
523.477	7435.91
523.843	7523.59
524.21	7514.77
524.577	7567.65
524.943	7575.34
525.31	7581.44
525.676	7620.76
526.043	7644.49
526.409	7593.42
526.776	7653.53
527.142	7662.57
527.508	7663.47
527.874	7646.3
528.241	7756.35
528.607	7729.01
528.973	7785.28
529.339	7730.81
529.705	7791.15
530.071	7768.78
530.437	7799.51
530.803	7803.58
531.169	7825.05
531.535	7783.24
531.901	7822.34
532.267	7783.47
532.632	7858.27
532.998	7783.69
533.364	7859.17
533.73	7842
534.095	7890.13
534.461	7827.08
534.826	7883.13
535.192	7866.63
535.557	7939.85
535.923	7864.82
536.288	7905.72
536.653	7885.16
537.019	7808.1
537.384	7817.59
537.749	7927.87
538.114	7836.12
538.479	7842.68
538.845	7818.95
539.21	7755.22
539.575	7849.91
539.94	7758.84
540.305	7858.49
540.67	7776.69
541.034	7788.21
541.399	7825.73
541.764	7813.75
542.129	7764.26
542.494	7776.69
542.858	7781.66
543.223	7795.22
543.587	7793.64
543.952	7790.02
544.316	7768.78
544.681	7736.92
545.045	7700.98
545.41	7742.79
545.774	7754.32
546.138	7733.3
546.503	7698.72
546.867	7693.53
547.231	7778.5
547.595	7754.09
547.959	7746.41
548.324	7713.64
548.688	7701.21
549.052	7701.66
549.416	7653.08
549.779	7650.59
550.143	7610.36
550.507	7631.83
550.871	7646.97
551.235	7660.76
551.599	7612.4
551.962	7687.42
552.326	7687.88
552.689	7672.96
553.053	7642
553.417	7634.55
553.78	7672.51
554.143	7691.94
554.507	7651.27
554.87	7643.13
555.234	7703.47
555.597	7646.75
555.96	7671.83
556.323	7627.31
556.686	7640.19
557.05	7634.77
557.413	7648.33
557.776	7667.31
558.139	7679.52
558.502	7662.34
558.865	7644.71
559.228	7701.89
559.59	7685.84
559.953	7666.18
560.316	7770.36
560.679	7709.8
561.041	7776.91
561.404	7805.16
561.767	7783.02
562.129	7763.81
562.492	7757.25
562.854	7778.04
563.217	7753.86
563.579	7829.57
563.941	7851.04
564.304	7890.36
564.666	7886.29
565.028	7925.84
565.39	7907.98
565.753	7858.95
566.115	7936.68
566.477	7977.36
566.839	7989.11
567.201	8044.48
567.563	7979.17
567.925	7992.5
568.287	8053.52
568.648	7985.04
569.01	8033.86
569.372	8101.2
569.734	8089.45
570.095	8101.65
570.457	8159.5
570.819	8164.93
571.18	8155.89
571.542	8207.86
571.903	8170.12
572.265	8164.93
572.626	8241.99
572.987	8262.78
573.349	8297.8
573.71	8297.58
574.071	8306.84
574.432	8281.76
574.794	8314.08
575.155	8274.98
575.516	8319.05
575.877	8425.94
576.238	8400.4
576.599	8408.08
576.96	8413.28
577.32	8428.2
577.681	8491.7
578.042	8511.13
578.403	8515.65
578.763	8583.45
579.124	8526.95
579.485	8563.11
579.845	8611.24
580.206	8536.44
580.566	8585.93
580.927	8613.28
581.287	8611.02
581.648	8585.71
582.008	8656.89
582.368	8711.13
582.728	8682.65
583.089	8691.69
583.449	8662.31
583.809	8667.29
584.169	8723.78
584.529	8672.48
584.889	8811.24
585.249	8768.07
585.609	8707.29
585.969	8799.71
586.329	8833.16
586.688	8778.7
587.048	8800.39
587.408	8793.16
587.768	8811.92
588.127	8845.13
588.487	8770.79
588.846	8854.85
589.206	8772.82
589.565	8825.02
589.925	8900.5
590.284	8825.47
590.643	8950.67
591.003	8813.95
591.362	8902.08
591.721	8958.58
592.08	8901.63
592.44	8989.54
592.799	8962.87
593.158	8957.22
593.517	9020.05
593.876	8990.44
594.235	8940.05
594.593	8915.19
594.952	9004.9
595.311	8941.63
595.67	8994.06
596.029	9034.51
596.387	9036.09
596.746	9048.97
597.104	9054.85
597.463	9033.15
597.822	9074.28
598.18	9068.18
598.538	9054.39
598.897	9095.75
599.255	9081.29
599.613	9206.93
599.972	9075.19
600.33	9109.31
600.688	9070.44
601.046	9174.62
601.404	9122.87
601.762	9106.37
602.12	9123.55
602.478	9116.77
602.836	9122.64
603.194	9132.36
603.552	9158.12
603.91	9103.88
604.268	9163.77
604.625	9184.79
604.983	9236.08
605.341	9149.08
605.698	9160.61
606.056	9167.16
606.413	9219.81
606.771	9212.36
607.128	9261.39
607.485	9175.75
607.843	9225.92
608.2	9286.25
608.557	9292.58
608.914	9241.06
609.272	9280.38
609.629	9282.86
609.986	9250.1
610.343	9318.12
610.7	9352.69
611.057	9334.39
611.414	9370.54
611.771	9299.13
612.127	9356.99
612.484	9373.48
612.841	9379.13
613.198	9409.41
613.554	9419.81
613.911	9455.97
614.267	9422.07
614.624	9445.57
614.98	9385.01
615.337	9453.71
615.693	9472.01
616.05	9442.18
616.406	9433.37
616.762	9495.74
617.118	9440.83
617.475	9422.52
617.831	9463.42
618.187	9495.29
618.543	9536.87
618.899	9523.31
619.255	9524.44
619.611	9497.09
619.967	9499.58
620.323	9569.41
620.678	9524.44
621.034	9488.73
621.39	9439.7
621.746	9490.99
622.101	9613.93
622.457	9532.12
622.812	9523.99
623.168	9495.51
623.523	9539.13
623.879	9556.3
624.234	9464.78
624.589	9512.91
624.945	9634.72
625.3	9489.19
625.655	9526.92
626.01	9584.32
626.365	9573.25
626.72	9491.67
627.075	9535.51
627.43	9490.54
627.785	9488.06
628.14	9534.16
628.495	9472.24
628.85	9501.39
629.205	9424.55
629.559	9470.2
629.914	9449.41
630.269	9442.86
630.623	9410.54
630.978	9421.39
631.332	9446.02
631.687	9512.01
632.041	9467.49
632.396	9434.95
632.75	9379.58
633.104	9379.81
633.459	9355.4
633.813	9377.32
634.167	9344.1
634.521	9362.18
634.875	9337.78
635.229	9342.75
635.583	9292.58
635.937	9308.4
636.291	9272.47
636.645	9286.48
636.999	9299.59
637.352	9332.58
637.706	9185.01
638.06	9212.81
638.413	9213.03
638.767	9195.86
639.121	9247.84
639.474	9191.11
639.828	9144.79
640.181	9126.48
640.534	9169.65
640.888	9157.44
641.241	9164.67
641.594	9171
641.947	9147.95
642.301	9104.56
642.654	9141.4
643.007	9172.36
643.36	9120.83
643.713	9067.5
644.066	9055.52
644.419	9072.7
644.771	9013.04
645.124	8967.17
645.477	8994.96
645.83	8888.52
646.182	8853.04
646.535	8789.09
646.888	8816.43
647.24	8757.23
647.593	8832.93
647.945	8762.65
648.298	8743.22
648.65	8768.3
649.002	8717.91
649.355	8757.45
649.707	8775.98
650.059	8834.74
650.411	8871.12
650.763	8923.78
651.115	9019.59
651.467	9003.1
651.819	8927.17
652.171	8961.06
652.523	8871.57
652.875	8945.7
653.227	8856.43
653.578	9004
653.93	8957.9
654.282	8936.21
654.633	8901.4
654.985	8915.19
655.337	8907.05
655.688	8932.82
656.039	8981.63
656.391	8886.72
656.742	8855.53
657.094	8917.68
657.445	8931.01
657.796	8917.22
658.147	8932.14
658.498	8958.13
658.849	9025.92
659.2	8922.42
659.551	8961.52
659.902	8949.76
660.253	8893.95
660.604	8964.45
660.955	8938.47
661.306	8975.75
661.656	8910.22
662.007	8924.45
662.358	8943.21
662.708	8914.51
663.059	8957.45
663.409	8867.51
663.76	9008.75
664.11	8959.48
664.461	8985.7
664.811	8936.66
665.161	8942.31
665.511	8936.66
665.862	8926.94
666.212	9021.85
666.562	9059.59
666.912	8977.33
667.262	8950.67
667.612	8931.69
667.962	8946.83
668.312	8964.23
668.662	8957.22
669.011	8934.17
669.361	8964.45
669.711	8877.68
670.06	8950.44
670.41	8933.95
670.76	8877.68
671.109	8974.17
671.459	8916.32
671.808	8904.57
672.157	8945.25
672.507	8848.07
672.856	8826.6
673.205	8935.3
673.554	8896.43
673.904	8832.93
674.253	8885.81
674.602	8883.78
674.951	8705.7
675.3	8659.83
675.649	8807.4
675.998	8771.01
676.346	8821.41
676.695	8827.06
677.044	8766.27
677.393	8762.88
677.741	8779.15
678.09	8751.35
678.438	8747.51
678.787	8746.38
679.135	8805.36
679.484	8651.02
679.832	8660.73
680.181	8662.99
680.529	8658.25
680.877	8609.21
681.225	8653.5
681.573	8687.85
681.922	8609.43
682.27	8517.91
682.618	8590.9
682.966	8601.53
683.314	8555.88
683.661	8491.47
684.009	8547.06
684.357	8506.39
684.705	8461.19
685.053	8395.65
685.4	8478.59
685.748	8385.94
686.095	8377.35
686.443	8389.33
686.79	8329.67
687.138	8369.89
687.485	8392.94
687.832	8363.34
688.18	8356.56
688.527	8252.16
688.874	8301.87
689.221	8257.35
689.568	8201.76
689.915	8261.65
690.262	8187.75
690.609	8134.87
690.956	8141.88
691.303	8118.37
691.65	8060.3
691.997	8036.34
692.344	8014.42
692.69	8023.46
693.037	7995.21
693.383	7892.62
693.73	7896.69
694.077	7857.36
694.423	7952.73
694.769	7859.17
695.116	7865.27
695.462	7797.7
695.808	7841.55
696.155	7819.85
696.501	7752.28
696.847	7750.25
697.193	7712.28
697.539	7750.47
697.885	7675.45
698.231	7606.3
698.577	7630.25
698.923	7636.8
699.269	7542.12
699.614	7445.62
699.96	7498.73
700.306	7488.11
700.651	7429.13
700.997	7368.79
701.342	7375.57
701.688	7409.69
702.033	7373.99
702.379	7268.68
702.724	7316.36
703.069	7342.8
703.415	7135.35
703.76	7216.48
704.105	7224.61
704.45	7265.97
704.795	7111.39
705.14	7155.69
705.485	7095.8
705.83	7117.95
706.175	7108.68
706.52	7089.47
706.865	7070.27
707.209	7043.83
707.554	7007.22
707.899	7017.16
708.243	6972.42
708.588	6940.33
708.932	6877.28
709.277	6866.43
709.621	6859.42
709.966	6844.06
710.31	6858.97
710.654	6778.3
710.998	6847.9
711.342	6804.51
711.687	6721.57
712.031	6762.93
712.375	6772.19
712.719	6726.55
713.063	6699.43
713.407	6741.46
713.75	6680.22
714.094	6686.1
714.438	6648.81
714.782	6680.45
715.125	6689.71
715.469	6595.48
715.812	6566.78
716.156	6556.83
716.499	6595.48
716.843	6577.4
717.186	6548.7
717.53	6616.27
717.873	6581.92
718.216	6534.46
718.559	6576.95
718.902	6531.75
719.246	6529.94
719.589	6451.07
719.932	6427.8
720.275	6497.63
720.617	6474.8
720.96	6434.35
721.303	6419.66
721.646	6469.38
721.989	6407.23
722.331	6411.07
722.674	6420.79
723.016	6353
723.359	6361.36
723.701	6376.5
724.044	6343.05
724.386	6297.18
724.729	6385.09
725.071	6329.95
725.413	6413.56
725.755	6357.29
726.097	6317.29
726.439	6273.9
726.782	6349.38
727.124	6333.79
727.465	6282.49
727.807	6311.64
728.149	6301.7
728.491	6294.92
728.833	6264.19
729.175	6302.83
729.516	6287.91
729.858	6305.54
730.199	6308.48
730.541	6258.99
730.882	6273
731.224	6254.02
731.565	6213.79
731.906	6303.28
732.248	6271.19
732.589	6258.08
732.93	6216.73
733.271	6241.59
733.612	6234.58
733.953	6296.95
734.294	6221.25
734.635	6189.61
734.976	6270.74
735.317	6161.59
735.658	6210.63
735.999	6239.78
736.339	6220.12
736.68	6122.72
737.021	6244.75
737.361	6190.06
737.702	6309.83
738.042	6181.7
738.383	6258.08
738.723	6202.72
739.063	6266.67
739.404	6253.56
739.744	6245.88
740.084	6285.2
740.424	6246.11
740.764	6248.82
741.104	6307.35
741.444	6249.72
741.784	6254.02
742.124	6313.9
742.464	6301.47
742.804	6304.64
743.143	6324.3
743.483	6397.52
743.823	6292.21
744.162	6314.35
744.502	6338.08
744.841	6413.79
745.181	6397.74
745.52	6392.09
745.86	6515.48
746.199	6431.19
746.538	6482.26
746.877	6508.92
747.216	6571.97
747.556	6557.29
747.895	6651.52
748.234	6651.07
748.573	6668.47
748.911	6724.96
749.25	6721.12
749.589	6770.39
749.928	6795.7
750.267	6874.11
750.605	6944.17
750.944	6945.75
751.283	6996.82
751.621	7086.08
751.96	7085.86
752.298	7133.54
752.636	7204.27
752.975	7267.1
753.313	7333.31
753.651	7507.32
753.989	7464.61
754.327	7569.91
754.666	7642.23
755.004	7702.11
755.342	7742.11
755.679	7867.53
756.017	7930.81
756.355	8006.51
756.693	8110.24
757.031	8205.38
757.368	8257.35
757.706	8404.24
758.044	8470.23
758.381	8632.26
758.719	8617.57
759.056	8808.53
759.394	8882.65
759.731	8937.56
760.068	9071.34
760.405	9109.53
760.743	9174.62
761.08	9293.26
761.417	9367.61
761.754	9552.69
762.091	9618.67
762.428	9759.69
762.765	9839.01
763.102	10003.3
763.438	9956.52
763.775	10061.37
764.112	10275.61
764.449	10300.24
764.785	10402.16
765.122	10442.61
765.458	10599.66
765.795	10668.14
766.131	10832.43
766.467	10837.62
766.804	10835.14
767.14	10968.02
767.476	11149.93
767.812	11146.09
768.148	11219.54
768.485	11220.21
768.821	11259.08
769.157	11482.13
