Data from hue_140_FLMS001491_00084.txt Node
Date: Tue Feb 07 16:56:31 GMT 2017
User: dcchb
Spectrometer: FLMS00149
Trigger mode: 0
Integration Time (sec): 2.000000E-2
Scans to average: 10
Electric dark correction enabled: true
Nonlinearity correction enabled: false
Boxcar width: 0
XAxis mode: Wavelengths
Number of Pixels in Spectrum: 2048
>>>>>Begin Spectral Data<<<<<
341.393	1.29
341.776	1.29
342.16	1.29
342.543	-69.45
342.927	-83.46
343.31	-70.13
343.693	-63.8
344.077	-62.44
344.46	-80.07
344.843	-51.14
345.226	-42.56
345.61	-28.09
345.993	-26.28
346.376	-1.65
346.759	0.16
347.142	20.95
347.525	42.19
347.908	63.66
348.291	84.45
348.674	100.27
349.057	114.5
349.44	104.33
349.823	127.38
350.206	157.44
350.588	197.89
350.971	207.61
351.354	230.66
351.737	243.09
352.119	249.19
352.502	245.12
352.884	244.89
353.267	256.19
353.65	294.16
354.032	300.94
354.414	296.42
354.797	311.11
355.179	300.71
355.562	333.25
355.944	305.01
356.326	333.25
356.709	338.68
357.091	331.45
357.473	341.84
357.855	329.41
358.238	351.11
358.62	352.91
359.002	340.26
359.384	340.94
359.766	315.85
360.148	346.59
360.53	319.92
360.912	315.4
361.294	331.22
361.676	334.61
362.057	347.72
362.439	325.8
362.821	325.8
363.203	340.49
363.584	339.13
363.966	329.64
364.348	315.18
364.729	302.75
365.111	319.92
365.493	307.94
365.874	330.32
366.256	316.08
366.637	302.07
367.019	305.23
367.4	305.91
367.781	308.85
368.163	317.66
368.544	303.65
368.925	323.76
369.306	314.05
369.688	305.01
370.069	306.14
370.45	312.01
370.831	296.87
371.212	319.24
371.593	312.69
371.974	311.56
372.355	313.37
372.736	312.69
373.117	305.68
373.498	321.95
373.879	309.53
374.26	305.46
374.641	291.67
375.021	314.5
375.402	302.52
375.783	329.19
376.163	309.07
376.544	321.95
376.925	319.92
377.305	318.11
377.686	328.51
378.066	326.25
378.447	327.6
378.827	334.61
379.208	339.36
379.588	317.66
379.968	325.12
380.349	315.63
380.729	344.33
381.109	343.88
381.489	349.75
381.87	298.23
382.25	320.37
382.63	344.55
383.01	320.37
383.39	361.5
383.77	339.13
384.15	333.48
384.53	348.39
384.91	344.33
385.29	337.77
385.67	343.42
386.049	340.03
386.429	360.15
386.809	347.04
387.189	342.75
387.568	343.42
387.948	374.61
388.328	356.53
388.707	341.84
389.087	348.39
389.466	344.55
389.846	345.91
390.225	362.41
390.605	386.36
390.984	381.16
391.363	389.52
391.743	356.08
392.122	362.86
392.501	375.06
392.881	382.74
393.26	378
393.639	390.2
394.018	378.68
394.397	378.45
394.776	393.82
395.155	370.99
395.534	371.45
395.913	364.21
396.292	370.99
396.671	369.41
397.05	381.16
397.429	369.19
397.808	382.52
398.186	411.22
398.565	391.78
398.944	406.47
399.323	389.07
399.701	387.72
400.08	390.88
400.458	395.63
400.837	408.96
401.215	385
401.594	380.26
401.972	363.99
402.351	405.34
402.729	389.52
403.107	394.04
403.486	404.89
403.864	411.44
404.242	411.44
404.62	408.05
404.999	411.9
405.377	410.54
405.755	393.59
406.133	394.5
406.511	431.78
406.889	413.93
407.267	421.16
407.645	413.03
408.023	416.19
408.401	423.65
408.779	423.65
409.156	448.73
409.534	427.94
409.912	462.29
410.29	447.15
410.667	447.38
411.045	454.38
411.422	442.63
411.8	442.4
412.178	453.93
412.555	438.11
412.933	467.26
413.31	462.74
413.687	460.48
414.065	459.58
414.442	475.17
414.819	486.7
415.197	479.92
415.574	465.45
415.951	478.79
416.328	477.66
416.705	474.72
417.082	503.64
417.46	465.91
417.837	498.22
418.214	506.36
418.591	497.32
418.967	510.65
419.344	520.37
419.721	502.97
420.098	505.23
420.475	499.35
420.852	533.7
421.228	496.19
421.605	523.53
421.982	521.72
422.358	544.1
422.735	527.15
423.111	527.83
423.488	545.9
423.864	552.46
424.241	544.32
424.617	543.64
424.994	554.72
425.37	549.52
425.746	577.09
426.123	570.76
426.499	575.73
426.875	556.98
427.251	570.08
427.627	576.64
428.003	586.81
428.379	578.45
428.756	613.92
429.132	595.17
429.507	615.05
429.883	601.72
430.259	640.14
430.635	622.29
431.011	610.99
431.387	623.87
431.763	616.86
432.138	638.56
432.514	648.27
432.89	625
433.265	660.25
433.641	660.03
434.016	656.18
434.392	669.97
434.767	669.29
435.143	634.71
435.518	696.63
435.894	685.56
436.269	700.48
436.644	704.32
437.02	705.67
437.395	734.6
437.77	692.34
438.145	712.23
438.52	737.31
438.895	756.07
439.271	745.9
439.646	732.11
440.021	748.84
440.395	747.48
440.77	747.48
441.145	753.81
441.52	761.04
441.895	771.89
442.27	772.34
442.645	776.18
443.019	808.72
443.394	775.73
443.769	800.36
444.143	809.4
444.518	808.72
444.892	839.68
445.267	818.21
445.641	808.72
446.016	812.34
446.39	847.14
446.764	821.15
447.139	837.42
447.513	847.59
447.887	813.24
448.262	864.09
448.636	862.05
449.01	866.8
449.384	875.84
449.758	885.78
450.132	852.34
450.506	875.84
450.88	898.21
451.254	906.35
451.628	902.73
452.002	896.4
452.376	926.68
452.75	940.47
453.123	956.29
453.497	949.28
453.871	950.86
454.244	983.18
454.618	982.95
454.992	994.03
455.365	983.18
455.739	1001.03
456.112	1017.98
456.486	1027.25
456.859	1038.09
457.232	1028.83
457.606	1062.05
457.979	1079
458.352	1085.55
458.725	1067.02
459.099	1095.27
459.472	1119.22
459.845	1118.32
460.218	1131.65
460.591	1160.12
460.964	1140.46
461.337	1197.41
461.71	1194.93
462.083	1240.12
462.456	1246.68
462.829	1223.63
463.201	1253.91
463.574	1287.13
463.947	1265.43
464.32	1307.47
464.692	1329.84
465.065	1346.33
465.438	1355.37
465.81	1393.34
466.183	1408.03
466.555	1428.37
466.928	1437.63
467.3	1412.77
467.672	1481.25
468.045	1493.9
468.417	1513.34
468.789	1526.89
469.161	1554.24
469.534	1587.91
469.906	1614.8
470.278	1640.34
470.65	1650.06
471.022	1704.97
471.394	1769.15
471.766	1732.09
472.138	1792.65
472.51	1858.19
472.882	1870.39
473.253	1871.97
473.625	1959.2
473.997	2008.69
474.369	2029.93
474.74	2057.95
475.112	2127.33
475.484	2176.37
475.855	2240.77
476.227	2255.46
476.598	2323.71
476.97	2388.12
477.341	2421.33
477.713	2508.34
478.084	2525.74
478.455	2602.12
478.827	2635.11
479.198	2791.04
479.569	2801.66
479.94	2918.95
480.311	2972.51
480.682	3095.44
481.053	3165.5
481.424	3287.3
481.795	3288.2
482.166	3391.48
482.537	3501.08
482.908	3589.21
483.279	3662.88
483.65	3756.21
484.021	3860.84
484.391	4010.45
484.762	4031.01
485.133	4116.43
485.503	4227.16
485.874	4414.95
486.244	4461.96
486.615	4607.72
486.985	4735.4
487.356	4910.53
487.726	4972.68
488.097	5137.87
488.467	5184.2
488.837	5334.03
489.207	5449.05
489.578	5644.3
489.948	5681.81
490.318	5867.8
490.688	5999.32
491.058	6097.85
491.428	6235.02
491.798	6324.51
492.168	6556.14
492.538	6632.07
492.908	6736.93
493.278	6861.9
493.648	6963.14
494.017	7121.78
494.387	7259.63
494.757	7336.69
495.126	7485.38
495.496	7597.24
495.866	7683.12
496.235	7784.81
496.605	7970.12
496.974	8056.89
497.344	8199.71
497.713	8343.21
498.082	8413.04
498.452	8532.36
498.821	8637.67
499.19	8695.52
499.559	8778.68
499.928	8960.82
500.298	8984.55
500.667	9180.03
501.036	9134.38
501.405	9301.61
501.774	9336.86
502.143	9480.13
502.512	9562.62
502.88	9613.46
503.249	9679.9
503.618	9850.52
503.987	9825.89
504.356	9928.03
504.724	10031.3
505.093	10095.48
505.462	10133
505.83	10213.67
506.199	10345.87
506.567	10457.96
506.936	10418.86
507.304	10636.94
507.672	10632.42
508.041	10661.34
508.409	10800.32
508.777	10831.28
509.145	10879.19
509.514	10934.56
509.882	11008
510.25	11050.03
510.618	11075.57
510.986	11140.88
511.354	11217.26
511.722	11316.69
512.09	11366.86
512.458	11280.08
512.826	11468.1
513.193	11436.69
513.561	11480.08
513.929	11582.22
514.297	11577.93
514.664	11705.84
515.032	11785.83
515.4	11826.96
515.767	11794.42
516.135	11867.87
516.502	11761.2
516.869	11996.9
517.237	12000.97
517.604	11855.89
517.972	12018.6
518.339	12113.06
518.706	12007.3
519.073	12090.91
519.44	12159.61
519.808	12228.08
520.175	12118.03
520.542	12277.57
520.909	12317.35
521.276	12294.97
521.643	12294.52
522.009	12318.48
522.376	12438.25
522.743	12497
523.11	12557.11
523.477	12599.37
523.843	12585.81
524.21	12709.43
524.577	12713.04
524.943	12654.06
525.31	12722.08
525.676	12765.02
526.043	12767.96
526.409	12805.92
526.776	12861.96
527.142	12853.38
527.508	12805.02
527.874	12910.1
528.241	12914.39
528.607	12885.01
528.973	12876.65
529.339	12866.26
529.705	12958.01
530.071	12933.6
530.437	12987.61
530.803	13028.29
531.169	12947.84
531.535	12843.21
531.901	12884.34
532.267	12895.41
532.632	12979.7
532.998	12882.75
533.364	12935.63
533.73	12947.39
534.095	12964.11
534.461	12934.5
534.826	12976.99
535.192	12946.48
535.557	13007.05
535.923	12873.49
536.288	12842.08
536.653	12809.08
537.019	12837.11
537.384	12797.11
537.749	12856.31
538.114	12744.91
538.479	12721.18
538.845	12707.17
539.21	12713.04
539.575	12689.54
539.94	12686.38
540.305	12621.97
540.67	12526.61
541.034	12575.64
541.399	12617.9
541.764	12520.96
542.129	12489.09
542.494	12415.2
542.858	12479.83
543.223	12346.72
543.587	12351.92
543.952	12289.32
544.316	12350.79
544.681	12277.12
545.045	12219.95
545.41	12259.27
545.774	12337.91
546.138	12194.86
546.503	12103.57
546.867	12060.18
547.231	12111.48
547.595	12126.16
547.959	12079.16
548.324	12073.06
548.688	12021.53
549.052	11942.67
549.416	11938.15
549.779	11883.23
550.143	11865.15
550.507	11878.26
550.871	11856.34
551.235	11730.24
551.599	11719.85
551.962	11767.98
552.326	11774.99
552.689	11736.34
553.053	11687.53
553.417	11648.66
553.78	11700.19
554.143	11596.69
554.507	11700.64
554.87	11626.06
555.234	11674.88
555.597	11477.14
555.96	11590.59
556.323	11530.47
556.686	11519.85
557.05	11588.33
557.413	11559.63
557.776	11465.39
558.139	11584.94
558.502	11516.69
558.865	11484.6
559.228	11473.75
559.59	11476.01
559.953	11515.78
560.316	11566.18
560.679	11486.41
561.041	11506.97
561.404	11486.41
561.767	11587.87
562.129	11492.06
562.492	11554.88
562.854	11550.81
563.217	11490.7
563.579	11483.7
563.941	11521.21
564.304	11691.6
564.666	11612.05
565.028	11640.3
565.39	11580.87
565.753	11674.88
566.115	11584.03
566.477	11649.79
566.839	11652.73
567.201	11724.37
567.563	11592.39
567.925	11675.55
568.287	11610.25
568.648	11618.61
569.01	11657.25
569.372	11738.6
569.734	11701.09
570.095	11728.89
570.457	11775.66
570.819	11758.72
571.18	11702.67
571.542	11713.75
571.903	11818.6
572.265	11811.82
572.626	11856.34
572.987	11785.16
573.349	11754.2
573.71	11850.47
574.071	11817.7
574.432	11808.66
574.794	11933.17
575.155	11852.95
575.516	11889.79
575.877	11942.89
576.238	11924.36
576.599	11875.78
576.96	11920.29
577.32	11900.63
577.681	11915.32
578.042	11918.03
578.403	11930.92
578.763	11891.37
579.124	11906.51
579.485	11907.86
579.845	12010.24
580.206	11949.22
580.566	11879.62
580.927	11963.46
581.287	11974.53
581.648	11859.5
582.008	11992.38
582.368	11915.32
582.728	11970.69
583.089	11919.16
583.449	11938.82
583.809	11887.75
584.169	11889.79
584.529	11889.79
584.889	11992.83
585.249	11925.27
585.609	11830.8
585.969	11963.46
586.329	11847.3
586.688	11860.41
587.048	11780.18
587.408	11802.1
587.768	11853.18
588.127	11712.84
588.487	11710.58
588.846	11837.13
589.206	11728.89
589.565	11716.01
589.925	11774.08
590.284	11751.03
590.643	11738.38
591.003	11799.39
591.362	11789
591.721	11774.76
592.08	11695.89
592.44	11763.01
592.799	11745.38
593.158	11739.06
593.517	11748.55
593.876	11787.64
594.235	11737.25
594.593	11739.51
594.952	11716.01
595.311	11693.18
595.67	11693.63
596.029	11732.05
596.387	11687.08
596.746	11729.56
597.104	11655.89
597.463	11627.65
597.822	11711.49
598.18	11651.6
598.538	11580.42
598.897	11708.1
599.255	11637.14
599.613	11775.66
599.972	11626.29
600.33	11646.85
600.688	11611.83
601.046	11706.51
601.404	11713.52
601.762	11736.34
602.12	11714.88
602.478	11688.21
602.836	11719.17
603.194	11674.42
603.552	11654.09
603.91	11603.47
604.268	11689.79
604.625	11692.5
604.983	11675.33
605.341	11622.9
605.698	11669.23
606.056	11740.86
606.413	11707.42
606.771	11684.37
607.128	11738.38
607.485	11632.17
607.843	11575.67
608.2	11716.91
608.557	11773.41
608.914	11796.91
609.272	11717.36
609.629	11695.67
609.986	11743.58
610.343	11739.28
610.7	11879.84
611.057	11743.12
611.414	11764.37
611.771	11789.9
612.127	11849.11
612.484	11756.91
612.841	11877.58
613.198	11813.86
613.554	11750.35
613.911	11921.42
614.267	11884.81
614.624	11849.34
614.98	11865.15
615.337	11947.41
615.693	11860.18
616.05	11909.9
616.406	11924.36
616.762	11855.66
617.118	11941.31
617.475	11909.67
617.831	11965.72
618.187	11911.25
618.543	11965.49
618.899	12019.95
619.255	11939.28
619.611	11919.16
619.967	11997.58
620.323	12045.94
620.678	11994.64
621.034	11967.98
621.39	11936.56
621.746	11910.12
622.101	12023.57
622.457	11991.48
622.812	12029.22
623.168	12018.82
623.523	12000.52
623.879	12083.23
624.234	11994.19
624.589	11962.55
624.945	12041.87
625.3	12021.53
625.655	12011.59
626.01	12053.17
626.365	12069.44
626.72	11990.57
627.075	12039.39
627.43	12040.97
627.785	11958.71
628.14	11977.47
628.495	11988.31
628.85	12020.63
629.205	11952.16
629.559	12005.49
629.914	11996
630.269	12004.36
630.623	11936.11
630.978	11889.56
631.332	11933.63
631.687	11985.38
632.041	11932.05
632.396	11868.09
632.75	11853.4
633.104	11864.25
633.459	11758.49
633.813	11726.63
634.167	11729.79
634.521	11839.84
634.875	11774.76
635.229	11770.47
635.583	11700.19
635.937	11746.51
636.291	11685.72
636.645	11758.72
636.999	11648.44
637.352	11782.67
637.706	11592.17
638.06	11623.8
638.413	11629.68
638.767	11669.45
639.121	11657.25
639.474	11610.47
639.828	11606.4
640.181	11606.86
640.534	11535.45
640.888	11528.67
641.241	11492.73
641.594	11536.58
641.947	11589.91
642.301	11551.26
642.654	11490.93
643.007	11533.64
643.36	11567.53
643.713	11527.99
644.066	11508.55
644.419	11478.72
644.771	11398.05
645.124	11318.28
645.477	11320.54
645.83	11187.21
646.182	11168.68
646.535	11127.32
646.888	11161.67
647.24	11121.67
647.593	11155.12
647.945	11138.85
648.298	11090.71
648.65	11063.14
649.002	11004.61
649.355	11179.97
649.707	11062.01
650.059	11199.41
650.411	11299.07
650.763	11237.37
651.115	11396.69
651.467	11380.87
651.819	11339.52
652.171	11338.61
652.523	11315.11
652.875	11342.91
653.227	11264.72
653.578	11337.26
653.93	11345.17
654.282	11222.01
654.633	11254.1
654.985	11301.33
655.337	11361.66
655.688	11359.86
656.039	11347.2
656.391	11354.43
656.742	11280.99
657.094	11353.08
657.445	11359.86
657.796	11328.45
658.147	11341.33
658.498	11301.78
658.849	11312.4
659.2	11398.05
659.551	11318.95
659.902	11339.52
660.253	11365.28
660.604	11368.44
660.955	11312.85
661.306	11308.56
661.656	11280.08
662.007	11328.67
662.358	11388.1
662.708	11382.68
663.059	11437.82
663.409	11321.67
663.76	11387.43
664.11	11401.66
664.461	11385.62
664.811	11368.22
665.161	11442.79
665.511	11403.92
665.862	11311.27
666.212	11390.59
666.562	11418.16
666.912	11400.08
667.262	11373.19
667.612	11383.58
667.962	11470.14
668.312	11401.44
668.662	11450.02
669.011	11414.09
669.361	11362.57
669.711	11359.18
670.06	11349.24
670.41	11384.49
670.76	11329.57
671.109	11335.22
671.459	11309.69
671.808	11280.08
672.157	11350.37
672.507	11260.42
672.856	11221.33
673.205	11179.07
673.554	11311.27
673.904	11268.56
674.253	11385.62
674.602	11263.59
674.951	11112.63
675.3	11082.35
675.649	11325.28
675.998	11227.88
676.346	11172.07
676.695	11184.72
677.044	11180.2
677.393	11161.67
677.741	11190.37
678.09	11074.21
678.438	11117.15
678.787	11135.46
679.135	11144.27
679.484	11086.87
679.832	11053.88
680.181	11011.17
680.529	11056.36
680.877	11059.98
681.225	10993.31
681.573	11070.6
681.922	10953.31
682.27	10975.23
682.618	10987.21
682.966	10919.42
683.314	10916.03
683.661	10840.77
684.009	10788.12
684.357	10878.74
684.705	10862.24
685.053	10836.25
685.4	10846.42
685.748	10735.24
686.095	10747.44
686.443	10756.03
686.79	10599.88
687.138	10683.94
687.485	10620.44
687.832	10600.1
688.18	10647.56
688.527	10550.39
688.874	10624.96
689.221	10559.43
689.568	10532.08
689.915	10522.14
690.262	10486.21
690.609	10408.7
690.956	10376.61
691.303	10350.84
691.65	10338.41
691.997	10335.25
692.344	10260.22
692.69	10245.31
693.037	10265.65
693.383	10052.09
693.73	10137.29
694.077	10102.71
694.423	10084.41
694.769	10014.81
695.116	10002.83
695.462	9971.87
695.808	9919.44
696.155	9958.99
696.501	9893.91
696.847	9888.93
697.193	9806.45
697.539	9738.2
697.885	9629.51
698.231	9722.61
698.577	9671.09
698.923	9652.78
699.269	9603.97
699.614	9541.6
699.96	9485.1
700.306	9512.45
700.651	9393.13
700.997	9396.52
701.342	9362.4
701.688	9355.39
702.033	9302.51
702.379	9295.05
702.724	9197.88
703.069	9263.41
703.415	9194.26
703.76	9167.6
704.105	9201.72
704.45	9160.14
704.795	9009.18
705.14	9058
705.485	9077.66
705.83	9029.97
706.175	9013.7
706.52	8968.51
706.865	9004.21
707.209	8945.46
707.554	8891
707.899	8910.66
708.243	8839.7
708.588	8738.23
708.932	8733.71
709.277	8709.08
709.621	8740.94
709.966	8686.25
710.31	8733.49
710.654	8694.16
710.998	8626.14
711.342	8631.57
711.687	8597.9
712.031	8487.16
712.375	8531.91
712.719	8505.92
713.063	8517.9
713.407	8564.22
713.75	8469.76
714.094	8489.42
714.438	8474.28
714.782	8476.99
715.125	8448.75
715.469	8437.22
715.812	8360.84
716.156	8390.22
716.499	8389.99
716.843	8415.08
717.186	8325.13
717.53	8360.84
717.873	8358.13
718.216	8321.29
718.559	8311.12
718.902	8230
719.246	8289.88
719.589	8234.97
719.932	8173.95
720.275	8223.67
720.617	8202.65
720.96	8210.56
721.303	8227.96
721.646	8200.39
721.989	8135.31
722.331	8200.84
722.674	8182.77
723.016	8176.89
723.359	8155.65
723.701	8135.08
724.044	8131.92
724.386	8042.2
724.729	8128.08
725.071	8126.04
725.413	8085.14
725.755	8084.01
726.097	8033.62
726.439	8036.1
726.782	8057.8
727.124	8091.69
727.465	8092.37
727.807	8050.57
728.149	8074.52
728.491	8034.07
728.833	8041.07
729.175	8055.76
729.516	8029.32
729.858	8069.77
730.199	7989.32
730.541	7993.39
730.882	7999.72
731.224	7973.28
731.565	7930.34
731.906	7988.87
732.248	7930.34
732.589	7946.84
732.93	7975.31
733.271	7913.17
733.612	7961.53
733.953	7993.62
734.294	7898.48
734.635	7920.4
734.976	7978.7
735.317	7941.87
735.658	7931.47
735.999	7954.07
736.339	7970.34
736.68	8010.34
737.021	8000.85
737.361	7926.27
737.702	8044.01
738.042	8046.05
738.383	8006.5
738.723	8088.53
739.063	8046.95
739.404	7990.68
739.744	8037.23
740.084	8071.36
740.424	8055.31
740.764	8022.77
741.104	8058.25
741.444	8052.37
741.784	8044.24
742.124	8037.23
742.464	8090.56
742.804	8059.83
743.143	8061.86
743.483	8145.03
743.823	8165.59
744.162	8204.23
744.502	8242.2
744.841	8268.86
745.181	8284.23
745.52	8295.3
745.86	8305.93
746.199	8365.13
746.538	8382.53
746.877	8409.65
747.216	8478.12
747.556	8522.19
747.895	8533.94
748.234	8584.11
748.573	8652.36
748.911	8684.22
749.25	8767.38
749.589	8820.71
749.928	8861.84
750.267	8918.34
750.605	8987.04
750.944	9098.22
751.283	9011.67
751.621	9176.19
751.96	9256.18
752.298	9338.67
752.636	9389.51
752.975	9588.15
753.313	9575.27
753.651	9770.07
753.989	9739.33
754.327	9920.35
754.666	9966.67
755.004	10149.72
755.342	10264.07
755.679	10386.77
756.017	10480.11
756.355	10579.31
756.693	10689.59
757.031	10872.64
757.368	10910.38
757.706	11114.67
758.044	11261.55
758.381	11417.93
758.719	11495.9
759.056	11701.09
759.394	11762.56
759.731	11911.71
