Data from hue_190_FLMS001491_00053.txt Node
Date: Tue Feb 07 16:45:28 GMT 2017
User: dcchb
Spectrometer: FLMS00149
Trigger mode: 0
Integration Time (sec): 2.000000E-2
Scans to average: 10
Electric dark correction enabled: true
Nonlinearity correction enabled: false
Boxcar width: 0
XAxis mode: Wavelengths
Number of Pixels in Spectrum: 2048
>>>>>Begin Spectral Data<<<<<
341.393	-15.31
341.776	-15.31
342.16	-15.31
342.543	-77.91
342.927	-73.84
343.31	-57.8
343.693	-45.37
344.077	-68.87
344.46	-70
344.843	-56.44
345.226	-38.81
345.61	-25.93
345.993	-20.96
346.376	-17.34
346.759	14.07
347.142	31.47
347.525	18.36
347.908	58.59
348.291	75.31
348.674	100.62
349.057	103.1
349.44	127.06
349.823	142.43
350.206	162.76
350.588	197.34
350.971	220.16
351.354	210.22
351.737	220.62
352.119	239.37
352.502	266.49
352.884	258.35
353.267	293.38
353.65	291.57
354.032	282.08
354.414	292.03
354.797	324.12
355.179	318.69
355.562	314.4
355.944	341.06
356.326	347.62
356.709	331.12
357.091	335.19
357.473	339.03
357.855	325.02
358.238	344.91
358.62	364.57
359.002	353.49
359.384	346.04
359.766	332.93
360.148	328.18
360.53	339.93
360.912	324.12
361.294	350.33
361.676	341.74
362.057	348.07
362.439	321.86
362.821	324.79
363.203	327.05
363.584	329.77
363.966	301.97
364.348	317.34
364.729	308.97
365.111	317.56
365.493	322.08
365.874	315.3
366.256	320.5
366.637	298.35
367.019	318.69
367.4	314.85
367.781	325.92
368.163	329.31
368.544	301.74
368.925	320.5
369.306	313.27
369.688	306.72
370.069	309.88
370.45	296.77
370.831	308.97
371.212	307.39
371.593	306.04
371.974	306.94
372.355	292.03
372.736	313.27
373.117	298.13
373.498	308.75
373.879	302.87
374.26	332.03
374.641	317.79
375.021	304.68
375.402	327.28
375.783	329.09
376.163	318.01
376.544	322.76
376.925	330.22
377.305	307.17
377.686	337.67
378.066	314.85
378.447	308.75
378.827	299.71
379.208	333.38
379.588	336.77
379.968	311.91
380.349	331.35
380.729	335.19
381.109	349.65
381.489	320.5
381.87	328.41
382.25	314.4
382.63	341.06
383.01	342.42
383.39	340.16
383.77	321.4
384.15	337.45
384.53	354.85
384.91	337.45
385.29	341.74
385.67	340.16
386.049	328.86
386.429	364.11
386.809	350.78
387.189	359.6
387.568	336.54
387.948	360.95
388.328	339.26
388.707	347.62
389.087	325.47
389.466	348.97
389.846	346.49
390.225	358.69
390.605	366.83
390.984	354.85
391.363	368.63
391.743	360.95
392.122	350.33
392.501	367.28
392.881	365.24
393.26	380.16
393.639	374.74
394.018	377
394.397	395.3
394.776	372.48
395.155	378.8
395.534	385.81
395.913	384.45
396.292	376.09
396.671	389.88
397.05	386.49
397.429	391.46
397.808	376.54
398.186	410.89
398.565	390.1
398.944	384.23
399.323	407.28
399.701	416.54
400.08	411.57
400.458	374.96
400.837	403.89
401.215	401.4
401.594	423.77
401.972	417.22
402.351	409.76
402.729	426.26
403.107	448.63
403.486	431.01
403.864	458.58
404.242	426.71
404.62	434.17
404.999	443.66
405.377	439.37
405.755	462.64
406.133	453.38
406.511	442.76
406.889	467.16
407.267	463.1
407.645	460.84
408.023	474.62
408.401	484.11
408.779	480.04
409.156	515.52
409.534	502.64
409.912	496.99
410.29	516.2
410.667	527.95
411.045	508.07
411.422	528.86
411.8	544.9
412.178	551.91
412.555	566.37
412.933	556.2
413.31	568.86
413.687	570.66
414.065	591.45
414.442	603.43
414.819	602.53
415.197	605.46
415.574	579.48
415.951	632.13
416.328	628.29
416.705	642.3
417.082	655.41
417.46	658.57
417.837	661.51
418.214	682.52
418.591	666.25
418.967	697.21
419.344	690.66
419.721	692.24
420.098	725.91
420.475	727.49
420.852	722.98
421.228	762.75
421.605	767.49
421.982	770.21
422.358	767.27
422.735	780.6
423.111	818.11
423.488	837.77
423.864	825.12
424.241	843.42
424.617	885.46
424.994	872.12
425.37	863.31
425.746	910.09
426.123	925.68
426.499	915.06
426.875	930.43
427.251	924.55
427.627	969.3
428.003	980.37
428.379	955.96
428.756	997.09
429.132	1006.81
429.507	1010.2
429.883	1034.15
430.259	1042.74
430.635	1042.06
431.011	1047.03
431.387	1093.59
431.763	1090.88
432.138	1109.63
432.514	1147.82
432.89	1146.69
433.265	1173.58
433.641	1188.95
434.016	1223.08
434.392	1213.13
434.767	1252.9
435.143	1246.35
435.518	1280.47
435.894	1294.26
436.269	1363.64
436.644	1355.95
437.02	1366.8
437.395	1384.88
437.77	1387.82
438.145	1438.89
438.52	1488.38
438.895	1500.58
439.271	1487.93
439.646	1516.85
440.021	1556.85
440.395	1587.81
440.77	1540.58
441.145	1595.95
441.52	1604.08
441.895	1652.22
442.27	1682.5
442.645	1659.67
443.019	1704.42
443.394	1734.7
443.769	1748.94
444.143	1731.54
444.518	1764.53
444.892	1786.45
445.267	1777.18
445.641	1815.38
446.016	1827.35
446.39	1846.34
446.764	1842.04
447.139	1887.46
447.513	1894.7
447.887	1897.18
448.262	1877.52
448.636	1899.89
449.01	1963.39
449.384	1943.51
449.758	1983.51
450.132	2017.4
450.506	2027.12
450.88	2017.86
451.254	2026.67
451.628	2054.69
452.002	2076.84
452.376	2123.62
452.75	2143.05
453.123	2173.78
453.497	2172.43
453.871	2208.81
454.244	2240
454.618	2272.77
454.992	2265.99
455.365	2278.19
455.739	2338.75
456.112	2363.16
456.486	2385.76
456.859	2389.6
457.232	2459.65
457.606	2446.77
457.979	2502.36
458.352	2545.53
458.725	2607.67
459.099	2578.29
459.472	2622.36
459.845	2665.52
460.218	2667.56
460.591	2706.43
460.964	2729.93
461.337	2821.23
461.71	2848.12
462.083	2879.53
462.456	2887.66
462.829	2917.72
463.201	2940.54
463.574	2997.04
463.947	3011.73
464.32	3058.28
464.692	3151.39
465.065	3137.6
465.438	3195.9
465.81	3292.4
466.183	3290.37
466.555	3331.72
466.928	3352.06
467.3	3336.69
467.672	3418.5
468.045	3540.08
468.417	3528.55
468.789	3594.76
469.161	3588.66
469.534	3652.16
469.906	3756.79
470.278	3778.26
470.65	3803.57
471.022	3928.31
471.394	4002.44
471.766	3975.77
472.138	4087.41
472.51	4170.34
472.882	4240.4
473.253	4255.76
473.625	4338.47
473.997	4450.33
474.369	4435.87
474.74	4526.49
475.112	4606.26
475.484	4651.23
475.855	4726.49
476.227	4781.63
476.598	4923.32
476.97	4946.14
477.341	5091.45
477.713	5165.57
478.084	5210.77
478.455	5361.72
478.827	5349.29
479.198	5583.19
479.569	5544.09
479.94	5750.19
480.311	5786.8
480.682	5917.19
481.053	6046.9
481.424	6128.71
481.795	6183.17
482.166	6328.48
482.537	6378.65
482.908	6539.32
483.279	6588.13
483.65	6728.47
484.021	6892.53
484.391	6948.8
484.762	6985.86
485.133	7061.79
485.503	7111.28
485.874	7287.32
486.244	7341.33
486.615	7506.53
486.985	7592.17
487.356	7769.57
487.726	7860.64
488.097	7969.79
488.467	8036
488.837	8159.84
489.207	8272.83
489.578	8380.85
489.948	8455.43
490.318	8587.18
490.688	8593.95
491.058	8727.74
491.428	8842.31
491.798	8954.17
492.168	9038.91
492.538	9176.54
492.908	9167.73
493.278	9314.16
493.648	9264.9
494.017	9482.97
494.387	9512.12
494.757	9566.36
495.126	9701.04
495.496	9722.74
495.866	9690.65
496.235	9893.58
496.605	9940.59
496.974	10044.76
497.344	10067.14
497.713	10103.52
498.082	10199.34
498.452	10256.96
498.821	10344.19
499.19	10320.69
499.559	10328.37
499.928	10417.64
500.298	10475.26
500.667	10590.51
501.036	10507.35
501.405	10610.62
501.774	10600.91
502.143	10685.43
502.512	10704.18
502.88	10784.18
503.249	10732.43
503.618	10894.46
503.987	10897.62
504.356	10908.92
504.724	10907.11
505.093	10921.8
505.462	10973.55
505.83	11112.08
506.199	11070.73
506.567	11203.6
506.936	11166.32
507.304	11317.73
507.672	11352.3
508.041	11296.48
508.409	11394.79
508.777	11388.01
509.145	11451.05
509.514	11395.01
509.882	11446.31
510.25	11549.81
510.618	11442.69
510.986	11508
511.354	11625.29
511.722	11649.69
512.09	11680.88
512.458	11600.2
512.826	11709.35
513.193	11684.27
513.561	11639.75
513.929	11724.49
514.297	11839.29
514.664	11815.11
515.032	11838.16
515.4	11869.57
515.767	11851.72
516.135	11872.96
516.502	11823.02
516.869	12005.39
517.237	11953.41
517.604	11875.45
517.972	11915.9
518.339	11931.95
518.706	11938.73
519.073	11987.99
519.44	11960.65
519.808	12002.23
520.175	11945.96
520.542	12086.52
520.909	12043.81
521.276	12063.47
521.643	12046.75
522.009	12093.75
522.376	12089.46
522.743	12093.52
523.11	12099.63
523.477	12169.45
523.843	12202.45
524.21	12202.9
524.577	12234.54
524.943	12286.51
525.31	12195.22
525.676	12278.83
526.043	12240.41
526.409	12260.07
526.776	12292.84
527.142	12266.4
527.508	12251.49
527.874	12287.19
528.241	12252.62
528.607	12230.7
528.973	12279.28
529.339	12137.36
529.705	12222.79
530.071	12248.32
530.437	12259.62
530.803	12229.34
531.169	12147.76
531.535	12079.06
531.901	12042.45
532.267	12105.95
532.632	12177.14
532.998	12018.5
533.364	12037.03
533.73	12023.02
534.095	12013.98
534.461	11903.02
534.826	11975.56
535.192	11958.16
535.557	11938.95
535.923	11792.29
536.288	11748.45
536.653	11770.37
537.019	11691.95
537.384	11666.42
537.749	11636.36
538.114	11609.24
538.479	11523.82
538.845	11503.03
539.21	11469.13
539.575	11404.5
539.94	11422.13
540.305	11385.97
540.67	11276.37
541.034	11221.23
541.399	11249.03
541.764	11173.77
542.129	11110.5
542.494	11079.54
542.858	11035.92
543.223	10988.24
543.587	11018.98
543.952	10855.36
544.316	10889.94
544.681	10823.05
545.045	10809.04
545.41	10687.23
545.774	10701.24
546.138	10693.79
546.503	10634.81
546.867	10498.09
547.231	10553.68
547.595	10461.02
547.959	10508.93
548.324	10376.96
548.688	10343.29
549.052	10267.36
549.416	10265.32
549.779	10152.33
550.143	10086.8
550.507	10071.43
550.871	10043.41
551.235	9988.95
551.599	10044.76
551.962	9970.87
552.326	9921.6
552.689	9847.03
553.053	9841.15
553.417	9759.8
553.78	9852
554.143	9774.04
554.507	9741.04
554.87	9680.71
555.234	9647.49
555.597	9616.07
555.96	9548.05
556.323	9543.08
556.686	9513.48
557.05	9497.21
557.413	9439.58
557.776	9433.48
558.139	9491.33
558.502	9398.45
558.865	9347.83
559.228	9349.42
559.59	9350.55
559.953	9299.7
560.316	9347.83
560.679	9323.65
561.041	9330.66
561.404	9289.08
561.767	9335.63
562.129	9248.63
562.492	9312.81
562.854	9182.87
563.217	9176.54
563.579	9176.76
563.941	9263.09
564.304	9157.1
564.666	9181.51
565.028	9189.42
565.39	9175.18
565.753	9189.19
566.115	9154.84
566.477	9184.67
566.839	9170.89
567.201	9137.67
567.563	9176.09
567.925	9177.22
568.287	9146.03
568.648	9110.33
569.01	9165.92
569.372	9176.09
569.734	9142.87
570.095	9104.45
570.457	9189.42
570.819	9149.42
571.18	9185.8
571.542	9152.13
571.903	9101.29
572.265	9139.93
572.626	9153.71
572.987	9127.73
573.349	9147.61
573.71	9134.51
574.071	9158.69
574.432	9153.04
574.794	9176.76
575.155	9170.66
575.516	9114.17
575.877	9149.87
576.238	9186.26
576.599	9122.98
576.96	9140.38
577.32	9120.27
577.681	9152.13
578.042	9107.39
578.403	9189.87
578.763	9071.91
579.124	9204.11
579.485	9084.11
579.845	9139.7
580.206	9176.76
580.566	9071.46
580.927	9093.15
581.287	9094.73
581.648	9114.85
582.008	9137.9
582.368	9068.97
582.728	9118.46
583.089	9068.74
583.449	9067.16
583.809	9052.47
584.169	9049.31
584.529	8928.18
584.889	9016.99
585.249	8958.24
585.609	8963.89
585.969	9002.53
586.329	8949.2
586.688	9024
587.048	8970.89
587.408	8902.65
587.768	8918.47
588.127	8952.14
588.487	8872.37
588.846	8996.2
589.206	8830.56
589.565	8894.96
589.925	8904
590.284	8899.03
590.643	8917.56
591.003	8899.48
591.362	8889.09
591.721	8831.24
592.08	8954.62
592.44	8913.72
592.799	8863.55
593.158	8786.27
593.517	8858.35
593.876	8783.78
594.235	8770.22
594.593	8794.18
594.952	8774.74
595.311	8775.19
595.67	8801.63
596.029	8759.6
596.387	8776.55
596.746	8787.85
597.104	8720.51
597.463	8745.82
597.822	8748.53
598.18	8714.4
598.538	8713.73
598.897	8760.73
599.255	8659.49
599.613	8783.78
599.972	8727.28
600.33	8727.51
600.688	8686.83
601.046	8725.7
601.404	8732.93
601.762	8676.44
602.12	8757.34
602.478	8754.4
602.836	8722.76
603.194	8660.39
603.552	8708.08
603.91	8677.34
604.268	8705.14
604.625	8699.94
604.983	8704.91
605.341	8675.31
605.698	8685.7
606.056	8727.51
606.413	8701.52
606.771	8753.95
607.128	8794.4
607.485	8654.07
607.843	8664.46
608.2	8695.87
608.557	8668.76
608.914	8685.93
609.272	8739.94
609.629	8735.42
609.986	8789.66
610.343	8713.95
610.7	8756.89
611.057	8749.66
611.414	8713.05
611.771	8746.04
612.127	8763.44
612.484	8754.4
612.841	8758.92
613.198	8808.19
613.554	8768.64
613.911	8821.75
614.267	8821.75
614.624	8846.15
614.98	8731.35
615.337	8890.9
615.693	8827.62
616.05	8817.23
616.406	8792.14
616.762	8815.19
617.118	8845.47
617.475	8801.18
617.831	8852.25
618.187	8858.58
618.543	8826.04
618.899	8859.48
619.255	8863.33
619.611	8867.39
619.967	8874.4
620.323	8879.37
620.678	8840.05
621.034	8864.23
621.39	8810.67
621.746	8792.82
622.101	8928.41
622.457	8856.77
622.812	8834.85
623.168	8911.69
623.523	8907.17
623.879	8876.43
624.234	8894.74
624.589	8803.44
624.945	8857.68
625.3	8863.78
625.655	8828.98
626.01	8835.76
626.365	8824.91
626.72	8822.2
627.075	8819.26
627.43	8836.89
627.785	8835.76
628.14	8806.15
628.495	8790.79
628.85	8816.55
629.205	8768.41
629.559	8820.16
629.914	8781.07
630.269	8783.33
630.623	8803.67
630.978	8814.51
631.332	8795.76
631.687	8696.55
632.041	8708.08
632.396	8779.49
632.75	8719.83
633.104	8732.03
633.459	8647.96
633.813	8703.56
634.167	8739.04
634.521	8664.01
634.875	8684.57
635.229	8716.21
635.583	8581.75
635.937	8634.18
636.291	8604.8
636.645	8614.07
636.999	8600.51
637.352	8595.31
637.706	8546.72
638.06	8585.37
638.413	8563
638.767	8501.75
639.121	8537.69
639.474	8465.6
639.828	8521.41
640.181	8492.71
640.534	8531.81
640.888	8497.69
641.241	8444.35
641.594	8436.22
641.947	8487.97
642.301	8484.35
642.654	8492.71
643.007	8497.01
643.36	8494.07
643.713	8407.07
644.066	8445.03
644.419	8364.58
644.771	8289.1
645.124	8273.06
645.477	8292.95
645.83	8218.6
646.182	8212.27
646.535	8138.15
646.888	8190.12
647.24	8153.51
647.593	8191.03
647.945	8156.68
648.298	8126.85
648.65	8071.71
649.002	8136.57
649.355	8177.47
649.707	8161.65
650.059	8187.86
650.411	8340.4
650.763	8314.19
651.115	8355.54
651.467	8270.12
651.819	8363
652.171	8377.69
652.523	8330.01
652.875	8313.51
653.227	8285.49
653.578	8382.43
653.93	8313.96
654.282	8284.13
654.633	8201.2
654.985	8294.75
655.337	8332.27
655.688	8323.68
656.039	8358.93
656.391	8291.14
656.742	8276.45
657.094	8297.92
657.445	8342.66
657.796	8267.41
658.147	8308.09
658.498	8325.71
658.849	8326.39
659.2	8298.14
659.551	8284.81
659.902	8348.09
660.253	8342.44
660.604	8364.58
660.955	8315.09
661.306	8378.82
661.656	8335.88
662.007	8323.23
662.358	8327.3
662.708	8354.64
663.059	8372.72
663.409	8321.42
663.76	8399.61
664.11	8436.67
664.461	8409.33
664.811	8394.19
665.161	8383.79
665.511	8395.54
665.862	8379.95
666.212	8412.94
666.562	8427.41
666.912	8418.14
667.262	8429.67
667.612	8397.35
667.962	8429.44
668.312	8436.44
668.662	8382.43
669.011	8349.67
669.361	8394.86
669.711	8412.72
670.06	8376.11
670.41	8352.83
670.76	8394.41
671.109	8369.78
671.459	8330.68
671.808	8363.68
672.157	8376.33
672.507	8314.64
672.856	8322.78
673.205	8294.08
673.554	8332.49
673.904	8302.66
674.253	8330.23
674.602	8257.92
674.951	8201.65
675.3	8170.69
675.649	8287.52
675.998	8221.08
676.346	8259.95
676.695	8248.88
677.044	8171.37
677.393	8264.92
677.741	8191.48
678.09	8216.11
678.438	8236.68
678.787	8194.87
679.135	8218.37
679.484	8202.1
679.832	8182.89
680.181	8109.22
680.529	8151.25
680.877	8083.69
681.225	8064.03
681.573	8135.89
681.922	8037.13
682.27	8029
682.618	8088.43
682.966	8005.95
683.314	8069
683.661	8021.77
684.009	7988.1
684.357	7958.27
684.705	7971.6
685.053	7900.64
685.4	7925.5
685.748	7890.24
686.095	7888.66
686.443	7851.6
686.79	7817.93
687.138	7850.7
687.485	7816.35
687.832	7796.91
688.18	7812.73
688.527	7682.57
688.874	7715.79
689.221	7690.02
689.568	7664.26
689.915	7625.17
690.262	7640.76
690.609	7603.7
690.956	7537.03
691.303	7612.51
691.65	7567.32
691.997	7520.54
692.344	7472.63
692.69	7424.04
693.037	7506.75
693.383	7376.81
693.73	7383.37
694.077	7351.73
694.423	7346.53
694.769	7335.23
695.116	7310.37
695.462	7252.75
695.808	7266.08
696.155	7203.26
696.501	7180.88
696.847	7181.79
697.193	7102.69
697.539	7192.64
697.885	7059.53
698.231	7067.22
698.577	7037.84
698.923	7017.27
699.269	6958.52
699.614	6915.58
699.96	6930.5
700.306	6923.49
700.651	6871.29
700.997	6886.43
701.342	6855.24
701.688	6793.78
702.033	6814.57
702.379	6812.08
702.724	6765.08
703.069	6806.21
703.415	6753.55
703.76	6705.19
704.105	6680.78
704.45	6648.47
704.795	6611.86
705.14	6572.77
705.485	6562.14
705.83	6553.56
706.175	6540.45
706.52	6530.05
706.865	6506.1
707.209	6491.19
707.554	6412.77
707.899	6481.69
708.243	6398.76
708.588	6398.53
708.932	6377.06
709.277	6340.68
709.621	6340.91
709.966	6281.47
710.31	6311.75
710.654	6235.82
710.998	6273.79
711.342	6285.99
711.687	6234.47
712.031	6233.56
712.375	6215.49
712.719	6219.33
713.063	6154.24
713.407	6174.58
713.75	6161.25
714.094	6213.45
714.438	6107.69
714.782	6186.33
715.125	6112.44
715.469	6129.84
715.812	6092.55
716.156	6074.02
716.499	6054.13
716.843	6069.05
717.186	6003.06
717.53	6070.41
717.873	6041.71
718.216	6027.02
718.559	6033.57
718.902	5959.45
719.246	6071.08
719.589	6025.89
719.932	6001.48
720.275	5903.63
720.617	5977.75
720.96	5943.4
721.303	5990.41
721.646	5933.23
721.989	5923.74
722.331	5943.86
722.674	5860.24
723.016	5893.01
723.359	5942.05
723.701	5897.08
724.044	5891.88
724.386	5905.66
724.729	5919.67
725.071	5859.56
725.413	5874.7
725.755	5881.71
726.097	5886.91
726.439	5824.31
726.782	5891.88
727.124	5851.43
727.465	5827.47
727.807	5837.19
728.149	5853.46
728.491	5794.71
728.833	5865.44
729.175	5840.35
729.516	5829.96
729.858	5831.54
730.199	5893.23
730.541	5834.71
730.882	5851.88
731.224	5867.92
731.565	5842.16
731.906	5830.86
732.248	5879.9
732.589	5856.17
732.93	5834.03
733.271	5910.64
733.612	5850.3
733.953	5860.24
734.294	5838.1
734.635	5839.9
734.976	5889.85
735.317	5861.37
735.658	5830.86
735.999	5891.88
736.339	5881.48
736.68	5889.39
737.021	5819.34
737.361	5864.08
737.702	5934.14
738.042	5864.31
738.383	5887.59
738.723	5926.91
739.063	5901.37
739.404	5954.7
739.744	5922.61
740.084	5922.39
740.424	5928.71
740.764	5977.07
741.104	6032.21
741.444	6014.59
741.784	6013.46
742.124	6013.23
742.464	6025.21
742.804	6036.06
743.143	6062.95
743.483	6050.07
743.823	6072.67
744.162	6096.17
744.502	6091.2
744.841	6171.19
745.181	6217.07
745.52	6203.28
745.86	6246.45
746.199	6325.99
746.538	6289.38
746.877	6372.77
747.216	6459.1
747.556	6414.35
747.895	6523.73
748.234	6554.01
748.573	6571.41
748.911	6657.73
749.25	6708.58
749.589	6757.17
749.928	6878.52
750.267	6936.15
750.605	6951.06
750.944	7034.67
751.283	7045.07
751.621	7220.21
751.96	7201.45
752.298	7386.75
752.636	7430.82
752.975	7515.57
753.313	7564.6
753.651	7713.07
753.989	7857.03
754.327	7955.1
754.666	7983.58
755.004	8144.93
755.342	8297.01
755.679	8475.54
756.017	8558.48
756.355	8672.82
756.693	8805.02
757.031	8906.71
757.368	9034.4
757.706	9229.64
758.044	9326.14
758.381	9524.78
758.719	9715.73
759.056	9856.07
759.394	10039.79
759.731	10069.62
760.068	10369.73
760.405	10494.02
760.743	10667.8
761.08	10878.41
761.417	10981.01
761.754	11167.45
762.091	11352.07
762.428	11543.03
762.765	11648.11
763.102	11870.03
763.438	11999.97
763.775	12105.05
764.112	12360.64
764.449	12639.72
764.785	12771.92
765.122	12849.89
765.458	13050.79
765.795	13158.81
