Data from hue_230_FLMS001491_00067.txt Node
Date: Tue Feb 07 16:37:35 GMT 2017
User: dcchb
Spectrometer: FLMS00149
Trigger mode: 0
Integration Time (sec): 2.000000E-2
Scans to average: 10
Electric dark correction enabled: true
Nonlinearity correction enabled: false
Boxcar width: 0
XAxis mode: Wavelengths
Number of Pixels in Spectrum: 2048
>>>>>Begin Spectral Data<<<<<
341.393	-6.33
341.776	-6.33
342.16	-6.33
342.543	-76.16
342.927	-79.77
343.31	-54.69
343.693	-85.2
344.077	-56.04
344.46	-62.6
344.843	-66.21
345.226	-37.97
345.61	-31.19
345.993	-15.14
346.376	-14.46
346.759	7.91
347.142	42.48
347.525	33.45
347.908	51.07
348.291	78.42
348.674	92.88
349.057	117.29
349.44	112.31
349.823	138.08
350.206	159.09
350.588	196.38
350.971	206.32
351.354	218.53
351.737	227.34
352.119	225.53
352.502	254.23
352.884	269.6
353.267	263.95
353.65	282.03
354.032	287.22
354.414	301.91
354.797	303.72
355.179	331.52
355.562	308.47
355.944	334
356.326	330.61
356.709	322.93
357.091	329.71
357.473	374.91
357.855	324.96
358.238	344.4
358.62	322.03
359.002	342.59
359.384	337.17
359.766	314.34
360.148	344.62
360.53	322.93
360.912	323.61
361.294	314.34
361.676	326.77
362.057	302.14
362.439	296.94
362.821	315.92
363.203	328.13
363.584	310.5
363.966	323.38
364.348	310.05
364.729	323.16
365.111	303.72
365.493	294.46
365.874	310.5
366.256	285.42
366.637	316.15
367.019	288.35
367.4	323.16
367.781	321.35
368.163	284.74
368.544	310.73
368.925	311.63
369.306	328.35
369.688	320.44
370.069	316.15
370.45	309.82
370.831	314.34
371.212	291.52
371.593	323.38
371.974	284.74
372.355	323.38
372.736	297.39
373.117	300.11
373.498	320.22
373.879	302.59
374.26	299.2
374.641	306.21
375.021	311.86
375.402	318.18
375.783	305.3
376.163	326.55
376.544	312.31
376.925	330.61
377.305	341.91
377.686	308.01
378.066	321.12
378.447	333.1
378.827	341.69
379.208	331.97
379.588	336.04
379.968	325.87
380.349	331.52
380.729	313.44
381.109	319.77
381.489	315.92
381.87	320.9
382.25	327.45
382.63	320.9
383.01	332.65
383.39	331.06
383.77	347.56
384.15	332.65
384.53	352.76
384.91	344.4
385.29	338.97
385.67	337.62
386.049	329.26
386.429	361.57
386.809	340.56
387.189	325.19
387.568	330.39
387.948	325.64
388.328	326.32
388.707	361.12
389.087	356.15
389.466	344.17
389.846	351.4
390.225	343.72
390.605	343.95
390.984	341.69
391.363	372.42
391.743	357.05
392.122	365.19
392.501	357.96
392.881	360.67
393.26	381.91
393.639	362.93
394.018	374.91
394.397	360.44
394.776	376.04
395.155	376.26
395.534	385.07
395.913	371.06
396.292	357.05
396.671	363.61
397.05	356.15
397.429	405.19
397.808	379.88
398.186	384.85
398.565	376.26
398.944	414.23
399.323	393.89
399.701	393.89
400.08	383.72
400.458	402.7
400.837	384.17
401.215	406.77
401.594	395.47
401.972	405.41
402.351	392.98
402.729	407.45
403.107	404.51
403.486	409.03
403.864	442.25
404.242	429.82
404.62	439.99
404.999	420.55
405.377	439.31
405.755	423.72
406.133	433.89
406.511	435.92
406.889	449.25
407.267	441.12
407.645	431.18
408.023	456.03
408.401	450.38
408.779	461.23
409.156	479.76
409.534	461.91
409.912	455.58
410.29	492.19
410.667	479.76
411.045	491.06
411.422	511.17
411.8	508.69
412.178	519.31
412.555	527.44
412.933	546.65
413.31	527.44
413.687	543.26
414.065	559.08
414.442	542.58
414.819	551.17
415.197	543.94
415.574	565.86
415.951	560.66
416.328	584.84
416.705	578.29
417.082	600.89
417.46	596.37
417.837	598.18
418.214	601.34
418.591	619.42
418.967	626.65
419.344	627.55
419.721	611.51
420.098	645.86
420.475	664.62
420.852	649.93
421.228	668.01
421.605	670.72
421.982	680.21
422.358	706.65
422.735	689.47
423.111	692.64
423.488	706.2
423.864	732.41
424.241	719.08
424.617	750.94
424.994	757.27
425.37	742.13
425.746	772.64
426.123	789.58
426.499	769.25
426.875	788.68
427.251	809.02
427.627	813.99
428.003	818.74
428.379	826.42
428.756	835.68
429.132	849.24
429.507	880.43
429.883	850.83
430.259	902.12
430.635	895.12
431.011	917.72
431.387	910.94
431.763	933.76
432.138	929.69
432.514	976.02
432.89	975.34
433.265	985.28
433.641	998.84
434.016	1000.2
434.392	1037.03
434.767	1066.19
435.143	1062.34
435.518	1062.57
435.894	1076.58
436.269	1134.66
436.644	1117.48
437.02	1122.23
437.395	1130.14
437.77	1173.98
438.145	1187.99
438.52	1187.31
438.895	1236.8
439.271	1216.69
439.646	1241.32
440.021	1263.02
440.395	1285.16
440.77	1284.03
441.145	1284.94
441.52	1310.7
441.895	1338.5
442.27	1360.42
442.645	1351.6
443.019	1389.34
443.394	1376.91
443.769	1372.39
444.143	1392.96
444.518	1411.94
444.892	1423.92
445.267	1454.88
445.641	1437.25
446.016	1446.29
446.39	1464.14
446.764	1474.54
447.139	1482.9
447.513	1509.79
447.887	1496.68
448.262	1498.27
448.636	1525.16
449.01	1555.89
449.384	1539.17
449.758	1553.63
450.132	1589.79
450.506	1594.99
450.88	1573.52
451.254	1596.12
451.628	1605.61
452.002	1641.09
452.376	1631.6
452.75	1665.72
453.123	1670.01
453.497	1708.88
453.871	1704.36
454.244	1739.84
454.618	1743.46
454.992	1746.17
455.365	1770.35
455.739	1827.3
456.112	1818.26
456.486	1820.97
456.859	1825.49
457.232	1883.34
457.606	1871.82
457.979	1907.29
458.352	1964.24
458.725	1940.06
459.099	2003.56
459.472	2028.87
459.845	2026.84
460.218	2018.7
460.591	2069.78
460.964	2079.49
461.337	2122.88
461.71	2136.89
462.083	2145.25
462.456	2181.86
462.829	2211.24
463.201	2193.16
463.574	2196.78
463.947	2239.72
464.32	2286.72
464.692	2290.11
465.065	2311.35
465.438	2330.79
465.81	2385.25
466.183	2369.66
466.555	2436.09
466.928	2413.95
467.3	2408.07
467.672	2465.92
468.045	2530.1
468.417	2552.93
468.789	2559.71
469.161	2608.07
469.534	2626.6
469.906	2663.66
470.278	2685.35
470.65	2712.02
471.022	2777.55
471.394	2808.51
471.766	2827.95
472.138	2849.19
472.51	2916.08
472.882	2934.39
473.253	3008.51
473.625	3005.34
473.997	3052.8
474.369	3072.91
474.74	3092.8
475.112	3192.01
475.484	3196.75
475.855	3230.65
476.227	3269.52
476.598	3326.69
476.97	3365.56
477.341	3422.06
477.713	3465.22
478.084	3492.79
478.455	3561.94
478.827	3589.96
479.198	3713.8
479.569	3668.38
479.94	3787.7
480.311	3814.36
480.682	3884.64
481.053	3954.47
481.424	4026.33
481.795	4029.05
482.166	4111.98
482.537	4147.46
482.908	4184.52
483.279	4238.08
483.65	4305.42
484.021	4361.02
484.391	4410.96
484.762	4440.79
485.133	4433.1
485.503	4531.63
485.874	4595.81
486.244	4623.38
486.615	4731.85
486.985	4761.46
487.356	4822.02
487.726	4840.32
488.097	4942.92
488.467	4944.73
488.837	5078.96
489.207	5087.32
489.578	5159.19
489.948	5186.53
490.318	5218.62
490.688	5269.92
491.058	5352.18
491.428	5431.72
491.798	5440.53
492.168	5560.31
492.538	5549.91
492.908	5622.68
493.278	5652.96
493.648	5617.03
494.017	5666.29
494.387	5765.27
494.757	5749.45
495.126	5840.98
495.496	5846.85
495.866	5873.74
496.235	5950.35
496.605	5972.5
496.974	6030.58
497.344	6068.32
497.713	6093.63
498.082	6089.33
498.452	6201.19
498.821	6200.97
499.19	6185.37
499.559	6199.84
499.928	6224.24
500.298	6256.33
500.667	6291.13
501.036	6325.26
501.405	6359.15
501.774	6368.42
502.143	6387.85
502.512	6419.94
502.88	6461.75
503.249	6494.07
503.618	6487.74
503.987	6506.5
504.356	6558.47
504.724	6580.62
505.093	6553.05
505.462	6577.45
505.83	6649.77
506.199	6654.29
506.567	6632.14
506.936	6746.72
507.304	6732.7
507.672	6734.74
508.041	6737.68
508.409	6802.98
508.777	6790.78
509.145	6835.75
509.514	6848.86
509.882	6850.89
510.25	6891.34
510.618	6912.13
510.986	6920.27
511.354	6941.74
511.722	6978.8
512.09	6978.35
512.458	7027.84
512.826	7017.44
513.193	7022.19
513.561	7068.29
513.929	7066.93
514.297	7156.42
514.664	7094.95
515.032	7115.52
515.4	7162.98
515.767	7172.69
516.135	7138.8
516.502	7120.94
516.869	7246.36
517.237	7224.67
517.604	7138.12
517.972	7245.46
518.339	7191.22
518.706	7264.89
519.073	7223.09
519.44	7271
519.808	7306.25
520.175	7289.98
520.542	7385.34
520.909	7305.34
521.276	7306.47
521.643	7378.56
522.009	7393.03
522.376	7384.21
522.743	7381.05
523.11	7443.19
523.477	7456.3
523.843	7540.59
524.21	7515.51
524.577	7481.84
524.943	7538.33
525.31	7579.01
525.676	7579.91
526.043	7583.98
526.409	7600.25
526.776	7650.65
527.142	7647.03
527.508	7672.79
527.874	7651.55
528.241	7662.17
528.607	7640.48
528.973	7753.02
529.339	7711.66
529.705	7715.5
530.071	7775.16
530.437	7741.27
530.803	7741.94
531.169	7732.23
531.535	7676.86
531.901	7679.35
532.267	7647.71
532.632	7709.85
532.998	7709.18
533.364	7736.52
533.73	7722.73
534.095	7743.07
534.461	7731.77
534.826	7760.47
535.192	7761.83
535.557	7722.06
535.923	7661.27
536.288	7671.89
536.653	7706.69
537.019	7627.6
537.384	7743.3
537.749	7664.43
538.114	7620.14
538.479	7600.03
538.845	7684.54
539.21	7588.5
539.575	7655.17
539.94	7585.11
540.305	7591.21
540.67	7583.08
541.034	7536.07
541.399	7512.8
541.764	7540.37
542.129	7555.06
542.494	7496.98
542.858	7561.16
543.223	7477.09
543.587	7528.62
543.952	7435.06
544.316	7464.21
544.681	7501.27
545.045	7432.8
545.41	7501.27
545.774	7502.85
546.138	7449.07
546.503	7414.04
546.867	7387.15
547.231	7442.06
547.595	7396.42
547.959	7362.97
548.324	7386.92
548.688	7365.91
549.052	7372.69
549.416	7322.52
549.779	7367.72
550.143	7306.47
550.507	7311.9
550.871	7298.79
551.235	7313.03
551.599	7353.48
551.962	7275.74
552.326	7275.97
552.689	7352.35
553.053	7270.77
553.417	7200.71
553.78	7309.41
554.143	7251.79
554.507	7278
554.87	7235.97
555.234	7313.03
555.597	7241.84
555.96	7196.87
556.323	7163.65
556.686	7170.21
557.05	7256.53
557.413	7223.99
557.776	7244.1
558.139	7228.06
558.502	7231.22
558.865	7307.15
559.228	7210.88
559.59	7289.3
559.953	7258.57
560.316	7283.42
560.679	7280.94
561.041	7359.35
561.404	7307.6
561.767	7355.74
562.129	7286.59
562.492	7345.8
562.854	7335.17
563.217	7346.93
563.579	7387.83
563.941	7376.3
564.304	7403.42
564.666	7434.61
565.028	7420.37
565.39	7411.1
565.753	7428.73
566.115	7419.01
566.477	7459.69
566.839	7524.1
567.201	7545.56
567.563	7492.46
567.925	7601.38
568.287	7546.24
568.648	7530.42
569.01	7546.47
569.372	7606.35
569.734	7567.48
570.095	7627.37
570.457	7580.59
570.819	7680.93
571.18	7681.38
571.542	7632.79
571.903	7690.65
572.265	7765.22
572.626	7739.68
572.987	7707.14
573.349	7778.33
573.71	7792.79
574.071	7793.24
574.432	7807.93
574.794	7901.71
575.155	7860.13
575.516	7800.7
575.877	7875.5
576.238	7890.19
576.599	7880.92
576.96	7868.95
577.32	7954.14
577.681	7955.05
578.042	8011.09
578.403	8012.9
578.763	7974.48
579.124	7986
579.485	7986.91
579.845	8028.49
580.206	8048.38
580.566	8022.61
580.927	8062.39
581.287	8139.9
581.648	8066.91
582.008	8160.92
582.368	8109.84
582.728	8157.07
583.089	8179.22
583.449	8166.11
583.809	8181.93
584.169	8155.04
584.529	8136.96
584.889	8263.96
585.249	8207.92
585.609	8153.46
585.969	8233.23
586.329	8193.68
586.688	8261.03
587.048	8253.12
587.408	8215.6
587.768	8248.6
588.127	8269.61
588.487	8254.25
588.846	8289.05
589.206	8293.34
589.565	8283.17
589.925	8370.85
590.284	8335.83
590.643	8308.26
591.003	8336.28
591.362	8405.43
591.721	8339.22
592.08	8380.57
592.44	8477.74
592.799	8428.03
593.158	8418.31
593.517	8478.65
593.876	8451.3
594.235	8413.11
594.593	8456.27
594.952	8471.64
595.311	8394.13
595.67	8440.23
596.029	8526.1
596.387	8523.39
596.746	8475.48
597.104	8460.57
597.463	8455.37
597.822	8499.66
598.18	8506.89
598.538	8434.35
598.897	8555.48
599.255	8482.04
599.613	8563.16
599.972	8486.1
600.33	8541.7
600.688	8520.23
601.046	8563.16
601.404	8593.22
601.762	8597.06
602.12	8600.23
602.478	8611.07
602.836	8603.62
603.194	8540.34
603.552	8581.7
603.91	8541.47
604.268	8667.79
604.625	8600
604.983	8582.83
605.341	8567.68
605.698	8588.02
606.056	8621.92
606.413	8635.93
606.771	8722.26
607.128	8655.59
607.485	8624.41
607.843	8655.37
608.2	8634.8
608.557	8719.77
608.914	8606.1
609.272	8678.64
609.629	8698.08
609.986	8798.41
610.343	8725.42
610.7	8777.4
611.057	8695.14
611.414	8708.47
611.771	8753.44
612.127	8759.09
612.484	8724.06
612.841	8743.95
613.198	8812.65
613.554	8762.48
613.911	8789.15
614.267	8793.44
614.624	8817.4
614.98	8793.67
615.337	8894
615.693	8811.52
616.05	8846.32
616.406	8910.5
616.762	8862.59
617.118	8849.48
617.475	8821.46
617.831	8915.7
618.187	8861.91
618.543	8894.91
618.899	8915.25
619.255	8929.71
619.611	8917.28
619.967	8993.89
620.323	8957.28
620.678	8927.67
621.034	8900.33
621.39	8969.71
621.746	8894.23
622.101	8943.27
622.457	8937.84
622.812	8950.27
623.168	8943.27
623.523	8911.86
623.879	8992.98
624.234	8894
624.589	8967.45
624.945	8972.87
625.3	8919.99
625.655	8927.45
626.01	8956.37
626.365	8934.68
626.72	8904.17
627.075	8931.74
627.43	8927.9
627.785	8876.15
628.14	8904.17
628.495	8923.61
628.85	8963.83
629.205	8887.22
629.559	8987.79
629.914	8862.14
630.269	8873.21
630.623	8827.34
630.978	8886.55
631.332	8911.63
631.687	8963.61
632.041	8879.77
632.396	8789.83
632.75	8808.58
633.104	8807.68
633.459	8769.26
633.813	8789.15
634.167	8776.49
634.521	8724.97
634.875	8769.26
635.229	8796.6
635.583	8703.95
635.937	8705.31
636.291	8712.31
636.645	8738.3
636.999	8649.49
637.352	8631.19
637.706	8643.39
638.06	8691.3
638.413	8685.42
638.767	8653.78
639.121	8766.78
639.474	8640.9
639.828	8641.58
640.181	8660.34
640.534	8593.22
640.888	8597.97
641.241	8622.37
641.594	8595.48
641.947	8551.64
642.301	8591.86
642.654	8623.05
643.007	8577.63
643.36	8627.8
643.713	8573.11
644.066	8573.56
644.419	8563.39
644.771	8414.47
645.124	8419.44
645.477	8459.89
645.83	8316.84
646.182	8285.88
646.535	8297.18
646.888	8280.91
647.24	8221.48
647.593	8243.85
647.945	8228.71
648.298	8187.58
648.65	8197.07
649.002	8171.08
649.355	8224.87
649.707	8236.85
650.059	8206.56
650.411	8363.62
650.763	8342.61
651.115	8436.61
651.467	8404.07
651.819	8387.58
652.171	8407.24
652.523	8419.67
652.875	8435.03
653.227	8398.88
653.578	8454.01
653.93	8489.49
654.282	8346
654.633	8380.57
654.985	8377.41
655.337	8417.86
655.688	8397.75
656.039	8423.28
656.391	8371.53
656.742	8433
657.094	8391.42
657.445	8430.51
657.796	8362.04
658.147	8347.8
658.498	8361.36
658.849	8385.32
659.2	8448.82
659.551	8375.6
659.902	8473.9
660.253	8346.67
660.604	8404.3
660.955	8337.18
661.306	8410.63
661.656	8367.01
662.007	8305.32
662.358	8418.54
662.708	8415.6
663.059	8383.96
663.409	8328.82
663.76	8404.52
664.11	8430.74
664.461	8375.82
664.811	8465.54
665.161	8409.5
665.511	8321.59
665.862	8404.98
666.212	8435.94
666.562	8422.15
666.912	8433.9
667.262	8395.03
667.612	8453.56
667.962	8388.93
668.312	8384.19
668.662	8452.43
669.011	8367.01
669.361	8358.42
669.711	8346.67
670.06	8410.4
670.41	8364.75
670.76	8364.07
671.109	8377.86
671.459	8338.09
671.808	8288.37
672.157	8348.71
672.507	8268.71
672.856	8270.52
673.205	8271.87
673.554	8384.41
673.904	8303.74
674.253	8275.26
674.602	8336.05
674.951	8238.2
675.3	8149.16
675.649	8254.92
675.998	8235.26
676.346	8263.51
676.695	8234.59
677.044	8206.34
677.393	8174.25
677.741	8224.42
678.09	8251.08
678.438	8159.11
678.787	8194.13
679.135	8171.99
679.484	8156.4
679.832	8113.46
680.181	8006.34
680.529	8140.58
680.877	8104.65
681.225	8125.89
681.573	8134.7
681.922	8037.53
682.27	8111.88
682.618	8066.23
682.966	8044.53
683.314	8060.13
683.661	8008.15
684.009	7905.33
684.357	7995.27
684.705	7947.81
685.053	7937.19
685.4	7907.36
685.748	7898.55
686.095	7928.61
686.443	7841.15
686.79	7823.98
687.138	7886.35
687.485	7850.87
687.832	7831.43
688.18	7821.72
688.527	7750.53
688.874	7712.57
689.221	7743.98
689.568	7678.22
689.915	7668.95
690.262	7640.25
690.609	7662.85
690.956	7552.12
691.303	7600.93
691.65	7549.18
691.997	7567.94
692.344	7534.49
692.69	7491.1
693.037	7456.75
693.383	7426.25
693.73	7409.52
694.077	7449.52
694.423	7379.69
694.769	7354.16
695.116	7340.15
695.462	7318.9
695.808	7307.38
696.155	7282.97
696.501	7265.8
696.847	7260.37
697.193	7255.85
697.539	7190.55
697.885	7144.44
698.231	7097.67
698.577	7084.33
698.923	7110.77
699.269	7075.29
699.614	7025.35
699.96	7090.89
700.306	7001.17
700.651	7011.79
700.997	6922.53
701.342	6868.75
701.688	6921.85
702.033	6912.36
702.379	6857.45
702.724	6864.9
703.069	6846.6
703.415	6756.21
703.76	6804.11
704.105	6771.57
704.45	6774.96
704.795	6727.51
705.14	6719.6
705.485	6660.39
705.83	6603.22
706.175	6631.69
706.52	6650.9
706.865	6607.06
707.209	6576.78
707.554	6555.76
707.899	6560.73
708.243	6568.41
708.588	6501.75
708.932	6494.74
709.277	6442.77
709.621	6523.44
709.966	6492.48
710.31	6483.9
710.654	6410.9
710.998	6447.74
711.342	6434.41
711.687	6391.24
712.031	6354.41
712.375	6335.43
712.719	6334.3
713.063	6334.52
713.407	6331.58
713.75	6299.72
714.094	6326.61
714.438	6279.83
714.782	6231.93
715.125	6265.37
715.469	6264.92
715.812	6228.31
716.156	6194.87
716.499	6181.08
716.843	6205.03
717.186	6203.23
717.53	6193.28
717.873	6212.72
718.216	6153.51
718.559	6147.18
718.902	6127.52
719.246	6131.59
719.589	6086.85
719.932	6085.72
720.275	6099.27
720.617	6094.75
720.96	6135.21
721.303	6076.9
721.646	6079.61
721.989	6057.02
722.331	6101.99
722.674	6050.69
723.016	6045.49
723.359	6013.85
723.701	6049.11
724.044	6041.65
724.386	5973.85
724.729	6032.61
725.071	5972.27
725.413	5952.84
725.755	6003.91
726.097	5992.61
726.439	5936.79
726.782	5910.13
727.124	5958.49
727.465	5963.46
727.807	5957.13
728.149	5896.12
728.491	5922.78
728.833	5934.08
729.175	5911.93
729.516	5942.44
729.858	5892.05
730.199	5906.74
730.541	5913.74
730.882	5898.6
731.224	5903.35
731.565	5910.58
731.906	5897.02
732.248	5879.85
732.589	5874.42
732.93	5887.53
733.271	5885.72
733.612	5852.05
733.953	5922.78
734.294	5883.91
734.635	5885.72
734.976	5881.88
735.317	5880.98
735.658	5899.96
735.999	5924.82
736.339	5900.86
736.68	5911.71
737.021	5878.94
737.361	5901.77
737.702	5905.16
738.042	5892.05
738.383	5848.66
738.723	5882.11
739.063	5911.71
739.404	5974.76
739.744	5903.12
740.084	5894.53
740.424	5934.76
740.764	5878.26
741.104	5984.25
741.444	5954.19
741.784	5940.18
742.124	5967.98
742.464	5959.84
742.804	5972.5
743.143	5999.62
743.483	5987.19
743.823	6015.21
744.162	6073.06
744.502	6062.44
744.841	6064.93
745.181	6140.18
745.52	6111.48
745.86	6125.26
746.199	6131.82
746.538	6189.44
746.877	6176.56
747.216	6246.84
747.556	6301.3
747.895	6312.83
748.234	6271.47
748.573	6375.65
748.911	6427.85
749.25	6447.29
749.589	6466.27
749.928	6547.85
750.267	6566.38
750.605	6632.59
750.944	6663.55
751.283	6615.65
751.621	6764.79
751.96	6781.52
752.298	6866.26
752.636	6894.96
752.975	6989.87
753.313	7031.45
753.651	7102.86
753.989	7172.01
754.327	7282.75
754.666	7409.3
755.004	7458.56
755.342	7524.1
755.679	7619.01
756.017	7671.89
756.355	7819.68
756.693	7932.45
757.031	8027.59
757.368	8042.05
757.706	8210.18
758.044	8264.19
758.381	8366.33
758.719	8513.67
759.056	8605.65
759.394	8664.63
759.731	8798.19
760.068	8860.33
760.405	8965.64
760.743	9070.72
761.08	9224.16
761.417	9347.55
761.754	9482.24
762.091	9593.87
762.428	9700.08
762.765	9780.99
763.102	9883.58
763.438	10022.34
763.775	10066.18
764.112	10243.12
764.449	10362.21
764.785	10493.28
765.122	10630.91
765.458	10647.18
765.795	10738.47
766.131	10896.66
766.467	10925.14
766.804	11027.05
767.14	11156.54
767.476	11254.17
767.812	11362.87
768.148	11417.55
768.485	11489.42
768.821	11607.83
769.157	11717.43
