Data from hue_150_FLMS001491_00039.txt Node
Date: Tue Feb 07 16:53:58 GMT 2017
User: dcchb
Spectrometer: FLMS00149
Trigger mode: 0
Integration Time (sec): 2.000000E-2
Scans to average: 10
Electric dark correction enabled: true
Nonlinearity correction enabled: false
Boxcar width: 0
XAxis mode: Wavelengths
Number of Pixels in Spectrum: 2048
>>>>>Begin Spectral Data<<<<<
341.393	-26.41
341.776	-26.41
342.16	-26.41
342.543	-64.15
342.927	-72.74
343.31	-58.05
343.693	-68.9
344.077	-67.31
344.46	-64.83
344.843	-38.39
345.226	-41.33
345.61	-52.17
345.993	-30.93
346.376	3.19
346.759	24.21
347.142	25.11
347.525	48.39
347.908	52.23
348.291	75.28
348.674	80.03
349.057	113.47
349.44	144.21
349.823	151.66
350.206	162.28
350.588	203.41
350.971	196.63
351.354	216.07
351.737	250.64
352.119	258.1
352.502	268.27
352.884	272.79
353.267	282.96
353.65	295.16
354.032	314.82
354.414	318.21
354.797	317.31
355.179	313.47
355.562	334.71
355.944	332.45
356.326	340.13
356.709	348.27
357.091	330.19
357.473	343.52
357.855	325.9
358.238	352.56
358.62	351.43
359.002	350.53
359.384	338.55
359.766	354.6
360.148	329.06
360.53	337.87
360.912	337.65
361.294	335.16
361.676	335.61
362.057	314.6
362.439	329.74
362.821	331.54
363.203	360.02
363.584	337.87
363.966	306.91
364.348	330.87
364.729	345.56
365.111	321.6
365.493	325.67
365.874	316.86
366.256	328.16
366.637	312.79
367.019	322.73
367.4	330.42
367.781	305.33
368.163	327.03
368.544	327.25
368.925	305.1
369.306	339.45
369.688	313.24
370.069	325.22
370.45	322.96
370.831	338.78
371.212	313.47
371.593	316.86
371.974	329.29
372.355	322.73
372.736	317.31
373.117	331.09
373.498	313.24
373.879	327.7
374.26	317.76
374.641	317.31
375.021	303.3
375.402	320.7
375.783	312.11
376.163	342.62
376.544	343.97
376.925	350.08
377.305	312.79
377.686	332.22
378.066	306.69
378.447	331.32
378.827	336.74
379.208	329.51
379.588	327.93
379.968	320.02
380.349	345.1
380.729	338.55
381.109	329.29
381.489	339.23
381.87	350.08
382.25	364.54
382.63	329.06
383.01	362.28
383.39	336.97
383.77	332.67
384.15	353.01
384.53	348.27
384.91	348.95
385.29	364.09
385.67	369.51
386.049	369.96
386.429	365.89
386.809	350.53
387.189	360.02
387.568	342.62
387.948	363.86
388.328	364.09
388.707	362.5
389.087	350.3
389.466	367.02
389.846	365.89
390.225	359.79
390.605	375.39
390.984	375.16
391.363	373.13
391.743	373.13
392.122	365.89
392.501	366.12
392.881	381.26
393.26	403.41
393.639	397.31
394.018	364.54
394.397	406.35
394.776	388.04
395.155	381.71
395.534	383.07
395.913	375.61
396.292	373.35
396.671	379
397.05	375.84
397.429	400.7
397.808	384.65
398.186	407.25
398.565	372.67
398.944	384.2
399.323	399.11
399.701	416.29
400.08	394.37
400.458	400.47
400.837	406.35
401.215	413.8
401.594	414.25
401.972	416.97
402.351	411.99
402.729	416.74
403.107	430.3
403.486	420.13
403.864	413.12
404.242	433.92
404.62	433.01
404.999	410.64
405.377	458.77
405.755	430.75
406.133	451.99
406.511	424.88
406.889	454.48
407.267	454.93
407.645	449.96
408.023	427.59
408.401	478.21
408.779	432.33
409.156	474.37
409.534	457.64
409.912	471.88
410.29	500.81
410.667	454.03
411.045	455.16
411.422	463.74
411.8	476.17
412.178	492.44
412.555	481.15
412.933	492.22
413.31	469.17
413.687	518.66
414.065	508.26
414.442	502.61
414.819	492.9
415.197	504.87
415.574	525.21
415.951	529.28
416.328	507.13
416.705	519.79
417.082	510.52
417.46	536.06
417.837	528.38
418.214	538.77
418.591	553.23
418.967	545.32
419.344	547.58
419.721	545.78
420.098	543.06
420.475	537.42
420.852	560.01
421.228	557.3
421.605	570.41
421.982	562.95
422.358	584.42
422.735	579.67
423.111	599.56
423.488	574.02
423.864	583.74
424.241	578.54
424.617	572.44
424.994	610.41
425.37	592.56
425.746	594.14
426.123	583.74
426.499	606.57
426.875	620.8
427.251	630.07
427.627	633.23
428.003	647.24
428.379	642.05
428.756	634.59
429.132	644.53
429.507	655.83
429.883	648.37
430.259	679.78
430.635	660.58
431.011	689.73
431.387	697.64
431.763	700.35
432.138	691.31
432.514	701.48
432.89	704.19
433.265	710.74
433.641	736.05
434.016	721.59
434.392	747.81
434.767	732.44
435.143	758.2
435.518	772.89
435.894	764.53
436.269	772.89
436.644	755.71
437.02	769.05
437.395	766.79
437.77	786
438.145	803.17
438.52	800.69
438.895	830.29
439.271	833.45
439.646	826.22
440.021	830.97
440.395	835.71
440.77	833.45
441.145	854.24
441.52	868.93
441.895	877.75
442.27	863.73
442.645	879.78
443.019	877.07
443.394	889.27
443.769	889.5
444.143	892.43
444.518	900.34
444.892	916.39
445.267	927.69
445.641	902.6
446.016	914.13
446.39	931.08
446.764	936.73
447.139	946.67
447.513	948.93
447.887	931.98
448.262	940.12
448.636	958.42
449.01	971.98
449.384	990.28
449.758	976.27
450.132	990.06
450.506	995.03
450.88	993.67
451.254	1007.91
451.628	1036.39
452.002	1046.33
452.376	1046.55
452.75	1050.4
453.123	1045.42
453.497	1063.28
453.871	1080.9
454.244	1090.85
454.618	1126.78
454.992	1097.4
455.365	1108.02
455.739	1148.92
456.112	1138.98
456.486	1175.59
456.859	1174.91
457.232	1182.82
457.606	1206.1
457.979	1226.66
458.352	1210.62
458.725	1255.59
459.099	1257.85
459.472	1270.96
459.845	1264.18
460.218	1318.86
460.591	1361.35
460.964	1326.32
461.337	1343.95
461.71	1391.4
462.083	1421.91
462.456	1368.58
462.829	1427.79
463.201	1438.63
463.574	1444.28
463.947	1463.27
464.32	1497.16
464.692	1510.95
465.065	1520.89
465.438	1556.37
465.81	1566.54
466.183	1588.69
466.555	1628.01
466.928	1628.46
467.3	1645.86
467.672	1709.81
468.045	1738.97
468.417	1726.76
468.789	1755.24
469.161	1786.65
469.534	1810.6
469.906	1861.22
470.278	1902.8
470.65	1909.58
471.022	1956.59
471.394	1997.49
471.766	2005.4
472.138	2056.02
472.51	2115.68
472.882	2160.42
473.253	2180.76
473.625	2253.3
473.997	2280.42
474.369	2356.35
474.74	2363.81
475.112	2437.7
475.484	2461.43
475.855	2540.3
476.227	2554.54
476.598	2674.08
476.97	2672.95
477.341	2766.96
477.713	2841.54
478.084	2864.13
478.455	3032.04
478.827	3025.26
479.198	3164.01
479.569	3170.57
479.94	3310
480.311	3393.16
480.682	3477.45
481.053	3582.98
481.424	3710.44
481.795	3735.98
482.166	3844.45
482.537	3941.62
482.908	4062.29
483.279	4131.22
483.65	4226.81
484.021	4356.52
484.391	4446.47
484.762	4560.36
485.133	4694.59
485.503	4834.48
485.874	4898.88
486.244	5023.4
486.615	5206.67
486.985	5287.57
487.356	5433.56
487.726	5568.7
488.097	5676.49
488.467	5782.7
488.837	5954
489.207	6063.37
489.578	6196.7
489.948	6341.78
490.318	6465.85
490.688	6633.98
491.058	6731.38
491.428	6922.78
491.798	7039.17
492.168	7200.06
492.538	7262.66
492.908	7444.58
493.278	7616.78
493.648	7715.08
494.017	7875.75
494.387	7954.17
494.757	8097.44
495.126	8284.33
495.496	8359.58
495.866	8482.74
496.235	8594.15
496.605	8762.28
496.974	8767.71
497.344	8941.94
497.713	9074.82
498.082	9175.61
498.452	9335.38
498.821	9425.32
499.19	9477.52
499.559	9552.55
499.928	9709.6
500.298	9830.96
500.667	9964.74
501.036	9967.9
501.405	10146.88
501.774	10200.66
502.143	10349.81
502.512	10394.33
502.88	10461.9
503.249	10473.2
503.618	10603.37
503.987	10691.72
504.356	10833.64
504.724	10828.44
505.093	10892.85
505.462	11016.24
505.83	11081.32
506.199	11235.44
506.567	11364.7
506.936	11312.27
507.304	11494.19
507.672	11472.27
508.041	11578.25
508.409	11670.91
508.777	11776.67
509.145	11885.37
509.514	11833.16
509.882	11863.9
510.25	11963.33
510.618	12045.36
510.986	12055.08
511.354	12176.21
511.722	12322.87
512.09	12372.13
512.458	12316.99
512.826	12437.44
513.193	12446.48
513.561	12561.73
513.929	12560.15
514.297	12741.16
514.664	12723.08
515.032	12820.71
515.4	12802.4
515.767	12727.15
516.135	12937.54
516.502	12827.49
516.869	12967.37
517.237	13009.4
517.604	12920.59
517.972	13037.2
518.339	13131.89
518.706	13089.85
519.073	13095.05
519.44	13158.33
519.808	13346.8
520.175	13169.4
520.542	13375.95
520.909	13436.06
521.276	13370.52
521.643	13461.82
522.009	13554.93
522.376	13538.43
522.743	13622.49
523.11	13641.7
523.477	13822.94
523.843	13697.52
524.21	13876.73
524.577	13867.23
524.943	13894.35
525.31	13823.17
525.676	14038.76
526.043	13981.58
526.409	13973.67
526.776	14027.23
527.142	13986.78
527.508	14130.28
527.874	14134.8
528.241	14131.18
528.607	14116.27
528.973	14315.13
529.339	14181.12
529.705	14186.55
530.071	14192.88
530.437	14322.36
530.803	14339.54
531.169	14317.17
531.535	14226.55
531.901	14267
532.267	14229.48
532.632	14228.58
532.998	14264.51
533.364	14330.05
533.73	14239.2
534.095	14261.12
534.461	14254.34
534.826	14291.63
535.192	14208.92
535.557	14249.15
535.923	14182.03
536.288	14258.64
536.653	14300.9
537.019	14161.24
537.384	14145.65
537.749	14193.1
538.114	14110.84
538.479	14137.06
538.845	14069.26
539.21	14014.8
539.575	14030.17
539.94	13985.2
540.305	13928.02
540.67	13939.1
541.034	13844.18
541.399	13859.1
541.764	13845.99
542.129	13756.05
542.494	13861.36
542.858	13783.85
543.223	13712.66
543.587	13779.55
543.952	13686
544.316	13691.19
544.681	13683.28
545.045	13647.35
545.41	13666.34
545.774	13568.03
546.138	13478.09
546.503	13538.88
546.867	13373.01
547.231	13490.75
547.595	13447.81
547.959	13460.69
548.324	13386.12
548.688	13321.71
549.052	13260.02
549.416	13285.55
549.779	13248.72
550.143	13247.82
550.507	13261.83
550.871	13160.36
551.235	13105.45
551.599	13249.62
551.962	13154.48
552.326	13126.01
552.689	13034.94
553.053	13027.93
553.417	13058.44
553.78	13171.43
554.143	13011.66
554.507	13025.9
554.87	13005.34
555.234	13076.52
555.597	12906.81
555.96	12962.17
556.323	12997.2
556.686	12892.57
557.05	12840.59
557.413	12912.23
557.776	12801.05
558.139	12908.84
558.502	12928.05
558.865	12946.13
559.228	12925.56
559.59	12842.85
559.953	12883.53
560.316	12975.05
560.679	12928.73
561.041	12932.8
561.404	12968.27
561.767	12998.78
562.129	12913.36
562.492	12950.87
562.854	12933.47
563.217	12878.79
563.579	12942.96
563.941	12950.65
564.304	13041.49
564.666	13022.51
565.028	13039.91
565.39	13089.18
565.753	13096.18
566.115	13075.62
566.477	13092.34
566.839	13118.1
567.201	13152.9
567.563	13108.38
567.925	13154.03
568.287	13122.85
568.648	13104.99
569.01	13215.73
569.372	13191.77
569.734	13189.06
570.095	13161.04
570.457	13220.02
570.819	13242.17
571.18	13203.75
571.542	13249.85
571.903	13287.59
572.265	13313.8
572.626	13306.57
572.987	13312.22
573.349	13325.78
573.71	13335.04
574.071	13360.35
574.432	13380.69
574.794	13424.31
575.155	13394.7
575.516	13387.25
575.877	13400.81
576.238	13378.21
576.599	13467.24
576.96	13426.12
577.32	13370.07
577.681	13511.76
578.042	13438.09
578.403	13459.11
578.763	13460.47
579.124	13464.53
579.485	13490.07
579.845	13486.68
580.206	13458.21
580.566	13414.82
580.927	13496.17
581.287	13468.6
581.648	13462.05
582.008	13557.64
582.368	13464.98
582.728	13499.79
583.089	13499.11
583.449	13446.91
583.809	13433.12
584.169	13378.66
584.529	13389.73
584.889	13507.7
585.249	13364.42
585.609	13376.4
585.969	13423.86
586.329	13340.02
586.688	13372.78
587.048	13440.13
587.408	13375.04
587.768	13303.86
588.127	13387.92
588.487	13330.3
588.846	13379.79
589.206	13230.64
589.565	13344.76
589.925	13318.32
590.284	13255.95
590.643	13308.6
591.003	13361.48
591.362	13311.54
591.721	13367.36
592.08	13203.3
592.44	13229.96
592.799	13297.53
593.158	13275.16
593.517	13176.63
593.876	13295.95
594.235	13231.09
594.593	13283.07
594.952	13224.77
595.311	13216.86
595.67	13153.58
596.029	13294.14
596.387	13283.97
596.746	13352.67
597.104	13205.33
597.463	13186.8
597.822	13276.74
598.18	13229.74
598.538	13156.97
598.897	13228.16
599.255	13112.23
599.613	13268.61
599.972	13227.03
600.33	13195.61
600.688	13241.26
601.046	13265.89
601.404	13308.38
601.762	13210.98
602.12	13187.48
602.478	13298.66
602.836	13336.63
603.194	13223.18
603.552	13213.69
603.91	13088.5
604.268	13239
604.625	13125.56
604.983	13204.2
605.341	13195.39
605.698	13311.09
606.056	13220.25
606.413	13213.47
606.771	13210.08
607.128	13235.61
607.485	13175.05
607.843	13187.48
608.2	13248.04
608.557	13333.01
608.914	13293.01
609.272	13350.19
609.629	13367.59
609.986	13439.22
610.343	13277.42
610.7	13442.16
611.057	13388.38
611.414	13326.46
611.771	13295.72
612.127	13394.25
612.484	13397.42
612.841	13429.05
613.198	13395.38
613.554	13354.25
613.911	13413.01
614.267	13478.77
614.624	13491.2
614.98	13424.08
615.337	13503.63
615.693	13484.19
616.05	13512.44
616.406	13601.48
616.762	13564.42
617.118	13516.28
617.475	13512.44
617.831	13586.56
618.187	13551.08
618.543	13567.36
618.899	13643.51
619.255	13531.42
619.611	13521.71
619.967	13660.01
620.323	13646.9
620.678	13589.05
621.034	13578.43
621.39	13528.26
621.746	13538.66
622.101	13694.13
622.457	13562.84
622.812	13599.67
623.168	13641.03
623.523	13653
623.879	13618.65
624.234	13567.58
624.589	13625.43
624.945	13553.57
625.3	13660.46
625.655	13580.91
626.01	13671.76
626.365	13551.76
626.72	13591.31
627.075	13521.48
627.43	13639.67
627.785	13597.86
628.14	13620.46
628.495	13653.68
628.85	13623.62
629.205	13601.03
629.559	13555.38
629.914	13483.29
630.269	13573.91
630.623	13498.66
630.978	13489.39
631.332	13575.26
631.687	13534.81
632.041	13464.08
632.396	13504.53
632.75	13449.39
633.104	13445.1
633.459	13441.48
633.813	13426.12
634.167	13401.26
634.521	13420.01
634.875	13479.45
635.229	13399.45
635.583	13309.06
635.937	13315.61
636.291	13242.39
636.645	13220.25
636.999	13266.35
637.352	13264.76
637.706	13163.52
638.06	13289.4
638.413	13272.9
638.767	13258.89
639.121	13263.63
639.474	13119.01
639.828	13064.32
640.181	13144.99
640.534	13142.96
640.888	13045.33
641.241	13052.79
641.594	13095.73
641.947	13112.23
642.301	13047.82
642.654	13061.15
643.007	13081.49
643.36	13113.36
643.713	12982.74
644.066	13057.31
644.419	12978.67
644.771	12897.99
645.124	12828.62
645.477	12843.08
645.83	12741.16
646.182	12604.22
646.535	12659.81
646.888	12625.01
647.24	12553.37
647.593	12635.63
647.945	12657.77
648.298	12619.58
648.65	12585.69
649.002	12512.92
649.355	12572.81
649.707	12530.55
650.059	12639.92
650.411	12766.25
650.763	12822.97
651.115	12939.12
651.467	12900.03
651.819	12828.17
652.171	12818.45
652.523	12825
652.875	12880.82
653.227	12766.47
653.578	12861.38
653.93	12831.33
654.282	12915.39
654.633	12782.74
654.985	12885.57
655.337	12860.71
655.688	12881.95
656.039	12900.03
656.391	12793.36
656.742	12817.32
657.094	12774.38
657.445	12854.15
657.796	12804.44
658.147	12875.85
658.498	12705.46
658.849	12839.24
659.2	12855.51
659.551	12803.31
659.902	12986.58
660.253	12865.45
660.604	12854.38
660.955	12779.58
661.306	12872.46
661.656	12865.68
662.007	12895.06
662.358	12856.41
662.708	12803.08
663.059	12877.66
663.409	12852.57
663.76	12933.25
664.11	12941.38
664.461	12914.26
664.811	12938.67
665.161	12891.89
665.511	12801.5
665.862	12840.37
666.212	12875.4
666.562	12872.23
666.912	12894.38
667.262	12890.08
667.612	12910.2
667.962	12901.61
668.312	12922.4
668.662	12948.61
669.011	12909.97
669.361	12889.41
669.711	12806.47
670.06	12808.28
670.41	12842.63
670.76	12801.5
671.109	12791.56
671.459	12767.83
671.808	12888.05
672.157	12862.06
672.507	12771.9
672.856	12770.77
673.205	12761.73
673.554	12753.59
673.904	12800.6
674.253	12819.13
674.602	12679.47
674.951	12550.66
675.3	12545.91
675.649	12691.45
675.998	12725.12
676.346	12746.13
676.695	12739.58
677.044	12630.88
677.393	12621.17
677.741	12575.29
678.09	12594.05
678.438	12560.83
678.787	12578.91
679.135	12619.81
679.484	12514.5
679.832	12568.51
680.181	12544.56
680.529	12505.91
680.877	12458.23
681.225	12417.33
681.573	12552.69
681.922	12403.54
682.27	12435.18
682.618	12385.47
682.966	12397.89
683.314	12337.33
683.661	12306.82
684.009	12269.31
684.357	12219.82
684.705	12255.07
685.053	12228.86
685.4	12233.38
685.748	12190.44
686.095	12128.52
686.443	12131.46
686.79	12079.48
687.138	12112.7
687.485	11999.94
687.832	12036.77
688.18	12037
688.527	11973.27
688.874	11886.27
689.221	11933.27
689.568	11908.19
689.915	11867.29
690.262	11844.01
690.609	11860.96
690.956	11780.06
691.303	11726.05
691.65	11661.19
691.997	11612.6
692.344	11574.87
692.69	11572.61
693.037	11573.28
693.383	11401.99
693.73	11453.06
694.077	11453.29
694.423	11338.49
694.769	11370.35
695.116	11292.16
695.462	11329.45
695.808	11272.5
696.155	11236.12
696.501	11200.41
696.847	11130.13
697.193	11105.95
697.539	11083.8
697.885	10994.54
698.231	10988.67
698.577	10948.21
698.923	10975.33
699.269	10819.4
699.614	10814.66
699.96	10847.65
700.306	10799.52
700.651	10793.64
700.997	10656.47
701.342	10662.8
701.688	10628.45
702.033	10599.07
702.379	10516.59
702.724	10488.34
703.069	10536.47
703.415	10429.13
703.76	10427.55
704.105	10390.26
704.45	10385.07
704.795	10315.46
705.14	10241.79
705.485	10309.59
705.83	10209.48
706.175	10214.67
706.52	10176.03
706.865	10174.68
707.209	10057.16
707.554	10066.66
707.899	10035.7
708.243	10007.9
708.588	9983.72
708.932	9957.73
709.277	9870.96
709.621	9931.74
709.966	9791.41
710.31	9858.53
710.654	9826.21
710.998	9818.08
711.342	9814.91
711.687	9788.25
712.031	9685.2
712.375	9704.41
712.719	9677.97
713.063	9686.78
713.407	9686.55
713.75	9629.38
714.094	9607.46
714.438	9595.03
714.782	9542.38
715.125	9565.2
715.469	9556.39
715.812	9527.69
716.156	9455.6
716.499	9493.11
716.843	9487.91
717.186	9456.28
717.53	9468.48
717.873	9438.42
718.216	9405.43
718.559	9421.48
718.902	9370.63
719.246	9435.03
719.589	9283.17
719.932	9294.25
720.275	9314.81
720.617	9336.28
720.96	9298.31
721.303	9283.4
721.646	9277.98
721.989	9201.59
722.331	9278.43
722.674	9135.61
723.016	9255.83
723.359	9136.06
723.701	9208.37
724.044	9159.79
724.386	9108.26
724.729	9163.63
725.071	9126.57
725.413	9111.2
725.755	9140.58
726.097	9088.83
726.439	9052.22
726.782	9057.87
727.124	9142.61
727.465	9082.05
727.807	9124.53
728.149	9020.36
728.491	9039.11
728.833	9073.24
729.175	9017.42
729.516	9086.57
729.858	9071.65
730.199	9047.7
730.541	8976.74
730.882	8951.88
731.224	9062.16
731.565	9009.96
731.906	8952.56
732.248	8985.78
732.589	8989.62
732.93	8938.55
733.271	8932.45
733.612	9030.75
733.953	9035.27
734.294	8933.35
734.635	8882.28
734.976	8904.88
735.317	8891.55
735.658	8903.75
735.999	8966.35
736.339	8967.48
736.68	8955.72
737.021	9022.84
737.361	8943.52
737.702	8960.02
738.042	8988.94
738.383	8974.03
738.723	8951.43
739.063	9002.73
739.404	9008.6
739.744	8991.2
740.084	9010.19
740.424	9049.51
740.764	9081.15
741.104	9043.18
741.444	9041.82
741.784	8984.42
742.124	9077.76
742.464	9098.55
742.804	9093.12
743.143	9110.3
743.483	9134.48
743.823	9144.42
744.162	9181.03
744.502	9218.09
744.841	9247.92
745.181	9280.24
745.52	9335.15
745.86	9270.29
746.199	9350.97
746.538	9332.21
746.877	9398.65
747.216	9484.75
747.556	9543.73
747.895	9565.43
748.234	9566.56
748.573	9748.25
748.911	9694.46
749.25	9713.9
749.589	9870.05
749.928	9842.93
750.267	9983.95
750.605	9991.4
750.944	10063.49
751.283	10172.42
751.621	10166.09
751.96	10298.29
752.298	10373.77
752.636	10485.18
752.975	10563.14
753.313	10611.73
753.651	10744.15
753.989	10778.05
754.327	10928.33
754.666	10984.37
755.004	11192.73
755.342	11197.7
755.679	11318.83
756.017	11509.78
756.355	11597.01
756.693	11754.07
757.031	11867.74
757.368	11926.04
757.706	12125.36
758.044	12260.04
758.381	12378.23
758.719	12524.67
