Data from hue_38_FLMS001491_00037.txt Node
Date: Tue Feb 07 17:31:25 GMT 2017
User: dcchb
Spectrometer: FLMS00149
Trigger mode: 0
Integration Time (sec): 2.000000E-2
Scans to average: 10
Electric dark correction enabled: true
Nonlinearity correction enabled: false
Boxcar width: 0
XAxis mode: Wavelengths
Number of Pixels in Spectrum: 2048
>>>>>Begin Spectral Data<<<<<
341.393	-8.49
341.776	-8.49
342.16	-8.49
342.543	-45.78
342.927	-88.94
343.31	-71.31
343.693	-83.29
344.077	-51.88
344.46	-71.31
344.843	-55.94
345.226	-56.17
345.61	-22.27
345.993	-26.12
346.376	-18.43
346.759	30.38
347.142	33.32
347.525	50.49
347.908	58.85
348.291	63.6
348.674	96.37
349.057	123.71
349.44	147.89
349.823	168.23
350.206	162.81
350.588	215.69
350.971	217.04
351.354	237.15
351.737	229.02
352.119	253.43
352.502	274.67
352.884	277.38
353.267	281.22
353.65	290.71
354.032	313.31
354.414	319.41
354.797	309.24
355.179	310.15
355.562	319.64
355.944	340.43
356.326	346.08
356.709	353.76
357.091	344.5
357.473	346.3
357.855	349.47
358.238	333.88
358.62	349.92
359.002	347.89
359.384	347.89
359.766	339.07
360.148	331.84
360.53	351.28
360.912	333.42
361.294	330.71
361.676	340.43
362.057	328.23
362.439	330.49
362.821	347.21
363.203	338.4
363.584	335.23
363.966	312.86
364.348	314.89
364.729	339.98
365.111	344.95
365.493	325.29
365.874	356.25
366.256	339.98
366.637	323.71
367.019	318.51
367.4	325.97
367.781	330.26
368.163	319.86
368.544	330.49
368.925	325.51
369.306	318.28
369.688	331.84
370.069	334.78
370.45	335.91
370.831	318.28
371.212	330.26
371.593	323.71
371.974	317.38
372.355	295.91
372.736	319.41
373.117	321.9
373.498	325.74
373.879	310.37
374.26	329.81
374.641	314.89
375.021	311.96
375.402	330.49
375.783	342.01
376.163	320.09
376.544	319.86
376.925	328
377.305	320.99
377.686	331.39
378.066	333.42
378.447	331.39
378.827	342.46
379.208	344.27
379.588	351.5
379.968	329.36
380.349	344.72
380.729	352.41
381.109	321.9
381.489	346.08
381.87	353.76
382.25	348.79
382.63	345.85
383.01	343.37
383.39	337.27
383.77	335.46
384.15	355.12
384.53	348.34
384.91	352.63
385.29	358.73
385.67	349.24
386.049	349.92
386.429	381.33
386.809	334.33
387.189	340.88
387.568	360.09
387.948	337.27
388.328	352.86
388.707	366.87
389.087	367.32
389.466	379.3
389.846	374.55
390.225	382.69
390.605	368.9
390.984	372.52
391.363	371.39
391.743	378.39
392.122	350.15
392.501	368.22
392.881	383.37
393.26	371.84
393.639	365.96
394.018	370.03
394.397	382.24
394.776	360.54
395.155	379.98
395.534	375.91
395.913	376.81
396.292	393.31
396.671	383.37
397.05	379.07
397.429	401.9
397.808	405.96
398.186	403.48
398.565	418.84
398.944	389.92
399.323	382.46
399.701	407.09
400.08	395.79
400.458	396.92
400.837	416.13
401.215	400.31
401.594	424.72
401.972	393.99
402.351	415
402.729	421.56
403.107	401.67
403.486	405.29
403.864	414.33
404.242	423.82
404.62	429.01
404.999	421.33
405.377	433.76
405.755	411.16
406.133	424.27
406.511	430.6
406.889	429.01
407.267	431.27
407.645	428.56
408.023	424.72
408.401	461.78
408.779	445.51
409.156	443.7
409.534	422.01
409.912	429.01
410.29	438.73
410.667	463.36
411.045	456.81
411.422	464.49
411.8	455.68
412.178	478.05
412.555	484.83
412.933	461.1
413.31	475.57
413.687	467.66
414.065	469.69
414.442	495.45
414.819	478.5
415.197	488.22
415.574	488.22
415.951	471.5
416.328	484.15
416.705	509.01
417.082	548.33
417.46	514.66
417.837	522.35
418.214	519.41
418.591	498.84
418.967	514.89
419.344	531.61
419.721	519.63
420.098	519.18
420.475	518.28
420.852	538.62
421.228	522.35
421.605	517.6
421.982	536.36
422.358	567.09
422.735	545.85
423.111	551.27
423.488	550.82
423.864	551.27
424.241	556.47
424.617	560.31
424.994	571.61
425.37	575.68
425.746	553.3
426.123	571.38
426.499	572.51
426.875	557.6
427.251	567.32
427.627	588.33
428.003	592.4
428.379	598.05
428.756	598.5
429.132	613.19
429.507	618.61
429.883	637.82
430.259	613.19
430.635	629.46
431.011	625.62
431.387	627.65
431.763	624.04
432.138	661.1
432.514	659.06
432.89	643.02
433.265	651.61
433.641	673.53
434.016	683.47
434.392	681.66
434.767	683.24
435.143	673.98
435.518	691.83
435.894	699.52
436.269	704.04
436.644	691.83
437.02	730.93
437.395	710.81
437.77	708.33
438.145	736.58
438.52	738.84
438.895	744.71
439.271	747.42
439.646	752.85
440.021	722.11
440.395	749.01
440.77	775.22
441.145	783.13
441.52	773.19
441.895	740.64
442.27	760.3
442.645	786.07
443.019	793.75
443.394	793.52
443.769	795.11
444.143	774.09
444.518	795.56
444.892	813.41
445.267	805.05
445.641	817.03
446.016	784.71
446.39	829.91
446.764	821.09
447.139	814.09
447.513	835.56
447.887	850.02
448.262	837.36
448.636	830.81
449.01	837.59
449.384	845.5
449.758	847.53
450.132	867.87
450.506	876.46
450.88	887.31
451.254	876.46
451.628	904.48
452.002	888.44
452.376	906.74
452.75	903.13
453.123	915.33
453.497	918.94
453.871	957.36
454.244	940.64
454.618	959.4
454.992	952.16
455.365	962.11
455.739	980.41
456.112	979.73
456.486	994.42
456.859	1020.19
457.232	995.33
457.606	1034.42
457.979	1028.55
458.352	1040.3
458.725	1075.78
459.099	1065.16
459.472	1095.89
459.845	1085.95
460.218	1088.88
460.591	1140.63
460.964	1130.24
461.337	1139.5
461.71	1136.57
462.083	1165.94
462.456	1183.12
462.829	1171.59
463.201	1198.71
463.574	1220.86
463.947	1234.87
464.32	1248.65
464.692	1271.48
465.065	1258.6
465.438	1286.39
465.81	1298.14
466.183	1306.73
466.555	1330.23
466.928	1353.28
467.3	1370.68
467.672	1382.89
468.045	1443.22
468.417	1403
468.789	1407.75
469.161	1428.99
469.534	1470.57
469.906	1500.4
470.278	1527.06
470.65	1579.27
471.022	1599.6
471.394	1624.01
471.766	1622.66
472.138	1638.7
472.51	1699.49
472.882	1744.91
473.253	1749.21
473.625	1781.29
473.997	1812.71
474.369	1829.66
474.74	1877.34
475.112	1919.82
475.484	1980.61
475.855	2001.85
476.227	2052.25
476.598	2109.87
476.97	2118.24
477.341	2196.65
477.713	2234.16
478.084	2308.06
478.455	2321.17
478.827	2400.94
479.198	2457.89
479.569	2487.27
479.94	2590.09
480.311	2645.45
480.682	2714.38
481.053	2757.54
481.424	2879.12
481.795	2890.19
482.166	2972
482.537	3043.41
482.908	3154.82
483.279	3215.16
483.65	3293.35
484.021	3406.56
484.391	3415.83
484.762	3514.36
485.133	3566.11
485.503	3654.24
485.874	3794.12
486.244	3829.83
486.615	3979.66
486.985	4046.77
487.356	4188.92
487.726	4220.1
488.097	4418.51
488.467	4420.1
488.837	4538.74
489.207	4642.24
489.578	4736.47
489.948	4830.48
490.318	4950.03
490.688	5021.44
491.058	5133.07
491.428	5245.84
491.798	5363.8
492.168	5465.49
492.538	5517.92
492.908	5663
493.278	5829.32
493.648	5805.6
494.017	5954.52
494.387	6108.41
494.757	6171.46
495.126	6245.13
495.496	6354.28
495.866	6452.13
496.235	6543.2
496.605	6650.32
496.974	6667.72
497.344	6816.42
497.713	6900.93
498.082	7001.95
498.452	7130.08
498.821	7208.95
499.19	7291.21
499.559	7316.06
499.928	7384.76
500.298	7517.19
500.667	7608.71
501.036	7656.17
501.405	7762.38
501.774	7818.65
502.143	7965.77
502.512	7977.74
502.88	8093.9
503.249	8110.85
503.618	8250.05
503.987	8309.26
504.356	8455.02
504.724	8460.22
505.093	8587.22
505.462	8595.13
505.83	8696.37
506.199	8829.25
506.567	8920.77
506.936	8894.78
507.304	9028.79
507.672	9097.71
508.041	9156.24
508.409	9251.16
508.777	9349.91
509.145	9453.41
509.514	9373.41
509.882	9525.72
510.25	9544.03
510.618	9690.69
510.986	9730.24
511.354	9792.61
511.722	9881.42
512.09	9905.38
512.458	10023.79
512.826	10034.86
513.193	10126.16
513.561	10135.2
513.929	10303.1
514.297	10303.56
514.664	10462.2
515.032	10481.41
515.4	10546.71
515.767	10608.18
516.135	10643.89
516.502	10631.46
516.869	10818.12
517.237	10844.11
517.604	10881.62
517.972	11028.28
518.339	11022.63
518.706	11137.21
519.073	11111.67
519.44	11218.56
519.808	11315.73
520.175	11313.7
520.542	11525.67
520.909	11508.5
521.276	11564.54
521.643	11685.67
522.009	11667.14
522.376	11766.57
522.743	11848.37
523.11	12014.7
523.477	12024.42
523.843	12203.85
524.21	12236.61
524.577	12355.93
524.943	12414.24
525.31	12468.7
525.676	12602.71
526.043	12660.78
526.409	12675.25
526.776	12824.62
527.142	12905.07
527.508	12911.85
527.874	13003.37
528.241	13150.26
528.607	13075.01
528.973	13233.2
529.339	13183.26
529.705	13447.2
530.071	13479.74
530.437	13527.2
530.803	13519.52
531.169	13685.39
531.535	13716.35
531.901	13757.93
532.267	13799.28
532.632	13965.83
532.998	13997.47
533.364	14038.15
533.73	14044.7
534.095	14168.31
534.461	14220.06
534.826	14321.76
535.192	14353.62
535.557	14550.22
535.923	14478.36
536.288	14583.22
536.653	14640.84
537.019	14602.2
537.384	14664.8
537.749	14859.37
538.114	14804.23
538.479	14813.49
538.845	14905.24
539.21	14831.57
539.575	15015.3
539.94	14999.03
540.305	15003.32
540.67	15150.66
541.034	15259.58
541.399	15272.92
541.764	15326.25
542.129	15431.33
542.494	15447.83
542.858	15565.11
543.223	15540.26
543.587	15657.54
543.952	15603.3
544.316	15697.54
544.681	15829.74
545.045	15871.55
545.41	15908.38
545.774	15921.49
546.138	16041.48
546.503	16115.16
546.867	16032.67
547.231	16249.62
547.595	16198.54
547.959	16298.43
548.324	16298.65
548.688	16382.94
549.052	16479.21
549.416	16480.12
549.779	16501.36
550.143	16519.66
550.507	16649.38
550.871	16723.73
551.235	16750.62
551.599	16913.33
551.962	16890.5
552.326	16922.82
552.689	17025.87
553.053	16959.65
553.417	17148.57
553.78	17267.22
554.143	17224.28
554.507	17312.64
554.87	17382.92
555.234	17558.96
555.597	17437.38
555.96	17513.99
556.323	17578.85
556.686	17589.01
557.05	17777.48
557.413	17740.65
557.776	17875.11
558.139	17940.42
558.502	17935.9
558.865	17942.45
559.228	18145.84
559.59	18218.15
559.953	18286.85
560.316	18345.15
560.679	18440.07
561.041	18462.66
561.404	18556.9
561.767	18630.34
562.129	18518.03
562.492	18782.66
562.854	18874.4
563.217	18775.65
563.579	18842.77
563.941	18973.84
564.304	19165.02
564.666	19157.11
565.028	19219.25
565.39	19260.38
565.753	19220.61
566.115	19477.1
566.477	19490.89
566.839	19602.07
567.201	19626.25
567.563	19612.69
567.925	19758.9
568.287	19860.14
568.648	19855.62
569.01	20055.39
569.372	20089.06
569.734	20085.22
570.095	20217.87
570.457	20242.28
570.819	20489.73
571.18	20502.84
571.542	20632.55
571.903	20594.59
572.265	20705.09
572.626	20753.9
572.987	20880.68
573.349	20929.04
573.71	20969.04
574.071	21062.14
574.432	21290.61
574.794	21403.6
575.155	21357.96
575.516	21378.52
575.877	21573.54
576.238	21640.66
576.599	21780.32
576.96	21964.04
577.32	22016.24
577.681	22221.66
578.042	22296.01
578.403	22314.31
578.763	22512.28
579.124	22620.97
579.485	22903.45
579.845	23020.28
580.206	23131.69
580.566	23233.39
580.927	23367.39
581.287	23488.75
581.648	23608.74
582.008	23919.02
582.368	24055.29
582.728	24172.57
583.089	24276.97
583.449	24412.56
583.809	24722.84
584.169	24820.24
584.529	24978.65
584.889	25320.34
585.249	25268.36
585.609	25334.12
585.969	25780.21
586.329	25878.29
586.688	26014.1
587.048	26352.17
587.408	26413.87
587.768	26632.39
588.127	26908.09
588.487	27007.52
588.846	27459.49
589.206	27393.95
589.565	27691.12
589.925	27904.45
590.284	28045.92
590.643	28294.04
591.003	28648.16
591.362	28814.71
591.721	28850.87
592.08	29087.92
592.44	29372.43
592.799	29660.56
593.158	29773.78
593.517	29897.17
593.876	30230.26
594.235	30392.97
594.593	30567.88
594.952	30768.56
595.311	30950.02
595.67	31224.81
596.029	31439.95
596.387	31714.97
596.746	31878.36
597.104	31887.85
597.463	32102.31
597.822	32439.92
598.18	32509.07
598.538	32614.61
598.897	32968.72
599.255	32822.96
599.613	33518.09
599.972	33345.89
600.33	33751.3
600.688	33676.95
601.046	34038.98
601.404	34254.34
601.762	34353.09
602.12	34666.08
602.478	34760.09
602.836	35041.21
603.194	34890.03
603.552	35210.02
603.91	35188.78
604.268	35453.18
604.625	35451.6
604.983	35770.68
605.341	35805.03
605.698	36007.74
606.056	36160.5
606.413	36291.12
606.771	36478.01
607.128	36674.84
607.485	36603.2
607.843	36705.12
608.2	37077.77
608.557	37256.07
608.914	37197.31
609.272	37482.73
609.629	37572.22
609.986	37709.84
610.343	37666.68
610.7	38000
611.057	38062.37
611.414	38198.87
611.771	38199.77
612.127	38513.66
612.484	38564.51
612.841	38895.35
613.198	38889.92
613.554	38850.15
613.911	39098.73
614.267	39152.52
614.624	39209.01
614.98	39320.42
615.337	39497.37
615.693	39602.22
616.05	39672.73
616.406	39930.8
616.762	39863.23
617.118	40053.51
617.475	40125.15
617.831	40234.75
618.187	40262.32
618.543	40366.04
618.899	40586.83
619.255	40554.96
619.611	40588.18
619.967	40811.23
620.323	40819.14
620.678	40760.38
621.034	40731.23
621.39	40967.84
621.746	41031.56
622.101	41301.39
622.457	41112.01
622.812	41189.52
623.168	41404.89
623.523	41372.34
623.879	41592.68
624.234	41275.62
624.589	41401.95
624.945	41575.5
625.3	41497.54
625.655	41617.76
626.01	41582.51
626.365	41605.11
626.72	41597.42
627.075	41651.89
627.43	41786.57
627.785	41793.35
628.14	41780.24
628.495	41835.16
628.85	41770.07
629.205	41634.94
629.559	41941.82
629.914	41771.2
630.269	41922.84
630.623	41815.04
630.978	41842.39
631.332	42055.26
631.687	42112.66
632.041	41785.44
632.396	42034.7
632.75	41859.11
633.104	42011.42
633.459	41736.85
633.813	41804.2
634.167	41804.42
634.521	41887.59
634.875	42033.34
635.229	41953.35
635.583	41779.34
635.937	41810.3
636.291	41801.03
636.645	41787.93
636.999	41799.23
637.352	41881.71
637.706	41676.29
638.06	41829.73
638.413	41740.92
638.767	41606.69
639.121	41653.01
639.474	41554.26
639.828	41583.86
640.181	41701.15
640.534	41530.08
640.888	41407.15
641.241	41413.47
641.594	41531.66
641.947	41567.59
642.301	41409.63
642.654	41461.38
643.007	41591.32
643.36	41387.03
643.713	41432.68
644.066	41697.76
644.419	41306.81
644.771	41007.38
645.124	40719.03
645.477	40692.59
645.83	40437.45
646.182	40360.17
646.535	40235.2
646.888	40336.44
647.24	40073.85
647.593	40348.87
647.945	40206.05
648.298	40014.87
648.65	40051.7
649.002	40023
649.355	40037.01
649.707	40147.97
650.059	40228.19
650.411	40797.67
650.763	40752.47
651.115	41134.61
651.467	40939.14
651.819	40913.83
652.171	40945.01
652.523	40720.61
652.875	40773.72
653.227	40588.64
653.578	40897.33
653.93	40769.87
654.282	40583.66
654.633	40656.66
654.985	40659.37
655.337	40620.5
655.688	40629.99
656.039	40893.03
656.391	40479.03
656.742	40675.87
657.094	40425.93
657.445	40769.87
657.796	40620.27
658.147	40444.91
658.498	40573.04
658.849	40592.03
659.2	40441.3
659.551	40365.82
659.902	40616.88
660.253	40370.56
660.604	40640.61
660.955	40361.52
661.306	40664.11
661.656	40507.51
662.007	40552.93
662.358	40470.45
662.708	40544.57
663.059	40397.68
663.409	40211.7
663.76	40488.3
664.11	40392.48
664.461	40524.68
664.811	40534.63
665.161	40431.58
665.511	40341.41
665.862	40288.98
666.212	40435.19
666.562	40454.63
666.912	40350.9
667.262	40242.66
667.612	40368.53
667.962	40251.24
668.312	40251.92
668.662	40386.61
669.011	40410.34
669.361	40155.88
669.711	40262.09
670.06	40211.92
670.41	40221.19
670.76	40037.46
671.109	40201.08
671.459	40195.2
671.808	40311.36
672.157	40230.91
672.507	39984.13
672.856	40075.88
673.205	40178.48
673.554	40129.67
673.904	39968.99
674.253	40258.93
674.602	40018.26
674.951	39497.59
675.3	39429.57
675.649	40038.82
675.998	39968.77
676.346	40043.57
676.695	40180.96
677.044	39733.74
677.393	39808.32
677.741	40047.63
678.09	39861.2
678.438	39726.29
678.787	39714.08
679.135	39754.08
679.484	39466.41
679.832	39677.47
680.181	39501.66
680.529	39767.87
680.877	39517.03
681.225	39414.88
681.573	39581.43
681.922	39369.69
682.27	39441.77
682.618	39288.33
682.966	39242.23
683.314	39294.88
683.661	39219.86
684.009	38994.78
684.357	38765.63
684.705	38870.72
685.053	38922.47
685.4	38781.23
685.748	38599.54
686.095	38552.31
686.443	38576.03
686.79	38431.4
687.138	38423.72
687.485	38533.1
687.832	38384.17
688.18	38374.91
688.527	38287.68
688.874	38320.67
689.221	38124.29
689.568	38009.27
689.915	38062.83
690.262	38012.66
690.609	37875.94
690.956	37687.47
691.303	37772.67
691.65	37701.71
691.997	37587.59
692.344	37266.92
692.69	37328.16
693.037	37421.49
693.383	37001.39
693.73	37115.28
694.077	36944.44
694.423	36990.09
694.769	36770.21
695.116	36706.25
695.462	36686.14
695.808	36556.2
696.155	36593.26
696.501	36392.36
696.847	36389.2
697.193	36213.16
697.539	36316.88
697.885	36016.55
698.231	36051.81
698.577	35918.7
698.923	35912.6
699.269	35638.48
699.614	35514.87
699.96	35494.53
700.306	35506.06
700.651	35294.99
700.997	35288.66
701.342	35169.12
701.688	35093.87
702.033	35078.72
702.379	35051.83
702.724	34909.24
703.069	35046.41
703.415	34601.22
703.76	34614.56
704.105	34731.16
704.45	34526.2
704.795	34315.35
705.14	34284.17
705.485	34286.65
705.83	34180.67
706.175	34198.75
706.52	34052.76
706.865	33752.88
707.209	33937.29
707.554	33864.29
707.899	33875.59
708.243	33743.39
708.588	33686.44
708.932	33510.18
709.277	33509.95
709.621	33487.13
709.966	33163.07
710.31	33299.11
710.654	33109.74
710.998	33158.32
711.342	33096.86
711.687	32966.46
712.031	32955.84
712.375	32733.02
712.719	32740.71
713.063	32766.02
713.407	32738.45
713.75	32587.49
714.094	32559.24
714.438	32290.78
714.782	32321.06
715.125	32308.63
715.469	32336.88
715.812	32157.22
716.156	31992.48
716.499	32015.53
716.843	31908.86
717.186	31792.03
717.53	32021.18
717.873	31952.25
718.216	31919.49
718.559	31727.17
718.902	31488.54
719.246	31645.59
719.589	31391.59
719.932	31428.2
720.275	31358.37
720.617	31357.69
720.96	31205.38
721.303	31233.85
721.646	31318.6
721.989	31109.34
722.331	31190.69
722.674	30867.08
723.016	31065.27
723.359	30969.23
723.701	31068.66
724.044	30773.3
724.386	30585.06
724.729	30826.86
725.071	30745.05
725.413	30747.54
725.755	30772.85
726.097	30592.29
726.439	30369.24
726.782	30269.81
727.124	30597.26
727.465	30448.56
727.807	30376.7
728.149	30332.18
728.491	30175.8
728.833	30268.68
729.175	30120.44
729.516	30015.58
729.858	30086.54
730.199	30076.37
730.541	29939.2
730.882	29869.82
731.224	29997.73
731.565	29919.54
731.906	29842.7
732.248	29767.23
732.589	29618.3
732.93	29440.68
733.271	29750.73
733.612	29577.4
733.953	29557.97
734.294	29515.03
734.635	29383.06
734.976	29492.2
735.317	29330.85
735.658	29338.08
735.999	29273.91
736.339	29267.8
736.68	29406.33
737.021	29188.94
737.361	29134.93
737.702	29317.75
738.042	29127.24
738.383	28960.24
738.723	29167.92
739.063	28943.07
739.404	28993.91
739.744	28880.47
740.084	28781.71
740.424	28955.27
740.764	28774.03
741.104	28820.13
741.444	28623.53
741.784	28516.86
742.124	28649.97
742.464	28506.02
742.804	28490.65
743.143	28508.73
743.483	28489.97
743.823	28382.18
744.162	28275.74
744.502	28340.82
744.841	28294.72
745.181	28361.61
745.52	28267.38
745.86	28248.85
746.199	28192.35
746.538	28043.2
746.877	28067.16
747.216	28139.25
747.556	28074.16
747.895	28087.95
748.234	27869.2
748.573	27693.16
748.911	27718.92
749.25	27797.56
749.589	27691.57
749.928	27673.72
750.267	27650.67
750.605	27523.89
750.944	27463.78
751.283	27366.84
751.621	27555.98
751.96	27251.59
752.298	27355.76
752.636	27315.76
752.975	27236.44
753.313	27057.92
753.651	27296.1
753.989	27028.77
754.327	26967.3
754.666	26940.86
755.004	27034.42
755.342	26918.04
755.679	26908.77
756.017	26689.34
756.355	26883.91
756.693	26671.04
757.031	26762.33
