Data from hue_22_FLMS001491_00085.txt Node
Date: Tue Feb 07 17:10:46 GMT 2017
User: dcchb
Spectrometer: FLMS00149
Trigger mode: 0
Integration Time (sec): 2.000000E-2
Scans to average: 10
Electric dark correction enabled: true
Nonlinearity correction enabled: false
Boxcar width: 0
XAxis mode: Wavelengths
Number of Pixels in Spectrum: 2048
>>>>>Begin Spectral Data<<<<<
341.393	-31.78
341.776	-31.78
342.16	-31.78
342.543	-38.11
342.927	-78.78
343.31	-81.5
343.693	-86.92
344.077	-73.13
344.46	-53.93
344.843	-45.56
345.226	-32
345.61	-35.85
345.993	-12.12
346.376	-7.37
346.759	31.95
347.142	20.2
347.525	45.28
347.908	61.78
348.291	71.5
348.674	82.79
349.057	114.88
349.44	131.38
349.823	162.79
350.206	166.18
350.588	203.47
350.971	211.83
351.354	221.32
351.737	236.24
352.119	266.52
352.502	262.68
352.884	269.68
353.267	296.12
353.65	317.59
354.032	305.39
354.414	312.62
354.797	316.01
355.179	336.57
355.562	331.83
355.944	322.34
356.326	339.74
356.709	327.76
357.091	337.93
357.473	364.37
357.855	356.23
358.238	356.46
358.62	368.89
359.002	312.84
359.384	317.36
359.766	361.88
360.148	350.36
360.53	358.72
360.912	368.89
361.294	349.68
361.676	334.54
362.057	352.17
362.439	341.09
362.821	356.23
363.203	331.83
363.584	330.7
363.966	331.83
364.348	325.27
364.729	336.57
365.111	334.31
365.493	342.67
365.874	325.05
366.256	343.35
366.637	310.81
367.019	318.49
367.4	329.34
367.781	330.47
368.163	329.57
368.544	321.21
368.925	316.01
369.306	322.34
369.688	325.95
370.069	337.25
370.45	296.8
370.831	317.59
371.212	328.89
371.593	322.56
371.974	324.37
372.355	333.41
372.736	337.7
373.117	335.22
373.498	327.31
373.879	337.7
374.26	326.86
374.641	325.73
375.021	316.91
375.402	329.12
375.783	323.01
376.163	340.41
376.544	321.43
376.925	350.58
377.305	344.71
377.686	327.08
378.066	337.25
378.447	351.49
378.827	341.77
379.208	347.65
379.588	331.38
379.968	344.71
380.349	349.68
380.729	327.08
381.109	327.76
381.489	361.43
381.87	339.96
382.25	362.79
382.63	363.92
383.01	346.29
383.39	363.69
383.77	341.09
384.15	349.23
384.53	360.53
384.91	376.35
385.29	362.79
385.67	354.43
386.049	363.92
386.429	368.89
386.809	349.68
387.189	349.91
387.568	371.37
387.948	357.14
388.328	365.72
388.707	336.35
389.087	370.24
389.466	363.92
389.846	384.48
390.225	401.88
390.605	361.66
390.984	388.78
391.363	382.22
391.743	367.76
392.122	391.49
392.501	400.98
392.881	405.27
393.26	394.88
393.639	398.49
394.018	390.13
394.397	388.78
394.776	395.55
395.155	389.68
395.534	394.88
395.913	401.88
396.292	392.84
396.671	395.33
397.05	381.09
397.429	402.56
397.808	371.83
398.186	391.94
398.565	419.73
398.944	394.88
399.323	413.63
399.701	409.57
400.08	408.21
400.458	405.27
400.837	425.84
401.215	436.46
401.594	422.22
401.972	424.93
402.351	409.11
402.729	423.58
403.107	440.75
403.486	421.54
403.864	421.77
404.242	443.69
404.62	428.32
404.999	437.81
405.377	440.07
405.755	452.95
406.133	450.02
406.511	454.08
406.889	455.89
407.267	445.5
407.645	476.68
408.023	449.34
408.401	460.19
408.779	466.51
409.156	463.12
409.534	476.91
409.912	467.87
410.29	472.61
410.667	483.69
411.045	473.97
411.422	464.48
411.8	494.08
412.178	485.72
412.555	509
412.933	487.08
413.31	477.81
413.687	498.83
414.065	503.12
414.442	500.64
414.819	512.39
415.197	523.46
415.574	514.65
415.951	534.08
416.328	522.1
416.705	513.52
417.082	523.91
417.46	565.95
417.837	553.52
418.214	541.77
418.591	554.87
418.967	555.78
419.344	566.4
419.721	563.91
420.098	549.45
420.475	565.72
420.852	585.83
421.228	560.97
421.605	577.7
421.982	572.73
422.358	593.06
422.735	587.19
423.111	595.55
423.488	578.83
423.864	584.7
424.241	613.63
424.617	612.72
424.994	590.8
425.37	605.27
425.746	611.82
426.123	621.99
426.499	603.91
426.875	620.18
427.251	606.85
427.627	654.53
428.003	631.25
428.379	660.18
428.756	635.1
429.132	653.17
429.507	673.97
429.883	669.45
430.259	671.48
430.635	675.1
431.011	682.78
431.387	675.32
431.763	686.17
432.138	697.47
432.514	715.32
432.89	695.43
433.265	719.16
433.641	727.75
434.016	734.3
434.392	737.47
434.767	735.21
435.143	742.66
435.518	739.05
435.894	746.96
436.269	778.37
436.644	757.8
437.02	762.32
437.395	766.17
437.77	783.79
438.145	804.36
438.52	821.76
438.895	819.95
439.271	793.74
439.646	818.14
440.021	828.54
440.395	819.5
440.77	846.16
441.145	824.02
441.52	852.27
441.895	833.06
442.27	851.81
442.645	843.45
443.019	857.01
443.394	856.11
443.769	861.53
444.143	872.6
444.518	892.94
444.892	889.55
445.267	876.22
445.641	916.9
446.016	913.06
446.39	910.12
446.764	920.96
447.139	887.52
447.513	947.4
447.887	927.74
448.262	925.94
448.636	929.55
449.01	944.47
449.384	974.75
449.758	956.44
450.132	958.03
450.506	959.61
450.88	979.04
451.254	994.63
451.628	983.56
452.002	1007.29
452.376	1017.91
452.75	1003.45
453.123	1026.27
453.497	1030.34
453.871	1055.65
454.244	1061.53
454.618	1063.33
454.992	1077.8
455.365	1067.18
455.739	1087.06
456.112	1121.19
456.486	1113.95
456.859	1106.04
457.232	1149.66
457.606	1133.39
457.979	1151.69
458.352	1166.83
458.725	1183.78
459.099	1195.31
459.472	1200.28
459.845	1235.53
460.218	1231.69
460.591	1249.77
460.964	1262.65
461.337	1258.13
461.71	1286.38
462.083	1280.5
462.456	1301.52
462.829	1316.89
463.201	1318.24
463.574	1335.64
463.947	1355.08
464.32	1372.93
464.692	1379.94
465.065	1400.95
465.438	1417.22
465.81	1440.72
466.183	1444.34
466.555	1468.75
466.928	1505.13
467.3	1504.23
467.672	1520.27
468.045	1509.2
468.417	1540.38
468.789	1569.76
469.161	1586.71
469.534	1611.79
469.906	1644.11
470.278	1633.94
470.65	1664
471.022	1692.24
471.394	1738.8
471.766	1761.85
472.138	1769.08
472.51	1790.09
472.882	1855.18
473.253	1860.37
473.625	1882.3
473.997	1904.67
474.369	1934.72
474.74	1970.43
475.112	1996.87
475.484	2053.36
475.855	2080.26
476.227	2093.82
476.598	2152.12
476.97	2183.08
477.341	2213.36
477.713	2289.97
478.084	2251.32
478.455	2312.79
478.827	2381.94
479.198	2449.74
479.569	2429.63
479.94	2513.46
480.311	2519.11
480.682	2584.88
481.053	2651.77
481.424	2710.3
481.795	2729.73
482.166	2773.8
482.537	2829.84
482.908	2879.78
483.279	2917.3
483.65	2962.27
484.021	3037.07
484.391	3055.82
484.762	3134.47
485.133	3124.52
485.503	3215.82
485.874	3266.67
486.244	3299.21
486.615	3392.31
486.985	3426.89
487.356	3492.2
487.726	3529.94
488.097	3621.01
488.467	3621.23
488.837	3670.5
489.207	3714.11
489.578	3806.31
489.948	3896.93
490.318	3963.14
490.688	3938.96
491.058	4008.79
491.428	4108.9
491.798	4147.55
492.168	4198.62
492.538	4239.52
492.908	4288.11
493.278	4317.71
493.648	4327.43
494.017	4431.61
494.387	4447.43
494.757	4504.37
495.126	4555.9
495.496	4578.27
495.866	4592.05
496.235	4682.9
496.605	4732.62
496.974	4736.01
497.344	4809.22
497.713	4862.33
498.082	4881.54
498.452	4914.98
498.821	4974.87
499.19	4996.56
499.559	5033.17
499.928	5065.71
500.298	5135.09
500.667	5145.94
501.036	5108.43
501.405	5213.06
501.774	5237.46
502.143	5310.68
502.512	5315.43
502.88	5382.54
503.249	5412.15
503.618	5451.69
503.987	5350.68
504.356	5455.99
504.724	5519.49
505.093	5526.72
505.462	5545.7
505.83	5518.36
506.199	5612.37
506.567	5686.94
506.936	5649.43
507.304	5752.7
507.672	5779.37
508.041	5843.32
508.409	5848.97
508.777	5839.48
509.145	5872.02
509.514	5979.14
509.882	5987.27
510.25	5940.72
510.618	5999.48
510.986	6039.02
511.354	6022.53
511.722	6149.08
512.09	6156.31
512.458	6118.12
512.826	6197.21
513.193	6201.05
513.561	6243.08
513.929	6330.77
514.297	6335.74
514.664	6397.66
515.032	6370.31
515.4	6409.41
515.767	6465.9
516.135	6520.37
516.502	6435.85
516.869	6574.6
517.237	6517.43
517.604	6531.21
517.972	6610.31
518.339	6632
518.706	6611.66
519.073	6688.27
519.44	6697.08
519.808	6772.11
520.175	6794.48
520.542	6831.54
520.909	6887.59
521.276	6888.27
521.643	6926
522.009	6917.42
522.376	7047.81
522.743	7057.75
523.11	7108.15
523.477	7129.16
523.843	7203.74
524.21	7248.48
524.577	7300.23
524.943	7330.06
525.31	7329.61
525.676	7405.31
526.043	7437.4
526.409	7466.56
526.776	7556.27
527.142	7534.35
527.508	7566.67
527.874	7641.24
528.241	7697.28
528.607	7720.56
528.973	7809.6
529.339	7773.89
529.705	7855.92
530.071	7944.96
530.437	7942.25
530.803	7975.92
531.169	8025.41
531.535	8056.6
531.901	8125.75
532.267	8092.53
532.632	8182.02
532.998	8188.8
533.364	8283.26
533.73	8259.3
534.095	8330.71
534.461	8379.75
534.826	8377.49
535.192	8418.39
535.557	8522.8
535.923	8462.46
536.288	8518.28
536.653	8591.05
537.019	8554.89
537.384	8661.55
537.749	8593.76
538.114	8669.24
538.479	8735.67
538.845	8760.53
539.21	8776.58
539.575	8880.98
539.94	8851.83
540.305	8901.09
540.67	8812.06
541.034	8904.71
541.399	8934.31
541.764	9007.98
542.129	9003.46
542.494	9011.83
542.858	9089.56
543.223	9105.16
543.587	9197.58
543.952	9218.15
544.316	9256.11
544.681	9297.69
545.045	9299.28
545.41	9356.45
545.774	9397.58
546.138	9457.24
546.503	9497.01
546.867	9509.67
547.231	9466.05
547.595	9562.32
547.959	9603.22
548.324	9561.87
548.688	9559.61
549.052	9629.89
549.416	9701.98
549.779	9748.08
550.143	9728.64
550.507	9789.66
550.871	9847.51
551.235	9843.22
551.599	9911.91
551.962	9989.43
552.326	9966.15
552.689	9961.86
553.053	9991.69
553.417	10041.63
553.78	10168.18
554.143	10100.61
554.507	10234.62
554.87	10211.12
555.234	10218.12
555.597	10244.79
555.96	10342.19
556.323	10349.87
556.686	10334.95
557.05	10414.5
557.413	10485.91
557.776	10474.16
558.139	10529.98
558.502	10543.76
558.865	10589.86
559.228	10631.22
559.59	10729.75
559.953	10626.02
560.316	10799.12
560.679	10774.94
561.041	10916.63
561.404	10922.96
561.767	10907.82
562.129	10904.43
562.492	11047.7
562.854	10932
563.217	11007.48
563.579	11133.35
563.941	11139.9
564.304	11200.69
564.666	11247.25
565.028	11270.97
565.39	11317.53
565.753	11258.32
566.115	11401.82
566.477	11469.39
566.839	11470.74
567.201	11570.63
567.563	11542.38
567.925	11678.2
568.287	11674.35
568.648	11727.01
569.01	11755.93
569.372	11784.86
569.734	11850.85
570.095	11833.22
570.457	12034.8
570.819	11923.84
571.18	12062.37
571.542	12053.1
571.903	12094.46
572.265	12238.86
572.626	12317.28
572.987	12273.43
573.349	12305.75
573.71	12403.37
574.071	12491.06
574.432	12564.95
574.794	12684.27
575.155	12682.69
575.516	12596.36
575.877	12785.51
576.238	12813.76
576.599	12915
576.96	12987.99
577.32	13095.33
577.681	13077.48
578.042	13227.53
578.403	13300.3
578.763	13393.63
579.124	13576
579.485	13607.41
579.845	13765.6
580.206	13840.62
580.566	13964.92
580.927	14093.5
581.287	14286.49
581.648	14260.5
582.008	14618.01
582.368	14566.93
582.728	14796.98
583.089	14940.93
583.449	15084.43
583.809	15199.46
584.169	15403.3
584.529	15533.91
584.889	15885.99
585.249	15933.9
585.609	16149.26
585.969	16401.24
586.329	16539.76
586.688	16768.46
587.048	16861.79
587.408	17251.61
587.768	17408.67
588.127	17567.08
588.487	17819.5
588.846	18124.81
589.206	18316.44
589.565	18554.4
589.925	18931.11
590.284	19092.46
590.643	19415.39
591.003	19675.05
591.362	20065.77
591.721	20326.78
592.08	20548.47
592.44	20983.04
592.799	21164.95
593.158	21361.11
593.517	21689.46
593.876	22199.05
594.235	22308.2
594.593	22682.2
594.952	23052.81
595.311	23185.24
595.67	23620.71
596.029	24004.43
596.387	24464.53
596.746	24672.43
597.104	24956.04
597.463	25230.83
597.822	25695.91
598.18	25822.91
598.538	26139.28
598.897	26633.28
599.255	26764.58
599.613	27391
599.972	27561.39
600.33	27946.47
600.688	28109.63
601.046	28411.32
601.404	28966.78
601.762	29207.23
602.12	29517.5
602.478	29732.64
602.836	30150.48
603.194	30306.63
603.552	30649.67
603.91	30773.96
604.268	31270.22
604.625	31447.62
604.983	31877.21
605.341	31954.5
605.698	32434.49
606.056	32678.32
606.413	32991.99
606.771	33213
607.128	33628.13
607.485	33753.77
607.843	33904.28
608.2	34314.89
608.557	34570.7
608.914	34680.3
609.272	35185.15
609.629	35357.8
609.986	35803.44
610.343	35877.11
610.7	36235.74
611.057	36434.61
611.414	36609.07
611.771	36696.97
612.127	37173.12
612.484	37294.47
612.841	37569.49
613.198	37704.63
613.554	37752.76
613.911	38297.83
614.267	38451.05
614.624	38568.56
614.98	38865.5
615.337	39171.48
615.693	39157.47
616.05	39258.71
616.406	39872.93
616.762	39666.16
617.118	39818.25
617.475	40003.1
617.831	40269.99
618.187	40405.58
618.543	40499.36
618.899	40769.63
619.255	41000.14
619.611	41100.92
619.967	41236.29
620.323	41540.24
620.678	41498.65
621.034	41560.8
621.39	41571.2
621.746	41807.8
622.101	42237.17
622.457	42052.99
622.812	42246.88
623.168	42455.24
623.523	42556.93
623.879	42779.3
624.234	42482.36
624.589	42879.41
624.945	42932.52
625.3	42861.1
625.655	42936.13
626.01	43082.34
626.365	43157.59
626.72	43209.8
627.075	43223.81
627.43	43219.06
627.785	43229.23
628.14	43473.52
628.495	43716.22
628.85	43515.1
629.205	43598.49
629.559	43890.68
629.914	43862.43
630.269	43972.04
630.623	43818.59
630.978	43899.04
631.332	44168.64
631.687	44022.66
632.041	44153.73
632.396	44161.18
632.75	43868.08
633.104	44137.46
633.459	43888.65
633.813	43963.67
634.167	44028.08
634.521	44102.88
634.875	44131.13
635.229	44148.75
635.583	43812.49
635.937	44050.45
636.291	43921.87
636.645	44080.73
636.999	43947.4
637.352	44023.11
637.706	44056.33
638.06	44173.84
638.413	44158.92
638.767	44049.32
639.121	44121.18
639.474	43906.27
639.828	43965.03
640.181	44178.36
640.534	44122.54
640.888	44003.22
641.241	43841.87
641.594	43817.69
641.947	43939.04
642.301	43830.57
642.654	44031.92
643.007	43945.37
643.36	43906.73
643.713	43924.35
644.066	43984.24
644.419	43705.15
644.771	43604.59
645.124	43262
645.477	43172.96
645.83	42982.68
646.182	42873.53
646.535	42843.25
646.888	42990.14
647.24	42758.06
647.593	42966.64
647.945	42718.51
648.298	42592.86
648.65	42510.15
649.002	42581.56
649.355	42738.85
649.707	42659.98
650.059	42775.23
650.411	43256.12
650.763	43277.36
651.115	43620.18
651.467	43449.56
651.819	43542.67
652.171	43384.48
652.523	43243.69
652.875	43291.38
653.227	43129.35
653.578	43576.11
653.93	43433.52
654.282	43268.1
654.633	43210.25
654.985	43226.07
655.337	43374.54
655.688	43213.19
656.039	43400.07
656.391	43141.32
656.742	43155.79
657.094	43271.49
657.445	43453.86
657.796	43304.71
658.147	43089.57
658.498	43224.94
658.849	43195.33
659.2	43139.97
659.551	43086.64
659.902	43117.14
660.253	43275.33
660.604	43278.72
660.955	43004.6
661.306	43103.58
661.656	43016.81
662.007	43097.48
662.358	43053.42
662.708	43200.53
663.059	43091.83
663.409	42886.19
663.76	43232.17
664.11	43187.42
664.461	43219.97
664.811	43220.64
665.161	43043.92
665.511	42922.8
665.862	43102.23
666.212	42991.5
666.562	43227.65
666.912	43159.18
667.262	43055.45
667.612	43045.96
667.962	42925.51
668.312	42963.25
668.662	43161.66
669.011	42964.15
669.361	42822.46
669.711	42892.52
670.06	42839.41
670.41	42877.6
670.76	42913.31
671.109	43003.02
671.459	42869.69
671.808	42860.88
672.157	42952.18
672.507	42662.47
672.856	42681
673.205	42730.71
673.554	42896.36
673.904	42676.25
674.253	42925.06
674.602	42873.76
674.951	42125.53
675.3	41966.66
675.649	42645.52
675.998	42507.67
676.346	42589.47
676.695	42681
677.044	42378.63
677.393	42431.96
677.741	42556.03
678.09	42451.62
678.438	42425.86
678.787	42363.49
679.135	42514.67
679.484	42217.51
679.832	42430.16
680.181	42215.47
680.529	42182.7
680.877	42053.44
681.225	42153.55
681.573	42373.21
681.922	41963.95
682.27	41899.32
682.618	42012.54
682.966	41828.14
683.314	41855.93
683.661	41881.92
684.009	41510.63
684.357	41561.48
684.705	41427.24
685.053	41477.86
685.4	41513.12
685.748	41335.95
686.095	41299.79
686.443	41217.76
686.79	41283.07
687.138	41240.36
687.485	41206.68
687.832	40992.68
688.18	41067.71
688.527	40920.14
688.874	40892.34
689.221	40744.78
689.568	40735.96
689.915	40659.81
690.262	40653.71
690.609	40504.78
690.956	40275.86
691.303	40412.36
691.65	40014.85
691.997	40083.55
692.344	39852.37
692.69	39947.06
693.037	39819.38
693.383	39486.28
693.73	39792.71
694.077	39561.53
694.423	39482.21
694.769	39438.14
695.116	39334.19
695.462	39251.03
695.808	39138.72
696.155	39269.79
696.501	38897.82
696.847	38857.82
697.193	38605.62
697.539	38910.7
697.885	38466.87
698.231	38451.05
698.577	38327.66
698.923	38396.14
699.269	38190.94
699.614	38032.98
699.96	37994.79
700.306	37977.62
700.651	37722.48
700.997	37775.14
701.342	37576.05
701.688	37738.75
702.033	37459.66
702.379	37427.35
702.724	37433.45
703.069	37380.34
703.415	36890.87
703.76	36993.46
704.105	37140.8
704.45	36890.87
704.795	36736.29
705.14	36643.64
705.485	36825.11
705.83	36508.28
706.175	36577.88
706.52	36454.72
706.865	36302.41
707.209	36362.29
707.554	36204.56
707.899	36203.65
708.243	35947.84
708.588	35986.26
708.932	35631.24
709.277	35637.79
709.621	35683.44
709.966	35421.75
710.31	35530.45
710.654	35190.57
710.998	35401.41
711.342	35373.62
711.687	35123.91
712.031	35014.08
712.375	34838.72
712.719	35005.04
713.063	34992.61
713.407	35045.49
713.75	34889.56
714.094	34787.87
714.438	34670.81
714.782	34662.45
715.125	34534.32
715.469	34702.9
715.812	34425.17
716.156	34292.74
716.499	34271.27
716.843	34228.56
717.186	34076.7
717.53	34428.11
717.873	34255.46
718.216	34174.1
718.559	33952.41
718.902	33710.61
719.246	33714.45
719.589	33661.8
719.932	33714.9
720.275	33645.53
720.617	33535.47
720.96	33526.43
721.303	33318.98
721.646	33445.31
721.989	33210.28
722.331	33422.48
722.674	33261.81
723.016	33303.84
723.359	33214.8
723.701	33318.53
724.044	33134.81
724.386	32783.63
724.729	33015.04
725.071	32961.7
725.413	32968.71
725.755	32834.93
726.097	32706.57
726.439	32728.72
726.782	32606.46
727.124	32836.06
727.465	32611.66
727.807	32498.67
728.149	32363.08
728.491	32356.52
728.833	32373.02
729.175	32250.08
729.516	32237.88
729.858	32211.89
730.199	32106.59
730.541	32066.81
730.882	32065.68
731.224	32114.49
731.565	31956.53
731.906	31918.57
732.248	31928.74
732.589	31714.73
732.93	31684.22
733.271	31608.29
733.612	31623.66
733.953	31691.68
734.294	31602.87
734.635	31404
734.976	31655.98
735.317	31484.45
735.658	31527.39
735.999	31344.35
736.339	31358.13
736.68	31504.12
737.021	31321.75
737.361	31224.12
737.702	31348.41
738.042	31189.77
738.383	31076.78
738.723	31302.31
739.063	31068.42
739.404	31117.01
739.744	31066.16
740.084	30780.97
740.424	30853.51
740.764	30949.1
741.104	30865.71
741.444	30765.38
741.784	30631.37
742.124	30632.27
742.464	30685.15
742.804	30529.23
743.143	30552.28
743.483	30554.76
743.823	30250.59
744.162	30406.97
744.502	30270.25
744.841	30184.15
745.181	30341.43
745.52	30189.35
745.86	30319.51
746.199	30193.42
746.538	30063.02
746.877	30342.56
747.216	30216.69
747.556	30034.78
747.895	30064.15
748.234	29944.38
748.573	29978.05
748.911	29891.95
749.25	29951.61
749.589	29874.55
749.928	29791.84
750.267	29671.85
750.605	29712.07
750.944	29483.6
751.283	29441.57
751.621	29494.45
751.96	29451.51
752.298	29310.73
752.636	29379.43
752.975	29315.7
753.313	29125.19
753.651	29319.09
753.989	29008.59
754.327	29042.71
754.666	28920.91
755.004	28991.86
755.342	28974.92
755.679	28871.19
756.017	28615.83
756.355	28900.34
756.693	28576.73
757.031	28627.35
757.368	28470.75
757.706	28441.6
758.044	28432.78
758.381	28461.03
758.719	28285.89
759.056	28229.4
