Data from hue_80_FLMS001491_55.txt Node
Date: Mon Feb 06 15:23:14 GMT 2017
User: dcchb
Spectrometer: FLMS00149
Trigger mode: 0
Integration Time (sec): 2.000000E-2
Scans to average: 10
Electric dark correction enabled: true
Nonlinearity correction enabled: false
Boxcar width: 0
XAxis mode: Wavelengths
Number of Pixels in Spectrum: 2048
>>>>>Begin Spectral Data<<<<<
341.393	0.1
341.776	0.1
342.16	0.1
342.543	-56.62
342.927	-65.89
343.31	-65.21
343.693	-65.44
344.077	-64.53
344.46	-69.28
344.843	-51.43
345.226	-33.57
345.61	-29.73
345.993	-18.88
346.376	-9.39
346.759	11.4
347.142	38.06
347.525	44.62
347.908	52.75
348.291	68.35
348.674	84.62
349.057	107.67
349.44	111.28
349.823	155.58
350.206	156.25
350.588	205.07
350.971	197.38
351.354	235.35
351.737	245.52
352.119	253.88
352.502	246.87
352.884	262.24
353.267	280.32
353.65	288.68
354.032	286.42
354.414	311.5
354.797	321.22
355.179	322.35
355.562	315.12
355.944	322.58
356.326	325.74
356.709	333.65
357.091	323.03
357.473	345.63
357.855	323.25
358.238	329.13
358.62	341.56
359.002	319.41
359.384	323.48
359.766	340.43
360.148	341.56
360.53	342.24
360.912	319.86
361.294	306.53
361.676	333.88
362.057	335.68
362.439	331.62
362.821	332.29
363.203	326.42
363.584	321.67
363.966	325.97
364.348	332.29
364.729	337.94
365.111	321.9
365.493	306.98
365.874	299.75
366.256	273.99
366.637	309.92
367.019	323.25
367.4	302.24
367.781	308.57
368.163	325.74
368.544	303.82
368.925	301.79
369.306	324.38
369.688	304.95
370.069	303.14
370.45	318.28
370.831	318.51
371.212	306.76
371.593	313.99
371.974	302.92
372.355	304.27
372.736	306.98
373.117	318.28
373.498	316.47
373.879	323.71
374.26	323.48
374.641	320.09
375.021	319.86
375.402	331.84
375.783	304.05
376.163	308.79
376.544	303.14
376.925	324.38
377.305	335.91
377.686	308.34
378.066	310.83
378.447	324.61
378.827	318.96
379.208	333.2
379.588	338.62
379.968	320.77
380.349	319.41
380.729	312.18
381.109	328.45
381.489	353.99
381.87	320.54
382.25	339.07
382.63	314.89
383.01	343.14
383.39	350.15
383.77	350.15
384.15	343.37
384.53	300.43
384.91	346.98
385.29	352.18
385.67	350.82
386.049	341.56
386.429	325.51
386.809	331.39
387.189	344.27
387.568	372.74
387.948	340.88
388.328	360.32
388.707	342.01
389.087	350.15
389.466	371.61
389.846	371.84
390.225	359.19
390.605	356.93
390.984	357.38
391.363	379.3
391.743	363.71
392.122	365.74
392.501	356.02
392.881	380.2
393.26	375.68
393.639	356.47
394.018	375
394.397	365.29
394.776	377.94
395.155	372.52
395.534	375.68
395.913	365.06
396.292	359.41
396.671	379.07
397.05	370.71
397.429	373.2
397.808	381.56
398.186	375.68
398.565	386.08
398.944	386.76
399.323	384.72
399.701	373.2
400.08	387.89
400.458	399.41
400.837	379.98
401.215	380.43
401.594	402.35
401.972	404.16
402.351	415.68
402.729	407.77
403.107	425.17
403.486	401.67
403.864	432.63
404.242	379.98
404.62	425.4
404.999	396.25
405.377	420.65
405.755	422.46
406.133	401.67
406.511	410.94
406.889	399.86
407.267	423.36
407.645	428.11
408.023	445.96
408.401	447.32
408.779	440.09
409.156	439.41
409.534	412.52
409.912	429.24
410.29	445.06
410.667	440.31
411.045	460.65
411.422	442.8
411.8	429.01
412.178	442.12
412.555	457.94
412.933	443.25
413.31	470.82
413.687	472.4
414.065	472.18
414.442	465.62
414.819	448.22
415.197	485.51
415.574	475.57
415.951	476.02
416.328	475.11
416.705	479.18
417.082	480.76
417.46	488.45
417.837	491.39
418.214	515.79
418.591	497.03
418.967	514.66
419.344	507.88
419.721	510.37
420.098	490.93
420.475	502.68
420.852	507.88
421.228	496.13
421.605	531.38
421.982	530.71
422.358	535.68
422.735	542.68
423.111	543.14
423.488	514.21
423.864	523.93
424.241	540.42
424.617	545.62
424.994	552.4
425.37	556.69
425.746	561.21
426.123	551.95
426.499	570.25
426.875	565.51
427.251	588.78
427.627	593.76
428.003	562.57
428.379	585.17
428.756	584.26
429.132	596.47
429.507	562.57
429.883	602.79
430.259	616.35
430.635	611.38
431.011	643.7
431.387	626.3
431.763	634.43
432.138	644.38
432.514	654.09
432.89	656.58
433.265	644.6
433.641	640.99
434.016	690.93
434.392	660.42
434.767	666.3
435.143	689.57
435.518	677.37
435.894	670.36
436.269	679.18
436.644	705.62
437.02	712.4
437.395	708.78
437.77	715.11
438.145	721.89
438.52	728.67
438.895	716.46
439.271	722.11
439.646	721.89
440.021	753.07
440.395	724.37
440.77	742
441.145	760.3
441.52	777.71
441.895	765.73
442.27	758.5
442.645	772.96
443.019	776.12
443.394	788.78
443.769	780.42
444.143	789.23
444.518	803.69
444.892	794.88
445.267	812.73
445.641	792.17
446.016	802.79
446.39	831.72
446.764	828.55
447.139	830.81
447.513	833.3
447.887	802.34
448.262	844.37
448.636	849.79
449.01	825.61
449.384	861.09
449.758	870.13
450.132	859.96
450.506	878.27
450.88	894.31
451.254	861.55
451.628	897.25
452.002	905.61
452.376	924.82
452.75	937.48
453.123	919.4
453.497	924.82
453.871	944.03
454.244	949.9
454.618	946.06
454.992	972.05
455.365	972.73
455.739	991.03
456.112	979.51
456.486	1013.86
456.859	997.36
457.232	1054.76
457.606	1020.19
457.979	1026.51
458.352	1028.77
458.725	1078.04
459.099	1081.43
459.472	1104.93
459.845	1103.35
460.218	1103.8
460.591	1130.92
460.964	1104.7
461.337	1166.85
461.71	1176.11
462.083	1196.68
462.456	1175.89
462.829	1223.57
463.201	1225.83
463.574	1263.57
463.947	1275.77
464.32	1283.45
464.692	1290.91
465.065	1282.33
465.438	1316.45
465.81	1339.72
466.183	1363
466.555	1401.87
466.928	1413.85
467.3	1419.95
467.672	1415.43
468.045	1477.57
468.417	1484.58
468.789	1499.49
469.161	1505.14
469.534	1574.52
469.906	1566.61
470.278	1598.02
470.65	1627.17
471.022	1677.34
471.394	1687.06
471.766	1726.16
472.138	1758.02
472.51	1810.45
472.882	1821.75
473.253	1866.94
473.625	1884.34
473.997	1934.96
474.369	2007.05
474.74	2010.44
475.112	2047.5
475.484	2092.25
475.855	2175.41
476.227	2232.81
476.598	2274.84
476.97	2303.32
477.341	2373.82
477.713	2459.24
478.084	2518.68
478.455	2583.76
478.827	2641.61
479.198	2723.19
479.569	2757.54
479.94	2858.78
480.311	2923.19
480.682	3025.1
481.053	3138.77
481.424	3186.91
481.795	3296.06
482.166	3381.93
482.537	3436.39
482.908	3542.6
483.279	3633
483.65	3762.49
484.021	3862.6
484.391	3938.07
484.762	4045.19
485.133	4100.33
485.503	4233.21
485.874	4423.94
486.244	4413.32
486.615	4585.52
486.985	4719.3
487.356	4846.3
487.726	4927.65
488.097	5121.55
488.467	5205.16
488.837	5398.83
489.207	5452.84
489.578	5686.05
489.948	5761.08
490.318	5886.95
490.688	6036.1
491.058	6154.29
491.428	6331.91
491.798	6481.51
492.168	6635.86
492.538	6742.97
492.908	6870.65
493.278	7048.05
493.648	7137.99
494.017	7299.34
494.387	7462.73
494.757	7569.84
495.126	7709.5
495.496	7831.76
495.866	7898.2
496.235	8150.85
496.605	8224.97
496.974	8344.51
497.344	8466.77
497.713	8683.26
498.082	8693.88
498.452	8940.2
498.821	8959.64
499.19	9071.5
499.559	9246.64
499.928	9383.13
500.298	9500.19
500.667	9696.79
501.036	9746.74
501.405	9835.32
501.774	9937.01
502.143	10084.13
502.512	10211.58
502.88	10329.09
503.249	10378.36
503.618	10515.75
503.987	10621.97
504.356	10753.94
504.724	10915.07
505.093	10969.53
505.462	11017.21
505.83	11169.97
506.199	11206.13
506.567	11450.42
506.936	11493.36
507.304	11554.37
507.672	11638.66
508.041	11757.53
508.409	11858.09
508.777	11968.15
509.145	12103.51
509.514	12136.95
509.882	12221.47
510.25	12274.35
510.618	12429.38
510.986	12501.69
511.354	12573.33
511.722	12680.44
512.09	12799.31
512.458	12805.64
512.826	13017.84
513.193	13026.65
513.561	13117.27
513.929	13224.61
514.297	13310.71
514.664	13384.38
515.032	13359.52
515.4	13592.28
515.767	13575.56
516.135	13740.08
516.502	13646.29
516.869	13811.71
517.237	13895.1
517.604	13945.49
517.972	14024.36
518.339	14088.77
518.706	14105.49
519.073	14177.35
519.44	14279.72
519.808	14306.84
520.175	14358.82
520.542	14594.07
520.909	14634.97
521.276	14574.63
521.643	14758.35
522.009	14810.33
522.376	14921.06
522.743	14961.06
523.11	15101.4
523.477	15158.57
523.843	15197.44
524.21	15320.37
524.577	15427.72
524.943	15487.38
525.31	15479.92
525.676	15691.44
526.043	15650.08
526.409	15754.49
526.776	15817.54
527.142	15785.67
527.508	15840.36
527.874	15978.66
528.241	16025.21
528.607	16037.87
528.973	16032.22
529.339	16070.86
529.705	16226.34
530.071	16350.4
530.437	16407.13
530.803	16348.82
531.169	16399.22
531.535	16451.42
531.901	16439.89
532.267	16529.61
532.632	16475.37
532.998	16586.1
533.364	16633.33
533.73	16617.74
534.095	16778.87
534.461	16767.34
534.826	16751.75
535.192	16833.55
535.557	16811.86
535.923	16720.79
536.288	16899.54
536.653	16845.76
537.019	16715.82
537.384	16773.9
537.749	16842.59
538.114	16894.12
538.479	16859.32
538.845	16824.06
539.21	16829.94
539.575	16818.19
539.94	16819.32
540.305	16899.32
540.67	16872.88
541.034	16867.23
541.399	16963.04
541.764	16876.04
542.129	16916.94
542.494	16918.3
542.858	16925.98
543.223	16871.52
543.587	16907.45
543.952	16927.34
544.316	16777.51
544.681	16819.54
545.045	16930.28
545.41	16898.64
545.774	16880.56
546.138	16883.5
546.503	16836.27
546.867	16920.33
547.231	16900.45
547.595	16937.96
547.959	16949.03
548.324	16850.5
548.688	16907.68
549.052	16830.39
549.416	16822.26
549.779	16935.7
550.143	16933.89
550.507	16952.87
550.871	17007.79
551.235	16838.75
551.599	17044.62
551.962	16900.45
552.326	16852.99
552.689	16919.2
553.053	16841.92
553.417	16876.49
553.78	17009.82
554.143	16836.04
554.507	16841.24
554.87	16917.62
555.234	17003.72
555.597	16786.1
555.96	16912.42
556.323	17000.56
556.686	16946.55
557.05	16979.31
557.413	17035.36
557.776	16976.83
558.139	17152.19
558.502	17027
558.865	17072.87
559.228	17134.34
559.59	17181.57
559.953	17282.13
560.316	17332.3
560.679	17208.46
561.041	17213.43
561.404	17343.82
561.767	17461.56
562.129	17298.18
562.492	17442.8
562.854	17470.83
563.217	17403.48
563.579	17498.85
563.941	17475.57
564.304	17579.3
564.666	17579.75
565.028	17680.09
565.39	17523.71
565.753	17743.36
566.115	17705.17
566.477	17758.5
566.839	17673.08
567.201	17864.26
567.563	17863.13
567.925	17930.93
568.287	17967.99
568.648	17908.55
569.01	18047.53
569.372	18136.35
569.734	17913.3
570.095	18083.01
570.457	18106.29
570.819	18153.52
571.18	18160.07
571.542	18142.45
571.903	18096.12
572.265	18207.08
572.626	18264.93
572.987	18252.05
573.349	18257.25
573.71	18377.47
574.071	18387.19
574.432	18340.18
574.794	18487.07
575.155	18424.93
575.516	18450.46
575.877	18472.16
576.238	18438.26
576.599	18486.17
576.96	18529.33
577.32	18493.4
577.681	18597.35
578.042	18609.55
578.403	18537.69
578.763	18614.98
579.124	18647.07
579.485	18698.36
579.845	18718.25
580.206	18597.58
580.566	18616.56
580.927	18649.1
581.287	18739.49
581.648	18607.52
582.008	18699.72
582.368	18653.85
582.728	18704.01
583.089	18632.6
583.449	18674.41
583.809	18678.48
584.169	18685.48
584.529	18680.74
584.889	18792.6
585.249	18661.76
585.609	18617.91
585.969	18722.09
586.329	18632.38
586.688	18598.93
587.048	18565.49
587.408	18570.23
587.768	18658.37
588.127	18565.71
588.487	18522.1
588.846	18592.6
589.206	18592.6
589.565	18470.12
589.925	18523
590.284	18501.99
590.643	18587.41
591.003	18581.98
591.362	18525.49
591.721	18590.12
592.08	18568.65
592.44	18588.08
592.799	18645.71
593.158	18528.65
593.517	18513.96
593.876	18597.58
594.235	18512.61
594.593	18476.9
594.952	18503.34
595.311	18447.75
595.67	18414.3
596.029	18572.04
596.387	18534.53
596.746	18639.83
597.104	18454.08
597.463	18510.8
597.822	18541.08
598.18	18482.55
598.538	18524.13
598.897	18719.38
599.255	18336.34
599.613	18682.55
599.972	18557.13
600.33	18571.59
600.688	18511.7
601.046	18511.48
601.404	18679.38
601.762	18526.84
602.12	18642.55
602.478	18687.07
602.836	18612.72
603.194	18523.68
603.552	18598.25
603.91	18483.23
604.268	18571.81
604.625	18566.84
604.983	18611.59
605.341	18506.96
605.698	18621.3
606.056	18657.69
606.413	18568.88
606.771	18554.87
607.128	18582.44
607.485	18522.78
607.843	18650.46
608.2	18777.68
608.557	18703.34
608.914	18611.13
609.272	18699.04
609.629	18796.67
609.986	18840.73
610.343	18759.83
610.7	18813.62
611.057	18911.24
611.414	18823.33
611.771	18849.55
612.127	18877.12
612.484	18899.26
612.841	18859.72
613.198	18857.23
613.554	18933.16
613.911	18976.32
614.267	18989.88
614.624	19017.9
614.98	18985.14
615.337	19184.68
615.693	19075.53
616.05	19044.57
616.406	19155.08
616.762	19180.16
617.118	19079.82
617.475	19100.84
617.831	19161.18
618.187	19036.21
618.543	19140.61
618.899	19247.5
619.255	19210.22
619.611	19197.11
619.967	19163.66
620.323	19287.73
620.678	19261.29
621.034	19139.03
621.39	19227.16
621.746	19091.12
622.101	19388.74
622.457	19191.23
622.812	19280.72
623.168	19252.02
623.523	19325.47
623.879	19351.68
624.234	19287.95
624.589	19323.66
624.945	19443.66
625.3	19222.19
625.655	19345.58
626.01	19357.56
626.365	19360.04
626.72	19410.66
627.075	19280.95
627.43	19333.83
627.785	19241.85
628.14	19358.01
628.495	19282.76
628.85	19300.61
629.205	19274.62
629.559	19339.93
629.914	19223.77
630.269	19280.72
630.623	19159.14
630.978	19114.4
631.332	19257.45
631.687	19256.99
632.041	19198.92
632.396	19224
632.75	19203.44
633.104	19088.18
633.459	19028.53
633.813	19108.07
634.167	19004.34
634.521	19045.93
634.875	19060.61
635.229	19118.69
635.583	18948.98
635.937	19027.17
636.291	18900.84
636.645	18881.86
636.999	18865.82
637.352	18949.43
637.706	18781.98
638.06	18816.55
638.413	18889.55
638.767	18831.24
639.121	18797.12
639.474	18607.29
639.828	18631.93
640.181	18738.59
640.534	18744.24
640.888	18575.88
641.241	18640.29
641.594	18680.74
641.947	18665.6
642.301	18645.71
642.654	18685.71
643.007	18591.25
643.36	18673.28
643.713	18569.55
644.066	18714.18
644.419	18538.14
644.771	18391.48
645.124	18232.61
645.477	18228.32
645.83	18155.1
646.182	18034.2
646.535	18012.28
646.888	18086.85
647.24	17975.45
647.593	18045.27
647.945	17927.09
648.298	17925.05
648.65	17878.5
649.002	17864.26
649.355	17971.38
649.707	17909.91
650.059	18096.8
650.411	18178.6
650.763	18217.25
651.115	18436.68
651.467	18368.88
651.819	18351.25
652.171	18367.53
652.523	18359.39
652.875	18374.08
653.227	18355.1
653.578	18346.74
653.93	18382.44
654.282	18335.44
654.633	18363.46
654.985	18305.15
655.337	18254.99
655.688	18350.58
656.039	18431.48
656.391	18178.15
656.742	18265.38
657.094	18297.7
657.445	18408.88
657.796	18312.16
658.147	18288.21
658.498	18265.83
658.849	18276.23
659.2	18269.9
659.551	18307.19
659.902	18237.81
660.253	18307.87
660.604	18350.12
660.955	18281.43
661.306	18346.28
661.656	18329.79
662.007	18328.43
662.358	18389.67
662.708	18368.88
663.059	18281.2
663.409	18215.44
663.76	18355.1
664.11	18421.31
664.461	18377.69
664.811	18329.56
665.161	18374.08
665.511	18378.6
665.862	18347.64
666.212	18396.23
666.562	18450.46
666.912	18458.14
667.262	18377.69
667.612	18329.56
667.962	18410.46
668.312	18325.04
668.662	18399.39
669.011	18385.6
669.361	18294.76
669.711	18235.55
670.06	18286.62
670.41	18261.54
670.76	18229
671.109	18314.42
671.459	18257.47
671.808	18301.99
672.157	18247.75
672.507	18173.41
672.856	18165.72
673.205	18193.07
673.554	18232.84
673.904	18231.94
674.253	18203.91
674.602	18194.65
674.951	17875.79
675.3	17824.04
675.649	18044.14
675.998	18111.04
676.346	18079.85
676.695	18123.46
677.044	17983.35
677.393	18025.61
677.741	18112.17
678.09	17953.3
678.438	17810.93
678.787	18100.19
679.135	17955.78
679.484	17823.59
679.832	17900.87
680.181	17850.48
680.529	17848.9
680.877	17751.04
681.225	17861.55
681.573	17882.34
681.922	17784.94
682.27	17634.66
682.618	17720.76
682.966	17706.07
683.314	17716.24
683.661	17650.48
684.009	17509.69
684.357	17463.37
684.705	17455.23
685.053	17436.02
685.4	17382.69
685.748	17343.6
686.095	17276.93
686.443	17224.28
686.79	17111.74
687.138	17198.29
687.485	17246.2
687.832	17159.42
688.18	17138.18
688.527	17031.29
688.874	16958.97
689.221	16989.48
689.568	16918.07
689.915	16888.24
690.262	16957.62
690.609	16814.8
690.956	16828.36
691.303	16742.48
691.65	16594.24
691.997	16652.99
692.344	16515.82
692.69	16467.46
693.037	16564.86
693.383	16356.73
693.73	16444.41
694.077	16331.65
694.423	16301.59
694.769	16227.92
695.116	16251.65
695.462	16151.31
695.808	16060.69
696.155	16188.37
696.501	15935.27
696.847	15891.21
697.193	15867.03
697.539	15861.15
697.885	15796.97
698.231	15690.31
698.577	15583.19
698.923	15658.44
699.269	15577.09
699.614	15440.14
699.96	15396.53
700.306	15487.38
700.651	15296.87
700.997	15212.35
701.342	15177.55
701.688	15195.63
702.033	15051.91
702.379	15039.7
702.724	15055.97
703.069	15061.17
703.415	14918.58
703.76	14895.53
704.105	14894.62
704.45	14822.31
704.795	14792.93
705.14	14688.07
705.485	14699.6
705.83	14490.57
706.175	14625.25
706.52	14568.53
706.865	14506.61
707.209	14504.35
707.554	14400.85
707.899	14397.69
708.243	14324.69
708.588	14368.31
708.932	14207.41
709.277	14208.54
709.621	14124.47
709.966	14132.16
710.31	14149.33
710.654	13962.9
710.998	13983.01
711.342	13968.55
711.687	13884.25
712.031	13788.21
712.375	13794.54
712.719	13889
713.063	13843.58
713.407	13820.3
713.75	13783.69
714.094	13709.12
714.438	13614.43
714.782	13691.72
715.125	13620.98
715.469	13578.05
715.812	13562
716.156	13490.82
716.499	13458.73
716.843	13494.89
717.186	13549.35
717.53	13511.83
717.873	13527.43
718.216	13469.8
718.559	13442.46
718.902	13327.21
719.246	13397.26
719.589	13258.51
719.932	13300.99
720.275	13279.98
720.617	13190.94
720.96	13220.09
721.303	13259.86
721.646	13196.81
721.989	13213.99
722.331	13152.97
722.674	13105.74
723.016	13168.34
723.359	13120.21
723.701	13072.75
724.044	13080.43
724.386	12984.84
724.729	13088.79
725.071	13070.72
725.413	13027.55
725.755	13098.51
726.097	12987.1
726.439	12938.06
726.782	12939.65
727.124	12971.06
727.465	12925.41
727.807	12953.66
728.149	12895.35
728.491	12998.18
728.833	12932.87
729.175	12895.58
729.516	12897.16
729.858	12790.5
730.199	12885.41
730.541	12865.3
730.882	12846.09
731.224	12872.53
731.565	12772.42
731.906	12801.8
732.248	12798.18
732.589	12729.93
732.93	12755.24
733.271	12695.13
733.612	12732.87
733.953	12678.18
734.294	12731.29
734.635	12737.62
734.976	12730.16
735.317	12729.26
735.658	12738.07
735.999	12787.56
736.339	12771.29
736.68	12760.67
737.021	12715.47
737.361	12665.53
737.702	12792.76
738.042	12740.78
738.383	12687.22
738.723	12761.12
739.063	12689.71
739.404	12696.26
739.744	12782.36
740.084	12736.94
740.424	12857.61
740.764	12772.64
741.104	12889.48
741.444	12792.76
741.784	12752.76
742.124	12790.5
742.464	12834.56
742.804	12844.73
743.143	12886.09
743.483	12939.87
743.823	12882.02
744.162	12903.71
744.502	12923.37
744.841	12916.82
745.181	13069.59
745.52	13039.3
745.86	13128.79
746.199	13095.8
746.538	13089.02
746.877	13245.85
747.216	13245.4
747.556	13179.64
747.895	13354.78
748.234	13340.09
748.573	13402.91
748.911	13354.1
749.25	13439.75
749.589	13437.03
749.928	13583.7
750.267	13661.89
750.605	13698.04
750.944	13801.32
751.283	13807.42
751.621	13897.13
751.96	13911.37
752.298	14002.89
752.636	14190.46
752.975	14126.96
753.313	14247.41
753.651	14407.4
753.989	14419.15
754.327	14475.2
754.666	14557.91
755.004	14793.16
755.342	14772.59
755.679	14851.46
756.017	14984.11
756.355	15123.99
756.693	15201.28
