Data from hue_180_FLMS001491_00072.txt Node
Date: Tue Feb 07 16:47:27 GMT 2017
User: dcchb
Spectrometer: FLMS00149
Trigger mode: 0
Integration Time (sec): 2.000000E-2
Scans to average: 10
Electric dark correction enabled: true
Nonlinearity correction enabled: false
Boxcar width: 0
XAxis mode: Wavelengths
Number of Pixels in Spectrum: 2048
>>>>>Begin Spectral Data<<<<<
341.393	-0.75
341.776	-0.75
342.16	-0.75
342.543	-71.93
342.927	-78.03
343.31	-75.55
343.693	-58.15
344.077	-69
344.46	-61.09
344.843	-50.24
345.226	-36.23
345.61	-30.8
345.993	-29.9
346.376	6.48
346.759	14.84
347.142	33.6
347.525	27.73
347.908	57.55
348.291	84.67
348.674	69.76
349.057	116.31
349.44	116.31
349.823	123.99
350.206	141.85
350.588	180.26
350.971	190.21
351.354	215.06
351.737	223.88
352.119	227.72
352.502	265.01
352.884	254.16
353.267	291.45
353.65	274.27
354.032	300.71
354.414	283.99
354.797	303.65
355.179	309.3
355.562	299.58
355.944	320.6
356.326	315.85
356.709	328.73
357.091	326.02
357.473	325.57
357.855	346.81
358.238	336.42
358.62	326.7
359.002	334.38
359.384	351.56
359.766	332.35
360.148	356.98
360.53	329.19
360.912	345.23
361.294	317.89
361.676	329.64
362.057	303.65
362.439	328.73
362.821	323.99
363.203	340.94
363.584	324.21
363.966	328.51
364.348	310.43
364.729	313.14
365.111	317.66
365.493	331.45
365.874	314.05
366.256	306.14
366.637	320.6
367.019	307.27
367.4	308.17
367.781	306.36
368.163	299.13
368.544	310.66
368.925	311.33
369.306	325.8
369.688	326.25
370.069	301.62
370.45	296.19
370.831	290.77
371.212	300.03
371.593	314.95
371.974	317.44
372.355	295.74
372.736	317.21
373.117	312.69
373.498	307.49
373.879	293.71
374.26	293.93
374.641	322.18
375.021	316.98
375.402	316.08
375.783	327.15
376.163	306.36
376.544	321.5
376.925	319.92
377.305	298.9
377.686	333.25
378.066	330.77
378.447	320.37
378.827	325.8
379.208	312.69
379.588	320.82
379.968	317.66
380.349	314.72
380.729	297.32
381.109	341.39
381.489	319.02
381.87	329.19
382.25	340.94
382.63	317.66
383.01	318.57
383.39	318.57
383.77	316.53
384.15	313.82
384.53	345.68
384.91	350.88
385.29	348.17
385.67	323.99
386.049	341.84
386.429	330.54
386.809	343.42
387.189	338.45
387.568	344.1
387.948	340.03
388.328	346.36
388.707	367.83
389.087	340.49
389.466	358.79
389.846	359.69
390.225	347.49
390.605	350.43
390.984	377.55
391.363	345.68
391.743	363.31
392.122	352.46
392.501	356.08
392.881	359.47
393.26	377.55
393.639	361.73
394.018	361.28
394.397	368.51
394.776	367.6
395.155	385.23
395.534	384.1
395.913	379.81
396.292	362.86
396.671	386.36
397.05	388.17
397.429	406.92
397.808	368.73
398.186	377.09
398.565	390.43
398.944	403.08
399.323	389.98
399.701	392.46
400.08	389.07
400.458	403.08
400.837	388.85
401.215	408.51
401.594	421.16
401.972	423.42
402.351	390.2
402.729	397.89
403.107	413.7
403.486	408.28
403.864	413.93
404.242	440.37
404.62	428.39
404.999	410.54
405.377	432.01
405.755	437.43
406.133	449.86
406.511	455.51
406.889	456.41
407.267	473.82
407.645	454.61
408.023	474.49
408.401	443.53
408.779	481.5
409.156	479.69
409.534	483.76
409.912	472.01
410.29	494.83
410.667	495.28
411.045	505.23
411.422	519.69
411.8	525.79
412.178	531.44
412.555	538.45
412.933	548.62
413.31	554.94
413.687	553.59
414.065	550.65
414.442	561.04
414.819	560.14
415.197	578.67
415.574	576.41
415.951	583.64
416.328	599.91
416.705	595.85
417.082	623.19
417.46	607.37
417.837	623.42
418.214	621.16
418.591	662.96
418.967	636.75
419.344	668.84
419.721	653.25
420.098	667.48
420.475	701.61
420.852	688.27
421.228	704.09
421.605	685.79
421.982	697.31
422.358	710.87
422.735	717.2
423.111	733.92
423.488	784.32
423.864	776.18
424.241	782.96
424.617	797.87
424.994	797.42
425.37	789.51
425.746	819.34
426.123	830.87
426.499	849.17
426.875	833.13
427.251	874.93
427.627	864.09
428.003	849.17
428.379	908.15
428.756	889.85
429.132	897.98
429.507	935.72
429.883	928.94
430.259	946.12
430.635	949.73
431.011	941.83
431.387	983.63
431.763	998.32
432.138	1000.13
432.514	1013.69
432.89	1010.75
433.265	1051.43
433.641	1069.28
434.016	1073.35
434.392	1080.8
434.767	1090.75
435.143	1121.71
435.518	1093.69
435.894	1137.75
436.269	1166.9
436.644	1176.4
437.02	1173.46
437.395	1204.19
437.77	1225.89
438.145	1254.59
438.52	1294.36
438.895	1270.63
439.271	1303.4
439.646	1330.29
440.021	1340.46
440.395	1336.17
440.77	1363.51
441.145	1375.71
441.52	1398.31
441.895	1411.19
442.27	1419.1
442.645	1407.58
443.019	1465.65
443.394	1451.42
443.769	1453.45
444.143	1480.34
444.518	1508.82
444.892	1519.66
445.267	1503.39
445.641	1542.49
446.016	1542.94
446.39	1564.18
446.764	1551.08
447.139	1595.59
447.513	1575.26
447.887	1594.01
448.262	1622.03
448.636	1647.8
449.01	1642.82
449.384	1627.68
449.758	1667.23
450.132	1703.84
450.506	1700
450.88	1697.96
451.254	1745.87
451.628	1756.72
452.002	1756.72
452.376	1788.36
452.75	1804.4
453.123	1809.15
453.497	1850.5
453.871	1882.37
454.244	1881.01
454.618	1908.13
454.992	1957.62
455.365	1964.62
455.739	1955.13
456.112	2009.59
456.486	2026.09
456.859	2056.37
457.232	2089.14
457.606	2087.11
457.979	2115.35
458.352	2164.62
458.725	2171.4
459.099	2156.03
459.472	2222.47
459.845	2227.22
460.218	2274.9
460.591	2303.82
460.964	2313.54
461.337	2335.46
461.71	2419.75
462.083	2483.03
462.456	2437.15
462.829	2481.22
463.201	2517.38
463.574	2505.4
463.947	2611.61
464.32	2673.98
464.692	2641.89
465.065	2678.05
465.438	2723.25
465.81	2793.3
466.183	2758.73
466.555	2862.9
466.928	2911.04
467.3	2908.55
467.672	2938.38
468.045	3042.11
468.417	3001.21
468.789	3064.03
469.161	3089.34
469.534	3138.6
469.906	3228.32
470.278	3262.44
470.65	3352.84
471.022	3371.37
471.394	3454.53
471.766	3492.49
472.138	3526.16
472.51	3567.29
472.882	3666.5
473.253	3694.07
473.625	3786.72
473.997	3844.12
474.369	3890.9
474.74	3947.17
475.112	4027.85
475.484	4102.42
475.855	4123.44
476.227	4230.1
476.598	4358.46
476.97	4346.71
477.341	4495.18
477.713	4561.84
478.084	4636.64
478.455	4715.96
478.827	4808.62
479.198	4934.04
479.569	4987.59
479.94	5073.02
480.311	5204.31
480.682	5306.91
481.053	5425.55
481.424	5568.14
481.795	5590.29
482.166	5723.85
482.537	5797.29
482.908	5944.86
483.279	6022.37
483.65	6185.76
484.021	6264.85
484.391	6405.18
484.762	6434.11
485.133	6501.68
485.503	6626.65
485.874	6834.33
486.244	6911.84
486.615	7025.73
486.985	7163.81
487.356	7271.83
487.726	7307.53
488.097	7472.05
488.467	7513.18
488.837	7695.55
489.207	7779.39
489.578	7925.82
489.948	8049.66
490.318	8148.64
490.688	8115.65
491.058	8329.65
491.428	8403.32
491.798	8536.2
492.168	8723.09
492.538	8716.76
492.908	8857.1
493.278	8941.84
493.648	9025
494.017	9151.78
494.387	9194.72
494.757	9220.25
495.126	9442.17
495.496	9403.52
495.866	9521.49
496.235	9599
496.605	9683.06
496.974	9669.28
497.344	9871.53
497.713	9953.34
498.082	9898.43
498.452	10024.75
498.821	10118.76
499.19	10098.65
499.559	10191.75
499.928	10321.92
500.298	10262.26
500.667	10342.71
501.036	10388.13
501.405	10557.62
501.774	10488.92
502.143	10565.3
502.512	10622.93
502.88	10686.43
503.249	10709.25
503.618	10767.33
503.987	10825.41
504.356	10833.77
504.724	10835.35
505.093	10918.74
505.462	11048.45
505.83	11002.8
506.199	11089.58
506.567	11196.7
506.936	11225.62
507.304	11305.62
507.672	11211.39
508.041	11321.67
508.409	11292.97
508.777	11398.27
509.145	11475.79
509.514	11442.79
509.882	11522.34
510.25	11491.83
510.618	11548.55
510.986	11582.68
511.354	11583.81
511.722	11669.68
512.09	11734.31
512.458	11692.28
512.826	11770.47
513.193	11877.58
513.561	11759.85
513.929	11976.56
514.297	11958.71
514.664	12000.29
515.032	11982.21
515.4	12021.08
515.767	12027.64
516.135	12038.03
516.502	11954.19
516.869	12097.24
517.237	12128.65
517.604	12019.95
517.972	12149.67
518.339	12174.52
518.706	12170.68
519.073	12109.89
519.44	12202.09
519.808	12289.55
520.175	12118.48
520.542	12379.04
520.909	12332.49
521.276	12282.32
521.643	12366.61
522.009	12416.55
522.376	12356.21
522.743	12479.38
523.11	12501.75
523.477	12531.8
523.843	12519.83
524.21	12619.26
524.577	12572.48
524.943	12599.6
525.31	12580.84
525.676	12648.64
526.043	12681.4
526.409	12689.77
526.776	12733.61
527.142	12713.95
527.508	12680.05
527.874	12712.59
528.241	12728.41
528.607	12675.75
528.973	12688.18
529.339	12640.95
529.705	12708.3
530.071	12769.09
530.437	12699.26
530.803	12739.48
531.169	12709.2
531.535	12649.99
531.901	12649.99
532.267	12695.87
532.632	12614.06
532.998	12614.29
533.364	12603.21
533.73	12544.23
534.095	12517.79
534.461	12571.58
534.826	12557.57
535.192	12506.95
535.557	12604.34
535.923	12484.57
536.288	12434.18
536.653	12499.49
537.019	12256.56
537.384	12285.71
537.749	12314.41
538.114	12272.38
538.479	12185.6
538.845	12148.08
539.21	12138.37
539.575	12136.33
539.94	12079.39
540.305	12091.81
540.67	11977.92
541.034	11974.53
541.399	11911.71
541.764	11941.31
542.129	11855.89
542.494	11842.56
542.858	11740.19
543.223	11756.23
543.587	11720.3
543.952	11603.24
544.316	11608.44
544.681	11579.51
545.045	11481.21
545.41	11548.55
545.774	11532.28
546.138	11443.02
546.503	11428.78
546.867	11357.14
547.231	11346.07
547.595	11286.64
547.959	11234.66
548.324	11192.63
548.688	11157.6
549.052	11119.41
549.416	11099.3
549.779	11030.37
550.143	10995.35
550.507	10982.01
550.871	10972.52
551.235	10824.05
551.599	10878.29
551.962	10838.29
552.326	10883.03
552.689	10805.97
553.053	10713.09
553.417	10683.04
553.78	10755.35
554.143	10686.65
554.507	10570.27
554.87	10556.49
555.234	10621.57
555.597	10508.13
555.96	10572.98
556.323	10435.81
556.686	10417.28
557.05	10380
557.413	10385.65
557.776	10401.01
558.139	10393.33
558.502	10381.13
558.865	10408.02
559.228	10371.86
559.59	10320.11
559.953	10337.96
560.316	10404.63
560.679	10339.32
561.041	10259.32
561.404	10260.45
561.767	10330.73
562.129	10238.3
562.492	10310.17
562.854	10265.2
563.217	10330.73
563.579	10287.57
563.941	10349.49
564.304	10296.83
564.666	10276.95
565.028	10268.36
565.39	10318.08
565.753	10314.91
566.115	10304.74
566.477	10311.75
566.839	10298.42
567.201	10299.32
567.563	10253.9
567.925	10360.11
568.287	10375.7
568.648	10283.95
569.01	10227.23
569.372	10331.18
569.734	10210.06
570.095	10291.18
570.457	10332.09
570.819	10313.1
571.18	10302.03
571.542	10324.4
571.903	10294.8
572.265	10313.1
572.626	10297.96
572.987	10279.89
573.349	10313.1
573.71	10324.86
574.071	10344.97
574.432	10342.93
574.794	10370.28
575.155	10318.98
575.516	10309.49
575.877	10285.31
576.238	10334.35
576.599	10372.99
576.96	10295.93
577.32	10355.36
577.681	10308.36
578.042	10327.79
578.403	10292.31
578.763	10306.78
579.124	10350.62
579.485	10407.57
579.845	10337.74
580.206	10298.42
580.566	10295.25
580.927	10309.94
581.287	10343.84
581.648	10273.56
582.008	10314.01
582.368	10332.09
582.728	10307.45
583.089	10260.45
583.449	10267.91
583.809	10227.23
584.169	10301.81
584.529	10184.97
584.889	10232.88
585.249	10211.19
585.609	10171.64
585.969	10204.41
586.329	10165.54
586.688	10235.14
587.048	10161.92
587.408	10125.99
587.768	10115.37
588.127	10169.61
588.487	10052.55
588.846	10116.73
589.206	10070.63
589.565	10104.75
589.925	10105.2
590.284	10076.73
590.643	10085.77
591.003	10034.02
591.362	10034.24
591.721	10053
592.08	10003.28
592.44	10083.28
592.799	10097.29
593.158	10042.6
593.517	9975.26
593.876	10064.52
594.235	9953.34
594.593	9964.87
594.952	9941.59
595.311	9939.56
595.67	9905.43
596.029	10024.3
596.387	9923.28
596.746	10029.27
597.104	9880.57
597.463	9896.62
597.822	9941.36
598.18	9873.12
598.538	9881.03
598.897	9959.44
599.255	9827.24
599.613	10016.39
599.972	9884.64
600.33	9955.83
600.688	9866.11
601.046	9891.87
601.404	9934.36
601.762	9835.6
602.12	9913.34
602.478	9961.93
602.836	9955.6
603.194	9912.89
603.552	9893.45
603.91	9860.24
604.268	9964.19
604.625	9834.93
604.983	9894.58
605.341	9877.86
605.698	9919.22
606.056	9823.4
606.413	9913.34
606.771	9893.23
607.128	9947.24
607.485	9822.5
607.843	9889.84
608.2	9970.74
608.557	9962.61
608.914	9800.58
609.272	9944.53
609.629	9966.22
609.986	9958.54
610.343	9902.27
610.7	9964.41
611.057	9867.01
611.414	9909.73
611.771	9975.94
612.127	9929.61
612.484	9869.05
612.841	10001.7
613.198	9893.23
613.554	9965.32
613.911	9960.35
614.267	9956.28
614.624	10003.28
614.98	10004.41
615.337	10042.38
615.693	10027.69
616.05	10007.12
616.406	10055.94
616.762	10002.83
617.118	10055.94
617.475	9998.99
617.831	10025.88
618.187	10083.28
618.543	10047.35
618.899	10101.81
619.255	10084.18
619.611	10119.44
619.967	10113.11
620.323	10159.89
620.678	10083.05
621.034	10073.34
621.39	10067.69
621.746	10057.97
622.101	10149.27
622.457	10124.18
622.812	10071.98
623.168	10196.27
623.523	10116.05
623.879	10182.49
624.234	10074.01
624.589	10019.78
624.945	10110.62
625.3	10086.67
625.655	10129.61
626.01	10046.22
626.365	10052.32
626.72	10031.08
627.075	10043.28
627.43	10056.16
627.785	9984.98
628.14	10114.47
628.495	10081.47
628.85	10008.93
629.205	9994.47
629.559	10040.8
629.914	10004.86
630.269	10066.33
630.623	10041.47
630.978	9993.56
631.332	9961.02
631.687	10023.17
632.041	9961.25
632.396	9942.49
632.75	9938.43
633.104	9923.06
633.459	9839.9
633.813	9870.86
634.167	9876.05
634.521	9848.48
634.875	9949.95
635.229	9836.05
635.583	9829.95
635.937	9777.75
636.291	9839.9
636.645	9756.73
636.999	9808.03
637.352	9876.51
637.706	9723.29
638.06	9710.18
638.413	9722.16
638.767	9688.94
639.121	9773.01
639.474	9682.84
639.828	9690.07
640.181	9683.06
640.534	9714.93
640.888	9684.19
641.241	9618.89
641.594	9628.6
641.947	9722.39
642.301	9577.3
642.654	9732.78
643.007	9609.17
643.36	9603.97
643.713	9629.28
644.066	9631.77
644.419	9591.77
644.771	9489.17
645.124	9453.47
645.477	9481.94
645.83	9378.21
646.182	9353.81
646.535	9335.96
646.888	9328.72
647.24	9278.1
647.593	9290.53
647.945	9260.48
648.298	9192.23
648.65	9277.2
649.002	9216.64
649.355	9311.55
649.707	9272.45
650.059	9327.37
650.411	9444.65
650.763	9421.15
651.115	9515.39
651.467	9472
651.819	9534.82
652.171	9477.87
652.523	9434.94
652.875	9443.3
653.227	9494.59
653.578	9470.87
653.93	9459.57
654.282	9483.3
654.633	9394.94
654.985	9508.83
655.337	9460.47
655.688	9509.06
656.039	9561.49
656.391	9424.77
656.742	9443.52
657.094	9429.96
657.445	9473.58
657.796	9504.54
658.147	9471.77
658.498	9502.73
658.849	9542.5
659.2	9488.04
659.551	9547.25
659.902	9543.86
660.253	9520.36
660.604	9571.66
660.955	9455.73
661.306	9597.42
661.656	9499.57
662.007	9537.98
662.358	9565.1
662.708	9552.45
663.059	9548.6
663.409	9496.63
663.76	9569.85
664.11	9545.67
664.461	9610.3
664.811	9549.73
665.161	9631.09
665.511	9590.86
665.862	9573.91
666.212	9534.14
666.562	9531.66
666.912	9519.91
667.262	9625.89
667.612	9584.54
667.962	9570.3
668.312	9579.56
668.662	9603.97
669.011	9591.99
669.361	9542.73
669.711	9520.81
670.06	9474.48
670.41	9539.34
670.76	9538.21
671.109	9527.81
671.459	9533.69
671.808	9488.95
672.157	9523.75
672.507	9402.17
672.856	9440.36
673.205	9537.08
673.554	9477.65
673.904	9424.31
674.253	9456.18
674.602	9507.48
674.951	9352.68
675.3	9309.29
675.649	9419.79
675.998	9451.88
676.346	9382.96
676.695	9409.17
677.044	9380.02
677.393	9367.14
677.741	9372.56
678.09	9349.29
678.438	9321.72
678.787	9357.65
679.135	9330.76
679.484	9312.45
679.832	9280.36
680.181	9230.2
680.529	9287.37
680.877	9190.2
681.225	9150.65
681.573	9250.31
681.922	9149.75
682.27	9142.97
682.618	9167.6
682.966	9129.41
683.314	9197.2
683.661	9111.1
684.009	9067.04
684.357	9074.04
684.705	9038.11
685.053	9006.47
685.4	8962.63
685.748	8951.78
686.095	8946.59
686.443	8874.5
686.79	8895.74
687.138	8914.05
687.485	8923.76
687.832	8842.18
688.18	8924.44
688.527	8808.74
688.874	8839.24
689.221	8718.12
689.568	8752.69
689.915	8687.84
690.262	8680.61
690.609	8747.95
690.956	8595.64
691.303	8614.62
691.65	8564.9
691.997	8580.95
692.344	8477.9
692.69	8493.94
693.037	8448.07
693.383	8394.96
693.73	8436.77
694.077	8340.28
694.423	8361.07
694.769	8340.28
695.116	8289.2
695.462	8260.5
695.808	8225.93
696.155	8290.78
696.501	8193.16
696.847	8168.75
697.193	8080.85
697.539	8076.33
697.885	8087.63
698.231	8074.29
698.577	8030.68
698.923	8005.82
699.269	7899.16
699.614	7890.34
699.96	7868.2
700.306	7861.19
700.651	7875.2
700.997	7790.91
701.342	7745.71
701.688	7813.51
702.033	7731.48
702.379	7688.31
702.724	7690.8
703.069	7689.22
703.415	7668.65
703.76	7559.5
704.105	7561.09
704.45	7591.59
704.795	7500.3
705.14	7555.44
705.485	7423.01
705.83	7416.23
706.175	7482.44
706.52	7430.02
706.865	7392.73
707.209	7354.76
707.554	7334.88
707.899	7353.63
708.243	7309.12
708.588	7215.78
708.932	7232.28
709.277	7162.23
709.621	7141.89
709.966	7109.57
710.31	7187.09
710.654	7097.14
710.998	7116.58
711.342	7082.68
711.687	7037.48
712.031	6963.81
712.375	7073.42
712.719	7051.5
713.063	7013.76
713.407	7020.99
713.75	7013.98
714.094	6983.7
714.438	6977.6
714.782	7005.39
715.125	7013.53
715.469	6913.19
715.812	6897.6
716.156	6867.09
716.499	6840.43
716.843	6872.74
717.186	6815.12
717.53	6856.7
717.873	6855.12
718.216	6842.91
718.559	6834.55
718.902	6737.61
719.246	6757.04
719.589	6802.69
719.932	6741.45
720.275	6776.02
720.617	6753.65
720.96	6713.2
721.303	6723.14
721.646	6792.52
721.989	6679.3
722.331	6682.01
722.674	6719.98
723.016	6690.83
723.359	6712.52
723.701	6677.49
724.044	6668
724.386	6658.06
724.729	6639.53
725.071	6666.65
725.413	6648.12
725.755	6650.15
726.097	6638.62
726.439	6596.59
726.782	6563.15
727.124	6678.17
727.465	6601.79
727.807	6597.04
728.149	6614.44
728.491	6621.22
728.833	6602.47
729.175	6587.1
729.516	6586.2
729.858	6586.2
730.199	6584.62
730.541	6548.01
730.882	6553.88
731.224	6592.98
731.565	6542.13
731.906	6588.68
732.248	6597.5
732.589	6584.84
732.93	6578.97
733.271	6573.77
733.612	6591.62
733.953	6581.68
734.294	6639.75
734.635	6555.69
734.976	6600.43
735.317	6577.61
735.658	6573.99
735.999	6566.31
736.339	6623.26
736.68	6631.62
737.021	6612.18
737.361	6616.48
737.702	6597.72
738.042	6626.2
738.383	6628.91
738.723	6713.43
739.063	6609.25
739.404	6623.26
739.744	6658.06
740.084	6697.61
740.424	6672.3
740.764	6672.3
741.104	6724.5
741.444	6690.15
741.784	6701.9
742.124	6738.28
742.464	6774.44
742.804	6798.39
743.143	6818.28
743.483	6812.41
743.823	6807.21
744.162	6922.69
744.502	6920.43
744.841	6893.08
745.181	6875.91
745.52	6984.38
745.86	6992.29
746.199	7056.24
746.538	7042.46
746.877	7103.92
747.216	7177.59
747.556	7191.6
747.895	7264.82
748.234	7313.64
748.573	7272.96
748.911	7400.41
749.25	7413.52
749.589	7515.21
749.928	7573.06
750.267	7732.61
750.605	7756.79
750.944	7826.39
751.283	7818.48
751.621	7985.93
751.96	8019.83
752.298	8113.39
752.636	8220.28
752.975	8312.03
753.313	8364
753.651	8589.76
753.989	8577.78
754.327	8675.63
754.666	8795.18
755.004	8936.42
755.342	9062.06
755.679	9214.38
756.017	9163.3
756.355	9381.6
756.693	9548.83
757.031	9723.74
757.368	9813.68
757.706	9944.3
758.044	10081.92
758.381	10306.1
758.719	10365.98
759.056	10617.73
759.394	10678.74
759.731	10782.47
760.068	11008.45
760.405	11146.3
760.743	11299.97
761.08	11469.91
761.417	11645.95
761.754	11809.79
762.091	11958.03
762.428	12103.57
762.765	12313.05
763.102	12487.74
763.438	12655.19
