Data from hue_00_FLMS001491_34.txt Node
Date: Mon Feb 06 15:29:37 GMT 2017
User: dcchb
Spectrometer: FLMS00149
Trigger mode: 0
Integration Time (sec): 2.000000E-2
Scans to average: 10
Electric dark correction enabled: true
Nonlinearity correction enabled: false
Boxcar width: 0
XAxis mode: Wavelengths
Number of Pixels in Spectrum: 2048
>>>>>Begin Spectral Data<<<<<
341.393	-0.44
341.776	-0.44
342.16	-0.44
342.543	-66.42
342.927	-56.48
343.31	-57.84
343.693	-70.49
344.077	-52.87
344.46	-60.1
344.843	-47.44
345.226	-49.7
345.61	-35.01
345.993	-28.69
346.376	-9.03
346.759	6.79
347.142	32.1
347.525	40.92
347.908	63.52
348.291	74.81
348.674	75.72
349.057	117.3
349.44	136.96
349.823	143.29
350.206	165.43
350.588	218.77
350.971	224.64
351.354	231.19
351.737	230.29
352.119	279.33
352.502	263.06
352.884	260.8
353.267	274.36
353.65	298.31
354.032	289.95
354.414	295.37
354.797	320.01
355.179	310.74
355.562	331.53
355.944	357.29
356.326	325.2
356.709	334.69
357.091	325.88
357.473	339.44
357.855	317.52
358.238	340.57
358.62	339.21
359.002	351.64
359.384	318.2
359.766	343.28
360.148	350.06
360.53	334.02
360.912	339.67
361.294	335.15
361.676	345.77
362.057	349.38
362.439	351.42
362.821	332.89
363.203	326.33
363.584	331.3
363.966	320.91
364.348	322.49
364.729	301.93
365.111	323.17
365.493	311.64
365.874	317.07
366.256	281.59
366.637	321.14
367.019	325.66
367.4	318.88
367.781	309.38
368.163	318.65
368.544	308.93
368.925	329.5
369.306	324.07
369.688	316.84
370.069	311.42
370.45	318.88
370.831	300.12
371.212	325.2
371.593	329.95
371.974	320.68
372.355	322.04
372.736	340.12
373.117	329.5
373.498	309.61
373.879	307.35
374.26	336.95
374.641	290.18
375.021	313.23
375.402	288.82
375.783	322.94
376.163	315.49
376.544	330.17
376.925	305.99
377.305	327.01
377.686	338.99
378.066	340.57
378.447	319.1
378.827	320.68
379.208	327.69
379.588	325.66
379.968	327.92
380.349	319.78
380.729	328.14
381.109	330.17
381.489	333.79
381.87	334.69
382.25	324.3
382.63	330.63
383.01	337.63
383.39	324.98
383.77	347.8
384.15	328.82
384.53	308.25
384.91	337.41
385.29	341.93
385.67	368.14
386.049	339.67
386.429	345.99
386.809	371.76
387.189	339.67
387.568	345.99
387.948	341.02
388.328	369.27
388.707	351.42
389.087	355.94
389.466	361.59
389.846	365.65
390.225	355.49
390.605	372.43
390.984	363.39
391.363	372.66
391.743	343.28
392.122	354.81
392.501	356.84
392.881	367.01
393.26	385.09
393.639	394.58
394.018	374.47
394.397	374.69
394.776	398.2
395.155	383.73
395.534	379.67
395.913	374.24
396.292	390.96
396.671	371.3
397.05	376.05
397.429	369.27
397.808	383.73
398.186	386.67
398.565	376.05
398.944	390.96
399.323	382.38
399.701	397.74
400.08	383.05
400.458	400.46
400.837	394.58
401.215	408.82
401.594	384.64
401.972	383.51
402.351	399.33
402.729	409.49
403.107	380.12
403.486	417.4
403.864	406.33
404.242	405.43
404.62	409.04
404.999	429.61
405.377	401.81
405.755	426.67
406.133	421.47
406.511	397.52
406.889	390.06
407.267	409.49
407.645	412.88
408.023	436.61
408.401	399.78
408.779	431.19
409.156	437.52
409.534	451.53
409.912	441.13
410.29	439.55
410.667	450.17
411.045	443.39
411.422	435.03
411.8	442.94
412.178	471.87
412.555	480.45
412.933	469.83
413.31	464.86
413.687	448.82
414.065	463.28
414.442	477.29
414.819	473.9
415.197	470.96
415.574	474.35
415.951	476.84
416.328	489.94
416.705	501.92
417.082	506.44
417.46	492.66
417.837	520
418.214	508.48
418.591	510.51
418.967	484.07
419.344	518.87
419.721	506.67
420.098	516.61
420.475	519.32
420.852	521.81
421.228	527.23
421.605	522.71
421.982	539.21
422.358	538.53
422.735	532.66
423.111	534.46
423.488	543.73
423.864	526.78
424.241	538.98
424.617	552.32
424.994	562.26
425.37	538.08
425.746	549.6
426.123	557.29
426.499	583.73
426.875	575.14
427.251	574.24
427.627	571.75
428.003	568.36
428.379	600.68
428.756	592.09
429.132	578.76
429.507	603.16
429.883	595.03
430.259	606.33
430.635	599.77
431.011	593.44
431.387	613.11
431.763	639.32
432.138	634.57
432.514	638.19
432.89	651.75
433.265	637.96
433.641	640.9
434.016	642.26
434.392	652.65
434.767	656.27
435.143	675.02
435.518	699.43
435.894	651.52
436.269	675.25
436.644	694.91
437.02	671.18
437.395	689.26
437.77	680
438.145	702.59
438.52	729.94
438.895	715.7
439.271	731.97
439.646	708.7
440.021	737.85
440.395	724.51
440.77	749.15
441.145	748.7
441.52	739.66
441.895	768.81
442.27	750.28
442.645	763.16
443.019	771.52
443.394	764.97
443.769	760.9
444.143	782.14
444.518	776.26
444.892	757.06
445.267	778.98
445.641	776.49
446.016	789.15
446.39	818.3
446.764	793.67
447.139	792.76
447.513	785.98
447.887	801.35
448.262	792.76
448.636	826.43
449.01	805.64
449.384	817.62
449.758	837.73
450.132	858.52
450.506	828.69
450.88	861.46
451.254	816.26
451.628	839.99
452.002	840.67
452.376	845.42
452.75	874.12
453.123	877.05
453.497	857.39
453.871	882.93
454.244	912.53
454.618	879.54
454.992	900.33
455.365	900.78
455.739	945.3
456.112	953.21
456.486	911.63
456.859	958.86
457.232	972.87
457.606	983.94
457.979	961.34
458.352	990.27
458.725	989.59
459.099	1005.41
459.472	1000.44
459.845	1005.64
460.218	1003.83
460.591	1011.29
460.964	1033.89
461.337	1018.07
461.71	1087.22
462.083	1084.51
462.456	1075.92
462.829	1063.49
463.201	1087.67
463.574	1094.22
463.947	1141
464.32	1116.82
464.692	1138.97
465.065	1126.76
465.438	1153.2
465.81	1183.26
466.183	1188.01
466.555	1210.15
466.928	1227.33
467.3	1222.81
467.672	1215.58
468.045	1252.18
468.417	1225.97
468.789	1266.42
469.161	1289.7
469.534	1297.38
469.906	1335.12
470.278	1322.01
470.65	1360.43
471.022	1389.58
471.394	1381.22
471.766	1418.96
472.138	1432.97
472.51	1459.18
472.882	1466.19
473.253	1485.4
473.625	1484.04
473.997	1541.22
474.369	1565.4
474.74	1596.36
475.112	1597.03
475.484	1623.93
475.855	1665.51
476.227	1682.23
476.598	1740.08
476.97	1744.38
477.341	1755.9
477.713	1787.09
478.084	1774.43
478.455	1866.41
478.827	1874.99
479.198	1936.46
479.569	1943.01
479.94	1987.08
480.311	2007.64
480.682	2013.29
481.053	2066.63
481.424	2107.98
481.795	2162.22
482.166	2172.16
482.537	2208.32
482.908	2251.48
483.279	2278.6
483.65	2329.67
484.021	2346.17
484.391	2436.33
484.762	2407.63
485.133	2435.43
485.503	2501.19
485.874	2556.78
486.244	2584.13
486.615	2663.67
486.985	2694.41
487.356	2729.21
487.726	2749.09
488.097	2803.1
488.467	2850.33
488.837	2872.93
489.207	2926.94
489.578	2978.47
489.948	2982.76
490.318	3053.27
490.688	2999.26
491.058	3085.81
491.428	3150.89
491.798	3182.53
492.168	3234.96
492.538	3270.44
492.908	3303.2
493.278	3366.03
493.648	3400.38
494.017	3382.98
494.387	3444.9
494.757	3431.11
495.126	3458.68
495.496	3489.19
495.866	3538.9
496.235	3557.21
496.605	3616.19
496.974	3652.35
497.344	3656.87
497.713	3725.34
498.082	3713.36
498.452	3749.75
498.821	3796.52
499.19	3782.97
499.559	3836.3
499.928	3840.14
500.298	3879.69
500.667	3879.01
501.036	3898.67
501.405	3947.93
501.774	3964.43
502.143	3967.14
502.512	4038.55
502.88	4035.16
503.249	4045.78
503.618	4084.43
503.987	4039
504.356	4142.28
504.724	4136.4
505.093	4158.55
505.462	4183.18
505.83	4220.69
506.199	4229.51
506.567	4261.82
506.936	4260.02
507.304	4299.56
507.672	4298.88
508.041	4368.49
508.409	4383.18
508.777	4351.31
509.145	4415.04
509.514	4381.82
509.882	4433.34
510.25	4443.51
510.618	4511.76
510.986	4443.06
511.354	4489.84
511.722	4515.38
512.09	4526.67
512.458	4576.39
512.826	4556.28
513.193	4589.05
513.561	4594.02
513.929	4577.29
514.297	4650.74
514.664	4622.27
515.032	4651.64
515.4	4719.44
515.767	4657.07
516.135	4686.44
516.502	4704.98
516.869	4775.48
517.237	4803.96
517.604	4759.66
517.972	4819.55
518.339	4803.05
518.706	4843.05
519.073	4858.42
519.44	4901.81
519.808	4881.24
520.175	4847.34
520.542	4953.78
520.909	4994.91
521.276	4956.72
521.643	4946.78
522.009	5006.21
522.376	5045.98
522.743	5036.49
523.11	5037.85
523.477	5162.36
523.843	5089.15
524.21	5167.34
524.577	5145.64
524.943	5188.13
525.31	5159.2
525.676	5238.75
526.043	5271.97
526.409	5327.33
526.776	5351.06
527.142	5405.52
527.508	5369.59
527.874	5407.1
528.241	5473.99
528.607	5481.45
528.973	5497.95
529.339	5445.75
529.705	5549.47
530.071	5625.63
530.437	5554.44
530.803	5613.2
531.169	5659.98
531.535	5698.62
531.901	5678.73
532.267	5697.72
532.632	5738.62
532.998	5800.09
533.364	5810.03
533.73	5821.33
534.095	5815.68
534.461	5878.28
534.826	5887.09
535.192	5905.17
535.557	5952.17
535.923	5989.91
536.288	5970.7
536.653	6049.8
537.019	5996.69
537.384	6050.7
537.749	6063.81
538.114	6034.88
538.479	6086.86
538.845	6128.67
539.21	6138.61
539.575	6207.76
539.94	6190.59
540.305	6181.77
540.67	6213.86
541.034	6185.39
541.399	6286.63
541.764	6305.84
542.129	6323.69
542.494	6391.71
542.858	6388.32
543.223	6421.09
543.587	6441.2
543.952	6446.17
544.316	6465.38
544.681	6511.93
545.045	6521.88
545.41	6621.76
545.774	6543.57
546.138	6568.2
546.503	6656.56
546.867	6642.78
547.231	6692.95
547.595	6743.57
547.959	6743.34
548.324	6762.55
548.688	6783.79
549.052	6814.98
549.416	6850.46
549.779	6871.92
550.143	6845.03
550.507	6888.19
550.871	6960.51
551.235	6893.17
551.599	7009.77
551.962	7007.74
552.326	6997.34
552.689	7088.42
553.053	7056.78
553.417	7058.81
553.78	7103.1
554.143	7102.43
554.507	7151.92
554.87	7189.66
555.234	7248.19
555.597	7212.71
555.96	7221.75
556.323	7251.35
556.686	7258.58
557.05	7323.44
557.413	7315.3
557.776	7333.15
558.139	7412.02
558.502	7378.13
558.865	7512.13
559.228	7427.39
559.59	7491.34
559.953	7489.76
560.316	7600.04
560.679	7541.06
561.041	7617.21
561.404	7606.59
561.767	7699.47
562.129	7617.44
562.492	7734.5
562.854	7776.31
563.217	7726.59
563.579	7795.74
563.941	7770.66
564.304	7861.05
564.666	7921.39
565.028	7914.38
565.39	7917.32
565.753	7947.38
566.115	8029.63
566.477	7955.06
566.839	7969.97
567.201	8052.68
567.563	8088.16
567.925	8158.67
568.287	8107.37
568.648	8176.97
569.01	8152.12
569.372	8280.25
569.734	8216.07
570.095	8270.31
570.457	8364.09
570.819	8358.66
571.18	8408.15
571.542	8427.14
571.903	8486.34
572.265	8506.23
572.626	8591.88
572.987	8580.13
573.349	8671.2
573.71	8672.55
574.071	8777.18
574.432	8832.1
574.794	8904.19
575.155	8853.11
575.516	8951.87
575.877	9004.75
576.238	9070.96
576.599	9161.58
576.96	9286.78
577.32	9316.61
577.681	9308.92
578.042	9501.01
578.403	9529.03
578.763	9593.21
579.124	9681.57
579.485	9875.69
579.845	10051.5
580.206	10074.33
580.566	10139.63
580.927	10285.62
581.287	10447.2
581.648	10548.21
582.008	10748.66
582.368	10858.03
582.728	11020.97
583.089	11110.23
583.449	11314.07
583.809	11424.12
584.169	11601.97
584.529	11855.52
584.889	12042.64
585.249	12234.04
585.609	12381.61
585.969	12649.17
586.329	12818.21
586.688	13064.53
587.048	13242.38
587.408	13403.05
587.768	13714.91
588.127	13881.23
588.487	14127.1
588.846	14459.75
589.206	14659.06
589.565	14883.69
589.925	15293.85
590.284	15449.55
590.643	15732.93
591.003	16033.04
591.362	16347.61
591.721	16596.64
592.08	16875.5
592.44	17204.53
592.799	17533.79
593.158	17789.15
593.517	18064.62
593.876	18366.08
594.235	18667.77
594.593	18957.26
594.952	19294.65
595.311	19502.78
595.67	19937.12
596.029	20358.12
596.387	20639.47
596.746	20986.13
597.104	21217.99
597.463	21465.66
597.822	21825.65
598.18	22209.15
598.538	22409.82
598.897	22827.21
599.255	23052.06
599.613	23591.71
599.972	23772.5
600.33	24066.27
600.688	24250.45
601.046	24646.37
601.404	25005.01
601.762	25251.55
602.12	25631.43
602.478	25860.58
602.836	26157.74
603.194	26311.86
603.552	26744.17
603.91	26962.47
604.268	27173.54
604.625	27511.16
604.983	27802.45
605.341	28017.81
605.698	28305.03
606.056	28627.51
606.413	28806.94
606.771	29177.55
607.128	29457.77
607.485	29589.29
607.843	29856.18
608.2	30136.62
608.557	30400.34
608.914	30644.86
609.272	30997.17
609.629	31257.5
609.986	31540.2
610.343	31578.84
610.7	32014.99
611.057	32064.48
611.414	32336.34
611.771	32557.12
612.127	32921.41
612.484	33040.5
612.841	33381.96
613.198	33304.45
613.554	33486.37
613.911	33905.34
614.267	34017.65
614.624	34106.01
614.98	34423.97
615.337	34702.83
615.693	34689.05
616.05	34879.55
616.406	35316.83
616.762	35164.29
617.118	35329.71
617.475	35583.03
617.831	35782.12
618.187	35883.82
618.543	36020.31
618.899	36286.07
619.255	36308.21
619.611	36493.74
619.967	36723.57
620.323	36780.06
620.678	36898.03
621.034	36883.34
621.39	37013.96
621.746	37106.38
622.101	37674.05
622.457	37449.88
622.812	37639.93
623.168	37873.37
623.523	37945.68
623.879	38132.8
624.234	37830.66
624.589	38160.59
624.945	38157.65
625.3	38357.88
625.655	38333.92
626.01	38547.7
626.365	38464.77
626.72	38619.56
627.075	38652.11
627.43	38609.85
627.785	38787.24
628.14	38831.08
628.495	38879.22
628.85	38945.2
629.205	38763.51
629.559	39130.28
629.914	38915.38
630.269	39121.92
630.623	39013.9
630.978	38976.16
631.332	39201.7
631.687	39244.86
632.041	39443.27
632.396	39254.8
632.75	39339.09
633.104	39377.28
633.459	39246.67
633.813	39294.35
634.167	39367.79
634.521	39391.97
634.875	39382.03
635.229	39372.54
635.583	39320.11
635.937	39189.94
636.291	39355.36
636.645	39387.23
636.999	39247.57
637.352	39433.78
637.706	39184.52
638.06	39414.57
638.413	39333.44
638.767	39386.78
639.121	39386.32
639.474	39297.96
639.828	39341.58
640.181	39301.35
640.534	39379.09
640.888	39256.84
641.241	39152.88
641.594	39426.32
641.947	39351.75
642.301	39288.25
642.654	39481.01
643.007	39314.01
643.36	39318.3
643.713	39236.5
644.066	39333.22
644.419	39055.94
644.771	38976.39
645.124	38475.16
645.477	38540.7
645.83	38329.63
646.182	38208.28
646.535	37982.97
646.888	38123.08
647.24	37938.23
647.593	38126.92
647.945	38146.81
648.298	37954.04
648.65	38024.1
649.002	37952.24
649.355	38021.39
649.707	37970.09
650.059	38076.53
650.411	38526.91
650.763	38692.56
651.115	39031.08
651.467	38900.69
651.819	38904.98
652.171	38867.92
652.523	38782.05
652.875	38806.45
653.227	38602.39
653.578	39001.93
653.93	38814.59
654.282	38775.04
654.633	38651.2
654.985	38689.39
655.337	38703.86
655.688	38714.25
656.039	38602.39
656.391	38481.49
656.742	38567.36
657.094	38594.71
657.445	38702.95
657.796	38564.42
658.147	38554.71
658.498	38501.83
658.849	38644.87
659.2	38547.25
659.551	38474.03
659.902	38688.26
660.253	38534.37
660.604	38524.65
660.955	38438.55
661.306	38572.79
661.656	38464.54
662.007	38497.98
662.358	38516.97
662.708	38467.25
663.059	38374.82
663.409	38134.83
663.76	38542.05
664.11	38478.1
664.461	38523.29
664.811	38474.03
665.161	38476.29
665.511	38284.43
665.862	38501.37
666.212	38632.22
666.562	38598.32
666.912	38410.08
667.262	38338.67
667.612	38241.72
667.962	38406.91
668.312	38275.17
668.662	38527.59
669.011	38292.79
669.361	38231.33
669.711	38265.45
670.06	38213.92
670.41	38207.37
670.76	38172.34
671.109	38244.21
671.459	38242.4
671.808	38160.59
672.157	38380.25
672.507	38018.22
672.856	38134.15
673.205	38194.04
673.554	38284.43
673.904	38072.23
674.253	38134.38
674.602	38261.61
674.951	37525.13
675.3	37481.06
675.649	38046.02
675.998	38014.16
676.346	38121.72
676.695	38010.99
677.044	37994.04
677.393	37885.12
677.741	38036.75
678.09	37793.37
678.438	37787.04
678.787	37856.19
679.135	37823.43
679.484	37707.05
679.832	37812.35
680.181	37481.97
680.529	37677.44
680.877	37490.55
681.225	37577.78
681.573	37764.44
681.922	37469.76
682.27	37395.42
682.618	37375.08
682.966	37282.42
683.314	37473.38
683.661	37232.48
684.009	36983.67
684.357	37038.36
684.705	36942.55
685.053	37020.28
685.4	37122.65
685.748	36824.36
686.095	36737.13
686.443	36669.56
686.79	36544.36
687.138	36640.41
687.485	36650.35
687.832	36581.43
688.18	36635.66
688.527	36320.42
688.874	36364.71
689.221	36218.5
689.568	36236.35
689.915	36078.84
690.262	36024.6
690.609	36050.37
690.956	35994.77
691.303	35790.03
691.65	35618.06
691.997	35592.98
692.344	35471.4
692.69	35344.17
693.037	35440.21
693.383	35173.1
693.73	35453.32
694.077	35210.16
694.423	35122.03
694.769	34945.08
695.116	34952.99
695.462	34966.78
695.808	34825.54
696.155	34904.86
696.501	34595.04
696.847	34600.23
697.193	34391.43
697.539	34525.89
697.885	34122.96
698.231	34106.01
698.577	34200.24
698.923	34015.39
699.269	33850.65
699.614	33719.81
699.96	33759.58
700.306	33736.98
700.651	33576.98
700.997	33456.31
701.342	33380.15
701.688	33420.6
702.033	33275.07
702.379	33297.9
702.724	33216.77
703.069	33216.09
703.415	32889.77
703.76	32854.07
704.105	32900.17
704.45	32785.37
704.795	32624.24
705.14	32556.45
705.485	32496.33
705.83	32447.75
706.175	32459.05
706.52	32288.88
706.865	32144.71
707.209	32179.96
707.554	32025.84
707.899	32166.17
708.243	32076.46
708.588	32004.6
708.932	31793.75
709.277	31631.72
709.621	31746.98
709.966	31495.68
710.31	31484.38
710.654	31338.17
710.998	31415.23
711.342	31444.84
711.687	31332.07
712.031	31131.4
712.375	31129.37
712.719	31091.4
713.063	31022.25
713.407	31062.47
713.75	30903.83
714.094	30748.13
714.438	30847.79
714.782	30741.58
715.125	30626.55
715.469	30784.97
715.812	30539.32
716.156	30392.44
716.499	30422.27
716.843	30446.22
717.186	30148.83
717.53	30422.94
717.873	30387.01
718.216	30266.56
718.559	30131.65
718.902	29900.92
719.246	30127.36
719.589	29967.59
719.932	29767.37
720.275	29907.7
720.617	29851.21
720.96	29735.73
721.303	29751.55
721.646	29683.53
721.989	29467.26
722.331	29485.79
722.674	29531.89
723.016	29425.68
723.359	29393.37
723.701	29536.41
724.044	29203.54
724.386	29143.65
724.729	29182.98
725.071	29070.21
725.413	29115.63
725.755	29086.03
726.097	28959.48
726.439	28929.65
726.782	28859.82
727.124	28950.67
727.465	28729.88
727.807	28814.17
728.149	28772.36
728.491	28735.08
728.833	28822.08
729.175	28580.51
729.516	28597.68
729.858	28551.58
730.199	28625.02
730.541	28564.23
730.882	28526.95
731.224	28433.62
731.565	28282.43
731.906	28275.65
732.248	28296.67
732.589	28148.88
732.93	28059.39
733.271	28074.53
733.612	28056.23
733.953	28113.85
734.294	28067.75
734.635	27942.1
734.976	27992.95
735.317	27824.82
735.658	27827.31
735.999	27910.01
736.339	27744.14
736.68	27804.71
737.021	27595.67
737.361	27642.9
737.702	27737.36
738.042	27679.29
738.383	27529.46
738.723	27626.63
739.063	27410.14
739.404	27573.53
739.744	27362.46
740.084	27368.56
740.424	27340.09
740.764	27258.73
741.104	27455.11
741.444	27244.27
741.784	27075.01
742.124	27253.76
742.464	27165.18
742.804	27128.11
743.143	27008.57
743.483	26997.04
743.823	26815.81
744.162	27033.43
744.502	27001.56
744.841	26804.28
745.181	26988.68
745.52	26817.84
745.86	26811.96
746.199	26674.12
746.538	26765.19
746.877	26718.18
747.216	26734
747.556	26601.35
747.895	26572.65
748.234	26492.65
748.573	26408.59
748.911	26415.59
749.25	26442.03
749.589	26292.43
749.928	26207.23
750.267	26257.63
750.605	26216.05
750.944	26286.33
751.283	26046.33
751.621	26149.84
751.96	25899.9
752.298	25905.1
752.636	25874.14
752.975	25861.26
753.313	25795.04
753.651	25952.33
753.989	25788.49
754.327	25642.5
754.666	25571.09
755.004	25646.12
755.342	25614.71
755.679	25526.57
756.017	25393.47
756.355	25426.46
756.693	25352.12
757.031	25443.86
757.368	25269.41
757.706	25149.64
758.044	25035.29
758.381	25289.74
758.719	24985.8
759.056	25142.18
759.394	25010.88
759.731	24787.38
760.068	24796.65
