Data from hue_00_FLMS001491_14.txt Node
Date: Mon Feb 06 15:29:20 GMT 2017
User: dcchb
Spectrometer: FLMS00149
Trigger mode: 0
Integration Time (sec): 2.000000E-2
Scans to average: 10
Electric dark correction enabled: true
Nonlinearity correction enabled: false
Boxcar width: 0
XAxis mode: Wavelengths
Number of Pixels in Spectrum: 2048
>>>>>Begin Spectral Data<<<<<
341.393	-11.62
341.776	-11.62
342.16	-11.62
342.543	-65.18
342.927	-69.93
343.31	-77.38
343.693	-75.8
344.077	-65.63
344.46	-52.98
344.843	-56.82
345.226	-26.76
345.61	-20.66
345.993	-21.12
346.376	-2.36
346.759	-10.72
347.142	24.08
347.525	51.65
347.908	60.24
348.291	59.56
348.674	90.29
349.057	124.42
349.44	122.16
349.823	145.89
350.206	156.96
350.588	206.45
350.971	195.6
351.354	208.71
351.737	232.44
352.119	238.99
352.502	259.33
352.884	254.58
353.267	275.83
353.65	282.15
354.032	296.84
354.414	302.49
354.797	310.63
355.179	316.05
355.562	315.15
355.944	311.76
356.326	330.06
356.709	340.68
357.091	351.98
357.473	338.65
357.855	336.62
358.238	337.29
358.62	355.82
359.002	331.19
359.384	336.84
359.766	329.84
360.148	350.17
360.53	324.19
360.912	325.99
361.294	356.28
361.676	313.57
362.057	335.26
362.439	325.32
362.821	324.64
363.203	336.39
363.584	323.51
363.966	325.09
364.348	315.83
364.729	311.98
365.111	304.53
365.493	305.2
365.874	320.12
366.256	311.08
366.637	320.34
367.019	295.26
367.4	315.6
367.781	309.72
368.163	323.96
368.544	329.16
368.925	314.24
369.306	314.02
369.688	315.37
370.069	301.81
370.45	312.21
370.831	303.62
371.212	316.73
371.593	308.59
371.974	299.33
372.355	304.75
372.736	319.44
373.117	319.44
373.498	306.79
373.879	309.05
374.26	321.93
374.641	302.27
375.021	305.43
375.402	309.27
375.783	325.09
376.163	304.07
376.544	325.32
376.925	316.95
377.305	328.25
377.686	321.93
378.066	323.51
378.447	303.62
378.827	311.98
379.208	312.44
379.588	307.46
379.968	317.41
380.349	329.84
380.729	325.77
381.109	336.39
381.489	323.51
381.87	331.19
382.25	340.91
382.63	328.93
383.01	329.16
383.39	333.68
383.77	339.1
384.15	341.59
384.53	335.94
384.91	341.14
385.29	318.31
385.67	354.24
386.049	361.93
386.429	335.71
386.809	330.74
387.189	355.37
387.568	333.9
387.948	359.21
388.328	334.58
388.707	358.31
389.087	355.15
389.466	349.5
389.846	352.21
390.225	363.06
390.605	325.99
390.984	342.27
391.363	348.37
391.743	349.04
392.122	333
392.501	341.59
392.881	369.83
393.26	369.61
393.639	354.69
394.018	373.22
394.397	350.4
394.776	344.3
395.155	384.75
395.534	357.86
395.913	377.07
396.292	365.77
396.671	352.66
397.05	369.38
397.429	371.64
397.808	371.64
398.186	366.9
398.565	391.76
398.944	369.83
399.323	376.16
399.701	389.04
400.08	379.33
400.458	364.19
400.837	396.95
401.215	381.13
401.594	371.19
401.972	391.08
402.351	386.78
402.729	373.68
403.107	373.9
403.486	393.56
403.864	386.78
404.242	400.34
404.62	385.65
404.999	405.77
405.377	403.28
405.755	401.02
406.133	416.39
406.511	428.36
406.889	405.31
407.267	429.04
407.645	418.42
408.023	403.28
408.401	401.47
408.779	426.56
409.156	426.56
409.534	446.22
409.912	421.58
410.29	448.48
410.667	441.02
411.045	450.06
411.422	444.86
411.8	435.37
412.178	442.15
412.555	432.43
412.933	452.77
413.31	462.49
413.687	451.41
414.065	457.97
414.442	455.48
414.819	464.07
415.197	455.48
415.574	482.37
415.951	472.43
416.328	470.4
416.705	489.61
417.082	498.19
417.46	477.18
417.837	479.21
418.214	495.03
418.591	521.02
418.967	492.54
419.344	489.61
419.721	489.15
420.098	525.09
420.475	486.67
420.852	510.62
421.228	501.58
421.605	511.75
421.982	517.63
422.358	533.22
422.735	527.8
423.111	529.38
423.488	525.99
423.864	524.63
424.241	535.93
424.617	538.42
424.994	529.83
425.37	555.14
425.746	558.3
426.123	556.95
426.499	559.21
426.875	584.52
427.251	549.94
427.627	588.59
428.003	596.5
428.379	586.78
428.756	580.68
429.132	609.15
429.507	587.68
429.883	591.52
430.259	615.03
430.635	603.05
431.011	610.51
431.387	630.62
431.763	631.07
432.138	601.24
432.514	620
432.89	638.08
433.265	636.27
433.641	658.41
434.016	638.75
434.392	635.14
434.767	653.22
435.143	680.79
435.518	670.62
435.894	706.1
436.269	695.93
436.644	683.72
437.02	683.27
437.395	691.18
437.77	720.11
438.145	697.06
438.52	725.98
438.895	719.66
439.271	712.88
439.646	728.02
440.021	749.03
440.395	732.54
440.77	723.05
441.145	749.71
441.52	756.94
441.895	730.05
442.27	769.6
442.645	755.59
443.019	747
443.394	738.64
443.769	771.41
444.143	758.07
444.518	771.86
444.892	787.45
445.267	779.54
445.641	780.9
446.016	770.5
446.39	787.68
446.764	781.58
447.139	794.68
447.513	815.92
447.887	834.68
448.262	814.57
448.636	820.22
449.01	833.1
449.384	833.33
449.758	839.88
450.132	830.16
450.506	825.42
450.88	813.67
451.254	843.27
451.628	850.05
452.002	869.26
452.376	860.44
452.75	849.6
453.123	881.69
453.497	887.56
453.871	903.15
454.244	907.9
454.618	909.03
454.992	920.1
455.365	941.35
455.739	942.7
456.112	946.77
456.486	951.51
456.859	935.92
457.232	975.24
457.606	949.48
457.979	987.9
458.352	964.4
458.725	983.38
459.099	991.74
459.472	1014.34
459.845	1005.98
460.218	1025.18
460.591	1031.96
460.964	1046.88
461.337	1069.7
461.71	1064.05
462.083	1081
462.456	1074
462.829	1049.82
463.201	1113.09
463.574	1106.09
463.947	1116.71
464.32	1135.01
464.692	1139.31
465.065	1166.2
465.438	1161.23
465.81	1202.13
466.183	1206.42
466.555	1230.38
466.928	1260.66
467.3	1215.24
467.672	1268.57
468.045	1271.96
468.417	1274.22
468.789	1300.43
469.161	1297.49
469.534	1297.49
469.906	1317.61
470.278	1357.15
470.65	1378.85
471.022	1411.84
471.394	1438.28
471.766	1416.59
472.138	1451.39
472.51	1473.31
472.882	1493.2
473.253	1509.92
473.625	1531.39
473.997	1538.62
474.369	1549.46
474.74	1564.83
475.112	1602.57
475.484	1627.43
475.855	1638.28
476.227	1672.4
476.598	1720.99
476.97	1730.03
477.341	1749.01
477.713	1787.42
478.084	1802.11
478.455	1873.07
478.827	1867.2
479.198	1939.74
479.569	1929.79
479.94	2019.74
480.311	2000.75
480.682	2031.03
481.053	2085.27
481.424	2115.1
481.795	2160.3
482.166	2193.29
482.537	2233.97
482.908	2253.18
483.279	2266.06
483.65	2335.21
484.021	2364.13
484.391	2427.86
484.762	2418.14
485.133	2471.93
485.503	2488.42
485.874	2549.21
486.244	2579.72
486.615	2626.27
486.985	2661.07
487.356	2712.6
487.726	2764.57
488.097	2803.44
488.467	2814.97
488.837	2852.93
489.207	2883.67
489.578	2930.22
489.948	2971.8
490.318	3032.82
490.688	3030.56
491.058	3072.36
491.428	3134.51
491.798	3163.43
492.168	3221.06
492.538	3206.37
492.908	3291.57
493.278	3312.81
493.648	3308.97
494.017	3383.54
494.387	3425.8
494.757	3473.48
495.126	3519.36
495.496	3485.69
495.866	3509.19
496.235	3571.11
496.605	3619.69
496.974	3612.46
497.344	3656.75
497.713	3652.91
498.082	3679.58
498.452	3693.59
498.821	3756.86
499.19	3787.82
499.559	3817.88
499.928	3848.61
500.298	3859.46
500.667	3887.93
501.036	3868.73
501.405	3923.64
501.774	3904.66
502.143	3955.05
502.512	4000.02
502.88	3995.95
503.249	4046.35
503.618	4005.22
503.987	4105.33
504.356	4111.43
504.724	4091.09
505.093	4126.35
505.462	4152.11
505.83	4171.99
506.199	4198.66
506.567	4263.29
506.936	4237.76
507.304	4276.85
507.672	4290.64
508.041	4302.39
508.409	4359.11
508.777	4389.16
509.145	4379.9
509.514	4375.15
509.882	4464.19
510.25	4396.4
510.618	4467.81
510.986	4470.52
511.354	4503.96
511.722	4495.6
512.09	4558.65
512.458	4522.49
512.826	4582.61
513.193	4555.26
513.561	4605.66
513.929	4609.27
514.297	4686.56
514.664	4666.67
515.032	4721.58
515.4	4670.74
515.767	4765.88
516.135	4771.53
516.502	4754.35
516.869	4828.93
517.237	4828.7
517.604	4821.02
517.972	4823.5
518.339	4857.17
518.706	4843.84
519.073	4837.97
519.44	4875.93
519.808	4958.87
520.175	4905.31
520.542	4991.18
520.909	5013.55
521.276	4986.89
521.643	5064.85
522.009	5039.99
522.376	5113.44
522.743	5153.44
523.11	5150.5
523.477	5173.32
523.843	5178.07
524.21	5200.67
524.577	5279.08
524.943	5287.45
525.31	5274.79
525.676	5352.53
526.043	5386.65
526.409	5384.39
526.776	5433.88
527.142	5424.62
527.508	5468.23
527.874	5505.29
528.241	5568.34
528.607	5541.22
528.973	5607.21
529.339	5604.73
529.705	5673.2
530.071	5667.55
530.437	5684.95
530.803	5703.93
531.169	5757.49
531.535	5782.35
531.901	5804.95
532.267	5755.91
532.632	5868.45
532.998	5861.67
533.364	5865.28
533.73	5909.35
534.095	5964.94
534.461	6002.91
534.826	6004.49
535.192	6033.41
535.557	6061.21
535.923	6049.23
536.288	6080.87
536.653	6117.25
537.019	6170.59
537.384	6176.46
537.749	6179.85
538.114	6211.26
538.479	6190.02
538.845	6265.27
539.21	6227.76
539.575	6328.32
539.94	6339.62
540.305	6425.04
540.67	6358.15
541.034	6410.13
541.399	6410.81
541.764	6442.67
542.129	6441.31
542.494	6511.82
542.858	6536.23
543.223	6533.06
543.587	6521.09
543.952	6622.33
544.316	6646.28
544.681	6617.81
545.045	6657.35
545.41	6708.43
545.774	6750.01
546.138	6722.66
546.503	6752.94
546.867	6807.18
547.231	6851.25
547.595	6853.28
547.959	6863.45
548.324	6879.27
548.688	6884.92
549.052	6960.4
549.416	6986.84
549.779	6939.15
550.143	6996.1
550.507	7012.15
550.871	7009.66
551.235	7098.25
551.599	7116.1
551.962	7088.98
552.326	7117.45
552.689	7159.26
553.053	7160.84
553.417	7182.09
553.78	7288.75
554.143	7261.18
554.507	7274.74
554.87	7293.27
555.234	7363.78
555.597	7290.33
555.96	7389.09
556.323	7348.63
556.686	7359.03
557.05	7450.55
557.413	7481.06
557.776	7434.96
558.139	7500.95
558.502	7544.79
558.865	7530.78
559.228	7621.62
559.59	7629.31
559.953	7669.76
560.316	7652.58
560.679	7711.79
561.041	7729.64
561.404	7767.15
561.767	7873.14
562.129	7810.54
562.492	7915.85
562.854	7942.07
563.217	7897.77
563.579	7897.09
563.941	7939.81
564.304	8014.15
564.666	8079.91
565.028	8080.82
565.39	8032.01
565.753	8109.74
566.115	8097.32
566.477	8183.87
566.839	8151.33
567.201	8190.19
567.563	8265.67
567.925	8290.3
568.287	8328.72
568.648	8320.59
569.01	8392.45
569.372	8377.99
569.734	8363.75
570.095	8477.64
570.457	8526
570.819	8534.82
571.18	8534.14
571.542	8589.51
571.903	8589.28
572.265	8705.21
572.626	8744.98
572.987	8703.63
573.349	8834.47
573.71	8874.92
574.071	8872.44
574.432	8965.77
574.794	9075.14
575.155	9066.33
575.516	9051.19
575.877	9181.58
576.238	9220
576.599	9323.05
576.96	9335.47
577.32	9444.85
577.681	9515.58
578.042	9555.36
578.403	9675.13
578.763	9677.39
579.124	9798.29
579.485	9867.21
579.845	9966.64
580.206	10041.67
580.566	10171.16
580.927	10307.65
581.287	10400.31
581.648	10452.96
582.008	10640.98
582.368	10752.16
582.728	10880.74
583.089	11009.1
583.449	11179.95
583.809	11358.25
584.169	11378.36
584.529	11579.71
584.889	11838.69
585.249	11885.69
585.609	12066.25
585.969	12338.11
586.329	12366.13
586.688	12660.13
587.048	12812.22
587.408	13036.17
587.768	13181.7
588.127	13443.62
588.487	13550.28
588.846	13915.92
589.206	14043.83
589.565	14239.98
589.925	14464.15
590.284	14703.7
590.643	14959.51
591.003	15314.75
591.362	15548.42
591.721	15650.11
592.08	15907.51
592.44	16211
592.799	16500.94
593.158	16787.71
593.517	16974.37
593.876	17323.06
594.235	17464.53
594.593	17704.52
594.952	18001.91
595.311	18207.33
595.67	18541.11
596.029	18862
596.387	19186.74
596.746	19413.63
597.104	19534.98
597.463	19973.39
597.822	20204.34
598.18	20365.24
598.538	20631
598.897	21021.5
599.255	21092.45
599.613	21680.01
599.972	21765.66
600.33	22086.78
600.688	22195.48
601.046	22514.11
601.404	22848.34
601.762	23121.33
602.12	23496.68
602.478	23610.58
602.836	23910.91
603.194	23989.78
603.552	24295.99
603.91	24404.46
604.268	24789.98
604.625	25075.85
604.983	25275.85
605.341	25391.32
605.698	25771.43
606.056	26067.24
606.413	26137.29
606.771	26464.06
607.128	26724.4
607.485	26611.86
607.843	26950.6
608.2	27356.7
608.557	27497.48
608.914	27663.13
609.272	27932.95
609.629	28185.83
609.986	28523.67
610.343	28545.14
610.7	28922.76
611.057	28964.34
611.414	29021.06
611.771	29382.86
612.127	29525.9
612.484	29672.79
612.841	29988.04
613.198	29957.98
613.554	30209.95
613.911	30541.7
614.267	30561.36
614.624	30651.75
614.98	30875.7
615.337	31137.39
615.693	31350.04
616.05	31271.62
616.406	31589.13
616.762	31595.45
617.118	31749.8
617.475	31917.48
617.831	32121.32
618.187	32188.89
618.543	32432.49
618.899	32736.89
619.255	32617.12
619.611	32726.5
619.967	32966.27
620.323	33097.11
620.678	33096.66
621.034	33004.91
621.39	33182.31
621.746	33395.86
622.101	33787.71
622.457	33461.62
622.812	33747.49
623.168	33790.2
623.523	33867.71
623.879	34172.34
624.234	34093.92
624.589	34062.96
624.945	34223.41
625.3	34281.03
625.655	34395.83
626.01	34370.52
626.365	34511.54
626.72	34489.62
627.075	34549.05
627.43	34690.51
627.785	34586.56
628.14	34774.81
628.495	34880.11
628.85	34852.77
629.205	34788.59
629.559	35147.68
629.914	34815.48
630.269	34887.8
630.623	34961.47
630.978	34821.13
631.332	35196.72
631.687	35231.29
632.041	35025.19
632.396	35246.21
632.75	35083.95
633.104	35302.7
633.459	35147.45
633.813	35073.33
634.167	35050.05
634.521	35158.3
634.875	35256.6
635.229	35301.8
635.583	35057.51
635.937	35164.63
636.291	35096.38
636.645	35356.03
636.999	35187.22
637.352	35123.72
637.706	35149.26
638.06	35215.7
638.413	35332.98
638.767	35191.74
639.121	35219.77
639.474	34965.08
639.828	35140.67
640.181	35117.62
640.534	35152.2
640.888	35081.69
641.241	35043.05
641.594	35172.76
641.947	35173.89
642.301	35036.04
642.654	35079.2
643.007	35169.82
643.36	35139.54
643.713	35019.55
644.066	35114.46
644.419	34928.7
644.771	34826.78
645.124	34485.77
645.477	34408.94
645.83	34168.72
646.182	34144.31
646.535	33969.86
646.888	34103.19
647.24	33947.71
647.593	34098.67
647.945	34081.49
648.298	33993.36
648.65	33896.41
649.002	33846.02
649.355	34033.36
649.707	33833.36
650.059	33986.35
650.411	34462.95
650.763	34505.43
651.115	34740.91
651.467	34603.96
651.819	34730.29
652.171	34582.04
652.523	34545.43
652.875	34567.35
653.227	34550.18
653.578	34706.56
653.93	34447.81
654.282	34417.08
654.633	34476.51
654.985	34471.54
655.337	34488.71
655.688	34469.73
656.039	34645.54
656.391	34412.1
656.742	34450.75
657.094	34493.46
657.445	34604.64
657.796	34450.07
658.147	34336.17
658.498	34363.97
658.849	34350.64
659.2	34407.81
659.551	34325.78
659.902	34399.9
660.253	34355.16
660.604	34547.24
660.955	34269.28
661.306	34351.99
661.656	34187.02
662.007	34380.92
662.358	34204.88
662.708	34362.84
663.059	34361.94
663.409	34240.58
663.76	34361.71
664.11	34270.19
664.461	34330.52
664.811	34316.29
665.161	34299.79
665.511	34239.9
665.862	34292.11
666.212	34302.73
666.562	34307.02
666.912	34373.23
667.262	34260.7
667.612	34351.77
667.962	34282.39
668.312	34220.7
668.662	34475.15
669.011	34398.77
669.361	34234.71
669.711	34228.83
670.06	34120.59
670.41	34077.88
670.76	34066.12
671.109	34212.56
671.459	34165.78
671.808	34045.33
672.157	34193.13
672.507	33939.8
672.856	33899.12
673.205	33921.27
673.554	34172.56
673.904	33928.95
674.253	34145.44
674.602	33971.89
674.951	33563.54
675.3	33326.26
675.649	33908.39
675.998	33881.95
676.346	33940.03
676.695	33968.73
677.044	33706.36
677.393	33842.85
677.741	33884.66
678.09	33791.78
678.438	33688.73
678.787	33820.93
679.135	33784.78
679.484	33668.85
679.832	33680.6
680.181	33552.24
680.529	33524.9
680.877	33555.18
681.225	33469.53
681.573	33599.24
681.922	33460.94
682.27	33325.35
682.618	33439.02
682.966	33215.3
683.314	33384.33
683.661	33137.56
684.009	32991.8
684.357	33040.84
684.705	32997.45
685.053	32879.71
685.4	32944.35
685.748	32811.02
686.095	32928.98
686.443	32641.53
686.79	32568.08
687.138	32621.64
687.485	32634.98
687.832	32595.2
688.18	32600.63
688.527	32323.12
688.874	32513.17
689.221	32369.22
689.568	32267.08
689.915	32134.88
690.262	32234.99
690.609	32065.05
690.956	31977.82
691.303	31941.89
691.65	31855.33
691.997	31828.44
692.344	31799.07
692.69	31731.72
693.037	31732.4
693.383	31494.21
693.73	31578.51
694.077	31323.15
694.423	31339.19
694.769	31232.75
695.116	31145.3
695.462	31321.79
695.808	30925.19
696.155	31059.2
696.501	30850.16
696.847	30874.34
697.193	30700.79
697.539	30726.55
697.885	30450.4
698.231	30547.57
698.577	30370.18
698.923	30404.07
699.269	30228.03
699.614	30155.04
699.96	30091.09
700.306	30102.61
700.651	29901.49
700.997	29865.33
701.342	29817.65
701.688	29836.4
702.033	29588.5
702.379	29663.98
702.724	29590.08
703.069	29679.12
703.415	29084.33
703.76	29234.39
704.105	29299.02
704.45	29253.82
704.795	29090.44
705.14	28965.92
705.485	29049.76
705.83	28881.63
706.175	28896.77
706.52	28767.05
706.865	28649.32
707.209	28661.97
707.554	28461.53
707.899	28521.64
708.243	28510.56
708.588	28408.65
708.932	28214.3
709.277	28203.23
709.621	28154.19
709.966	27947.87
710.31	28131.82
710.654	27871.71
710.998	27973.4
711.342	27849.79
711.687	27825.38
712.031	27771.6
712.375	27648.89
712.719	27665.84
713.063	27566.63
713.407	27646.41
713.75	27556.01
714.094	27538.61
714.438	27373.42
714.782	27455
715.125	27276.7
715.469	27286.42
715.812	27221.56
716.156	27033.09
716.499	27036.25
716.843	27065.18
717.186	26955.8
717.53	26971.4
717.873	26969.36
718.216	26887.56
718.559	26822.7
718.902	26648.92
719.246	26587.22
719.589	26586.77
719.932	26488.24
720.275	26504.29
720.617	26503.16
720.96	26499.09
721.303	26433.78
721.646	26427.91
721.989	26218.65
722.331	26250.06
722.674	26250.06
723.016	26246.89
723.359	26224.75
723.701	26181.13
724.044	26015.94
724.386	25836.28
724.729	25988.6
725.071	25868.15
725.413	25918.54
725.755	25965.09
726.097	25764.87
726.439	25675.38
726.782	25663.41
727.124	25731.88
727.465	25598.78
727.807	25575.27
728.149	25595.39
728.491	25434.03
728.833	25618.89
729.175	25440.14
729.516	25401.72
729.858	25444.66
730.199	25427.03
730.541	25276.98
730.882	25335.51
731.224	25341.61
731.565	25069.75
731.906	25244.89
732.248	25162.4
732.589	25067.04
732.93	24992.46
733.271	24974.39
733.612	24951.56
733.953	25081.5
734.294	24955.63
734.635	24894.39
734.976	24819.59
735.317	24696.88
735.658	24751.11
735.999	24781.62
736.339	24660.95
736.68	24853.94
737.021	24631.12
737.361	24561.97
737.702	24733.94
738.042	24549.99
738.383	24523.1
738.723	24566.71
739.063	24516.32
739.404	24450.78
739.744	24420.95
740.084	24274.29
740.424	24372.59
740.764	24272.03
741.104	24348.19
741.444	24179.83
741.784	24138.93
742.124	24202.2
742.464	24179.15
742.804	24134.86
743.143	24041.53
743.483	24088.99
743.823	23890.35
744.162	23930.12
744.502	23975.99
744.841	23868.43
745.181	24012.83
745.52	23836.56
745.86	23916.79
746.199	23920.4
746.538	23755.66
746.877	23841.76
747.216	23806.73
747.556	23712.72
747.895	23693.06
748.234	23571.26
748.573	23612.39
748.911	23577.59
749.25	23526.51
749.589	23374.43
749.928	23399.96
750.267	23439.51
750.605	23439.28
750.944	23397.25
751.283	23284.49
751.621	23303.7
751.96	23184.15
752.298	23168.11
752.636	23209.01
752.975	22975.57
753.313	22982.57
753.651	23202.45
753.989	22989.35
754.327	22898.51
754.666	22762.69
755.004	22892.63
755.342	22848.79
755.679	22727.21
756.017	22581.68
756.355	22692.64
756.693	22624.17
757.031	22567.9
757.368	22484.06
757.706	22406.09
758.044	22419.65
758.381	22453.32
758.719	22320.44
759.056	22292.42
759.394	22235.25
759.731	22059.89
760.068	22125.87
760.405	21947.35
760.743	22014.69
