Data from hue_280_FLMS001491_00018.txt Node
Date: Tue Feb 07 15:54:55 GMT 2017
User: dcchb
Spectrometer: FLMS00149
Trigger mode: 0
Integration Time (sec): 2.000000E-2
Scans to average: 10
Electric dark correction enabled: true
Nonlinearity correction enabled: false
Boxcar width: 0
XAxis mode: Wavelengths
Number of Pixels in Spectrum: 2048
>>>>>Begin Spectral Data<<<<<
341.393	1.61
341.776	1.61
342.16	1.61
342.543	-70.25
342.927	-54.43
343.31	-62.79
343.693	-72.74
344.077	-65.96
344.46	-46.52
344.843	-53.98
345.226	-55.56
345.61	-36.35
345.993	-17.6
346.376	-10.82
346.759	11.33
347.142	22.4
347.525	50.42
347.908	64.21
348.291	71.66
348.674	85.45
349.057	116.86
349.44	114.15
349.823	125.45
350.206	155.73
350.588	168.16
350.971	193.02
351.354	223.75
351.737	222.4
352.119	251.55
352.502	256.07
352.884	260.81
353.267	274.6
353.65	284.31
354.032	290.87
354.414	289.96
354.797	311.43
355.179	303.52
355.562	299
355.944	298.55
356.326	310.53
356.709	338.1
357.091	325.67
357.473	332
357.855	324.54
358.238	321.6
358.62	340.81
359.002	328.38
359.384	346.46
359.766	338.78
360.148	336.29
360.53	327.93
360.912	324.77
361.294	333.58
361.676	311.88
362.057	328.38
362.439	331.54
362.821	323.64
363.203	320.02
363.584	316.4
363.966	320.92
364.348	321.15
364.729	305.33
365.111	322.05
365.493	334.93
365.874	339.23
366.256	298.78
366.637	296.07
367.019	308.95
367.4	315.73
367.781	301.04
368.163	306.23
368.544	305.78
368.925	308.27
369.306	303.3
369.688	310.53
370.069	293.13
370.45	312.79
370.831	324.77
371.212	315.95
371.593	317.99
371.974	309.85
372.355	306.91
372.736	317.08
373.117	301.72
373.498	328.83
373.879	310.3
374.26	310.08
374.641	327.93
375.021	310.53
375.402	315.95
375.783	337.42
376.163	317.31
376.544	325.44
376.925	332.67
377.305	337.19
377.686	340.13
378.066	334.26
378.447	347.82
378.827	319.12
379.208	339.23
379.588	310.75
379.968	336.06
380.349	336.29
380.729	340.36
381.109	334.03
381.489	322.28
381.87	330.64
382.25	316.4
382.63	333.8
383.01	338.55
383.39	312.56
383.77	341.71
384.15	337.65
384.53	332.22
384.91	344.43
385.29	343.3
385.67	355.27
386.049	364.99
386.429	337.87
386.809	361.37
387.189	369.51
387.568	348.04
387.948	340.36
388.328	363.18
388.707	351.43
389.087	360.02
389.466	381.26
389.846	389.62
390.225	390.75
390.605	362.05
390.984	385.78
391.363	379.45
391.743	373.13
392.122	379
392.501	395.5
392.881	396.18
393.26	379.23
393.639	388.94
394.018	372.9
394.397	394.37
394.776	381.94
395.155	411.99
395.534	379.68
395.913	364.54
396.292	393.01
396.671	433.92
397.05	410.19
397.429	403.86
397.808	403.18
398.186	414.25
398.565	422.62
398.944	393.92
399.323	416.97
399.701	419.9
400.08	403.41
400.458	424.88
400.837	423.29
401.215	413.58
401.594	420.13
401.972	433.69
402.351	427.36
402.729	428.72
403.107	444.99
403.486	432.33
403.864	448.15
404.242	458.55
404.62	460.13
404.999	437.53
405.377	447.02
405.755	451.09
406.133	438.89
406.511	474.14
406.889	468.49
407.267	487.47
407.645	466.91
408.023	470.98
408.401	499.45
408.779	510.98
409.156	516.85
409.534	512.78
409.912	517.3
410.29	548.71
410.667	521.82
411.045	546
411.422	542.84
411.8	552.78
412.178	552.78
412.555	572.22
412.933	562.05
413.31	604.53
413.687	587.81
414.065	607.92
414.442	593.91
414.819	600.69
415.197	601.37
415.574	611.31
415.951	663.51
416.328	652.89
416.705	648.82
417.082	645.21
417.46	658.77
417.837	666.9
418.214	668.49
418.591	689.05
418.967	668.03
419.344	675.94
419.721	701.93
420.098	708.48
420.475	720.01
420.852	715.04
421.228	728.82
421.605	743.74
421.982	745.55
422.358	752.32
422.735	753.23
423.111	785.32
423.488	778.09
423.864	787.58
424.241	815.83
424.617	848.37
424.994	838.42
425.37	854.02
425.746	831.64
426.123	859.67
426.499	828.71
426.875	876.39
427.251	887.91
427.627	895.6
428.003	917.29
428.379	917.74
428.756	929.95
429.132	941.92
429.507	962.71
429.883	966.1
430.259	960.23
430.635	986.22
431.011	1008.36
431.387	1042.26
431.763	1052.2
432.138	1047.68
432.514	1042.49
432.89	1061.47
433.265	1083.62
433.641	1097.17
434.016	1106.89
434.392	1135.82
434.767	1154.35
435.143	1143.05
435.518	1166.78
435.894	1148.92
436.269	1196.15
436.644	1225.31
437.02	1247.91
437.395	1233.67
437.77	1274.35
438.145	1285.42
438.52	1272.09
438.895	1299.88
439.271	1294.68
439.646	1352.54
440.021	1331.52
440.395	1352.31
440.77	1350.73
441.145	1336.72
441.52	1390.95
441.895	1378.98
442.27	1381.91
442.645	1400.9
443.019	1418.97
443.394	1440.44
443.769	1428.01
444.143	1447.22
444.518	1474.57
444.892	1441.12
445.267	1461.68
445.641	1506.88
446.016	1487.67
446.39	1509.59
446.764	1517.73
447.139	1539.2
447.513	1526.09
447.887	1519.08
448.262	1545.75
448.636	1520.67
449.01	1557.95
449.384	1559.08
449.758	1569.48
450.132	1584.39
450.506	1599.99
450.88	1571.96
451.254	1622.81
451.628	1612.42
452.002	1666.43
452.376	1649.48
452.75	1685.18
453.123	1650.61
453.497	1700.77
453.871	1695.12
454.244	1716.14
454.618	1720.66
454.992	1737.84
455.365	1745.52
455.739	1741.68
456.112	1772.19
456.486	1809.02
456.859	1844.5
457.232	1841.34
457.606	1830.71
457.979	1882.92
458.352	1862.8
458.725	1921.11
459.099	1921.56
459.472	1951.62
459.845	1979.41
460.218	1996.81
460.591	2019.86
460.964	1999.52
461.337	2023.93
461.71	2053.08
462.083	2091.72
462.456	2079.07
462.829	2057.83
463.201	2111.84
463.574	2126.98
463.947	2146.64
464.32	2206.98
464.692	2201.78
465.065	2180.54
465.438	2246.3
465.81	2279.74
466.183	2300.98
466.555	2316.13
466.928	2338.05
467.3	2319.29
467.672	2358.61
468.045	2376.46
468.417	2364.03
468.789	2398.16
469.161	2433.64
469.534	2422.11
469.906	2476.12
470.278	2516.57
470.65	2531.49
471.022	2535.78
471.394	2627.98
471.766	2615.55
472.138	2678.6
472.51	2674.99
472.882	2725.15
473.253	2758.83
473.625	2752.95
473.997	2800.63
474.369	2794.76
474.74	2814.19
475.112	2861.42
475.484	2905.94
475.855	2962.66
476.227	2990.23
476.598	3067.97
476.97	3070.46
477.341	3105.71
477.713	3152.71
478.084	3178.02
478.455	3254.41
478.827	3259.15
479.198	3301.64
479.569	3374.18
479.94	3409.66
480.311	3452.14
480.682	3503.21
481.053	3552.25
481.424	3616.88
481.795	3588.41
482.166	3625.24
482.537	3670.21
482.908	3777.78
483.279	3806.71
483.65	3811.45
484.021	3890.32
484.391	3893.26
484.762	3901.17
485.133	3961.28
485.503	4018.68
485.874	4072.92
486.244	4086.25
486.615	4169.41
486.985	4217.54
487.356	4269.52
487.726	4295.96
488.097	4356.98
488.467	4327.6
488.837	4400.59
489.207	4448.05
489.578	4525.33
489.948	4519.01
490.318	4567.82
490.688	4582.51
491.058	4684.65
491.428	4688.94
491.798	4736.85
492.168	4793.12
492.538	4799.68
492.908	4877.41
493.278	4901.59
493.648	4918.54
494.017	4924.64
494.387	5013.91
494.757	5020.69
495.126	5085.54
495.496	5061.82
495.866	5100.01
496.235	5130.06
496.605	5180.68
496.974	5137.29
497.344	5235.37
497.713	5257.52
498.082	5249.61
498.452	5278.08
498.821	5343.39
499.19	5290.06
499.559	5400.11
499.928	5413.9
500.298	5438.08
500.667	5495.03
501.036	5441.24
501.405	5510.39
501.774	5481.92
502.143	5536.83
502.512	5561.24
502.88	5683.04
503.249	5537.06
503.618	5611.63
503.987	5690.05
504.356	5662.93
504.724	5740.89
505.093	5719.43
505.462	5737.28
505.83	5704.29
506.199	5744.28
506.567	5860.44
506.936	5806.43
507.304	5888.01
507.672	5916.71
508.041	5921.68
508.409	5977.05
508.777	5934.79
509.145	5991.06
509.514	5937.95
509.882	6003.94
510.25	5995.12
510.618	6034.9
510.986	6041
511.354	6061.56
511.722	6102.24
512.09	6094.56
512.458	6122.58
512.826	6115.12
513.193	6165.29
513.561	6131.17
513.929	6243.93
514.297	6270.6
514.664	6284.38
515.032	6308.11
515.4	6248.9
515.767	6320.54
516.135	6342.91
516.502	6320.77
516.869	6442.34
517.237	6464.72
517.604	6318.28
517.972	6464.04
518.339	6492.51
518.706	6407.77
519.073	6496.13
519.44	6504.72
519.808	6480.31
520.175	6530.25
520.542	6588.78
520.909	6657.71
521.276	6526.64
521.643	6694.99
522.009	6711.26
522.376	6723.92
522.743	6701.77
523.11	6730.7
523.477	6799.85
523.843	6804.37
524.21	6910.58
524.577	6912.84
524.943	6912.16
525.31	6936.57
525.676	6949.22
526.043	6941.77
526.409	7032.39
526.776	7054.31
527.142	7066.51
527.508	7139.73
527.874	7146.73
528.241	7144.47
528.607	7131.59
528.973	7321.19
529.339	7215.21
529.705	7249.1
530.071	7324.36
530.437	7374.07
530.803	7356.67
531.169	7328.65
531.535	7349.89
531.901	7428.53
532.267	7376.11
532.632	7418.59
532.998	7475.31
533.364	7557.57
533.73	7501.98
534.095	7562.54
534.461	7612.03
534.826	7609.55
535.192	7582.65
535.557	7665.14
535.923	7647.06
536.288	7688.64
536.653	7687.51
537.019	7645.93
537.384	7686.83
537.749	7762.99
538.114	7739.94
538.479	7782.65
538.845	7767.06
539.21	7727.96
539.575	7786.26
539.94	7839.82
540.305	7881.4
540.67	7864.68
541.034	7832.82
541.399	7951.23
541.764	7925.02
542.129	7925.7
542.494	7944
542.858	7988.07
543.223	7955.75
543.587	8079.59
543.952	7985.81
544.316	8042.98
544.681	8014.96
545.045	8061.06
545.41	8049.99
545.774	8123.66
546.138	8064.45
546.503	8163.88
546.867	8142.64
547.231	8159.14
547.595	8135.86
547.959	8150.32
548.324	8193.49
548.688	8216.54
549.052	8229.64
549.416	8254.5
549.779	8252.24
550.143	8215.18
550.507	8280.49
550.871	8290.66
551.235	8320.04
551.599	8306.25
551.962	8393.93
552.326	8378.11
552.689	8424.21
553.053	8375.18
553.417	8339.92
553.78	8472.35
554.143	8416.3
554.507	8484.32
554.87	8460.37
555.234	8499.92
555.597	8488.84
555.96	8504.66
556.323	8525.91
556.686	8525.23
557.05	8580.37
557.413	8576.98
557.776	8610.88
558.139	8634.38
558.502	8669.4
558.865	8669.18
559.228	8746.92
559.59	8765.9
559.953	8759.35
560.316	8839.34
560.679	8800.25
561.041	8842.51
561.404	8856.07
561.767	8965.89
562.129	8924.09
562.492	8997.98
562.854	9021.03
563.217	9057.87
563.579	9024.88
563.941	9070.52
564.304	9075.27
564.666	9129.96
565.028	9137.19
565.39	9164.08
565.753	9198.2
566.115	9236.17
566.477	9286.79
566.839	9236.85
567.201	9315.49
567.563	9373.57
567.925	9431.87
568.287	9421.48
568.648	9437.07
569.01	9464.64
569.372	9564.52
569.734	9506.44
570.095	9522.72
570.457	9618.76
570.819	9690.62
571.18	9628.25
571.542	9700.79
571.903	9783.5
572.265	9804.29
572.626	9866.66
572.987	9759.55
573.349	9807.91
573.71	9802.71
574.071	9905.76
574.432	9932.65
574.794	10072.76
575.155	10002.7
575.516	9976.26
575.877	10115.24
576.238	10122.47
576.599	10236.37
576.96	10213.32
577.32	10262.13
577.681	10323.15
578.042	10309.14
578.403	10354.56
578.763	10428.91
579.124	10470.49
579.485	10491.28
579.845	10542.8
580.206	10546.87
580.566	10578.73
580.927	10595
581.287	10779.86
581.648	10723.59
582.008	10886.75
582.368	10844.04
582.728	10892.17
583.089	10890.82
583.449	11027.31
583.809	11028.44
584.169	11093.97
584.529	11098.72
584.889	11268.43
585.249	11225.95
585.609	11323.12
585.969	11401.76
586.329	11460.29
586.688	11437.02
587.048	11517.47
587.408	11603.11
587.768	11634.52
588.127	11745.26
588.487	11723.34
588.846	11904.12
589.206	11930.79
589.565	11969.66
589.925	12060.95
590.284	12067.51
590.643	12208.07
591.003	12246.03
591.362	12443.77
591.721	12429.31
592.08	12521.05
592.44	12533.94
592.799	12693.48
593.158	12656.42
593.517	12751.56
593.876	12781.16
594.235	12828.84
594.593	12846.7
594.952	13013.92
595.311	13055.5
595.67	13133.24
596.029	13274.71
596.387	13293.24
596.746	13203.97
597.104	13345.44
597.463	13377.76
597.822	13457.3
598.18	13547.02
598.538	13555.6
598.897	13727.8
599.255	13622.04
599.613	13868.36
599.972	13741.36
600.33	13892.32
600.688	13828.14
601.046	13937.97
601.404	14052.31
601.762	14026.78
602.12	14162.59
602.478	14110.62
602.836	14181.8
603.194	14242.14
603.552	14241.91
603.91	14311.97
604.268	14354
604.625	14397.62
604.983	14492.98
605.341	14403.27
605.698	14513.77
606.056	14536.6
606.413	14568.46
606.771	14677.38
607.128	14704.27
607.485	14658.63
607.843	14796.02
608.2	14774.33
608.557	14825.85
608.914	14779.75
609.272	14933.87
609.629	15025.4
609.986	14952.86
610.343	15039.63
610.7	15129.12
611.057	15037.82
611.414	15134.32
611.771	15188.33
612.127	15270.81
612.484	15270.36
612.841	15277.14
613.198	15226.75
613.554	15340.19
613.911	15400.08
614.267	15377.48
614.624	15448.21
614.98	15421.54
615.337	15533.41
615.693	15486.4
616.05	15492.5
616.406	15629.9
616.762	15508.32
617.118	15570.24
617.475	15646.85
617.831	15647.53
618.187	15727.98
618.543	15699.28
618.899	15723.91
619.255	15741.31
619.611	15684.59
619.967	15809.1
620.323	15789.44
620.678	15693.4
621.034	15774.75
621.39	15719.16
621.746	15712.16
622.101	15924.36
622.457	15848.65
622.812	15848.43
623.168	15952.15
623.523	15932.04
623.879	15928.65
624.234	15919.38
624.589	15911.25
624.945	15915.54
625.3	15988.53
625.655	15985.14
626.01	16061.07
626.365	15934.52
626.72	16003.68
627.075	15989.89
627.43	15906.73
627.785	15927.97
628.14	16100.62
628.495	16053.17
628.85	15929.1
629.205	15887.29
629.559	15967.74
629.914	15993.28
630.269	15871.93
630.623	15875.09
630.978	15942.89
631.332	15951.02
631.687	15985.82
632.041	15941.08
632.396	15844.58
632.75	15833.74
633.104	15930.46
633.459	15764.81
633.813	15775.43
634.167	15786.96
634.521	15792.16
634.875	15818.6
635.229	15775.66
635.583	15736.34
635.937	15784.02
636.291	15656.11
636.645	15734.98
636.999	15700.41
637.352	15708.54
637.706	15587.42
638.06	15695.43
638.413	15653.4
638.767	15639.17
639.121	15715.77
639.474	15529.56
639.828	15608.21
640.181	15583.57
640.534	15579.96
640.888	15559.62
641.241	15607.08
641.594	15542.67
641.947	15548.77
642.301	15523.91
642.654	15502.67
643.007	15502.9
643.36	15426.74
643.713	15513.52
644.066	15487.76
644.419	15370.92
644.771	15286.41
645.124	15136.81
645.477	15173.19
645.83	14978.17
646.182	14972.74
646.535	15070.59
646.888	14991.72
647.24	14872.86
647.593	14989.69
647.945	14937.26
648.298	14919.64
648.65	14928.22
649.002	14875.12
649.355	14980.65
649.707	14938.39
650.059	15027.88
650.411	15261.32
650.763	15376.57
651.115	15386.29
651.467	15374.99
651.819	15340.87
652.171	15364.82
652.523	15292.06
652.875	15333.18
653.227	15271.27
653.578	15375.9
653.93	15350.13
654.282	15278.72
654.633	15267.42
654.985	15337.93
655.337	15297.71
655.688	15362.11
656.039	15357.59
656.391	15342.9
656.742	15334.54
657.094	15264.71
657.445	15330.02
657.796	15291.38
658.147	15261.1
658.498	15290.7
658.849	15266.07
659.2	15251.83
659.551	15250.25
659.902	15330.92
660.253	15364.37
660.604	15390.36
660.955	15280.08
661.306	15293.41
661.656	15329.12
662.007	15361.21
662.358	15389.45
662.708	15296.8
663.059	15343.35
663.409	15228.78
663.76	15409.11
664.11	15350.59
664.461	15441.88
664.811	15410.47
665.161	15239.18
665.511	15308.33
665.862	15393.07
666.212	15473.52
666.562	15498.38
666.912	15342.22
667.262	15422.22
667.612	15346.29
667.962	15478.94
668.312	15328.89
668.662	15457.02
669.011	15351.49
669.361	15377.48
669.711	15345.39
670.06	15331.83
670.41	15304.71
670.76	15383.35
671.109	15401.43
671.459	15334.54
671.808	15338.38
672.157	15285.28
672.507	15282.79
672.856	15182.68
673.205	15293.41
673.554	15231.49
673.904	15179.97
674.253	15266.29
674.602	15229.23
674.951	15033.53
675.3	14972.97
675.649	15156.47
675.998	15131.61
676.346	15148.1
676.695	15163.92
677.044	15011.38
677.393	15077.15
677.741	15196.69
678.09	15031.05
678.438	15007.09
678.787	15110.59
679.135	15079.41
679.484	14996.02
679.832	15001.22
680.181	14906.53
680.529	15013.64
680.877	14998.05
681.225	14869.47
681.573	14970.48
681.922	14866.53
682.27	14834.44
682.618	14872.86
682.966	14750.83
683.314	14863.82
683.661	14767.55
684.009	14605.07
684.357	14561.23
684.705	14622.02
685.053	14604.39
685.4	14593.77
685.748	14538.63
686.095	14521.23
686.443	14483.94
686.79	14457.05
687.138	14464.96
687.485	14391.06
687.832	14409.82
688.18	14476.03
688.527	14285.3
688.874	14350.84
689.221	14266.09
689.568	14219.77
689.915	14173.89
690.262	14076.04
690.609	14148.36
690.956	14037.63
691.303	13940.9
691.65	13972.32
691.997	13965.54
692.344	13887.12
692.69	13836.73
693.037	13767.35
693.383	13720.57
693.73	13739.78
694.077	13656.17
694.423	13685.77
694.769	13529.84
695.116	13579.56
695.462	13517.64
695.808	13497.3
696.155	13491.2
696.501	13297.08
696.847	13293.92
697.193	13141.38
697.539	13278.1
697.885	13141.6
698.231	13038.78
698.577	13100.93
698.923	13105.67
699.269	12961.27
699.614	12998.78
699.96	12928.5
700.306	12782.97
700.651	12870.42
700.997	12740.71
701.342	12719.92
701.688	12662.75
702.033	12584.1
702.379	12608.74
702.724	12566.7
703.069	12542.52
703.415	12452.13
703.76	12486.25
704.105	12477.44
704.45	12335.98
704.795	12297.56
705.14	12202.19
705.485	12264.56
705.83	12157
706.175	12137.56
706.52	12133.72
706.865	12077.68
707.209	12025.93
707.554	12007.85
707.899	11975.08
708.243	11969.43
708.588	11940.73
708.932	11902.77
709.277	11890.56
709.621	11816.89
709.966	11737.57
710.31	11836.33
710.654	11713.17
710.998	11663.22
711.342	11653.51
711.687	11579.38
712.031	11579.84
712.375	11524.02
712.719	11513.85
713.063	11496.22
713.407	11612.38
713.75	11437.47
714.094	11496.45
714.438	11471.14
714.782	11505.71
715.125	11380.75
715.469	11421.2
715.812	11323.57
716.156	11246.96
716.499	11302.33
716.843	11359.96
717.186	11278.38
717.53	11282.22
717.873	11312.27
718.216	11293.52
718.559	11141.66
718.902	11105.05
719.246	11150.02
719.589	11086.06
719.932	11104.14
720.275	11178.94
720.617	11095.78
720.96	11131.26
721.303	11030.25
721.646	11073.41
721.989	10970.36
722.331	10977.82
722.674	11013.98
723.016	10910.7
723.359	10879.74
723.701	10941.66
724.044	10893.3
724.386	10817.14
724.729	10915.67
725.071	10912.06
725.413	10882.23
725.755	10899.85
726.097	10820.99
726.439	10760.2
726.782	10818.95
727.124	10833.19
727.465	10826.86
727.807	10849.01
728.149	10849.69
728.491	10769.01
728.833	10773.98
729.175	10755.68
729.516	10730.14
729.858	10745.51
730.199	10742.12
730.541	10756.36
730.882	10750.03
731.224	10836.81
731.565	10744.38
731.906	10770.59
732.248	10745.73
732.589	10664.83
732.93	10665.51
733.271	10775.34
733.612	10713.19
733.953	10705.28
734.294	10722.91
734.635	10704.83
734.976	10729.46
735.317	10670.26
735.658	10642.23
735.999	10699.41
736.339	10582.8
736.68	10694.89
737.021	10730.59
737.361	10658.28
737.702	10744.6
738.042	10767.2
738.383	10696.7
738.723	10672.06
739.063	10792.29
739.404	10778.28
739.744	10786.41
740.084	10650.14
740.424	10748.45
740.764	10743.02
741.104	10819.18
741.444	10701.22
741.784	10744.15
742.124	10876.35
742.464	10841.1
742.804	10828.9
743.143	10856.01
743.483	10932.4
743.823	10911.15
744.162	10878.16
744.502	10994.54
744.841	10970.14
745.181	11033.86
745.52	11027.08
745.86	11063.24
746.199	11128.1
746.538	11233.41
746.877	11267.75
747.216	11330.35
747.556	11257.36
747.895	11392.27
748.234	11411.71
748.573	11456.9
748.911	11560.63
749.25	11677.24
749.589	11636.56
749.928	11753.17
750.267	11866.61
750.605	11889.89
750.944	11994.29
751.283	12036.77
751.621	12055.3
751.96	12134.62
752.298	12253.49
752.636	12406.26
752.975	12438.12
753.313	12565.12
753.651	12676.98
753.989	12718.11
754.327	12854.15
754.666	12903.42
755.004	13123.75
755.342	13255.5
755.679	13330.75
756.017	13359
756.355	13657.3
756.693	13712.44
757.031	13890.06
757.368	13973.9
757.706	14097.74
758.044	14257.05
758.381	14395.36
758.719	14437.84
