Data from hue_20_FLMS001491_53.txt Node
Date: Mon Feb 06 15:34:19 GMT 2017
User: dcchb
Spectrometer: FLMS00149
Trigger mode: 0
Integration Time (sec): 2.000000E-2
Scans to average: 10
Electric dark correction enabled: true
Nonlinearity correction enabled: false
Boxcar width: 0
XAxis mode: Wavelengths
Number of Pixels in Spectrum: 2048
>>>>>Begin Spectral Data<<<<<
341.393	-0.04
341.776	-0.04
342.16	-0.04
342.543	-43.88
342.927	-88.85
343.31	-69.42
343.693	-71
344.077	-76.42
344.46	-59.48
344.843	-54.28
345.226	-50.21
345.61	-33.26
345.993	-19.02
346.376	5.38
346.759	9.45
347.142	21.2
347.525	48.32
347.908	67.07
348.291	81.54
348.674	79.05
349.057	121.08
349.44	111.37
349.823	145.49
350.206	168.77
350.588	202.21
350.971	182.33
351.354	230.23
351.737	228.43
352.119	221.19
352.502	263.45
352.884	252.83
353.267	273.17
353.65	288.99
354.032	292.15
354.414	305.71
354.797	314.3
355.179	324.47
355.562	332.38
355.944	325.15
356.326	312.72
356.709	322.66
357.091	332.83
357.473	327.18
357.855	327.41
358.238	336.9
358.62	344.36
359.002	326.5
359.384	366.5
359.766	334.64
360.148	324.69
360.53	349.1
360.912	330.8
361.294	322.89
361.676	328.76
362.057	324.92
362.439	322.44
362.821	338.71
363.203	320.18
363.584	315.88
363.966	337.35
364.348	318.82
364.729	330.57
365.111	329.44
365.493	321.08
365.874	301.19
366.256	300.51
366.637	305.71
367.019	302.55
367.4	344.58
367.781	321.76
368.163	335.32
368.544	321.53
368.925	303.23
369.306	330.34
369.688	308.42
370.069	314.75
370.45	306.62
370.831	296.67
371.212	300.29
371.593	293.74
371.974	314.07
372.355	306.62
372.736	318.82
373.117	319.95
373.498	297.35
373.879	310.68
374.26	312.04
374.641	312.49
375.021	323.34
375.402	300.74
375.783	334.86
376.163	348.88
376.544	328.99
376.925	323.34
377.305	333.28
377.686	328.76
378.066	343.68
378.447	323.11
378.827	331.25
379.208	346.39
379.588	335.99
379.968	324.47
380.349	344.81
380.729	328.76
381.109	334.41
381.489	354.07
381.87	327.63
382.25	349.55
382.63	341.19
383.01	348.42
383.39	329.67
383.77	351.81
384.15	336.67
384.53	356.11
384.91	348.42
385.29	361.53
385.67	350.68
386.049	363.34
386.429	370.34
386.809	363.34
387.189	372.83
387.568	364.02
387.948	358.37
388.328	347.29
388.707	369.67
389.087	356.33
389.466	378.03
389.846	350.23
390.225	347.97
390.605	358.37
390.984	384.13
391.363	358.59
391.743	370.34
392.122	395.88
392.501	366.73
392.881	385.03
393.26	387.29
393.639	396.56
394.018	377.57
394.397	371.7
394.776	392.72
395.155	385.26
395.534	386.16
395.913	376.67
396.292	391.59
396.671	380.96
397.05	380.96
397.429	393.17
397.808	367.63
398.186	401.98
398.565	394.07
398.944	405.37
399.323	390.23
399.701	380.51
400.08	409.44
400.458	387.07
400.837	382.09
401.215	393.62
401.594	420.51
401.972	414.64
402.351	407.63
402.729	433.39
403.107	417.12
403.486	401.53
403.864	422.77
404.242	414.86
404.62	396.56
404.999	437.01
405.377	427.52
405.755	441.08
406.133	428.87
406.511	437.91
406.889	443.56
407.267	464.58
407.645	445.37
408.023	412.83
408.401	450.79
408.779	455.31
409.156	460.51
409.534	454.41
409.912	471.13
410.29	463.9
410.667	463.45
411.045	454.18
411.422	469.1
411.8	486.27
412.178	479.49
412.555	482.43
412.933	473.39
413.31	497.12
413.687	494.18
414.065	489.89
414.442	511.36
414.819	496.44
415.197	517.01
415.574	513.16
415.951	517.46
416.328	514.07
416.705	517.91
417.082	528.98
417.46	521.98
417.837	526.72
418.214	529.44
418.591	534.18
418.967	546.16
419.344	530.57
419.721	536.89
420.098	532.82
420.475	552.94
420.852	570.34
421.228	552.71
421.605	554.75
421.982	554.75
422.358	571.69
422.735	574.86
423.111	570.56
423.488	576.44
423.864	589.09
424.241	608.3
424.617	596.55
424.994	600.62
425.37	571.69
425.746	591.13
426.123	630.9
426.499	596.33
426.875	600.85
427.251	631.58
427.627	611.02
428.003	626.16
428.379	632.26
428.756	620.05
429.132	629.77
429.507	639.26
429.883	649.66
430.259	637.68
430.635	651.47
431.011	672.48
431.387	665.48
431.763	659.38
432.138	689.66
432.514	698.24
432.89	705.48
433.265	707.74
433.641	704.35
434.016	713.39
434.392	704.35
434.767	709.54
435.143	714.52
435.518	743.44
435.894	742.09
436.269	776.66
436.644	758.36
437.02	742.76
437.395	765.36
437.77	765.14
438.145	791.8
438.52	781.86
438.895	793.84
439.271	794.51
439.646	804.91
440.021	836.09
440.395	784.8
440.77	785.47
441.145	808.75
441.52	798.81
441.895	832.03
442.27	822.99
442.645	842.87
443.019	834.29
443.394	856.43
443.769	845.13
444.143	833.61
444.518	876.77
444.892	862.99
445.267	883.55
445.641	871.12
446.016	870.67
446.39	872.7
446.764	884.45
447.139	898.92
447.513	899.14
447.887	902.31
448.262	913.38
448.636	930.55
449.01	916.32
449.384	912.02
449.758	941.63
450.132	934.4
450.506	942.76
450.88	959.93
451.254	959.25
451.628	938.92
452.002	1005.81
452.376	961.74
452.75	1003.1
453.123	978.01
453.497	988.86
453.871	992.47
454.244	1021.17
454.618	1017.11
454.992	1046.26
455.365	1049.87
455.739	1083.77
456.112	1045.81
456.486	1112.02
456.859	1085.58
457.232	1102.53
457.606	1126.03
457.979	1124.45
458.352	1147.72
458.725	1146.82
459.099	1149.31
459.472	1188.85
459.845	1176.42
460.218	1211.23
460.591	1201.73
460.964	1205.12
461.337	1219.36
461.71	1239.02
462.083	1265.91
462.456	1283.99
462.829	1300.26
463.201	1300.49
463.574	1289.87
463.947	1319.7
464.32	1323.99
464.692	1340.49
465.065	1352.46
465.438	1366.25
465.81	1402.18
466.183	1411.67
466.555	1418.9
466.928	1443.31
467.3	1458.22
467.672	1471.33
468.045	1509.52
468.417	1524.21
468.789	1539.8
469.161	1509.52
469.534	1566.24
469.906	1602.18
470.278	1622.51
470.65	1636.75
471.022	1639.24
471.394	1682.17
471.766	1662.96
472.138	1724.43
472.51	1760.59
472.882	1777.76
473.253	1803.3
473.625	1841.27
473.997	1830.87
474.369	1889.4
474.74	1915.84
475.112	1922.39
475.484	1973.92
475.855	2003.29
476.227	2004.88
476.598	2085.55
476.97	2070.41
477.341	2160.58
477.713	2167.81
478.084	2189.5
478.455	2231.09
478.827	2284.87
479.198	2374.81
479.569	2349.05
479.94	2392.89
480.311	2436.05
480.682	2478.54
481.053	2553.34
481.424	2573
481.795	2585.65
482.166	2645.76
482.537	2706.33
482.908	2782.94
483.279	2782.71
483.65	2858.87
484.021	2903.84
484.391	2994.23
484.762	2960.56
485.133	2995.59
485.503	3071.06
485.874	3089.82
486.244	3162.36
486.615	3194.22
486.985	3274.67
487.356	3341.11
487.726	3336.59
488.097	3464.5
488.467	3472.41
488.837	3559.19
489.207	3556.7
489.578	3648.9
489.948	3675.57
490.318	3730.03
490.688	3765.51
491.058	3770.25
491.428	3859.97
491.798	3912.62
492.168	3947.88
492.538	4049.34
492.908	4063.81
493.278	4105.39
493.648	4127.53
494.017	4190.81
494.387	4224.71
494.757	4210.92
495.126	4312.84
495.496	4313.52
495.866	4366.17
496.235	4400.07
496.605	4425.15
496.974	4468.54
497.344	4502.66
497.713	4560.29
498.082	4594.64
498.452	4661.98
498.821	4709.66
499.19	4676.9
499.559	4684.58
499.928	4745.6
500.298	4815.42
500.667	4825.82
501.036	4809.32
501.405	4870.79
501.774	4873.73
502.143	4923.44
502.512	4947.4
502.88	5007.28
503.249	5027.85
503.618	5018.58
503.987	5123.44
504.356	5076.66
504.724	5149.43
505.093	5178.58
505.462	5180.61
505.83	5233.94
506.199	5237.56
506.567	5311.91
506.936	5346.71
507.304	5384.9
507.672	5412.02
508.041	5352.59
508.409	5412.7
508.777	5498.12
509.145	5496.99
509.514	5522.52
509.882	5517.33
510.25	5559.13
510.618	5609.75
510.986	5594.39
511.354	5635.29
511.722	5735.4
512.09	5766.36
512.458	5775.4
512.826	5807.71
513.193	5804.32
513.561	5832.8
513.929	5906.47
514.297	5897.66
514.664	5936.98
515.032	5979.46
515.4	6020.82
515.767	6030.99
516.135	6035.28
516.502	6023.3
516.869	6094.26
517.237	6142.17
517.604	6086.8
517.972	6189.17
518.339	6217.65
518.706	6244.54
519.073	6252.45
519.44	6335.61
519.808	6354.37
520.175	6390.3
520.542	6386
520.909	6467.36
521.276	6462.84
521.643	6470.52
522.009	6544.42
522.376	6511.88
522.743	6590.07
523.11	6668.26
523.477	6711.65
523.843	6741.7
524.21	6769.05
524.577	6819.21
524.943	6841.13
525.31	6906.44
525.676	6985.08
526.043	7000.23
526.409	6990.28
526.776	7083.84
527.142	7046.33
527.508	7124.06
527.874	7184.18
528.241	7207.68
528.607	7188.92
528.973	7304.4
529.339	7265.3
529.705	7353.66
530.071	7429.82
530.437	7404.06
530.803	7458.29
531.169	7516.37
531.535	7531.29
531.901	7585.29
532.267	7593.2
532.632	7642.47
532.998	7599.08
533.364	7743.71
533.73	7740.09
534.095	7788.91
534.461	7842.46
534.826	7813.54
535.192	7875.23
535.557	7937.6
535.923	7950.26
536.288	8040.65
536.653	8089.69
537.019	7989.13
537.384	8058.5
537.749	8076.13
538.114	8140.76
538.479	8145.05
538.845	8212.62
539.21	8213.08
539.575	8331.49
539.94	8303.69
540.305	8380.53
540.67	8387.31
541.034	8354.09
541.399	8429.79
541.764	8502.56
542.129	8456.46
542.494	8494.65
542.858	8494.65
543.223	8526.97
543.587	8631.14
543.952	8660.07
544.316	8689.22
544.681	8604.03
545.045	8715.89
545.41	8798.37
545.774	8813.96
546.138	8783.91
546.503	8879.72
546.867	8830.23
547.231	8887.63
547.595	8914.07
547.959	8961.98
548.324	8964.24
548.688	9055.99
549.052	9036.56
549.416	9086.05
549.779	9051.7
550.143	9124.24
550.507	9232.71
550.871	9259.38
551.235	9231.13
551.599	9279.04
551.962	9350.45
552.326	9359.03
552.689	9361.75
553.053	9356.55
553.417	9426.6
553.78	9448.3
554.143	9509.76
554.507	9520.84
554.87	9566.49
555.234	9685.13
555.597	9617.56
555.96	9610.55
556.323	9608.74
556.686	9664.11
557.05	9755.86
557.413	9720.38
557.776	9837.44
558.139	9897.78
558.502	9933.26
558.865	9869.53
559.228	10021.39
559.59	10054.38
559.953	10088.73
560.316	10139.13
560.679	10088.05
561.041	10184.1
561.404	10170.09
561.767	10296.64
562.129	10270.2
562.492	10327.37
562.854	10390.19
563.217	10361.04
563.579	10353.36
563.941	10426.35
564.304	10563.07
564.666	10575.27
565.028	10542.51
565.39	10629.06
565.753	10646.46
566.115	10682.39
566.477	10792.67
566.839	10770.52
567.201	10866.11
567.563	10866.34
567.925	10931.42
568.287	10881.48
568.648	10924.87
569.01	10982.04
569.372	11021.14
569.734	11054.13
570.095	11163.96
570.457	11209.83
570.819	11228.81
571.18	11256.38
571.542	11298.64
571.903	11340.45
572.265	11390.62
572.626	11390.17
572.987	11482.82
573.349	11523.5
573.71	11554
574.071	11705.41
574.432	11730.95
574.794	11773.66
575.155	11905.18
575.516	11824.51
575.877	11894.56
576.238	12035.57
576.599	12097.27
576.96	12207.32
577.32	12226.75
577.681	12328
578.042	12367.09
578.403	12393.76
578.763	12586.29
579.124	12604.37
579.485	12742.22
579.845	12858.6
580.206	12900.64
580.566	13024.25
580.927	13041.2
581.287	13247.29
581.648	13304.92
582.008	13565.25
582.368	13589.88
582.728	13770.22
583.089	13819.03
583.449	14051.34
583.809	14153.26
584.169	14313.25
584.529	14421.73
584.889	14773.58
585.249	14755.05
585.609	14939.68
585.969	15260.12
586.329	15279.1
586.688	15526.78
587.048	15708.25
587.408	15917.51
587.768	16091.29
588.127	16283.82
588.487	16481.11
588.846	16864.37
589.206	16920.42
589.565	17200.64
589.925	17537.12
590.284	17747.51
590.643	18008.07
591.003	18200.61
591.362	18685.79
591.721	18780.48
592.08	19011.44
592.44	19420.92
592.799	19572.78
593.158	19884.63
593.517	20127.56
593.876	20333.89
594.235	20670.15
594.593	21002.57
594.952	21377.93
595.311	21534.31
595.67	21857.24
596.029	22297.68
596.387	22471.91
596.746	22860.83
597.104	23016.75
597.463	23298.55
597.822	23663.97
598.18	23887.47
598.538	24247.91
598.897	24652.19
599.255	24750.72
599.613	25351.38
599.972	25511.38
600.33	25902.55
600.688	25896.45
601.046	26493.95
601.404	26817.78
601.762	26989.3
602.12	27294.83
602.478	27635.16
602.836	27879.22
603.194	28036.51
603.552	28323.96
603.91	28579.77
604.268	28850.72
604.625	29125.97
604.983	29522.57
605.341	29611.61
605.698	30095.21
606.056	30226.06
606.413	30602.09
606.771	30759.37
607.128	31100.83
607.485	31219.48
607.843	31527.94
608.2	31916.41
608.557	32088.38
608.914	32275.04
609.272	32645.65
609.629	32832.31
609.986	33156.83
610.343	33326.54
610.7	33763.36
611.057	33865.96
611.414	33924.72
611.771	34237.02
612.127	34600.18
612.484	34750.23
612.841	34974.18
613.198	35090.56
613.554	35191.35
613.911	35664.56
614.267	35773.93
614.624	35895.06
614.98	36064.55
615.337	36363.97
615.693	36404.42
616.05	36549.96
616.406	36862.27
616.762	36984.52
617.118	37157.4
617.475	37289.6
617.831	37453.66
618.187	37591.29
618.543	37795.35
618.899	38048.45
619.255	38044.16
619.611	38258.61
619.967	38536.8
620.323	38687.3
620.678	38535.22
621.034	38616.57
621.39	38840.74
621.746	38913.28
622.101	39375.42
622.457	39122.77
622.812	39523.21
623.168	39499.03
623.523	39621.74
623.879	39684.56
624.234	39636.88
624.589	39889.53
624.945	40042.97
625.3	40101.05
625.655	40141.5
626.01	40318.67
626.365	40420.36
626.72	40328.16
627.075	40492.23
627.43	40429.86
627.785	40449.52
628.14	40551.43
628.495	40690.64
628.85	40689.51
629.205	40633.92
629.559	40906
629.914	40834.82
630.269	40945.55
630.623	40904.64
630.978	40914.59
631.332	41102.38
631.687	41176.5
632.041	40956.39
632.396	41134.24
632.75	40994.36
633.104	41110.97
633.459	41004.98
633.813	41036.84
634.167	41016.73
634.521	41084.75
634.875	41167.91
635.229	41196.39
635.583	40998.2
635.937	41141.7
636.291	41167.46
636.645	41138.99
636.999	41064.64
637.352	41250.4
637.706	40992.33
638.06	41258.08
638.413	41092.44
638.767	41118.42
639.121	41063.51
639.474	40867.58
639.828	41023.51
640.181	40834.59
640.534	40922.05
640.888	40933.8
641.241	40836.62
641.594	40883.18
641.947	41158.65
642.301	40940.35
642.654	41056.73
643.007	41003.63
643.36	40916.85
643.713	40809.51
644.066	40965.43
644.419	40761.82
644.771	40473.02
645.124	40328.39
645.477	40029.19
645.83	40046.14
646.182	40026.93
646.535	39799.82
646.888	39968.62
647.24	39732.25
647.593	39865.8
647.945	39856.54
648.298	39640.95
648.65	39623.77
649.002	39480.05
649.355	39681.85
649.707	39652.25
650.059	39880.49
650.411	40203.42
650.763	40246.81
651.115	40748.94
651.467	40395.96
651.819	40399.8
652.171	40434.37
652.523	40391.21
652.875	40514.15
653.227	40233.25
653.578	40526.8
653.93	40413.13
654.282	40250.65
654.633	40187.83
654.985	40185.79
655.337	40234.15
655.688	40284.77
656.039	40359.35
656.391	40182.4
656.742	40134.27
657.094	40285
657.445	40387.82
657.796	40177.66
658.147	40146.02
658.498	40094.27
658.849	40156.19
659.2	40182.18
659.551	40017.44
659.902	40211.56
660.253	40029.64
660.604	40032.13
660.955	40022.18
661.306	40122.07
661.656	40157.55
662.007	40063.54
662.358	40092.24
662.708	40028.06
663.059	39968.17
663.409	39807.72
663.76	40138.34
664.11	40012.92
664.461	40030.32
664.811	40024.67
665.161	39983.09
665.511	39922.3
665.862	39901.73
666.212	40161.61
666.562	40115.96
666.912	39973.37
667.262	39941.28
667.612	39860.15
667.962	40023.76
668.312	39807.72
668.662	40112.12
669.011	39967.72
669.361	39920.72
669.711	39852.47
670.06	39758.69
670.41	39752.58
670.76	39708.97
671.109	39965.46
671.459	39738.8
671.808	39737.9
672.157	39877.33
672.507	39631.91
672.856	39689.08
673.205	39628.07
673.554	39765.47
673.904	39616.77
674.253	39883.65
674.602	39578.13
674.951	39154.63
675.3	38944.24
675.649	39359.83
675.998	39567.28
676.346	39530.67
676.695	39732.92
677.044	39428.75
677.393	39553.72
677.741	39439.37
678.09	39374.97
678.438	39351.69
678.787	39388.3
679.135	39456.55
679.484	39092.49
679.832	39322.99
680.181	39027.18
680.529	39213.16
680.877	39091.81
681.225	39015.43
681.573	39327.96
681.922	39066.5
682.27	38927.75
682.618	38789.9
682.966	38724.36
683.314	38813.63
683.661	38704.25
684.009	38501.09
684.357	38369.12
684.705	38477.59
685.053	38506.74
685.4	38437.37
685.748	38313.75
686.095	38276.69
686.443	38159.63
686.79	38104.27
687.138	38161.67
687.485	38067.21
687.832	38080.09
688.18	37958.96
688.527	37743.6
688.874	37813.43
689.221	37796.7
689.568	37648.91
689.915	37412.08
690.262	37573.66
690.609	37385.42
690.956	37426.32
691.303	37234.68
691.65	37139.55
691.997	37151.07
692.344	36877.63
692.69	36766.45
693.037	36862.04
693.383	36593.35
693.73	36648.71
694.077	36558.09
694.423	36524.65
694.769	36293.24
695.116	36389.51
695.462	36292.34
695.808	36173.02
696.155	36164.2
696.501	35980.71
696.847	35821.61
697.193	35705.23
697.539	35823.87
697.885	35499.14
698.231	35471.34
698.577	35458.46
698.923	35315.41
699.269	35219.14
699.614	34961.07
699.96	35083.1
700.306	35028.64
700.651	34855.99
700.997	34739.16
701.342	34790.91
701.688	34633.17
702.033	34585.49
702.379	34565.83
702.724	34369.9
703.069	34383.46
703.415	34105.5
703.76	34156.8
704.105	34076.8
704.45	33910.03
704.795	33843.59
705.14	33854.66
705.485	33799.29
705.83	33533.99
706.175	33647.89
706.52	33532.18
706.865	33273.88
707.209	33476.59
707.554	33348.01
707.899	33391.62
708.243	33068.92
708.588	33150.95
708.932	32752.32
709.277	32911.86
709.621	32874.35
709.966	32668.7
710.31	32748.48
710.654	32478.88
710.998	32507.58
711.342	32587.12
711.687	32348.03
712.031	32366.56
712.375	32131.32
712.719	32235.95
713.063	32237.53
713.407	32135.38
713.75	31947.59
714.094	32026.46
714.438	31825.11
714.782	31926.58
715.125	31740.59
715.469	31799.35
715.812	31624.66
716.156	31382.41
716.499	31574.72
716.843	31517.32
717.186	31345.35
717.53	31573.59
717.873	31501.5
718.216	31333.15
718.559	31327.95
718.902	31092.25
719.246	31087.5
719.589	31039.37
719.932	30850.67
720.275	30926.83
720.617	30874.63
720.96	30828.3
721.303	30877.56
721.646	30853.61
721.989	30579.04
722.331	30716.89
722.674	30615.2
723.016	30652.03
723.359	30510.57
723.701	30551.47
724.044	30228.54
724.386	30251.82
724.729	30339.27
725.071	30185.38
725.413	30123.69
725.755	30140.41
726.097	29981.09
726.439	29878.95
726.782	29933.63
727.124	30062.44
727.465	29954.42
727.807	29751.94
728.149	29826.97
728.491	29629.01
728.833	29758.5
729.175	29492.06
729.516	29648.44
729.858	29467.66
730.199	29645.73
730.541	29393.99
730.882	29436.02
731.224	29471.05
731.565	29382.01
731.906	29295.01
732.248	29370.48
732.589	29158.96
732.93	29182.47
733.271	29206.65
733.612	29079.64
733.953	29044.17
734.294	29117.38
734.635	28944.96
734.976	29057.95
735.317	28817.5
735.658	28923.26
735.999	28807.56
736.339	28709.26
736.68	28828.35
737.021	28704.06
737.361	28635.14
737.702	28699.99
738.042	28696.83
738.383	28539.55
738.723	28631.52
739.063	28530.28
739.404	28515.14
739.744	28459.77
740.084	28348.14
740.424	28356.05
740.764	28314.24
741.104	28370.29
741.444	28293.68
741.784	28080.58
742.124	28284.64
742.464	28139.78
742.804	28086
743.143	27937.53
743.483	28142.27
743.823	27839.23
744.162	27886.91
744.502	27950.18
744.841	27811.88
745.181	27977.3
745.52	27727.82
745.86	27765.1
746.199	27765.1
746.538	27668.38
746.877	27659.12
747.216	27638.78
747.556	27694.37
747.895	27521.27
748.234	27403.76
748.573	27504.55
748.911	27409.18
749.25	27392.46
749.589	27225
749.928	27299.13
750.267	27274.95
750.605	27203.99
750.944	27122.86
751.283	27095.97
751.621	27119.92
751.96	27012.81
752.298	27051.9
752.636	27041.73
752.975	26848.29
753.313	26825.92
753.651	26903.66
753.989	26811.46
754.327	26694.85
754.666	26591.35
755.004	26691.69
755.342	26599.26
755.679	26534.63
756.017	26494.4
756.355	26426.16
756.693	26328.08
757.031	26316.55
757.368	26230.68
757.706	26282.43
758.044	26120.85
758.381	26194.3
758.719	26081.31
759.056	25914.08
