Data from hue_280_FLMS001491_00048.txt Node
Date: Tue Feb 07 15:55:20 GMT 2017
User: dcchb
Spectrometer: FLMS00149
Trigger mode: 0
Integration Time (sec): 2.000000E-2
Scans to average: 10
Electric dark correction enabled: true
Nonlinearity correction enabled: false
Boxcar width: 0
XAxis mode: Wavelengths
Number of Pixels in Spectrum: 2048
>>>>>Begin Spectral Data<<<<<
341.393	-6.43
341.776	-6.43
342.16	-6.43
342.543	-54.79
342.927	-74
343.31	-71.96
343.693	-65.18
344.077	-67.67
344.46	-68.57
344.843	-43.49
345.226	-49.14
345.61	-29.93
345.993	-19.99
346.376	10.3
346.759	33.8
347.142	26.79
347.525	54.59
347.908	53.23
348.291	53.91
348.674	73.35
349.057	109.95
349.44	131.42
349.823	138.88
350.206	177.3
350.588	216.17
350.971	213.91
351.354	221.59
351.737	266.11
352.119	243.28
352.502	241.93
352.884	258.43
353.267	261.82
353.65	287.58
354.032	289.16
354.414	276.28
354.797	301.81
355.179	313.34
355.562	320.8
355.944	308.37
356.326	315.6
356.709	335.49
357.091	331.19
357.473	327.58
357.855	329.38
358.238	334.13
358.62	318.31
359.002	322.6
359.384	336.39
359.766	322.38
360.148	347.46
360.53	327.8
360.912	329.16
361.294	311.08
361.676	325.54
362.057	326.45
362.439	326.9
362.821	333.23
363.203	311.76
363.584	302.27
363.966	312.66
364.348	329.84
364.729	330.06
365.111	328.93
365.493	307.24
365.874	320.34
366.256	320.34
366.637	323.06
367.019	312.21
367.4	291.19
367.781	292.1
368.163	303.85
368.544	317.41
368.925	304.3
369.306	308.37
369.688	292.32
370.069	303.85
370.45	311.08
370.831	310.18
371.212	303.85
371.593	315.37
371.974	311.31
372.355	284.64
372.736	309.72
373.117	296.84
373.498	305.2
373.879	324.64
374.26	318.08
374.641	302.94
375.021	296.62
375.402	303.85
375.783	319.89
376.163	314.47
376.544	311.31
376.925	325.09
377.305	324.19
377.686	325.99
378.066	334.36
378.447	324.19
378.827	322.38
379.208	329.84
379.588	342.27
379.968	337.07
380.349	323.51
380.729	318.54
381.109	309.05
381.489	324.19
381.87	304.07
382.25	345.43
382.63	334.13
383.01	327.8
383.39	353.11
383.77	332.55
384.15	350.63
384.53	335.71
384.91	328.93
385.29	339.33
385.67	360.12
386.049	333
386.429	332.55
386.809	349.5
387.189	360.34
387.568	341.36
387.948	341.36
388.328	344.75
388.707	347.24
389.087	369.61
389.466	339.55
389.846	349.27
390.225	363.51
390.605	358.76
390.984	358.99
391.363	369.61
391.743	360.8
392.122	361.02
392.501	354.24
392.881	380.46
393.26	380.23
393.639	383.39
394.018	395.6
394.397	380.68
394.776	396.5
395.155	383.62
395.534	382.26
395.913	365.99
396.292	376.16
396.671	381.36
397.05	384.75
397.429	394.02
397.808	410.29
398.186	385.88
398.565	381.36
398.944	388.59
399.323	406.67
399.701	397.63
400.08	397.18
400.458	408.48
400.837	414.58
401.215	406.67
401.594	402.6
401.972	407.57
402.351	408.48
402.729	427.23
403.107	430.85
403.486	439.21
403.864	444.64
404.242	423.84
404.62	439.66
404.999	432.21
405.377	418.42
405.755	432.43
406.133	431.3
406.511	438.76
406.889	453.45
407.267	456.61
407.645	462.49
408.023	465.65
408.401	467.91
408.779	450.28
409.156	465.88
409.534	489.61
409.912	472.88
410.29	488.48
410.667	497.29
411.045	502.03
411.422	505.65
411.8	495.48
412.178	525.54
412.555	533.22
412.933	543.84
413.31	541.81
413.687	549.27
414.065	563.28
414.442	562.37
414.819	570.51
415.197	573.9
415.574	571.41
415.951	593.33
416.328	613.9
416.705	579.55
417.082	596.72
417.46	605.08
417.837	638.3
418.214	625.2
418.591	625.2
418.967	648.7
419.344	642.6
419.721	645.53
420.098	658.64
420.475	667.68
420.852	666.78
421.228	675.82
421.605	711.07
421.982	690.96
422.358	697.96
422.735	723.95
423.111	706.1
423.488	738.41
423.864	711.52
424.241	749.26
424.617	744.74
424.994	757.62
425.37	789.48
425.746	773.67
426.123	781.58
426.499	781.58
426.875	802.59
427.251	812.76
427.627	836.94
428.003	835.81
428.379	810.95
428.756	841.91
429.132	866.09
429.507	864.74
429.883	867.45
430.259	884.85
430.635	907.67
431.011	925.07
431.387	931.4
431.763	935.47
432.138	933.66
432.514	953.1
432.89	981.34
433.265	982.7
433.641	998.52
434.016	1007.11
434.392	1030.61
434.767	1031.74
435.143	1060.44
435.518	1069.93
435.894	1086.88
436.269	1070.16
436.644	1097.95
437.02	1111.06
437.395	1122.36
437.77	1159.87
438.145	1142.47
438.52	1155.12
438.895	1196.03
439.271	1175.92
439.646	1207.33
440.021	1185.86
440.395	1244.39
440.77	1215.91
441.145	1224.28
441.52	1245.07
441.895	1254.56
442.27	1258.4
442.645	1249.36
443.019	1292.07
443.394	1287.78
443.769	1285.52
444.143	1281.9
444.518	1332.75
444.892	1307.21
445.267	1326.42
445.641	1327.32
446.016	1358.28
446.39	1357.61
446.764	1375.23
447.139	1330.26
447.513	1375.46
447.887	1371.62
448.262	1378.4
448.636	1396.02
449.01	1409.81
449.384	1422.91
449.758	1413.2
450.132	1431.28
450.506	1459.75
450.88	1438.96
451.254	1415.23
451.628	1451.39
452.002	1491.61
452.376	1480.99
452.75	1501.78
453.123	1483.03
453.497	1528.45
453.871	1526.41
454.244	1524.15
454.618	1545.85
454.992	1564.38
455.365	1564.83
455.739	1605.73
456.112	1611.84
456.486	1600.31
456.859	1626.53
457.232	1642.8
457.606	1671.27
457.979	1668.78
458.352	1686.18
458.725	1676.69
459.099	1720.31
459.472	1723.25
459.845	1727.77
460.218	1735
460.591	1764.83
460.964	1757.6
461.337	1772.28
461.71	1821.1
462.083	1822.23
462.456	1845.95
462.829	1854.77
463.201	1874.88
463.574	1881.21
463.947	1921.21
464.32	1924.14
464.692	1921.66
465.065	1936.35
465.438	1981.32
465.81	2006.85
466.183	2024.25
466.555	2028.55
466.928	2056.12
467.3	2051.15
467.672	2073.29
468.045	2137.92
468.417	2114.2
468.789	2110.81
469.161	2135.66
469.534	2182.44
469.906	2219.5
470.278	2244.59
470.65	2219.28
471.022	2234.87
471.394	2293.17
471.766	2320.52
472.138	2297.92
472.51	2381.53
472.882	2368.2
473.253	2414.75
473.625	2427.41
473.997	2463.57
474.369	2459.95
474.74	2506.05
475.112	2499.95
475.484	2564.81
475.855	2586.73
476.227	2618.82
476.598	2669.66
476.97	2655.88
477.341	2710.11
477.713	2775.65
478.084	2759.15
478.455	2847.06
478.827	2807.06
479.198	2918.92
479.569	2887.06
479.94	2977.68
480.311	3029.43
480.682	3074.62
481.053	3032.14
481.424	3086.37
481.795	3148.74
482.166	3169.31
482.537	3194.17
482.908	3247.05
483.279	3274.84
483.65	3305.8
484.021	3389.19
484.391	3396.2
484.762	3398
485.133	3419.7
485.503	3456.31
485.874	3503.09
486.244	3557.77
486.615	3597.32
486.985	3622.86
487.356	3646.81
487.726	3687.49
488.097	3694.27
488.467	3768.84
488.837	3819.24
489.207	3825.34
489.578	3887.03
489.948	3895.17
490.318	3936.97
490.688	3979.01
491.058	3983.98
491.428	4035.95
491.798	4060.59
492.168	4101.49
492.538	4125.44
492.908	4148.27
493.278	4166.12
493.648	4189.4
494.017	4283.18
494.387	4267.36
494.757	4301.03
495.126	4329.96
495.496	4338.09
495.866	4334.25
496.235	4409.95
496.605	4442.5
496.974	4475.72
497.344	4466
497.713	4466.22
498.082	4480.46
498.452	4532.44
498.821	4544.41
499.19	4544.87
499.559	4585.32
499.928	4628.03
500.298	4630.97
500.667	4670.74
501.036	4633.68
501.405	4704.18
501.774	4635.26
502.143	4716.16
502.512	4699.66
502.88	4735.37
503.249	4740.57
503.618	4784.86
503.987	4829.15
504.356	4801.81
504.724	4865.54
505.093	4829.38
505.462	4819.89
505.83	4907.79
506.199	4937.17
506.567	4897.17
506.936	4915.7
507.304	4970.62
507.672	4960.45
508.041	4998.41
508.409	5033.89
508.777	5047.23
509.145	5082.25
509.514	5077.51
509.882	5073.21
510.25	5074.57
510.618	5056.72
510.986	5155.92
511.354	5104.63
511.722	5114.34
512.09	5230.05
512.458	5152.76
512.826	5215.58
513.193	5211.97
513.561	5172.87
513.929	5242.7
514.297	5251.74
514.664	5303.49
515.032	5264.4
515.4	5354.56
515.767	5312.08
516.135	5345.52
516.502	5308.46
516.869	5343.26
517.237	5346.65
517.604	5317.28
517.972	5385.97
518.339	5441.34
518.706	5367.67
519.073	5411.06
519.44	5443.83
519.808	5493.54
520.175	5452.19
520.542	5559.53
520.909	5548.46
521.276	5551.17
521.643	5545.07
522.009	5591.84
522.376	5621.22
522.743	5617.15
523.11	5643.82
523.477	5663.03
523.843	5681.33
524.21	5691.05
524.577	5740.99
524.943	5730.15
525.31	5702.35
525.676	5763.37
526.043	5804.04
526.409	5809.01
526.776	5844.72
527.142	5848.33
527.508	5896.7
527.874	5938.73
528.241	5950.25
528.607	5936.69
528.973	5988.9
529.339	5995.9
529.705	6011.27
530.071	5966.98
530.437	6071.83
530.803	6060.76
531.169	6108.44
531.535	6084.26
531.901	6093.07
532.267	6101.44
532.632	6191.83
532.998	6135.56
533.364	6247.65
533.73	6230.25
534.095	6215.33
534.461	6229.57
534.826	6211.94
535.192	6295.1
535.557	6282.45
535.923	6305.5
536.288	6325.16
536.653	6284.93
537.019	6304.59
537.384	6331.26
537.749	6350.69
538.114	6334.2
538.479	6322.67
538.845	6394.76
539.21	6347.53
539.575	6445.38
539.94	6405.16
540.305	6427.3
540.67	6451.48
541.034	6489
541.399	6477.47
541.764	6447.42
542.129	6510.92
542.494	6517.92
542.858	6562.89
543.223	6501.43
543.587	6548.2
543.952	6607.41
544.316	6524.48
544.681	6549.33
545.045	6664.81
545.41	6645.6
545.774	6562.44
546.138	6615.77
546.503	6674.75
546.867	6646.51
547.231	6700.29
547.595	6682.66
547.959	6686.05
548.324	6695.77
548.688	6676.34
549.052	6679.05
549.416	6701.87
549.779	6710.46
550.143	6723.34
550.507	6787.07
550.871	6801.08
551.235	6733.96
551.599	6785.03
551.962	6834.52
552.326	6805.82
552.689	6844.01
553.053	6801.76
553.417	6839.72
553.78	6860.06
554.143	6839.04
554.507	6884.24
554.87	6917.46
555.234	6938.25
555.597	6905.93
555.96	6914.97
556.323	6949.1
556.686	6960.85
557.05	6951.13
557.413	7031.13
557.776	7017.12
558.139	7049.43
558.502	7013.5
558.865	7067.29
559.228	7070.9
559.59	7124.69
559.953	7135.31
560.316	7167.4
560.679	7163.1
561.041	7190.22
561.404	7284
561.767	7272.03
562.129	7246.26
562.492	7297.34
562.854	7284
563.217	7241.74
563.579	7335.53
563.941	7352.93
564.304	7381.63
564.666	7428.41
565.028	7357.67
565.39	7462.3
565.753	7497.56
566.115	7490.78
566.477	7542.08
566.839	7542.53
567.201	7624.56
567.563	7621.17
567.925	7658
568.287	7687.83
568.648	7669.98
569.01	7645.35
569.372	7753.14
569.734	7741.39
570.095	7799.7
570.457	7838.34
570.819	7811.67
571.18	7733.26
571.542	7883.08
571.903	7872.24
572.265	7924.66
572.626	7998.33
572.987	7994.27
573.349	7964.89
573.71	8009.86
574.071	8008.28
574.432	8081.04
574.794	8168.27
575.155	8097.99
575.516	8126.47
575.877	8152.91
576.238	8269.29
576.599	8265.22
576.96	8306.35
577.32	8348.61
577.681	8359.23
578.042	8405.1
578.403	8422.73
578.763	8465.67
579.124	8502.05
579.485	8546.8
579.845	8587.47
580.206	8646.91
580.566	8665.21
580.927	8643.52
581.287	8777.75
581.648	8765.32
582.008	8849.16
582.368	8844.19
582.728	8971.42
583.089	9023.84
583.449	8956.5
583.809	9056.61
584.169	9151.52
584.529	9141.58
584.889	9233.56
585.249	9143.62
585.609	9205.31
585.969	9298.64
586.329	9360.78
586.688	9453.66
587.048	9518.29
587.408	9554.45
587.768	9624.96
588.127	9592.42
588.487	9668.57
588.846	9787.89
589.206	9804.84
589.565	9892.52
589.925	10021.56
590.284	10017.94
590.643	10066.3
591.003	10134.78
591.362	10261.33
591.721	10229.24
592.08	10326.41
592.44	10401.89
592.799	10443.47
593.158	10516.69
593.517	10485.73
593.876	10671.48
594.235	10658.15
594.593	10742.22
594.952	10747.87
595.311	10783.8
595.67	10887.98
596.029	11003.68
596.387	11020.63
596.746	11107.41
597.104	11149.66
597.463	11128.2
597.822	11315.99
598.18	11284.58
598.538	11312.6
598.897	11388.08
599.255	11369.55
599.613	11558.47
599.972	11476.44
600.33	11577.68
600.688	11558.69
601.046	11663.55
601.404	11722.08
601.762	11737.9
602.12	11718.69
602.478	11854.05
602.836	11868.29
603.194	11851.57
603.552	11997.33
603.91	12022.41
604.268	11986.7
604.625	12018.57
604.983	12116.87
605.341	12078.91
605.698	12133.82
606.056	12230.54
606.413	12249.75
606.771	12279.8
607.128	12302.18
607.485	12253.82
607.843	12327.71
608.2	12468.73
608.557	12484.09
608.914	12446.81
609.272	12536.07
609.629	12560.47
609.986	12633.92
610.343	12587.82
610.7	12652.68
611.057	12668.72
611.414	12737.87
611.771	12704.43
612.127	12772.67
612.484	12835.95
612.841	12771.77
613.198	12791.66
613.554	12868.94
613.911	12926.57
614.267	12922.73
614.624	12965.21
614.98	12964.53
615.337	13053.34
615.693	13061.93
616.05	13137.18
616.406	13135.37
616.762	13045.43
617.118	13049.73
617.475	13140.57
617.831	13221.02
618.187	13166.11
618.543	13202.94
618.899	13252.21
619.255	13209.72
619.611	13270.51
619.967	13296.5
620.323	13391.87
620.678	13333.56
621.034	13258.99
621.39	13346.67
621.746	13361.81
622.101	13461.47
622.457	13414.01
622.812	13428.02
623.168	13417.18
623.523	13457.85
623.879	13491.3
624.234	13421.02
624.589	13401.13
624.945	13455.37
625.3	13437.74
625.655	13447.23
626.01	13411.98
626.365	13461.92
626.72	13486.78
627.075	13487.91
627.43	13492.43
627.785	13369.27
628.14	13484.52
628.495	13533.56
628.85	13424.41
629.205	13390.96
629.559	13482.03
629.914	13404.97
630.269	13387.8
630.623	13386.67
630.978	13396.39
631.332	13398.64
631.687	13393.67
632.041	13349.61
632.396	13439.1
632.75	13380.34
633.104	13423.95
633.459	13274.81
633.813	13382.83
634.167	13339.21
634.521	13335.6
634.875	13404.97
635.229	13376.72
635.583	13329.49
635.937	13331.08
636.291	13261.7
636.645	13298.31
636.999	13253.11
637.352	13354.8
637.706	13241.36
638.06	13218.76
638.413	13234.13
638.767	13189.38
639.121	13169.05
639.474	13184.64
639.828	13136.73
640.181	13080.69
640.534	13182.83
640.888	13142.61
641.241	13078.43
641.594	13128.14
641.947	13087.92
642.301	13143.06
642.654	13167.69
643.007	13188.03
643.36	13061.7
643.713	13105.55
644.066	13166.11
644.419	13056.06
644.771	12993.01
645.124	12885.66
645.477	12852.22
645.83	12751.88
646.182	12755.05
646.535	12750.98
646.888	12679.12
647.24	12641.83
647.593	12724.54
647.945	12681.6
648.298	12608.61
648.65	12658.33
649.002	12620.36
649.355	12741.04
649.707	12738.78
650.059	12787.14
650.411	12884.53
650.763	12901.71
651.115	13030.74
651.467	13054.02
651.819	13028.71
652.171	12946.91
652.523	12972.89
652.875	12989.84
653.227	12884.76
653.578	12948.71
653.93	12987.81
654.282	12955.27
654.633	12916.4
654.985	12941.48
655.337	12956.85
655.688	13004.3
656.039	13062.16
656.391	12959.11
656.742	12936.96
657.094	13001.82
657.445	13118.88
657.796	13001.82
658.147	13013.34
658.498	12987.58
658.849	12988.26
659.2	13034.36
659.551	12958.43
659.902	13018.77
660.253	12957.75
660.604	13005.43
660.955	12942.84
661.306	13035.04
661.656	13030.07
662.007	13013.57
662.358	13027.36
662.708	13099.22
663.059	13035.49
663.409	13066.68
663.76	13107.13
664.11	13087.24
664.461	13075.04
664.811	13080.69
665.161	13043.17
665.511	13043.17
665.862	13068.94
666.212	13125.88
666.562	13089.5
666.912	13110.97
667.262	13053.57
667.612	13067.58
667.962	13020.12
668.312	13085.88
668.662	13104.87
669.011	13140.57
669.361	13102.38
669.711	13076.17
670.06	13079.56
670.41	12987.81
670.76	13100.12
671.109	13028.49
671.459	13046.79
671.808	13058.99
672.157	13033.23
672.507	12971.31
672.856	12977.64
673.205	13013.34
673.554	13028.03
673.904	12953.01
674.253	13077.52
674.602	13013.57
674.951	12799.34
675.3	12743.07
675.649	12873.46
675.998	13026.45
676.346	12887.25
676.695	12910.3
677.044	12922.05
677.393	12895.38
677.741	12815.61
678.09	12781.49
678.438	12769.51
678.787	12797.53
679.135	12789.17
679.484	12744.65
679.832	12768.83
680.181	12694.48
680.529	12726.12
680.877	12698.1
681.225	12597.54
681.573	12781.94
681.922	12630.3
682.27	12597.76
682.618	12586.01
682.966	12560.7
683.314	12554.83
683.661	12555.96
684.009	12563.41
684.357	12423.98
684.705	12454.49
685.053	12416.98
685.4	12444.77
685.748	12471.21
686.095	12368.84
686.443	12343.76
686.79	12407.03
687.138	12397.99
687.485	12307.37
687.832	12254.04
688.18	12296.75
688.527	12152.35
688.874	12165
689.221	12149.19
689.568	12090.2
689.915	12114.84
690.262	11971.11
690.609	12022.41
690.956	11973.15
691.303	11925.01
691.65	11853.37
691.997	11840.04
692.344	11727.5
692.69	11731.8
693.037	11738.58
693.383	11645.02
693.73	11685.92
694.077	11585.59
694.423	11575.42
694.769	11587.85
695.116	11478.92
695.462	11423.78
695.808	11434.85
696.155	11493.16
696.501	11314.18
696.847	11261.98
697.193	11224.01
697.539	11266.27
697.885	11139.27
698.231	11129.78
698.577	11108.76
698.923	11098.14
699.269	11039.38
699.614	10946.51
699.96	10970.69
700.306	10942.21
700.651	10901.31
700.997	10790.58
701.342	10850.24
701.688	10782.44
702.033	10791.26
702.379	10776.79
702.724	10635.78
703.069	10616.12
703.415	10576.8
703.76	10598.94
704.105	10509.46
704.45	10569.57
704.795	10434.43
705.14	10480.76
705.485	10391.94
705.83	10329.12
706.175	10371.61
706.52	10338.84
706.865	10287.31
707.209	10246.64
707.554	10141.33
707.899	10200.99
708.243	10083.03
708.588	10079.64
708.932	10102.23
709.277	10044.61
709.621	10080.99
709.966	9994.21
710.31	9988.79
710.654	9909.25
710.998	9930.94
711.342	9958.96
711.687	9898.62
712.031	9797.38
712.375	9779.76
712.719	9865.86
713.063	9851.17
713.407	9833.09
713.75	9776.37
714.094	9738.85
714.438	9726.65
714.782	9759.19
715.125	9693.43
715.469	9646.88
715.812	9636.48
716.156	9577.05
716.499	9610.5
716.843	9598.52
717.186	9560.55
717.53	9574.56
717.873	9542.7
718.216	9489.14
718.559	9462.48
718.902	9458.41
719.246	9532.31
719.589	9442.36
719.932	9418.41
720.275	9470.39
720.617	9392.87
720.96	9347.68
721.303	9375.25
721.646	9328.47
721.989	9331.63
722.331	9424.51
722.674	9381.35
723.016	9335.7
723.359	9300
723.701	9414.34
724.044	9322.59
724.386	9236.95
724.729	9329.83
725.071	9181.13
725.413	9290.96
725.755	9248.25
726.097	9219.77
726.439	9151.3
726.782	9196.95
727.124	9243.5
727.465	9216.83
727.807	9296.15
728.149	9147.68
728.491	9174.8
728.833	9178.87
729.175	9255.25
729.516	9204.18
729.858	9120.34
730.199	9180
730.541	9186.78
730.882	9179.32
731.224	9226.1
731.565	9189.94
731.906	9168.02
732.248	9170.96
732.589	9111.75
732.93	9200.56
733.271	9173.9
733.612	9153.56
733.953	9216.61
734.294	9140.9
734.635	9109.72
734.976	9198.98
735.317	9142.71
735.658	9154.24
735.999	9170.51
736.339	9157.63
736.68	9135.25
737.021	9244.18
737.361	9140
737.702	9213.67
738.042	9130.51
738.383	9088.93
738.723	9173.67
739.063	9226.1
739.404	9217.96
739.744	9173.22
740.084	9212.54
740.424	9300.67
740.764	9253.9
741.104	9302.71
741.444	9290.05
741.784	9294.8
742.124	9295.25
742.464	9301.13
742.804	9343.61
743.143	9321.24
743.483	9364.85
743.823	9406.43
744.162	9420.9
744.502	9489.6
744.841	9463.83
745.181	9532.76
745.52	9519.2
745.86	9653.21
746.199	9684.17
746.538	9663.83
746.877	9718.52
747.216	9757.16
747.556	9798.29
747.895	9823.15
748.234	9849.13
748.573	9866.31
748.911	9982.46
749.25	10095.91
749.589	10065.17
749.928	10155.57
750.267	10242.57
750.605	10237.37
750.944	10360.08
751.283	10379.06
751.621	10557.82
751.96	10600.07
752.298	10630.36
752.636	10771.6
752.975	10905.38
753.313	11026.73
753.651	11046.16
753.989	11161.42
754.327	11214.52
754.666	11383.1
755.004	11495.19
755.342	11570.22
755.679	11725.24
756.017	11793.49
756.355	12035.29
756.693	12052.69
757.031	12223.08
757.368	12284.1
757.706	12493.13
758.044	12616.74
758.381	12699.23
758.719	12798.89
759.056	12950.3
759.394	13057.41
759.731	13221.47
760.068	13366.1
760.405	13425.54
760.743	13617.85
761.08	13768.58
761.417	13870.27
761.754	14017.61
762.091	14235.01
762.428	14393.19
