Data from hue_90_FLMS001491_11.txt Node
Date: Mon Feb 06 15:24:44 GMT 2017
User: dcchb
Spectrometer: FLMS00149
Trigger mode: 0
Integration Time (sec): 2.000000E-2
Scans to average: 10
Electric dark correction enabled: true
Nonlinearity correction enabled: false
Boxcar width: 0
XAxis mode: Wavelengths
Number of Pixels in Spectrum: 2048
>>>>>Begin Spectral Data<<<<<
341.393	-15.23
341.776	-15.23
342.16	-15.23
342.543	-59.74
342.927	-55.22
343.31	-79.4
343.693	-65.85
344.077	-73.98
344.46	-51.83
344.843	-57.94
345.226	-48.67
345.61	-34.89
345.993	-4.15
346.376	-2.12
346.759	-10.48
347.142	31.33
347.525	45.56
347.908	60.03
348.291	73.81
348.674	94.83
349.057	123.75
349.44	122.17
349.823	160.59
350.206	173.92
350.588	189.51
350.971	195.84
351.354	238.55
351.737	224.54
352.119	237.88
352.502	255.95
352.884	281.04
353.267	279.91
353.65	272.45
354.032	280.36
354.414	307.7
354.797	323.52
355.179	327.14
355.562	315.16
355.944	319.68
356.326	308.61
356.709	340.25
357.091	326.23
357.473	333.01
357.855	309.96
358.238	351.32
358.62	339.79
359.002	335.73
359.384	328.49
359.766	347.48
360.148	329.17
360.53	350.19
360.912	336.86
361.294	333.92
361.676	338.44
362.057	333.69
362.439	333.69
362.821	321.49
363.203	312.22
363.584	335.5
363.966	319.23
364.348	329.17
364.729	311.32
365.111	302.96
365.493	314.26
365.874	322.17
366.256	309.51
366.637	295.73
367.019	321.71
367.4	309.96
367.781	299.79
368.163	305.9
368.544	307.93
368.925	310.42
369.306	321.49
369.688	318.78
370.069	324.43
370.45	321.26
370.831	307.48
371.212	313.81
371.593	322.39
371.974	334.82
372.355	311.32
372.736	315.61
373.117	301.6
373.498	310.42
373.879	316.29
374.26	305.9
374.641	310.64
375.021	318.1
375.402	334.82
375.783	328.04
376.163	309.06
376.544	340.7
376.925	311.55
377.305	331.43
377.686	323.3
378.066	330.75
378.447	319.45
378.827	330.98
379.208	337.99
379.588	310.64
379.968	342.73
380.349	358.1
380.729	346.35
381.109	319.91
381.489	341.83
381.87	354.26
382.25	344.09
382.63	339.57
383.01	330.98
383.39	346.57
383.77	314.48
384.15	321.94
384.53	347.02
384.91	364.65
385.29	328.27
385.67	337.76
386.049	338.66
386.429	340.92
386.809	353.13
387.189	355.61
387.568	359.23
387.948	334.6
388.328	359.23
388.707	356.74
389.087	332.11
389.466	336.4
389.846	364.2
390.225	349.51
390.605	352.67
390.984	361.49
391.363	349.06
391.743	369.85
392.122	370.75
392.501	377.31
392.881	363.75
393.26	393.13
393.639	360.58
394.018	388.83
394.397	362.17
394.776	370.98
395.155	370.53
395.534	387.02
395.913	401.49
396.292	381.83
396.671	396.29
397.05	387.48
397.429	373.46
397.808	376.63
398.186	397.42
398.565	401.49
398.944	373.24
399.323	389.51
399.701	383.63
400.08	383.18
400.458	377.98
400.837	407.81
401.215	403.75
401.594	391.09
401.972	407.59
402.351	399.68
402.729	386.57
403.107	389.51
403.486	396.51
403.864	391.77
404.242	393.35
404.62	416.18
404.999	423.63
405.377	396.29
405.755	434.48
406.133	415.5
406.511	404.88
406.889	414.82
407.267	438.55
407.645	435.38
408.023	422.73
408.401	418.44
408.779	414.59
409.156	429.51
409.534	442.62
409.912	444.2
410.29	436.29
410.667	440.13
411.045	455.04
411.422	445.1
411.8	445.1
412.178	460.69
412.555	449.39
412.933	470.64
413.31	460.69
413.687	469.28
414.065	500.92
414.442	467.25
414.819	486.23
415.197	468.38
415.574	467.25
415.951	489.62
416.328	502.73
416.705	502.27
417.082	485.33
417.46	489.39
417.837	462.95
418.214	508.6
418.591	504.76
418.967	489.62
419.344	501.6
419.721	514.93
420.098	516.96
420.475	500.02
420.852	510.41
421.228	522.16
421.605	529.62
421.982	543.18
422.358	535.04
422.735	533.01
423.111	523.52
423.488	534.59
423.864	518.32
424.241	520.35
424.617	528.26
424.994	548.83
425.37	567.36
425.746	550.18
426.123	565.32
426.499	553.8
426.875	557.64
427.251	571.2
427.627	566.91
428.003	580.01
428.379	591.76
428.756	590.86
429.132	589.28
429.507	593.57
429.883	594.02
430.259	617.07
430.635	618.43
431.011	600.8
431.387	639.22
431.763	626.79
432.138	638.77
432.514	637.64
432.89	637.64
433.265	656.4
433.641	665.66
434.016	661.82
434.392	672.21
434.767	692.78
435.143	678.99
435.518	649.39
435.894	668.37
436.269	689.84
436.644	702.5
437.02	700.01
437.395	721.03
437.77	718.09
438.145	704.53
438.52	694.81
438.895	725.77
439.271	709.05
439.646	734.36
440.021	745.88
440.395	718.54
440.77	741.36
441.145	769.16
441.52	766
441.895	756.05
442.27	788.37
442.645	787.69
443.019	808.48
443.394	790.85
443.769	758.99
444.143	783.62
444.518	779.56
444.892	791.98
445.267	804.41
445.641	807.58
446.016	812.78
446.39	825.66
446.764	833.34
447.139	816.62
447.513	791.76
447.887	835.37
448.262	832.21
448.636	860.91
449.01	815.94
449.384	832.21
449.758	833.34
450.132	876.95
450.506	851.64
450.88	879.89
451.254	878.54
451.628	922.6
452.002	912.66
452.376	921.47
452.75	906.11
453.123	929.61
453.497	907.91
453.871	951.75
454.244	942.72
454.618	954.01
454.992	966.67
455.365	1005.76
455.739	992.88
456.112	1010.28
456.486	1020.68
456.859	1032.2
457.232	1020.45
457.606	1034.01
457.979	1027.68
458.352	1075.14
458.725	1077.4
459.099	1071.98
459.472	1077.18
459.845	1102.71
460.218	1125.54
460.591	1135.7
460.964	1156.72
461.337	1140.9
461.71	1163.73
462.083	1197.17
462.456	1184.97
462.829	1204.86
463.201	1228.36
463.574	1250.28
463.947	1247.34
464.32	1267
464.692	1269.03
465.065	1297.06
465.438	1299.09
465.81	1334.34
466.183	1347.22
466.555	1358.07
466.928	1371.63
467.3	1394.68
467.672	1409.37
468.045	1467
468.417	1452.76
468.789	1485.3
469.161	1489.82
469.534	1571.4
469.906	1560.1
470.278	1580.21
470.65	1588.35
471.022	1661.34
471.394	1690.72
471.766	1711.28
472.138	1718.29
472.51	1790.83
472.882	1803.94
473.253	1809.59
473.625	1857.04
473.997	1942.69
474.369	1928
474.74	1924.16
475.112	2007.77
475.484	2077.6
475.855	2078.73
476.227	2137.71
476.598	2221.1
476.97	2251.61
477.341	2322.79
477.713	2376.12
478.084	2411.83
478.455	2491.6
478.827	2549.23
479.198	2618.6
479.569	2660.86
479.94	2765.94
480.311	2820.63
480.682	2862.89
481.053	2986.5
481.424	3072.83
481.795	3090.23
482.166	3252.71
482.537	3310.11
482.908	3412.03
483.279	3475.53
483.65	3561.4
484.021	3678.91
484.391	3762.3
484.762	3807.05
485.133	3933.6
485.503	4023.54
485.874	4182.4
486.244	4228.73
486.615	4344.43
486.985	4412
487.356	4621.94
487.726	4688.38
488.097	4825.33
488.467	4859.45
488.837	5008.6
489.207	5210.17
489.578	5283.84
489.948	5332.66
490.318	5531.97
490.688	5578.07
491.058	5776.94
491.428	5861.46
491.798	5963.6
492.168	6088.12
492.538	6276.13
492.908	6314.55
493.278	6483.13
493.648	6509.12
494.017	6703.69
494.387	6812.84
494.757	6908.66
495.126	7038.37
495.496	7049.22
495.866	7259.84
496.235	7368.54
496.605	7490.11
496.974	7519.49
497.344	7688.98
497.713	7780.95
498.082	7913.38
498.452	7997.45
498.821	8111.79
499.19	8152.47
499.559	8309.3
499.928	8397.43
500.298	8447.38
500.667	8516.98
501.036	8667.48
501.405	8769.85
501.774	8769.63
502.143	8931.66
502.512	8985.67
502.88	9070.41
503.249	9160.58
503.618	9196.96
503.987	9286.9
504.356	9358.09
504.724	9453
505.093	9538.42
505.462	9547.23
505.83	9635.14
506.199	9787
506.567	9871.07
506.936	9832.88
507.304	9992.42
507.672	10043.94
508.041	10091.4
508.409	10200.55
508.777	10258.85
509.145	10296.82
509.514	10353.77
509.882	10390.6
510.25	10374.11
510.618	10475.8
510.986	10557.15
511.354	10650.71
511.722	10710.82
512.09	10808.67
512.458	10777.94
512.826	10875.34
513.193	10833.3
513.561	10875.79
513.929	11023.81
514.297	11010.25
514.664	11122.56
515.032	11104.93
515.4	11147.87
515.767	11187.64
516.135	11279.62
516.502	11209.79
516.869	11318.26
517.237	11392.84
517.604	11368.2
517.972	11496.79
518.339	11526.39
518.706	11490.23
519.073	11496.79
519.44	11523.68
519.808	11699.04
520.175	11646.84
520.542	11693.85
520.909	11728.87
521.276	11689.78
521.643	11828.98
522.009	11851.58
522.376	11880.05
522.743	11954.4
523.11	11982.2
523.477	11968.19
523.843	11986.49
524.21	12171.12
524.577	12137.45
524.943	12171.35
525.31	12164.79
525.676	12291.34
526.043	12321.4
526.409	12361.4
526.776	12422.19
527.142	12271.23
527.508	12320.95
527.874	12389.65
528.241	12451.11
528.607	12396.65
528.973	12460.6
529.339	12424
529.705	12530.66
530.071	12466.71
530.437	12576.76
530.803	12517.78
531.169	12583.54
531.535	12446.59
531.901	12508.51
532.267	12524.78
532.632	12560.26
532.998	12484.56
533.364	12510.32
533.73	12548.06
534.095	12549.19
534.461	12569.53
534.826	12552.58
535.192	12581.73
535.557	12536.76
535.923	12496.31
536.288	12518.46
536.653	12473.03
537.019	12450.66
537.384	12518.46
537.749	12507.83
538.114	12418.8
538.479	12375.64
538.845	12399.36
539.21	12321.17
539.575	12342.64
539.94	12365.47
540.305	12356.65
540.67	12305.81
541.034	12296.09
541.399	12290.67
541.764	12238.69
542.129	12229.2
542.494	12169.09
542.858	12274.85
543.223	12132.93
543.587	12167.05
543.952	12144
544.316	12099.48
544.681	11977.91
545.045	12122.99
545.41	12046.6
545.774	12052.48
546.138	12004.35
546.503	11989.66
546.867	11908.75
547.231	12016.77
547.595	11938.13
547.959	11961.18
548.324	11885.03
548.688	11867.4
549.052	11861.52
549.416	11748.76
549.779	11809.55
550.143	11717.12
550.507	11741.98
550.871	11696.33
551.235	11713.51
551.599	11747.18
551.962	11707.86
552.326	11653.85
552.689	11732.71
553.053	11547.86
553.417	11565.26
553.78	11735.2
554.143	11605.26
554.507	11593.73
554.87	11515.09
555.234	11628.31
555.597	11545.37
555.96	11482.55
556.323	11532.04
556.686	11472.38
557.05	11479.61
557.413	11536.11
557.776	11457.69
558.139	11530.69
558.502	11455.43
558.865	11475.09
559.228	11549.44
559.59	11536.56
559.953	11482.78
560.316	11620.85
560.679	11577.01
561.041	11502.44
561.404	11501.99
561.767	11593.06
562.129	11521.87
562.492	11570.23
562.854	11503.79
563.217	11529.1
563.579	11559.39
563.941	11574.75
564.304	11603.68
564.666	11630.57
565.028	11601.19
565.39	11652.49
565.753	11657.24
566.115	11647.97
566.477	11651.81
566.839	11735.88
567.201	11817.68
567.563	11697.46
567.925	11786.72
568.287	11721.64
568.648	11735.43
569.01	11777.01
569.372	11873.05
569.734	11708.31
570.095	11853.61
570.457	11800.73
570.819	11836.21
571.18	11791.7
571.542	11850
571.903	11778.14
572.265	11867.17
572.626	11840.73
572.987	11925.25
573.349	11884.35
573.71	11954.86
574.071	11990.79
574.432	11961.86
574.794	12064.23
575.155	11971.8
575.516	12002.76
575.877	11954.63
576.238	11942.43
576.599	11934.52
576.96	12055.42
577.32	12011.8
577.681	12130.22
578.042	12019.71
578.403	12038.92
578.763	12050.22
579.124	12024.46
579.485	12043.44
579.845	12006.61
580.206	12132.48
580.566	12031.46
580.927	12008.87
581.287	12008.64
581.648	12056.77
582.008	12075.98
582.368	11978.13
582.728	12109.43
583.089	12064.23
583.449	12040.95
583.809	11968.64
584.169	12036.21
584.529	12004.12
584.889	12041.63
585.249	12022.42
585.609	12010.9
585.969	11989.2
586.329	11995.98
586.688	12005.93
587.048	11904.46
587.408	11941.3
587.768	11993.5
588.127	11974.74
588.487	11893.16
588.846	11988.75
589.206	11888.42
589.565	11867.17
589.925	11924.8
590.284	11866.04
590.643	11916.66
591.003	11872.15
591.362	11904.24
591.721	11915.31
592.08	11942.2
592.44	11946.95
592.799	11879.6
593.158	11890.45
593.517	11913.73
593.876	11945.82
594.235	11847.97
594.593	11844.12
594.952	11840.73
595.311	11807.06
595.67	11887.29
596.029	11899.94
596.387	11883.22
596.746	11917.12
597.104	11815.65
597.463	11879.6
597.822	11890
598.18	11775.65
598.538	11789.66
598.897	11882.31
599.255	11711.47
599.613	11933.16
599.972	11817.01
600.33	11823.11
600.688	11812.94
601.046	11869.21
601.404	11860.17
601.762	11816.78
602.12	11882.54
602.478	11929.09
602.836	11868.3
603.194	11807.74
603.552	11812.71
603.91	11892.48
604.268	11828.53
604.625	11791.7
604.983	11893.16
605.341	11744.69
605.698	11861.75
606.056	11912.14
606.413	11871.69
606.771	11825.14
607.128	11864.01
607.485	11878.7
607.843	11831.69
608.2	11894.29
608.557	11892.03
608.914	11842.54
609.272	11963.44
609.629	11960.5
609.986	11907.62
610.343	11932.48
610.7	12004.57
611.057	11905.36
611.414	11988.53
611.771	11949.66
612.127	12025.81
612.484	11973.61
612.841	12107.85
613.198	12029.66
613.554	12015.42
613.911	12080.05
614.267	12000.05
614.624	11990.11
614.98	12087.51
615.337	12093.83
615.693	11983.55
616.05	12072.82
616.406	12136.77
616.762	12088.18
617.118	12086.38
617.475	12069.88
617.831	12018.13
618.187	12122.76
618.543	12167.05
618.899	12143.78
619.255	12169.99
619.611	12153.04
619.967	12134.06
620.323	12167.28
620.678	12127.96
621.034	12198.24
621.39	12184.23
621.746	12194.17
622.101	12253.83
622.457	12151.46
622.812	12169.31
623.168	12327.5
623.523	12220.38
623.879	12267.39
624.234	12186.71
624.589	12224.45
624.945	12209.76
625.3	12181.29
625.655	12264.9
626.01	12165.7
626.365	12165.92
626.72	12220.16
627.075	12139.94
627.43	12215.64
627.785	12127.28
628.14	12160.5
628.495	12168.86
628.85	12193.49
629.205	12076.21
629.559	12129.54
629.914	12098.58
630.269	12060.39
630.623	12061.52
630.978	12041.63
631.332	12080.73
631.687	12127.05
632.041	12047.73
632.396	12024.91
632.75	12029.66
633.104	12063.33
633.459	12027.4
633.813	11975.87
634.167	11954.86
634.521	11965.25
634.875	11958.47
635.229	11944.46
635.583	11894.97
635.937	11866.95
636.291	11862.43
636.645	11847.06
636.999	11874.18
637.352	11823.79
637.706	11841.41
638.06	11830.11
638.413	11836.67
638.767	11870.79
639.121	11873.95
639.474	11712.6
639.828	11710.12
640.181	11747.18
640.534	11810.45
640.888	11778.81
641.241	11692.49
641.594	11732.49
641.947	11773.62
642.301	11735.43
642.654	11728.65
643.007	11723
643.36	11644.13
643.713	11647.29
644.066	11643.22
644.419	11575.66
644.771	11484.36
645.124	11484.13
645.477	11478.71
645.83	11341.31
646.182	11338.6
646.535	11285.04
646.888	11321.2
647.24	11268.09
647.593	11255.44
647.945	11181.77
648.298	11219.28
648.65	11162.11
649.002	11154.88
649.355	11212.5
649.707	11271.71
650.059	11261.09
650.411	11428.54
650.763	11445.94
651.115	11536.79
651.467	11515.54
651.819	11523
652.171	11528.88
652.523	11474.64
652.875	11472.61
653.227	11463.79
653.578	11533.4
653.93	11516.9
654.282	11493.62
654.633	11445.72
654.985	11515.54
655.337	11432.61
655.688	11508.99
656.039	11481.65
656.391	11371.14
656.742	11418.15
657.094	11477.13
657.445	11529.33
657.796	11413.85
658.147	11455.43
658.498	11368.88
658.849	11558.93
659.2	11445.26
659.551	11421.76
659.902	11488.65
660.253	11494.53
660.604	11485.94
660.955	11460.4
661.306	11584.24
661.656	11541.31
662.007	11457.69
662.358	11483.91
662.708	11523.68
663.059	11538.59
663.409	11403.46
663.76	11501.08
664.11	11549.44
664.461	11502.89
664.811	11509.67
665.161	11544.02
665.511	11474.19
665.862	11487.97
666.212	11489.33
666.562	11526.39
666.912	11512.61
667.262	11528.2
667.612	11494.08
667.962	11526.84
668.312	11526.39
668.662	11533.85
669.011	11460.63
669.361	11471.48
669.711	11457.24
670.06	11406.17
670.41	11408.88
670.76	11452.72
671.109	11524.13
671.459	11436.9
671.808	11445.49
672.157	11471.7
672.507	11380.86
672.856	11387.19
673.205	11391.48
673.554	11470.35
673.904	11445.04
674.253	11465.6
674.602	11404.14
674.951	11249.79
675.3	11206.17
675.649	11399.62
675.998	11342.44
676.346	11211.82
676.695	11381.54
677.044	11233.74
677.393	11287.98
677.741	11344.48
678.09	11203.46
678.438	11245.27
678.787	11294.08
679.135	11318.49
679.484	11172.95
679.832	11195.1
680.181	11218.6
680.529	11227.64
680.877	11221.99
681.225	11072.17
681.573	11235.78
681.922	11066.74
682.27	11059.74
682.618	11110.13
682.966	11066.74
683.314	11062.22
683.661	11015.67
684.009	10972.06
684.357	10893.19
684.705	10920.53
685.053	10911.49
685.4	10806.41
685.748	10852.96
686.095	10847.31
686.443	10781.78
686.79	10758.73
687.138	10818.61
687.485	10777.48
687.832	10746.3
688.18	10772.06
688.527	10638.05
688.874	10681.67
689.221	10634.21
689.568	10595.57
689.915	10544.04
690.262	10588.11
690.609	10523.03
690.956	10485.29
691.303	10416.82
691.65	10433.31
691.997	10389.7
692.344	10343.37
692.69	10306.08
693.037	10368.46
693.383	10180.21
693.73	10298.85
694.077	10199.2
694.423	10208.23
694.769	10081.68
695.116	10096.6
695.462	10069.03
695.808	10038.07
696.155	10061.8
696.501	10029.93
696.847	9953.1
697.193	9866.32
697.539	9909.03
697.885	9838.75
698.231	9815.48
698.577	9751.98
698.923	9728.02
699.269	9692.09
699.614	9691.64
699.96	9620.68
700.306	9624.29
700.651	9575.71
700.997	9573.45
701.342	9536.84
701.688	9450.29
702.033	9454.58
702.379	9455.26
702.724	9408.48
703.069	9451.87
703.415	9288.94
703.76	9305.43
704.105	9360.8
704.45	9299.11
704.795	9222.05
705.14	9216.17
705.485	9140.47
705.83	9137.08
706.175	9137.08
706.52	9064.99
706.865	9052.78
707.209	9001.94
707.554	8946.8
707.899	8977.31
708.243	8911.09
708.588	8929.62
708.932	8827.48
709.277	8802.17
709.621	8874.26
709.966	8770.53
710.31	8796.75
710.654	8738.22
710.998	8778.89
711.342	8762.17
711.687	8746.13
712.031	8672.91
712.375	8689.18
712.719	8646.47
713.063	8652.34
713.407	8636.98
713.75	8653.25
714.094	8594.49
714.438	8611.44
714.782	8608.05
715.125	8549.97
715.469	8578.22
715.812	8523.98
716.156	8441.73
716.499	8509.75
716.843	8440.37
717.186	8425.68
717.53	8463.42
717.873	8437.21
718.216	8421.84
718.559	8456.87
718.902	8324.89
719.246	8348.85
719.589	8358.79
719.932	8287.38
720.275	8343.42
720.617	8282.86
720.96	8320.37
721.303	8340.49
721.646	8318.34
721.989	8202.86
722.331	8304.78
722.674	8262.52
723.016	8289.19
723.359	8309.75
723.701	8249.42
724.044	8187.95
724.386	8199.93
724.729	8199.25
725.071	8157.67
725.413	8202.19
725.755	8121.51
726.097	8154.96
726.439	8106.59
726.782	8071.34
727.124	8109.53
727.465	8144.79
727.807	8077.89
728.149	8071.12
728.491	8097.33
728.833	8071.79
729.175	8039.25
729.516	8063.43
729.858	8080.15
730.199	8028.86
730.541	8041.29
730.882	8069.31
731.224	8063.88
731.565	8002.87
731.906	8093.71
732.248	8098.23
732.589	8035.41
732.93	8011
733.271	8029.99
733.612	8039.03
733.953	8035.18
734.294	8033.6
734.635	7976.88
734.976	8006.26
735.317	8062.3
735.658	8048.97
735.999	8125.35
736.339	8004.9
736.68	8064.11
737.021	8086.48
737.361	7983.66
737.702	8048.97
738.042	8053.49
738.383	8035.41
738.723	8022.08
739.063	8050.78
739.404	8151.57
739.744	8104.56
740.084	8078.35
740.424	8101.4
740.764	8101.4
741.104	8143.88
741.444	8084
741.784	8045.81
742.124	8152.7
742.464	8179.59
742.804	8138.68
743.143	8102.08
743.483	8289.64
743.823	8189.08
744.162	8227.27
744.502	8216.2
744.841	8235.63
745.181	8277.89
745.52	8351.79
745.86	8400.37
746.199	8377.32
746.538	8406.02
746.877	8462.07
747.216	8464.1
747.556	8508.62
747.895	8605.34
748.234	8536.19
748.573	8571.44
748.911	8700.93
749.25	8683.53
749.589	8751.55
749.928	8840.59
750.267	8872.22
750.605	8924.88
750.944	8906.12
751.283	9029.51
751.621	9135.95
751.96	9167.36
752.298	9162.16
752.636	9318.54
752.975	9341.59
753.313	9421.81
753.651	9666.55
753.989	9670.62
754.327	9722.82
754.666	9723.5
755.004	9933.21
755.342	10050.72
755.679	10136.82
756.017	10192.64
756.355	10337.95
756.693	10477.38
757.031	10535.91
757.368	10653.65
757.706	10809.35
758.044	10883.92
758.381	11027.42
758.719	11261.54
759.056	11344.7
759.394	11400.29
759.731	11518.93
760.068	11668.76
760.405	11819.49
