Data from hue_50_FLMS001491_20.txt Node
Date: Mon Feb 06 15:09:41 GMT 2017
User: dcchb
Spectrometer: FLMS00149
Trigger mode: 0
Integration Time (sec): 2.000000E-2
Scans to average: 10
Electric dark correction enabled: true
Nonlinearity correction enabled: false
Boxcar width: 0
XAxis mode: Wavelengths
Number of Pixels in Spectrum: 2048
>>>>>Begin Spectral Data<<<<<
341.393	-2.13
341.776	-2.13
342.16	-2.13
342.543	-48.69
342.927	-54.79
343.31	-70.38
343.693	-73.09
344.077	-56.37
344.46	-60.89
344.843	-46.65
345.226	-39.87
345.61	-23.6
345.993	-20.66
346.376	-16.6
346.759	9.62
347.142	21.6
347.525	49.39
347.908	44.65
348.291	75.15
348.674	102.72
349.057	104.98
349.44	118.54
349.823	138.43
350.206	160.8
350.588	198.54
350.971	248.03
351.354	234.92
351.737	243.51
352.119	244.87
352.502	244.64
352.884	290.51
353.267	269.05
353.65	319.21
354.032	315.6
354.414	327.35
354.797	310.63
355.179	331.87
355.562	319.67
355.944	330.74
356.326	344.52
356.709	331.42
357.091	348.82
357.473	351.76
357.855	357.41
358.238	336.62
358.62	347.24
359.002	344.75
359.384	324.64
359.766	338.42
360.148	334.13
360.53	348.37
360.912	343.62
361.294	358.76
361.676	338.2
362.057	316.28
362.439	337.29
362.821	333
363.203	355.6
363.584	320.8
363.966	333.9
364.348	336.84
364.729	316.73
365.111	317.18
365.493	319.89
365.874	358.76
366.256	325.99
366.637	323.96
367.019	319.89
367.4	319.89
367.781	321.93
368.163	322.83
368.544	330.51
368.925	330.97
369.306	314.24
369.688	330.06
370.069	339.55
370.45	337.29
370.831	325.09
371.212	335.49
371.593	302.72
371.974	318.76
372.355	330.74
372.736	315.6
373.117	320.34
373.498	322.15
373.879	314.7
374.26	311.76
374.641	316.95
375.021	315.37
375.402	353.34
375.783	335.49
376.163	352.66
376.544	339.55
376.925	349.5
377.305	342.04
377.686	328.93
378.066	324.86
378.447	343.85
378.827	351.08
379.208	326.22
379.588	328.93
379.968	339.55
380.349	343.85
380.729	335.03
381.109	349.5
381.489	337.29
381.87	346.11
382.25	333.45
382.63	349.27
383.01	329.61
383.39	334.13
383.77	348.82
384.15	326.67
384.53	353.11
384.91	354.02
385.29	335.26
385.67	357.63
386.049	357.18
386.429	354.92
386.809	345.65
387.189	328.93
387.568	344.3
387.948	349.27
388.328	341.81
388.707	363.73
389.087	343.62
389.466	356.95
389.846	371.19
390.225	377.52
390.605	375.26
390.984	368.03
391.363	374.81
391.743	354.92
392.122	361.02
392.501	353.56
392.881	358.76
393.26	358.08
393.639	377.29
394.018	378.2
394.397	384.98
394.776	378.42
395.155	362.15
395.534	353.11
395.913	363.96
396.292	370.51
396.671	368.03
397.05	365.99
397.429	377.97
397.808	386.11
398.186	371.19
398.565	394.92
398.944	381.59
399.323	377.74
399.701	385.88
400.08	366.45
400.458	376.61
400.837	406.67
401.215	359.89
401.594	402.83
401.972	383.39
402.351	389.5
402.729	387.01
403.107	384.75
403.486	397.4
403.864	401.92
404.242	409.38
404.62	388.37
404.999	401.7
405.377	402.38
405.755	398.31
406.133	405.31
406.511	413.22
406.889	413.22
407.267	426.56
407.645	422.26
408.023	408.93
408.401	420.91
408.779	417.29
409.156	428.82
409.534	442.15
409.912	442.38
410.29	424.07
410.667	441.7
411.045	435.14
411.422	432.88
411.8	437.18
412.178	426.1
412.555	462.94
412.933	458.65
413.31	438.08
413.687	472.43
414.065	474.92
414.442	454.13
414.819	448.7
415.197	433.34
415.574	455.03
415.951	471.75
416.328	472.88
416.705	454.35
417.082	480.79
417.46	462.71
417.837	485.76
418.214	466.56
418.591	475.14
418.967	474.92
419.344	489.38
419.721	477.4
420.098	477.63
420.475	487.57
420.852	505.88
421.228	488.25
421.605	486.44
421.982	493.45
422.358	490.28
422.735	489.15
423.111	502.26
423.488	509.72
423.864	536.84
424.241	533.67
424.617	510.85
424.994	537.06
425.37	529.6
425.746	517.63
426.123	539.32
426.499	537.97
426.875	524.41
427.251	543.62
427.627	519.44
428.003	542.26
428.379	566.21
428.756	540
429.132	568.02
429.507	557.85
429.883	551.53
430.259	556.04
430.635	572.77
431.011	576.61
431.387	573.22
431.763	573.45
432.138	581.81
432.514	587.68
432.89	592.65
433.265	595.82
433.641	590.62
434.016	588.81
434.392	615.93
434.767	626.55
435.143	600.11
435.518	624.29
435.894	617.74
436.269	612.54
436.644	615.03
437.02	635.14
437.395	659.77
437.77	659.54
438.145	650.51
438.52	663.61
438.895	667
439.271	637.85
439.646	647.57
440.021	672.65
440.395	699.77
440.77	660.22
441.145	656.83
441.52	668.36
441.895	692.09
442.27	675.36
442.645	684.4
443.019	709.26
443.394	689.15
443.769	712.42
444.143	683.5
444.518	706.55
444.892	694.35
445.267	689.83
445.641	737.28
446.016	731.86
446.39	724.4
446.764	751.29
447.139	720.56
447.513	753.78
447.887	733.22
448.262	747.23
448.636	764.17
449.01	714.46
449.384	753.33
449.758	742.71
450.132	769.37
450.506	781.8
450.88	780.67
451.254	756.94
451.628	754.46
452.002	756.94
452.376	785.87
452.75	782.03
453.123	827.9
453.497	812.08
453.871	819.77
454.244	823.38
454.618	812.31
454.992	831.97
455.365	839.65
455.739	847.34
456.112	865.87
456.486	861.35
456.859	891.18
457.232	907.22
457.606	896.83
457.979	891.86
458.352	921.23
458.725	921.01
459.099	915.13
459.472	948.35
459.845	960.1
460.218	961.91
460.591	961.23
460.964	962.59
461.337	955.36
461.71	995.58
462.083	1000.33
462.456	996.03
462.829	989.48
463.201	1020.44
463.574	1041.23
463.947	1060.44
464.32	1056.14
464.692	1061.57
465.065	1092.75
465.438	1094.79
465.81	1116.93
466.183	1128.69
466.555	1148.8
466.928	1172.53
467.3	1159.87
467.672	1180.89
468.045	1226.31
468.417	1210.49
468.789	1236.7
469.161	1266.53
469.534	1273.77
469.906	1292.52
470.278	1326.65
470.65	1311.51
471.022	1371.84
471.394	1403.48
471.766	1432.63
472.138	1437.6
472.51	1462.46
472.882	1530.71
473.253	1516.92
473.625	1561.67
473.997	1571.16
474.369	1622.68
474.74	1654.77
475.112	1678.95
475.484	1743.58
475.855	1741.32
476.227	1809.57
476.598	1861.55
476.97	1884.37
477.341	1958.27
477.713	2022.9
478.084	2020.86
478.455	2104.7
478.827	2148.32
479.198	2247.3
479.569	2292.72
479.94	2366.39
480.311	2381.53
480.682	2476.9
481.053	2561.19
481.424	2642.77
481.795	2685.25
482.166	2774.74
482.537	2832.37
482.908	2912.37
483.279	3002.08
483.65	3078.92
484.021	3209.08
484.391	3256.31
484.762	3326.37
485.133	3421.51
485.503	3529.3
485.874	3665.79
486.244	3725.45
486.615	3826.24
486.985	3979.68
487.356	4047.7
487.726	4166.12
488.097	4271.2
488.467	4421.93
488.837	4550.97
489.207	4662.83
489.578	4740.12
489.948	4863.5
490.318	5008.36
490.688	5099.65
491.058	5226.2
491.428	5364.73
491.798	5445.86
492.168	5635.23
492.538	5737.38
492.908	5835.45
493.278	5985.73
493.648	6119.97
494.017	6253.75
494.387	6407.19
494.757	6498.71
495.126	6669.33
495.496	6671.36
495.866	6878.82
496.235	7007.17
496.605	7091.24
496.974	7246.04
497.344	7339.14
497.713	7460.5
498.082	7588.63
498.452	7721.51
498.821	7820.49
499.19	7913.14
499.559	8081.27
499.928	8208.95
500.298	8297.99
500.667	8430.19
501.036	8542.05
501.405	8687.36
501.774	8726.68
502.143	8836.5
502.512	8964.86
502.88	9082.6
503.249	9274.01
503.618	9260.9
503.987	9408.92
504.356	9563.72
504.724	9647.56
505.093	9720.55
505.462	9859.3
505.83	9984.72
506.199	10078.73
506.567	10244.6
506.936	10285.51
507.304	10425.84
507.672	10518.49
508.041	10647.98
508.409	10693.63
508.777	10824.48
509.145	10915.32
509.514	11132.94
509.882	11173.84
510.25	11275.76
510.618	11307.63
510.986	11373.84
511.354	11523.67
511.722	11650.22
512.09	11786.26
512.458	11791.23
512.826	11965.01
513.193	12031.9
513.561	12066.02
513.929	12198
514.297	12380.82
514.664	12498.33
515.032	12468.05
515.4	12648.61
515.767	12814.93
516.135	12775.61
516.502	12828.72
516.869	13020.58
517.237	13081.82
517.604	13164.3
517.972	13361.81
518.339	13364.3
518.706	13391.41
519.073	13589.83
519.44	13641.35
519.808	13784.4
520.175	13775.13
520.542	13974.22
520.909	14049.48
521.276	14103.26
521.643	14292.86
522.009	14426.41
522.376	14587.09
522.743	14627.99
523.11	14705.28
523.477	14822.79
523.843	14997.25
524.21	15079.05
524.577	15289.22
524.943	15266.39
525.31	15415.77
525.676	15603.33
526.043	15638.81
526.409	15727.4
526.776	15926.49
527.142	15893.95
527.508	15992.25
527.874	16180.49
528.241	16292.35
528.607	16397.89
528.973	16585.45
529.339	16467.26
529.705	16728.95
530.071	16836.97
530.437	16889.17
530.803	16979.12
531.169	17064.31
531.535	17043.75
531.901	17168.72
532.267	17189.96
532.632	17347.69
532.998	17528.25
533.364	17594.92
533.73	17538.87
534.095	17721.02
534.461	17812.09
534.826	17822.71
535.192	18015.47
535.557	18072.19
535.923	18066.77
536.288	18116.26
536.653	18327.33
537.019	18277.39
537.384	18387.67
537.749	18546.98
538.114	18528
538.479	18540.2
538.845	18617.04
539.21	18645.29
539.575	18823.81
539.94	18807.32
540.305	18974.77
540.67	18999.85
541.034	19030.59
541.399	19173.18
541.764	19227.87
542.129	19259.28
542.494	19280.98
542.858	19512.16
543.223	19412.95
543.587	19584.24
543.952	19539.27
544.316	19589.89
544.681	19635.32
545.045	19771.58
545.41	19942.65
545.774	19959.6
546.138	19984.69
546.503	19968.87
546.867	20008.87
547.231	20195.3
547.595	20251.8
547.959	20265.13
548.324	20306.71
548.688	20356.2
549.052	20540.83
549.416	20529.08
549.779	20472.36
550.143	20496.09
550.507	20766.13
550.871	20898.33
551.235	20804.33
551.599	21009.97
551.962	20955.73
552.326	21048.16
552.689	21255.39
553.053	21185.78
553.417	21178.78
553.78	21487.02
554.143	21427.81
554.507	21586.68
554.87	21606.11
555.234	21899.44
555.597	21720.91
555.96	21840.68
556.323	22018.98
556.686	21868.25
557.05	22157.06
557.413	22134.46
557.776	22183.27
558.139	22321.12
558.502	22371.52
558.865	22395.92
559.228	22617.16
559.59	22670.27
559.953	22661.9
560.316	22958.62
560.679	22959.75
561.041	23002.69
561.404	23172.63
561.767	23347.76
562.129	23218.05
562.492	23422.34
562.854	23419.62
563.217	23527.64
563.579	23661.2
563.941	23800.86
564.304	23938.48
564.666	23998.82
565.028	24026.39
565.39	24067.29
565.753	24298.92
566.115	24359.94
566.477	24417.56
566.839	24519.71
567.201	24644.22
567.563	24753.6
567.925	24931.9
568.287	24922.86
568.648	24935.52
569.01	25159.47
569.372	25274.49
569.734	25180.03
570.095	25495.95
570.457	25593.13
570.819	25715.84
571.18	25584.77
571.542	25758.55
571.903	25872.89
572.265	25993.34
572.626	26053.45
572.987	25994.25
573.349	26081.48
573.71	26169.16
574.071	26433.1
574.432	26459.32
574.794	26591.52
575.155	26638.75
575.516	26447.34
575.877	26908.12
576.238	26875.35
576.599	27015.46
576.96	27028.57
577.32	27104.27
577.681	27182.92
578.042	27335
578.403	27412.06
578.763	27593.53
579.124	27547.43
579.485	27677.82
579.845	27743.58
580.206	27824.71
580.566	27892.73
580.927	28086.17
581.287	28183.57
581.648	28049.79
582.008	28363
582.368	28358.93
582.728	28586.04
583.089	28553.27
583.449	28634.85
583.809	28739.71
584.169	28966.15
584.529	28822.19
584.889	29188.51
585.249	29226.48
585.609	29085.01
585.969	29322.52
586.329	29470.76
586.688	29455.62
587.048	29460.82
587.408	29633.92
587.768	29601.83
588.127	29692
588.487	29724.09
588.846	30107.58
589.206	29859.45
589.565	29932.45
589.925	30423.73
590.284	30367.92
590.643	30491.98
591.003	30585.76
591.362	30675.93
591.721	30785.53
592.08	30761.8
592.44	30957.96
592.799	31083.38
593.158	31020.1
593.517	31004.96
593.876	31275.24
594.235	31316.82
594.593	31415.12
594.952	31560.65
595.311	31619.86
595.67	31741.67
596.029	32004.26
596.387	32002.9
596.746	32171.26
597.104	31964.48
597.463	32288.32
597.822	32444.47
598.18	32395.89
598.538	32249.45
598.897	32589.55
599.255	32374.42
599.613	32910.9
599.972	32754.52
600.33	32877.23
600.688	32817.57
601.046	33012.14
601.404	33114.51
601.762	33228.18
602.12	33378.68
602.478	33388.63
602.836	33474.95
603.194	33376.88
603.552	33615.51
603.91	33451.9
604.268	33638.11
604.625	33795.85
604.983	33862.97
605.341	33675.63
605.698	33936.41
606.056	33992.91
606.413	33994.49
606.771	34171.66
607.128	34362.16
607.485	34268.15
607.843	34318.09
608.2	34589.95
608.557	34728.71
608.914	34575.72
609.272	34954.01
609.629	34853
609.986	34977.06
610.343	34994.91
610.7	35219.31
611.057	35206.21
611.414	35054.8
611.771	35227.45
612.127	35325.53
612.484	35391.51
612.841	35610.49
613.198	35434.45
613.554	35530.72
613.911	35663.82
614.267	35850.48
614.624	35855.46
614.98	35849.81
615.337	36007.77
615.693	36003.02
616.05	35930.26
616.406	36153.53
616.762	36095.68
617.118	36227.42
617.475	36195.56
617.831	36323.01
618.187	36459.28
618.543	36529.34
618.899	36742.89
619.255	36670.8
619.611	36553.06
619.967	36725.72
620.323	36888.87
620.678	36814.07
621.034	36748.77
621.39	36697.69
621.746	36822.89
622.101	37227.62
622.457	36982.21
622.812	37073.5
623.168	37084.12
623.523	37133.61
623.879	37312.37
624.234	36959.61
624.589	37235.53
624.945	37230.33
625.3	37278.02
625.655	37304.23
626.01	37275.76
626.365	37496.09
626.72	37370.67
627.075	37359.37
627.43	37272.82
627.785	37234.18
628.14	37484.79
628.495	37384.45
628.85	37483.66
629.205	37206.15
629.559	37657.44
629.914	37398.92
630.269	37507.84
630.623	37342.87
630.978	37297.23
631.332	37353.04
631.687	37575.18
632.041	37417.9
632.396	37499.25
632.75	37223.56
633.104	37304.91
633.459	37233.72
633.813	37260.16
634.167	37326.15
634.521	37279.37
634.875	37348.07
635.229	37407.73
635.583	37007.29
635.937	37111.92
636.291	36981.08
636.645	37205.25
636.999	37115.08
637.352	37205.7
637.706	37060.4
638.06	37001.64
638.413	37052.49
638.767	37045.25
639.121	37108.76
639.474	36813.4
639.828	37009.55
640.181	36893.62
640.534	36994.63
640.888	36814.3
641.241	36692.5
641.594	36827.41
641.947	36823.34
642.301	36771.82
642.654	36800.97
643.007	36851.14
643.36	36890.23
643.713	36739.5
644.066	36810.68
644.419	36649.33
644.771	36443.69
645.124	36097.94
645.477	35988.33
645.83	35697.49
646.182	35798.28
646.535	35603.71
646.888	35788.79
647.24	35427.67
647.593	35643.26
647.945	35669.92
648.298	35322.36
648.65	35370.72
649.002	35421.79
649.355	35598.06
649.707	35379.31
650.059	35568.91
650.411	35938.17
650.763	36103.58
651.115	36168.89
651.467	36186.52
651.819	36121.66
652.171	36143.58
652.523	36080.53
652.875	36115.11
653.227	35973.87
653.578	36205.95
653.93	36050.48
654.282	36058.61
654.633	35982.23
654.985	36121.44
655.337	35914.21
655.688	35914.44
656.039	36136.35
656.391	35736.36
656.742	35928.9
657.094	35966.41
657.445	35866.98
657.796	35973.42
658.147	35820.2
658.498	35849.58
658.849	35929.13
659.2	35778.17
659.551	35642.81
659.902	35823.14
660.253	35795.34
660.604	35816.13
660.955	35638.96
661.306	35842.8
661.656	35753.99
662.007	35698.17
662.358	35730.04
662.708	35735.91
663.059	35740.66
663.409	35506.76
663.76	35856.13
664.11	35688.68
664.461	35757.15
664.811	35638.74
665.161	35762.58
665.511	35557.61
665.862	35637.61
666.212	35711.28
666.562	35772.07
666.912	35700.66
667.262	35554.45
667.612	35615.46
667.962	35720.09
668.312	35535.01
668.662	35653.88
669.011	35655.01
669.361	35545.41
669.711	35471.51
670.06	35431.06
670.41	35373.89
670.76	35452.53
671.109	35466.99
671.459	35447.56
671.808	35459.31
672.157	35477.39
672.507	35141.12
672.856	35239.43
673.205	35444.62
673.554	35439.65
673.904	35319.42
674.253	35461.79
674.602	35387.22
674.951	34805.31
675.3	34697.07
675.649	35310.16
675.998	35094.57
676.346	35264.06
676.695	35311.06
677.044	35004.63
677.393	35142.71
677.741	35184.74
678.09	34994.91
678.438	34946.33
678.787	35098.87
679.135	35154.68
679.484	34872.2
679.832	34972.54
680.181	34784.07
680.529	34957.85
680.877	34756.73
681.225	34705.66
681.573	34808.48
681.922	34610.06
682.27	34649.39
682.618	34719.21
682.966	34609.61
683.314	34716.05
683.661	34511.54
684.009	34417.75
684.357	34342.05
684.705	34109.29
685.053	34254.14
685.4	34189.06
685.748	34066.12
686.095	33954.49
686.443	33944.77
686.79	33875.39
687.138	33989.52
687.485	33886.69
687.832	33692.57
688.18	33751.56
688.527	33598.79
688.874	33581.17
689.221	33587.94
689.568	33508.4
689.915	33361.06
690.262	33420.27
690.609	33256.43
690.956	33182.08
691.303	33181.18
691.65	32923.1
691.997	32995.87
692.344	32868.19
692.69	32766.05
693.037	32915.87
693.383	32655.54
693.73	32705.48
694.077	32632.94
694.423	32670.68
694.769	32386.62
695.116	32445.38
695.462	32359.05
695.808	32164.25
696.155	32404.92
696.501	31997.03
696.847	31905.5
697.193	31729.69
697.539	31843.58
697.885	31696.69
698.231	31619.18
698.577	31609.01
698.923	31575.57
699.269	31401.79
699.614	31205.41
699.96	31325.41
700.306	31195.24
700.651	31063.49
700.997	31041.12
701.342	30897.62
701.688	30924.29
702.033	30765.42
702.379	30710.28
702.724	30654.46
703.069	30766.32
703.415	30368.37
703.76	30372.66
704.105	30322.27
704.45	30292.66
704.795	30214.25
705.14	30044.08
705.485	30070.52
705.83	30021.03
706.175	29938.1
706.52	29885.22
706.865	29743.3
707.209	29803.86
707.554	29635.51
707.899	29708.5
708.243	29430.99
708.588	29529.07
708.932	29337.21
709.277	29339.69
709.621	29285.46
709.966	29113.03
710.31	29240.26
710.654	28884.57
710.998	28948.52
711.342	29009.53
711.687	28850.44
712.031	28811.57
712.375	28608.19
712.719	28729.32
713.063	28564.8
713.407	28707.62
713.75	28593.73
714.094	28490.45
714.438	28400.28
714.782	28381.08
715.125	28272.38
715.469	28256.33
715.812	28162.32
716.156	28017.02
716.499	28070.35
716.843	28092.27
717.186	27975.21
717.53	28064.7
717.873	28027.19
718.216	27854.08
718.559	27730.25
718.902	27677.59
719.246	27636.91
719.589	27557.14
719.932	27486.64
720.275	27478.5
720.617	27549.46
720.96	27487.99
721.303	27445.06
721.646	27420.88
721.989	27285.96
722.331	27368
722.674	27192.18
723.016	27229.69
723.359	27240.31
723.701	27162.12
724.044	26982.02
724.386	26904.96
724.729	27067.89
725.071	26844.62
725.413	26964.62
725.755	26853.88
726.097	26702.02
726.439	26746.09
726.782	26736.15
727.124	26814.11
727.465	26564.85
727.807	26619.99
728.149	26521.69
728.491	26514.46
728.833	26558.3
729.175	26365.54
729.516	26298.42
729.858	26313.11
730.199	26272.2
730.541	26310.85
730.882	26208.7
731.224	26248.02
731.565	26150.63
731.906	25973
732.248	26135.94
732.589	25995.6
732.93	25934.13
733.271	25886.45
733.612	25967.35
733.953	25895.94
734.294	25794.25
734.635	25866.34
734.976	25736.17
735.317	25644.88
735.658	25688.72
735.999	25687.59
736.339	25603.97
736.68	25655.95
737.021	25530.08
737.361	25541.15
737.702	25506.8
738.042	25625.22
738.383	25540.02
738.723	25411.44
739.063	25420.48
739.404	25474.71
739.744	25384.54
740.084	25074.95
740.424	25185.23
740.764	25154.04
741.104	25258.22
741.444	25064.78
741.784	25025.68
742.124	25003.76
742.464	24935.06
742.804	25031.33
743.143	24936.19
743.483	24900.72
743.823	24858.68
744.162	24757.44
744.502	24797.67
744.841	24757.22
745.181	24834.95
745.52	24695.97
745.86	24728.52
746.199	24531.23
746.538	24659.59
746.877	24620.5
747.216	24609.65
747.556	24498.47
747.895	24581.18
748.234	24453.5
748.573	24387.73
748.911	24372.37
749.25	24307.51
749.589	24175.99
749.928	24213.05
750.267	24239.04
750.605	24164.92
750.944	24039.95
751.283	24016.44
751.621	24088.53
751.96	23939.16
752.298	23899.61
752.636	23887.41
752.975	23719.96
753.313	23691.26
753.651	23813.06
753.989	23630.69
754.327	23588.43
754.666	23499.17
755.004	23562.9
755.342	23552.28
755.679	23420.08
756.017	23345.73
756.355	23368.33
756.693	23286.07
757.031	23310.25
