Data from hue_190_FLMS001491_00080.txt Node
Date: Tue Feb 07 16:45:46 GMT 2017
User: dcchb
Spectrometer: FLMS00149
Trigger mode: 0
Integration Time (sec): 2.000000E-2
Scans to average: 10
Electric dark correction enabled: true
Nonlinearity correction enabled: false
Boxcar width: 0
XAxis mode: Wavelengths
Number of Pixels in Spectrum: 2048
>>>>>Begin Spectral Data<<<<<
341.393	-16.95
341.776	-16.95
342.16	-16.95
342.543	-56.27
342.927	-63.5
343.31	-75.48
343.693	-73.22
344.077	-56.04
344.46	-59.89
344.843	-44.97
345.226	-36.38
345.61	-23.5
345.993	-23.95
346.376	-18.53
346.759	4.29
347.142	27.57
347.525	53.78
347.908	69.15
348.291	64.86
348.674	95.36
349.057	96.95
349.44	115.48
349.823	135.59
350.206	162.71
350.588	186.66
350.971	207
351.354	239.32
351.737	227.34
352.119	244.29
352.502	260.11
352.884	259.2
353.267	274.57
353.65	282.7
354.032	297.62
354.414	318.86
354.797	306.66
355.179	331.97
355.562	330.39
355.944	322.25
356.326	332.87
356.709	329.71
357.091	328.58
357.473	331.97
357.855	338.97
358.238	334.91
358.62	311.18
359.002	341.01
359.384	327.67
359.766	341.01
360.148	337.17
360.53	320.22
360.912	323.16
361.294	329.26
361.676	323.16
362.057	336.71
362.439	341.23
362.821	310.05
363.203	322.7
363.584	323.16
363.966	313.89
364.348	310.27
364.729	320.9
365.111	300.78
365.493	335.36
365.874	311.4
366.256	289.94
366.637	313.66
367.019	303.72
367.4	314.34
367.781	340.33
368.163	318.64
368.544	304.4
368.925	301.24
369.306	313.44
369.688	303.49
370.069	322.03
370.45	313.66
370.831	312.99
371.212	316.38
371.593	311.4
371.974	299.2
372.355	324.74
372.736	326.55
373.117	299.65
373.498	305.08
373.879	313.44
374.26	306.43
374.641	309.6
375.021	320.9
375.402	332.19
375.783	295.13
376.163	316.83
376.544	322.7
376.925	311.86
377.305	339.2
377.686	310.73
378.066	313.21
378.447	325.87
378.827	331.52
379.208	324.06
379.588	329.26
379.968	325.87
380.349	327.45
380.729	336.04
381.109	331.97
381.489	328.58
381.87	345.98
382.25	358.41
382.63	327.68
383.01	340.33
383.39	326.55
383.77	330.39
384.15	331.74
384.53	334
384.91	351.63
385.29	343.04
385.67	333.78
386.049	359.99
386.429	352.53
386.809	324.29
387.189	345.75
387.568	350.73
387.948	338.75
388.328	338.3
388.707	338.3
389.087	343.49
389.466	342.36
389.846	350.95
390.225	343.49
390.605	352.76
390.984	374.23
391.363	359.54
391.743	371.29
392.122	360.67
392.501	364.28
392.881	383.94
393.26	354.79
393.639	376.04
394.018	362.25
394.397	353.66
394.776	357.05
395.155	348.47
395.534	349.14
395.913	385.53
396.292	393.66
396.671	388.92
397.05	378.07
397.429	380.33
397.808	375.13
398.186	373.78
398.565	398.18
398.944	394.57
399.323	388.46
399.701	409.71
400.08	390.05
400.458	398.18
400.837	407.45
401.215	397.28
401.594	417.62
401.972	395.02
402.351	393.66
402.729	427.33
403.107	422.59
403.486	433.21
403.864	398.63
404.242	411.29
404.62	432.98
404.999	425.75
405.377	442.7
405.755	428.24
406.133	454.45
406.511	428.24
406.889	442.7
407.267	445.64
407.645	444.51
408.023	442.7
408.401	457.84
408.779	452.19
409.156	475.02
409.534	482.25
409.912	476.82
410.29	477.05
410.667	528.8
411.045	499.2
411.422	509.37
411.8	515.01
412.178	529.03
412.555	527.44
412.933	554.79
413.31	547.33
413.687	570.61
414.065	583.26
414.442	569.7
414.819	557.73
415.197	585.75
415.574	581.91
415.951	609.7
416.328	620.55
416.705	637.27
417.082	633.2
417.46	644.73
417.837	661.68
418.214	665.52
418.591	665.52
418.967	654.9
419.344	685.41
419.721	671.39
420.098	684.95
420.475	714.11
420.852	706.42
421.228	727.21
421.605	749.13
421.982	734.67
422.358	761.11
422.735	786.65
423.111	770.83
423.488	792.97
423.864	808.57
424.241	824.84
424.617	813.99
424.994	857.15
425.37	851.05
425.746	885.17
426.123	903.03
426.499	883.82
426.875	913.42
427.251	930.15
427.627	924.72
428.003	962.23
428.379	969.69
428.756	940.77
429.132	964.72
429.507	968.34
429.883	997.26
430.259	1017.15
430.635	1031.39
431.011	1031.84
431.387	1031.84
431.763	1065.96
432.138	1061.89
432.514	1084.94
432.89	1089.91
433.265	1145.05
433.641	1141.66
434.016	1174.88
434.392	1201.1
434.767	1228.22
435.143	1227.31
435.518	1234.32
435.894	1269.8
436.269	1296.24
436.644	1311.83
437.02	1326.29
437.395	1349.34
437.77	1361.32
438.145	1380.75
438.52	1399.29
438.895	1426.63
439.271	1460.53
439.646	1483.58
440.021	1501.2
440.395	1493.07
440.77	1505.72
441.145	1548.43
441.52	1547.98
441.895	1567.19
442.27	1629.34
442.645	1617.13
443.019	1624.14
443.394	1637.02
443.769	1686.96
444.143	1670.46
444.518	1692.38
444.892	1714.53
445.267	1717.47
445.641	1756.11
446.016	1771.93
446.39	1770.12
446.764	1794.98
447.139	1761.54
447.513	1838.82
447.887	1837.92
448.262	1844.47
448.636	1855.32
449.01	1895.54
449.384	1921.08
449.758	1892.15
450.132	1924.02
450.506	1969.67
450.88	1930.34
451.254	1966.5
451.628	1959.72
452.002	1995.65
452.376	2037.69
452.75	2045.37
453.123	2088.08
453.497	2108.87
453.871	2146.38
454.244	2183.9
454.618	2194.52
454.992	2210.56
455.365	2220.96
455.739	2261.18
456.112	2310.9
456.486	2333.72
456.859	2274.97
457.232	2373.5
457.606	2348.64
457.979	2389.32
458.352	2446.94
458.725	2475.19
459.099	2479.26
459.472	2546.37
459.845	2589.31
460.218	2590.89
460.591	2641.51
460.964	2606.26
461.337	2682.64
461.71	2714.28
462.083	2747.27
462.456	2756.54
462.829	2771.23
463.201	2821.62
463.574	2861.85
463.947	2853.94
464.32	2969.41
464.692	2995.85
465.065	3028.39
465.438	3083.53
465.81	3065.23
466.183	3145.23
466.555	3189.29
466.928	3191.78
467.3	3228.39
467.672	3287.6
468.045	3352
468.417	3383.41
468.789	3385.45
469.161	3431.1
469.534	3522.62
469.906	3561.94
470.278	3551.09
470.65	3647.14
471.022	3729.62
471.394	3821.14
471.766	3812.78
472.138	3892.78
472.51	3991.31
472.882	4043.06
473.253	4073.11
473.625	4086.45
473.997	4233.34
474.369	4225.2
474.74	4286.89
475.112	4360.56
475.484	4465.87
475.855	4504.97
476.227	4546.1
476.598	4692.76
476.97	4722.81
477.341	4851.4
477.713	4930.94
478.084	4929.36
478.455	5123.26
478.827	5148.11
479.198	5252.74
479.569	5271.05
479.94	5436.02
480.311	5490.03
480.682	5661.09
481.053	5699.51
481.424	5828.1
481.795	5859.96
482.166	6001.2
482.537	6082.33
482.908	6157.8
483.279	6279.38
483.65	6393.28
484.021	6463.78
484.391	6570.45
484.762	6594.18
485.133	6655.19
485.503	6777
485.874	6933.6
486.244	7013.15
486.615	7139.93
486.985	7167.95
487.356	7330.2
487.726	7365.68
488.097	7540.59
488.467	7562.74
488.837	7753.92
489.207	7844.77
489.578	7939.23
489.948	8002.95
490.318	8127.92
490.688	8115.27
491.058	8251.53
491.428	8288.82
491.798	8387.58
492.168	8586.44
492.538	8602.71
492.908	8657.17
493.278	8814.01
493.648	8777.62
494.017	8943.49
494.387	9022.14
494.757	9065.07
495.126	9114.56
495.496	9173.32
495.866	9293.54
496.235	9306.2
496.605	9356.36
496.974	9385.97
497.344	9471.39
497.713	9534.21
498.082	9525.63
498.452	9684.04
498.821	9687.65
499.19	9652.63
499.559	9737.6
499.928	9891.94
500.298	9897.59
500.667	9957.48
501.036	9873.86
501.405	10034.76
501.774	9975.78
502.143	10089.45
502.512	10109.79
502.88	10106.85
503.249	10147.3
503.618	10173.97
503.987	10203.35
504.356	10245.61
504.724	10256.91
505.093	10291.03
505.462	10318.15
505.83	10335.32
506.199	10466.17
506.567	10472.72
506.936	10444.25
507.304	10550.68
507.672	10585.26
508.041	10560.63
508.409	10675.88
508.777	10673.39
509.145	10709.77
509.514	10695.99
509.882	10759.72
510.25	10729.66
510.618	10726.05
510.986	10818.25
511.354	10842.65
511.722	10917.68
512.09	10886.72
512.458	10847.4
512.826	10910.67
513.193	10843.1
513.561	10995.64
513.929	10974.85
514.297	10969.43
514.664	11031.57
515.032	10990.45
515.4	11062.76
515.767	11088.97
516.135	11060.73
516.502	10972.37
516.869	11101.18
517.237	11079.93
517.604	10997.45
517.972	11044.68
518.339	11079.93
518.706	11131.23
519.073	11124.91
519.44	11146.37
519.808	11233.6
520.175	11177.79
520.542	11204.9
520.909	11217.56
521.276	11128.52
521.643	11203.32
522.009	11140.05
522.376	11208.97
522.743	11209.42
523.11	11211.23
523.477	11301.17
523.843	11240.83
524.21	11328.74
524.577	11366.93
524.943	11258.01
525.31	11275.41
525.676	11303.43
526.043	11321.28
526.409	11242.19
526.776	11274.28
527.142	11416.42
527.508	11284.22
527.874	11331.45
528.241	11297.33
528.607	11265.92
528.973	11307.95
529.339	11220.5
529.705	11262.75
530.071	11319.25
530.437	11259.36
530.803	11208.52
531.169	11190.44
531.535	11124.68
531.901	11109.09
532.267	11097.56
532.632	11053.95
532.998	11069.99
533.364	11100.73
533.73	10968.98
534.095	11012.14
534.461	10970.33
534.826	10954.06
535.192	10811.24
535.557	10934.4
535.923	10835.2
536.288	10781.86
536.653	10782.32
537.019	10665.93
537.384	10732.37
537.749	10589.1
538.114	10581.87
538.479	10543.45
538.845	10446.28
539.21	10395.66
539.575	10369.44
539.94	10392.04
540.305	10269.79
540.67	10257.13
541.034	10206.51
541.399	10193.18
541.764	10190.92
542.129	10142.56
542.494	10019.85
542.858	9997.48
543.223	9914.54
543.587	9884.26
543.952	9916.12
544.316	9818.5
544.681	9764.49
545.045	9730.14
545.41	9708.9
545.774	9665.06
546.138	9639.52
546.503	9631.39
546.867	9529.69
547.231	9545.06
547.595	9419.41
547.959	9381.9
548.324	9289.47
548.688	9263.26
549.052	9322.92
549.416	9248.34
549.779	9184.62
550.143	9075.69
550.507	9137.61
550.871	9119.31
551.235	8950.05
551.599	9020.78
551.962	8961.12
552.326	8931.06
552.689	8861.24
553.053	8823.04
553.417	8752.99
553.78	8828.24
554.143	8678.87
554.507	8710.05
554.87	8701.47
555.234	8709.38
555.597	8669.6
555.96	8530.85
556.323	8502.6
556.686	8467.35
557.05	8488.59
557.413	8475.26
557.776	8439.1
558.139	8371.76
558.502	8367.69
558.865	8328.59
559.228	8305.32
559.59	8278.88
559.953	8246.56
560.316	8359.1
560.679	8239.33
561.041	8216.51
561.404	8233
561.767	8262.38
562.129	8239.78
562.492	8265.09
562.854	8170.41
563.217	8208.37
563.579	8172.21
563.941	8141.48
564.304	8178.09
564.666	8283.4
565.028	8183.06
565.39	8186.23
565.753	8157.3
566.115	8146.45
566.477	8113.68
566.839	8146.9
567.201	8145.77
567.563	8126.11
567.925	8167.24
568.287	8144.42
568.648	8104.42
569.01	8132.89
569.372	8198.2
569.734	8154.36
570.095	8168.15
570.457	8154.81
570.819	8202.5
571.18	8140.12
571.542	8126.57
571.903	8121.82
572.265	8113.68
572.626	8170.63
572.987	8148.03
573.349	8154.36
573.71	8122.72
574.071	8099.22
574.432	8131.54
574.794	8142.16
575.155	8150.97
575.516	8060.13
575.877	8173.8
576.238	8096.96
576.599	8115.94
576.96	8124.98
577.32	8091.99
577.681	8097.64
578.042	8108.26
578.403	8141.71
578.763	8138.77
579.124	8128.15
579.485	8088.6
579.845	8134.25
580.206	8100.8
580.566	8015.38
580.927	8053.57
581.287	8143.06
581.648	8085.66
582.008	8062.61
582.368	7997.76
582.728	8000.69
583.089	7980.13
583.449	7995.27
583.809	8064.42
584.169	8078.66
584.529	7981.94
584.889	8066.68
585.249	7967.25
585.609	7939.9
585.969	7961.82
586.329	7930.19
586.688	7965.44
587.048	7909.85
587.408	7953.92
587.768	7957.3
588.127	7912.79
588.487	7903.07
588.846	7910.98
589.206	7849.06
589.565	7867.14
589.925	7875.5
590.284	7840.47
590.643	7835.27
591.003	7917.31
591.362	7921.83
591.721	7880.02
592.08	7852
592.44	7841.83
592.799	7805.9
593.158	7821.04
593.517	7812.68
593.876	7807.25
594.235	7787.82
594.593	7744.2
594.952	7781.04
595.311	7723.86
595.67	7747.59
596.029	7788.5
596.387	7787.59
596.746	7809.29
597.104	7721.83
597.463	7703.53
597.822	7780.81
598.18	7724.54
598.538	7701.27
598.897	7705.33
599.255	7670.76
599.613	7781.94
599.972	7727.03
600.33	7710.98
600.688	7652.68
601.046	7706.69
601.404	7725.67
601.762	7716.86
602.12	7773.58
602.478	7733.36
602.836	7731.32
603.194	7693.58
603.552	7713.47
603.91	7690.87
604.268	7654.49
604.625	7686.35
604.983	7684.09
605.341	7673.92
605.698	7662.17
606.056	7707.82
606.413	7709.63
606.771	7682.96
607.128	7728.16
607.485	7643.41
607.843	7586.24
608.2	7701.04
608.557	7756.63
608.914	7651.78
609.272	7690.87
609.629	7656.3
609.986	7740.81
610.343	7683.87
610.7	7727.25
611.057	7742.17
611.414	7712.34
611.771	7764.54
612.127	7690.42
612.484	7743.07
612.841	7774.26
613.198	7649.06
613.554	7709.4
613.911	7694.94
614.267	7741.72
614.624	7720.02
614.98	7773.81
615.337	7730.19
615.693	7756.18
616.05	7767.93
616.406	7827.36
616.762	7787.82
617.118	7762.28
617.475	7686.58
617.831	7804.09
618.187	7775.84
618.543	7721.83
618.899	7811.32
619.255	7839.79
619.611	7744.66
619.967	7846.35
620.323	7808.16
620.678	7822.39
621.034	7765.9
621.39	7768.16
621.746	7784.88
622.101	7842.96
622.457	7783.98
622.812	7741.94
623.168	7852.22
623.523	7842.51
623.879	7849.29
624.234	7813.58
624.589	7774.71
624.945	7804.31
625.3	7801.15
625.655	7762.96
626.01	7860.13
626.365	7804.99
626.72	7812.22
627.075	7755.95
627.43	7768.16
627.785	7767.71
628.14	7823.98
628.495	7866.01
628.85	7817.65
629.205	7779.46
629.559	7762.06
629.914	7727.48
630.269	7756.63
630.623	7705.56
630.978	7692.68
631.332	7714.37
631.687	7716.63
632.041	7732.9
632.396	7690.19
632.75	7604.09
633.104	7660.59
633.459	7621.95
633.813	7617.2
634.167	7607.71
634.521	7644.09
634.875	7611.78
635.229	7655.62
635.583	7567.03
635.937	7596.41
636.291	7562.06
636.645	7606.81
636.999	7598.67
637.352	7564.55
637.706	7522.74
638.06	7562.06
638.413	7504.89
638.767	7495.4
639.121	7521.38
639.474	7475.28
639.828	7472.8
640.181	7480.71
640.534	7489.97
640.888	7425.34
641.241	7454.72
641.594	7430.31
641.947	7491.33
642.301	7407.71
642.654	7429.41
643.007	7496.75
643.36	7416.53
643.713	7372.46
644.066	7446.13
644.419	7364.78
644.771	7383.31
645.124	7271
645.477	7246.36
645.83	7288.4
646.182	7204.33
646.535	7210.88
646.888	7177.66
647.24	7152.13
647.593	7213.37
647.945	7144.67
648.298	7165.24
648.65	7092.24
649.002	7130.89
649.355	7190.32
649.707	7122.98
650.059	7233.71
650.411	7267.15
650.763	7237.78
651.115	7378.11
651.467	7301.05
651.819	7320.94
652.171	7337.89
652.523	7246.82
652.875	7357.32
653.227	7265.35
653.578	7323.2
653.93	7300.37
654.282	7309.86
654.633	7290.66
654.985	7299.02
655.337	7295.85
655.688	7279.81
656.039	7365.68
656.391	7328.17
656.742	7331.56
657.094	7364.55
657.445	7354.83
657.796	7310.77
658.147	7367.04
658.498	7353.48
658.849	7336.08
659.2	7263.99
659.551	7293.82
659.902	7315.51
660.253	7324.55
660.604	7388.05
660.955	7302.63
661.306	7347.15
661.656	7400.48
662.007	7331.56
662.358	7338.56
662.708	7385.57
663.059	7340.37
663.409	7353.93
663.76	7413.36
664.11	7370.88
664.461	7330.2
664.811	7360.03
665.161	7362.07
665.511	7405
665.862	7413.82
666.212	7400.03
666.562	7441.61
666.912	7390.54
667.262	7328.17
667.612	7365.46
667.962	7391.44
668.312	7378.11
668.662	7391.67
669.011	7405.45
669.361	7407.94
669.711	7374.72
670.06	7322.75
670.41	7396.87
670.76	7396.64
671.109	7331.78
671.459	7336.08
671.808	7339.24
672.157	7351.45
672.507	7289.75
672.856	7260.6
673.205	7289.53
673.554	7296.98
673.904	7294.72
674.253	7304.67
674.602	7325.23
674.951	7201.62
675.3	7169.75
675.649	7308.28
675.998	7302.18
676.346	7264.89
676.695	7268.06
677.044	7255.4
677.393	7253.82
677.741	7292.46
678.09	7264.22
678.438	7238.91
678.787	7210.21
679.135	7256.98
679.484	7183.54
679.832	7223.99
680.181	7070.77
680.529	7196.65
680.877	7182.18
681.225	7128.85
681.573	7181.51
681.922	7160.72
682.27	7107.84
682.618	7092.69
682.966	7068.97
683.314	7037.33
683.661	7052.7
684.009	6994.39
684.357	7024.9
684.705	6958.69
685.053	6999.36
685.4	6914.17
685.748	6954.62
686.095	6915.52
686.443	6915.07
686.79	6867.62
687.138	6932.93
687.485	6903.55
687.832	6859.48
688.18	6831.01
688.527	6837.11
688.874	6787.39
689.221	6785.13
689.568	6703.33
689.915	6795.98
690.262	6749.43
690.609	6716.66
690.956	6735.19
691.303	6713.27
691.65	6674.17
691.997	6643.22
692.344	6587.85
692.69	6598.24
693.037	6582.88
693.383	6534.07
693.73	6559.15
694.077	6495.65
694.423	6466.5
694.769	6451.13
695.116	6449.77
695.462	6385.82
695.808	6382.88
696.155	6365.03
696.501	6274.41
696.847	6345.37
697.193	6227.18
697.539	6274.64
697.885	6241.19
698.231	6245.49
698.577	6161.87
698.923	6241.64
699.269	6191.48
699.614	6137.47
699.96	6121.65
700.306	6115.09
700.651	6072.38
700.997	6053.17
701.342	6020.86
701.688	6023.8
702.033	5978.83
702.379	5959.62
702.724	5973.4
703.069	5970.24
703.415	5942.44
703.76	5916.45
704.105	5901.09
704.45	5858.38
704.795	5873.74
705.14	5843.69
705.485	5799.4
705.83	5781.77
706.175	5765.05
706.52	5728.21
706.865	5716.23
707.209	5710.58
707.554	5698.16
707.899	5682.11
708.243	5703.8
708.588	5657.03
708.932	5602.34
709.277	5643.02
709.621	5600.08
709.966	5631.26
710.31	5624.48
710.654	5545.16
710.998	5532.96
711.342	5521.66
711.687	5535.22
712.031	5498.16
712.375	5483.92
712.719	5472.4
713.063	5437.82
713.407	5461.78
713.75	5507.65
714.094	5398.95
714.438	5423.13
714.782	5417.48
715.125	5426.52
715.469	5337.03
715.812	5387.88
716.156	5344.04
716.499	5370.48
716.843	5356.92
717.186	5411.38
717.53	5372.51
717.873	5303.36
718.216	5332.52
718.559	5318.96
718.902	5304.95
719.246	5294.32
719.589	5274.89
719.932	5314.89
720.275	5303.82
720.617	5284.15
720.96	5283.48
721.303	5273.99
721.646	5260.43
721.989	5279.18
722.331	5298.17
722.674	5256.81
723.016	5227.66
723.359	5206.42
723.701	5268.34
724.044	5214.78
724.386	5170.71
724.729	5270.82
725.071	5172.97
725.413	5237.15
725.755	5206.87
726.097	5212.74
726.439	5174.33
726.782	5183.82
727.124	5180.65
727.465	5169.13
727.807	5173.65
728.149	5159.86
728.491	5172.97
728.833	5153.31
729.175	5187.89
729.516	5139.07
729.858	5173.42
730.199	5244.16
730.541	5169.13
730.882	5160.54
731.224	5153.99
731.565	5173.88
731.906	5176.81
732.248	5155.34
732.589	5120.54
732.93	5138.4
733.271	5168.45
733.612	5203.03
733.953	5195.8
734.294	5166.87
734.635	5157.38
734.976	5156.25
735.317	5164.84
735.658	5169.13
735.999	5190.15
736.339	5161.9
736.68	5160.54
737.021	5174.55
737.361	5213.2
737.702	5231.27
738.042	5251.16
738.383	5202.35
738.723	5198.28
739.063	5222.69
739.404	5236.02
739.744	5242.35
740.084	5293.87
740.424	5232.4
740.764	5244.16
741.104	5308.56
741.444	5298.84
741.784	5274.21
742.124	5255.46
742.464	5315.34
742.804	5327.54
743.143	5353.98
743.483	5355.79
743.823	5385.85
744.162	5396.47
744.502	5410.25
744.841	5431.5
745.181	5506.52
745.52	5474.88
745.86	5566.41
746.199	5565.5
746.538	5565.5
746.877	5674.65
747.216	5689.57
747.556	5680.53
747.895	5773.41
748.234	5773.41
748.573	5861.31
748.911	5888.66
749.25	5930.01
749.589	5963.46
749.928	6066.96
750.267	6109.22
750.605	6178.82
750.944	6254.52
751.283	6293.17
751.621	6379.04
751.96	6411.81
752.298	6550.34
752.636	6627.85
752.975	6685.47
753.313	6828.97
753.651	6923.43
753.989	7023.32
754.327	7051.79
754.666	7152.58
755.004	7263.76
755.342	7418.79
755.679	7603.64
756.017	7681.61
756.355	7808.61
756.693	7952.56
757.031	8082.95
757.368	8267.58
757.706	8330.85
758.044	8482.26
758.381	8655.59
758.719	8764.97
759.056	8952.98
759.394	9092.64
759.731	9237.72
760.068	9449.02
760.405	9514.1
760.743	9682.23
761.08	9924.26
761.417	10059.62
761.754	10199.51
762.091	10415.55
762.428	10481.53
762.765	10614.41
763.102	10822.77
763.438	10969.43
763.775	11128.07
764.112	11356.54
764.449	11555.4
764.785	11634.72
765.122	11821.61
765.458	12010.31
765.795	12192.45
766.131	12324.87
766.467	12495.72
766.804	12607.58
