Data from hue_24_FLMS001491_00079.txt Node
Date: Tue Feb 07 17:12:45 GMT 2017
User: dcchb
Spectrometer: FLMS00149
Trigger mode: 0
Integration Time (sec): 2.000000E-2
Scans to average: 10
Electric dark correction enabled: true
Nonlinearity correction enabled: false
Boxcar width: 0
XAxis mode: Wavelengths
Number of Pixels in Spectrum: 2048
>>>>>Begin Spectral Data<<<<<
341.393	-20.48
341.776	-20.48
342.16	-20.48
342.543	-58.67
342.927	-71.1
343.31	-54.83
343.693	-57.99
344.077	-68.16
344.46	-65.68
344.843	-59.8
345.226	-36.52
345.61	-38.11
345.993	-22.06
346.376	-6.24
346.759	0.99
347.142	22.68
347.525	55.45
347.908	45.28
348.291	72.85
348.674	95.9
349.057	116.24
349.44	118.27
349.823	137.03
350.206	162.57
350.588	182.45
350.971	206.86
351.354	219.97
351.737	225.62
352.119	258.38
352.502	266.07
352.884	251.83
353.267	280.3
353.65	288.89
354.032	309.23
354.414	312.17
354.797	305.61
355.179	310.36
355.562	347.65
355.944	333.41
356.326	333.18
356.709	351.71
357.091	325.73
357.473	348.1
357.855	346.52
358.238	334.09
358.62	332.96
359.002	327.76
359.384	334.31
359.766	345.39
360.148	342.9
360.53	321.43
360.912	339.06
361.294	320.08
361.676	330.25
362.057	331.6
362.439	317.36
362.821	327.08
363.203	344.93
363.584	328.89
363.966	340.64
364.348	330.7
364.729	318.04
365.111	298.83
365.493	316.01
365.874	308.78
366.256	342.9
366.637	338.38
367.019	313.07
367.4	306.74
367.781	324.82
368.163	317.59
368.544	308.1
368.925	311.26
369.306	320.98
369.688	291.83
370.069	327.53
370.45	309.91
370.831	311.04
371.212	316.01
371.593	311.26
371.974	326.63
372.355	313.3
372.736	335.67
373.117	308.33
373.498	321.21
373.879	319.85
374.26	323.92
374.641	316.69
375.021	289.12
375.402	335.22
375.783	303.35
376.163	334.09
376.544	332.28
376.925	325.95
377.305	330.92
377.686	322.56
378.066	322.34
378.447	332.28
378.827	337.48
379.208	334.77
379.588	336.57
379.968	327.76
380.349	327.53
380.729	356.69
381.109	323.24
381.489	311.71
381.87	339.74
382.25	347.65
382.63	342.45
383.01	337.7
383.39	330.47
383.77	350.81
384.15	339.28
384.53	345.61
384.91	345.16
385.29	365.72
385.67	354.43
386.049	354.2
386.429	364.37
386.809	345.84
387.189	357.59
387.568	348.32
387.948	349.23
388.328	354.65
388.707	356.69
389.087	365.05
389.466	343.13
389.846	356.23
390.225	345.61
390.605	366.18
390.984	364.37
391.363	359.62
391.743	356.69
392.122	370.47
392.501	378.61
392.881	361.88
393.26	379.96
393.639	377.25
394.018	383.13
394.397	384.26
394.776	388.32
395.155	386.52
395.534	388.1
395.913	403.46
396.292	378.15
396.671	400.3
397.05	410.7
397.429	396.01
397.808	387.19
398.186	377.02
398.565	400.98
398.944	394.2
399.323	384.71
399.701	419.51
400.08	370.24
400.458	407.98
400.837	389.68
401.215	393.97
401.594	417.7
401.972	428.55
402.351	405.05
402.729	421.99
403.107	411.6
403.486	435.1
403.864	400.3
404.242	404.37
404.62	412.96
404.999	434.42
405.377	400.53
405.755	415.67
406.133	413.18
406.511	415.67
406.889	424.93
407.267	432.84
407.645	439.4
408.023	431.26
408.401	450.69
408.779	453.18
409.156	463.8
409.534	436.01
409.912	461.32
410.29	446.17
410.667	465.84
411.045	470.81
411.422	473.07
411.8	476.68
412.178	477.36
412.555	493.18
412.933	490.02
413.31	484.82
413.687	475.33
414.065	494.54
414.442	501.31
414.819	482.11
415.197	503.35
415.574	478.04
415.951	489.79
416.328	509.9
416.705	494.31
417.082	497.92
417.46	503.57
417.837	515.1
418.214	508.55
418.591	509.9
418.967	528.88
419.344	506.29
419.721	512.39
420.098	520.3
420.475	516.91
420.852	521.88
421.228	528.21
421.605	539.51
421.982	519.62
422.358	554.19
422.735	544.93
423.111	546.06
423.488	542.22
423.864	567.98
424.241	567.75
424.617	546.74
424.994	565.49
425.37	581.31
425.746	578.6
426.123	597.58
426.499	556.23
426.875	572.27
427.251	587.87
427.627	599.84
428.003	612.72
428.379	597.58
428.756	601.42
429.132	597.58
429.507	614.98
429.883	611.14
430.259	663.57
430.635	616.34
431.011	641.88
431.387	635.77
431.763	641.2
432.138	640.07
432.514	672.16
432.89	645.04
433.265	654.3
433.641	682.1
434.016	696.34
434.392	681.65
434.767	662.44
435.143	694.76
435.518	711.25
435.894	711.25
436.269	693.17
436.644	698.6
437.02	715.32
437.395	723
437.77	733.4
438.145	748.77
438.52	741.76
438.895	731.82
439.271	734.98
439.646	775.88
440.021	746.73
440.395	734.08
440.77	748.31
441.145	792.15
441.52	784.02
441.895	753.06
442.27	787.18
442.645	772.27
443.019	788.54
443.394	816.11
443.769	804.81
444.143	798.71
444.518	795.32
444.892	810.91
445.267	814.53
445.641	814.07
446.016	822.21
446.39	841.19
446.764	833.74
447.139	805.71
447.513	854.07
447.887	850.91
448.262	857.46
448.636	864.69
449.01	857.46
449.384	870.34
449.758	877.12
450.132	870.8
450.506	895.88
450.88	897.69
451.254	879.38
451.628	909.44
452.002	911.25
452.376	907.41
452.75	943.79
453.123	924.13
453.497	937.01
453.871	925.03
454.244	914.86
454.618	979.49
454.992	967.06
455.365	972.49
455.739	973.84
456.112	984.01
456.486	1002.77
456.859	1019.04
457.232	1011.36
457.606	1014.52
457.979	1042.09
458.352	1043
458.725	1054.29
459.099	1085.93
459.472	1089.32
459.845	1077.12
460.218	1102.43
460.591	1111.02
460.964	1112.37
461.337	1151.92
461.71	1148.3
462.083	1165.93
462.456	1168.19
462.829	1152.6
463.201	1192.37
463.574	1193.05
463.947	1217
464.32	1223.33
464.692	1238.92
465.065	1271.01
465.438	1259.94
465.81	1292.25
466.183	1286.83
466.555	1305.36
466.928	1346.49
467.3	1338.35
467.672	1351.69
468.045	1354.85
468.417	1402.76
468.789	1384
469.161	1400.73
469.534	1434.85
469.906	1487.28
470.278	1499.93
470.65	1490.22
471.022	1536.99
471.394	1544.68
471.766	1579.25
472.138	1592.13
472.51	1589.42
472.882	1669.42
473.253	1656.76
473.625	1703.09
473.997	1748.29
474.369	1716.65
474.74	1765.24
475.112	1786.7
475.484	1831
475.855	1844.78
476.227	1852.47
476.598	1914.84
476.97	1936.98
477.341	1969.07
477.713	2014.04
478.084	2040.03
478.455	2098.79
478.827	2118.67
479.198	2152.34
479.569	2195.28
479.94	2235.51
480.311	2254.49
480.682	2325.9
481.053	2360.93
481.424	2407.25
481.795	2439.57
482.166	2483.86
482.537	2548.94
482.908	2554.37
483.279	2640.47
483.65	2661.26
484.021	2695.16
484.391	2786.23
484.762	2782.16
485.133	2803.63
485.503	2892.21
485.874	2964.75
486.244	2997.07
486.615	3051.3
486.985	3069.61
487.356	3149.15
487.726	3198.42
488.097	3222.82
488.467	3256.5
488.837	3331.07
489.207	3382.82
489.578	3416.04
489.948	3472.31
490.318	3552.53
490.688	3558.64
491.058	3611.74
491.428	3665.75
491.798	3719.08
492.168	3756.6
492.538	3812.64
492.908	3820.78
493.278	3904.16
493.648	3909.81
494.017	3952.98
494.387	4040.2
494.757	4049.24
495.126	4137.38
495.496	4100.54
495.866	4153.87
496.235	4214.66
496.605	4292.18
496.974	4305.73
497.344	4354.32
497.713	4347.99
498.082	4406.52
498.452	4469.35
498.821	4449.46
499.19	4500.08
499.559	4551.15
499.928	4564.03
500.298	4575.11
500.667	4688.78
501.036	4617.36
501.405	4731.49
501.774	4672.05
502.143	4798.38
502.512	4757.93
502.88	4811.48
503.249	4809.9
503.618	4845.38
503.987	4867.53
504.356	4938.26
504.724	4917.02
505.093	4936
505.462	4978.94
505.83	5010.8
506.199	5046.73
506.567	5114.75
506.936	5157.69
507.304	5146.16
507.672	5157.46
508.041	5210.57
508.409	5221.64
508.777	5260.74
509.145	5289.89
509.514	5273.62
509.882	5317.91
510.25	5339.83
510.618	5338.93
510.986	5383.22
511.354	5437.46
511.722	5458.25
512.09	5512.26
512.458	5485.59
512.826	5585.7
513.193	5524.69
513.561	5584.57
513.929	5620.95
514.297	5684
514.664	5724
515.032	5726.94
515.4	5729.65
515.767	5771.01
516.135	5800.16
516.502	5739.59
516.869	5875.41
517.237	5836.54
517.604	5879.25
517.972	5938.23
518.339	5937.33
518.706	5879.93
519.073	5934.17
519.44	5976.42
519.808	5957.44
520.175	6049.42
520.542	6122.18
520.909	6116.99
521.276	6096.87
521.643	6182.52
522.009	6196.53
522.376	6195.85
522.743	6248.73
523.11	6338.22
523.477	6412.57
523.843	6444.21
524.21	6475.85
524.577	6428.39
524.943	6528.27
525.31	6552.45
525.676	6582.06
526.043	6630.42
526.409	6638.55
526.776	6686.69
527.142	6643.98
527.508	6770.75
527.874	6777.53
528.241	6828.38
528.607	6789.74
528.973	6902.05
529.339	6933.69
529.705	6956.51
530.071	7007.81
530.437	7026.34
530.803	7069.96
531.169	7115.6
531.535	7088.94
531.901	7088.94
532.267	7202.83
532.632	7209.39
532.998	7226.56
533.364	7264.3
533.73	7295.26
534.095	7346.78
534.461	7346.11
534.826	7428.82
535.192	7429.95
535.557	7478.08
535.923	7448.48
536.288	7570.51
536.653	7559.21
537.019	7532.77
537.384	7569.15
537.749	7641.92
538.114	7578.64
538.479	7652.76
538.845	7695.25
539.21	7669.71
539.575	7781.8
539.94	7791.97
540.305	7847.56
540.67	7769.15
541.034	7921.01
541.399	7962.81
541.764	7978.18
542.129	7992.19
542.494	8047.78
542.858	8038.97
543.223	8045.97
543.587	8116.93
543.952	8087.33
544.316	8163.94
544.681	8161
545.045	8199.42
545.41	8298.62
545.774	8347.89
546.138	8316.93
546.503	8337.94
546.867	8340.66
547.231	8437.6
547.595	8401.45
547.959	8422.91
548.324	8468.34
548.688	8538.17
549.052	8539.3
549.416	8553.98
549.779	8551.5
550.143	8589.92
550.507	8718.5
550.871	8739.06
551.235	8688.22
551.599	8723.47
551.962	8779.06
552.326	8760.08
552.689	8873.3
553.053	8845.5
553.417	8881.21
553.78	8970.92
554.143	8971.15
554.507	8986.52
554.87	9061.54
555.234	9143.35
555.597	9076.23
555.96	9059.28
556.323	9140.64
556.686	9149
557.05	9211.82
557.413	9225.83
557.776	9218.6
558.139	9242.78
558.502	9303.79
558.865	9345.83
559.228	9372.72
559.59	9360.29
559.953	9379.5
560.316	9520.29
560.679	9448.2
561.041	9497.69
561.404	9657.23
561.767	9713.73
562.129	9632.83
562.492	9669.89
562.854	9733.39
563.217	9750.34
563.579	9783.56
563.941	9801.41
564.304	9887.28
564.666	9910.78
565.028	9912.82
565.39	9967.51
565.753	10012.93
566.115	10053.83
566.477	10126.6
566.839	10046.15
567.201	10207.05
567.563	10239.82
567.925	10281.62
568.287	10294.73
568.648	10250.89
569.01	10366.14
569.372	10434.16
569.734	10419.92
570.095	10412.92
570.457	10476.19
570.819	10550.54
571.18	10523.65
571.542	10635.96
571.903	10639.13
572.265	10695.85
572.626	10776.07
572.987	10809.07
573.349	10846.58
573.71	10876.63
574.071	10959.8
574.432	11017.65
574.794	11060.81
575.155	11048.83
575.516	11144.42
575.877	11248.15
576.238	11286.57
576.599	11406.56
576.96	11414.02
577.32	11479.78
577.681	11593.45
578.042	11726.1
578.403	11803.62
578.763	11809.49
579.124	11895.82
579.485	12111.63
579.845	12174.68
580.206	12282.7
580.566	12411.96
580.927	12522.24
581.287	12644.05
581.648	12813.53
582.008	12891.27
582.368	13003.81
582.728	13196.35
583.089	13218.27
583.449	13418.71
583.809	13589.56
584.169	13873.62
584.529	13946.38
584.889	14236.09
585.249	14235.87
585.609	14395.86
585.969	14761.05
586.329	14828.4
586.688	15124.66
587.048	15294.37
587.408	15487.36
587.768	15632.22
588.127	15979.33
588.487	16157.63
588.846	16540.67
589.206	16607.33
589.565	16965.74
589.925	17270.82
590.284	17468.55
590.643	17621.77
591.003	18034.64
591.362	18321.86
591.721	18575.87
592.08	18800.49
592.44	19099.92
592.799	19421.27
593.158	19580.36
593.517	19943.74
593.876	20289.95
594.235	20556.38
594.593	20792.53
594.952	21158.85
595.311	21479.75
595.67	21682.68
596.029	22172.38
596.387	22388.2
596.746	22799.03
597.104	23013.94
597.463	23316.53
597.822	23700.48
598.18	23832.45
598.538	24031.77
598.897	24558.08
599.255	24691.41
599.613	25254.11
599.972	25464.05
600.33	25872.62
600.688	26016.8
601.046	26399.62
601.404	26787.63
601.762	26930.9
602.12	27337.45
602.478	27598.91
602.836	27912.35
603.194	28033.25
603.552	28275.27
603.91	28480.01
604.268	29021.69
604.625	29157.74
604.983	29476.37
605.341	29619.19
605.698	29996.36
606.056	30275.45
606.413	30619.17
606.771	30916.11
607.128	31184.12
607.485	31282.65
607.843	31462.08
608.2	31925.8
608.557	32206.02
608.914	32453.47
609.272	32732.11
609.629	32902.04
609.986	33176.16
610.343	33407.12
610.7	33644.62
611.057	33915.8
611.414	34007.55
611.771	34161.45
612.127	34419.97
612.484	34747.42
612.841	34986.06
613.198	35048.65
613.554	35197.58
613.911	35643.44
614.267	35625.14
614.624	35823.78
614.98	36049.98
615.337	36365.68
615.693	36571.78
616.05	36621.04
616.406	36936.06
616.762	36971.99
617.118	37004.76
617.475	37331.98
617.831	37442.72
618.187	37624.63
618.543	37634.8
618.899	38135.35
619.255	38138.97
619.611	38152.98
619.967	38514.55
620.323	38777.37
620.678	38634.78
621.034	38685.62
621.39	38853.75
621.746	38916.8
622.101	39342.1
622.457	39130.58
622.812	39304.59
623.168	39422.1
623.523	39577.8
623.879	39799.04
624.234	39628.87
624.589	39890.34
624.945	39998.13
625.3	40078.13
625.655	40129.43
626.01	40311.57
626.365	40441.51
626.72	40447.61
627.075	40488.96
627.43	40523.99
627.785	40570.32
628.14	40500.94
628.495	40759.69
628.85	40660.94
629.205	40606.93
629.559	40961.27
629.914	40766.7
630.269	40826.36
630.623	40800.82
630.978	40778.67
631.332	41021.15
631.687	41064.32
632.041	40968.27
632.396	41123.75
632.75	40987.26
633.104	41197.19
633.459	41025.9
633.813	41076.74
634.167	41160.58
634.521	41059.34
634.875	41329.39
635.229	41196.97
635.583	41011.21
635.937	41095.73
636.291	40985.9
636.645	41172.56
636.999	41091.66
637.352	41300.69
637.706	41120.81
638.06	41207.81
638.413	41226.12
638.767	41035.62
639.121	41189.96
639.474	40986.58
639.828	41063.19
640.181	41050.76
640.534	41116.52
640.888	40972.79
641.241	40872
641.594	40994.71
641.947	41186.35
642.301	40968.05
642.654	41080.59
643.007	41164.88
643.36	41064.54
643.713	40983.41
644.066	41152.45
644.419	40865.9
644.771	40641.28
645.124	40350.44
645.477	40310.21
645.83	40088.97
646.182	40077.22
646.535	39874.52
646.888	40047.17
647.24	39806.5
647.593	40009.43
647.945	39968.75
648.298	39777.34
648.65	39612.6
649.002	39574.86
649.355	39831.13
649.707	39724.92
650.059	39926.04
650.411	40375.52
650.763	40339.59
651.115	40939.8
651.467	40663.42
651.819	40748.62
652.171	40567.83
652.523	40495.29
652.875	40511.34
653.227	40327.39
653.578	40775.06
653.93	40524.44
654.282	40392.24
654.633	40345.46
654.985	40467.72
655.337	40435.86
655.688	40545.23
656.039	40621.16
656.391	40483.09
656.742	40448.96
657.094	40426.14
657.445	40530.32
657.796	40544.56
658.147	40403.32
658.498	40410.32
658.849	40553.14
659.2	40353.83
659.551	40294.62
659.902	40586.59
660.253	40332.58
660.604	40519.25
660.955	40338.91
661.306	40412.13
661.656	40425.69
662.007	40438.57
662.358	40345.01
662.708	40516.31
663.059	40288.06
663.409	40055.08
663.76	40390.21
664.11	40440.83
664.461	40366.93
664.811	40380.72
665.161	40245.58
665.511	40280.83
665.862	40304.79
666.212	40420.04
666.562	40324.9
666.912	40271.34
667.262	40171.68
667.612	40277.9
667.962	40227.28
668.312	40200.61
668.662	40366.03
669.011	40380.04
669.361	40218.69
669.711	40099.6
670.06	40129.43
670.41	40081.97
670.76	39978.69
671.109	40322.87
671.459	40114.28
671.808	40037
672.157	40140.95
672.507	39928.53
672.856	39929.43
673.205	40083.32
673.554	40220.5
673.904	39941.18
674.253	40167.39
674.602	40029.31
674.951	39385.49
675.3	39290.8
675.649	39960.39
675.998	39804.69
676.346	39794.74
676.695	39997.68
677.044	39708.87
677.393	39718.59
677.741	39828.87
678.09	39734.41
678.438	39681.53
678.787	39665.48
679.135	39647.63
679.484	39349.11
679.832	39772.82
680.181	39328.77
680.529	39566.95
680.877	39420.74
681.225	39411.93
681.573	39652.38
681.922	39355.89
682.27	39156.12
682.618	39249.9
682.966	39117.47
683.314	39200.64
683.661	38971.94
684.009	39000.19
684.357	38924.94
684.705	38872.28
685.053	38851.27
685.4	38893.3
685.748	38602.23
686.095	38632.29
686.443	38525.85
686.79	38553.65
687.138	38578.28
687.485	38609.01
687.832	38385.29
688.18	38387.32
688.527	38309.13
688.874	38277.95
689.221	38113.88
689.568	38014.23
689.915	37899.2
690.262	37929.26
690.609	37772.42
690.956	37743.5
691.303	37613.11
691.65	37544.63
691.997	37522.71
692.344	37281.14
692.69	37226.45
693.037	37268.26
693.383	36973.8
693.73	37118.88
694.077	36846.57
694.423	37033.46
694.769	36743.3
695.116	36781.04
695.462	36564.77
695.808	36664.21
696.155	36581.95
696.501	36314.38
696.847	36315.06
697.193	35954.17
697.539	36239.58
697.885	36089.76
698.231	35974.28
698.577	35972.7
698.923	35801.86
699.269	35594.63
699.614	35535.2
699.96	35398.7
700.306	35394.86
700.651	35284.58
700.997	35175.66
701.342	35180.18
701.688	35096.11
702.033	35003.46
702.379	34992.61
702.724	34818.15
703.069	34972.27
703.415	34522.57
703.76	34541.78
704.105	34625.61
704.45	34398.5
704.795	34288
705.14	34301.78
705.485	34236.25
705.83	34138.62
706.175	34173.88
706.52	33922.81
706.865	33960.77
707.209	33846.88
707.554	33782.7
707.899	33801.23
708.243	33624.74
708.588	33569.15
708.932	33361.47
709.277	33320.34
709.621	33392.2
709.966	33110.63
710.31	33227.69
710.654	32844.42
710.998	33084.41
711.342	33018.65
711.687	32909.95
712.031	32769.17
712.375	32612.79
712.719	32813.91
713.063	32717.87
713.407	32754.25
713.75	32468.84
714.094	32469.97
714.438	32384.54
714.782	32389.97
715.125	32251.44
715.469	32369.86
715.812	32218.22
716.156	32033.37
716.499	32027.27
716.843	32023.88
717.186	31893.26
717.53	32016.42
717.873	31906.59
718.216	31892.13
718.559	31628.63
718.902	31608.52
719.246	31675.64
719.589	31600.84
719.932	31414.85
720.275	31511.35
720.617	31424.57
720.96	31308.64
721.303	31181.41
721.646	31387.96
721.989	31303.22
722.331	31206.27
722.674	31115.88
723.016	31003.34
723.359	30947.52
723.701	31041.3
724.044	30712.95
724.386	30623.46
724.729	30832.72
725.071	30646.51
725.413	30699.62
725.755	30637.7
726.097	30559.28
726.439	30458.27
726.782	30439.96
727.124	30615.1
727.465	30441.09
727.807	30436.12
728.149	30307.08
728.491	30222.57
728.833	30284.03
729.175	30115
729.516	30133.98
729.858	30066.19
730.199	30084.27
730.541	29970.14
730.882	30004.95
731.224	30086.07
731.565	29935.34
731.906	29863.71
732.248	29839.07
732.589	29730.83
732.93	29514.56
733.271	29664.16
733.612	29644.05
733.953	29720.89
734.294	29445.41
734.635	29569.25
734.976	29400.44
735.317	29315.7
735.658	29440.44
735.999	29318.41
736.339	29245.19
736.68	29399.09
737.021	29108.02
737.361	29122.03
737.702	29282.03
738.042	29171.52
738.383	29030.51
738.723	29163.61
739.063	29065.08
739.404	29058.98
739.744	28946.44
740.084	28790.06
740.424	28858.31
740.764	28676.39
741.104	28912.32
741.444	28705.54
741.784	28610.86
742.124	28712.78
742.464	28681.36
742.804	28655.6
743.143	28425.55
743.483	28578.99
743.823	28354.59
744.162	28230.08
744.502	28447.92
744.841	28336.29
745.181	28461.26
745.52	28252.68
745.86	28386.01
746.199	28315.27
746.538	28264.88
746.877	28301.26
747.216	28226.91
747.556	28209.74
747.895	28133.58
748.234	28071.89
748.573	28011.33
748.911	27995.28
749.25	27922.97
749.589	27835.51
749.928	27830.99
750.267	28011.55
750.605	27767.72
750.944	27787.15
751.283	27633.71
751.621	27746.93
751.96	27548.29
752.298	27554.84
752.636	27645.69
752.975	27558.23
753.313	27384.22
753.651	27573.15
753.989	27315.52
754.327	27293.6
754.666	27106.49
755.004	27238.24
755.342	27189.88
755.679	27036.66
756.017	27033.95
756.355	27085.02
756.693	26932.03
757.031	27010.45
757.368	26806.84
757.706	26795.31
758.044	26682.32
758.381	26794.41
758.719	26677.35
759.056	26708.54
759.394	26598.03
759.731	26433.97
760.068	26473.06
