Data from hue_180_FLMS001491_00046.txt Node
Date: Tue Feb 07 16:47:03 GMT 2017
User: dcchb
Spectrometer: FLMS00149
Trigger mode: 0
Integration Time (sec): 2.000000E-2
Scans to average: 10
Electric dark correction enabled: true
Nonlinearity correction enabled: false
Boxcar width: 0
XAxis mode: Wavelengths
Number of Pixels in Spectrum: 2048
>>>>>Begin Spectral Data<<<<<
341.393	-14.43
341.776	-14.43
342.16	-14.43
342.543	-73.42
342.927	-72.06
343.31	-81.78
343.693	-58.73
344.077	-77.03
344.46	-55.79
344.843	-48.33
345.226	-37.26
345.61	-33.64
345.993	-20.54
346.376	-0.42
346.759	10.2
347.142	20.14
347.525	33.47
347.908	61.72
348.291	70.76
348.674	90.65
349.057	126.58
349.44	120.7
349.823	148.5
350.206	147.59
350.588	197.09
350.971	233.47
351.354	216.29
351.737	231.66
352.119	268.27
352.502	268.5
352.884	286.8
353.267	303.75
353.65	286.57
354.032	298.78
354.414	298.55
354.797	325.22
355.179	328.16
355.562	326.8
355.944	324.54
356.326	324.54
356.709	353.47
357.091	322.51
357.473	322.51
357.855	351.43
358.238	353.47
358.62	339.23
359.002	334.93
359.384	305.56
359.766	321.38
360.148	311.66
360.53	316.4
360.912	337.87
361.294	347.14
361.676	329.74
362.057	329.51
362.439	325.22
362.821	335.61
363.203	330.19
363.584	317.76
363.966	324.31
364.348	304.88
364.729	314.14
365.111	305.1
365.493	329.74
365.874	319.34
366.256	317.08
366.637	330.19
367.019	310.98
367.4	300.36
367.781	318.66
368.163	309.85
368.544	301.72
368.925	309.17
369.306	298.55
369.688	290.42
370.069	336.06
370.45	311.66
370.831	313.01
371.212	315.05
371.593	299.91
371.974	309.85
372.355	299.68
372.736	318.21
373.117	294.71
373.498	311.21
373.879	301.04
374.26	300.81
374.641	299
375.021	305.56
375.402	326.12
375.783	310.53
376.163	335.61
376.544	316.18
376.925	333.58
377.305	332.67
377.686	320.47
378.066	328.16
378.447	344.65
378.827	323.18
379.208	302.85
379.588	337.87
379.968	307.36
380.349	313.24
380.729	320.47
381.109	332.9
381.489	339.68
381.87	340.13
382.25	328.61
382.63	318.44
383.01	344.88
383.39	324.09
383.77	354.82
384.15	326.12
384.53	328.83
384.91	343.07
385.29	335.39
385.67	311.66
386.049	353.24
386.429	344.43
386.809	334.71
387.189	348.04
387.568	331.77
387.948	344.43
388.328	341.26
388.707	341.71
389.087	339.23
389.466	360.92
389.846	356.4
390.225	370.41
390.605	371.32
390.984	362.96
391.363	381.71
391.743	373.35
392.122	376.29
392.501	362.28
392.881	377.19
393.26	377.87
393.639	371.32
394.018	346.23
394.397	360.02
394.776	359.79
395.155	356.18
395.534	382.62
395.913	391.43
396.292	399.79
396.671	383.3
397.05	386.01
397.429	378.55
397.808	384.88
398.186	386.23
398.565	388.27
398.944	384.2
399.323	382.17
399.701	392.79
400.08	407.93
400.458	386.23
400.837	410.41
401.215	383.07
401.594	399.34
401.972	414.93
402.351	418.32
402.729	414.25
403.107	415.16
403.486	439.79
403.864	434.37
404.242	434.82
404.62	440.02
404.999	421.94
405.377	431.66
405.755	432.11
406.133	441.37
406.511	433.69
406.889	449.06
407.267	469.85
407.645	466.46
408.023	487.7
408.401	465.78
408.779	479.11
409.156	480.92
409.534	479.56
409.912	476.4
410.29	473.24
410.667	510.75
411.045	505.33
411.422	509.62
411.8	514.14
412.178	516.85
412.555	547.13
412.933	556.62
413.31	558.88
413.687	537.87
414.065	556.17
414.442	564.99
414.819	572.44
415.197	570.63
415.574	589.84
415.951	573.35
416.328	616.74
416.705	591.2
417.082	602.5
417.46	632.78
417.837	620.35
418.214	626.45
418.591	642.72
418.967	658.54
419.344	633.68
419.721	667.36
420.098	670.07
420.475	679.56
420.852	707.35
421.228	676.17
421.605	701.48
421.982	704.42
422.358	724.53
422.735	730.63
423.111	757.3
423.488	763.85
423.864	767.01
424.241	763.85
424.617	787.35
424.994	808.59
425.37	816.96
425.746	803.85
426.123	823.74
426.499	859.67
426.875	867.35
427.251	870.29
427.627	858.76
428.003	878.88
428.379	893.34
428.756	886.56
429.132	903.73
429.507	924.07
429.883	923.62
430.259	945.31
430.635	954.58
431.011	972.43
431.387	955.03
431.763	1006.1
432.138	989.15
432.514	1023.5
432.89	1016.95
433.265	1018.31
433.641	1021.24
434.016	1071.41
434.392	1077.29
434.767	1107.57
435.143	1143.73
435.518	1131.75
435.894	1170.62
436.269	1168.13
436.644	1188.7
437.02	1222.82
437.395	1222.14
437.77	1245.19
438.145	1267.79
438.52	1284.51
438.895	1301.01
439.271	1302.14
439.646	1358.41
440.021	1341.91
440.395	1374.91
440.77	1356.15
441.145	1374.46
441.52	1399.09
441.895	1391.63
442.27	1431.63
442.645	1431.63
443.019	1426.43
443.394	1491.51
443.769	1498.52
444.143	1472.31
444.518	1514.11
444.892	1533.1
445.267	1549.14
445.641	1554.56
446.016	1565.64
446.39	1588.46
446.764	1574.68
447.139	1598.4
447.513	1614.9
447.887	1594.34
448.262	1628.69
448.636	1629.36
449.01	1675.92
449.384	1660.1
449.758	1668.46
450.132	1697.38
450.506	1719.53
450.88	1746.42
451.254	1744.62
451.628	1772.41
452.002	1793.43
452.376	1795.91
452.75	1826.42
453.123	1837.04
453.497	1850.38
453.871	1868.23
454.244	1899.19
454.618	1923.59
454.992	1941.45
455.365	1959.52
455.739	1973.54
456.112	2068.9
456.486	2054.66
456.859	2056.92
457.232	2089.24
457.606	2063.02
457.979	2143.02
458.352	2169.69
458.725	2210.37
459.099	2232.51
459.472	2231.61
459.845	2271.15
460.218	2294.66
460.591	2312.06
460.964	2338.72
461.337	2400.64
461.71	2422.34
462.083	2456.23
462.456	2434.54
462.829	2482.22
463.201	2545.5
463.574	2519.51
463.947	2584.59
464.32	2671.14
464.692	2609.45
465.065	2709.79
465.438	2728.09
465.81	2769.45
466.183	2818.26
466.555	2894.42
466.928	2886.73
467.3	2917.47
467.672	2964.02
468.045	3042.89
468.417	3003.57
468.789	3063.45
469.161	3115.65
469.534	3189.77
469.906	3225.25
470.278	3213.96
470.65	3285.37
471.022	3339.38
471.394	3451.46
471.766	3491.01
472.138	3486.26
472.51	3594.06
472.882	3663.21
473.253	3686.26
473.625	3774.39
473.997	3810.1
474.369	3885.58
474.74	3875.18
475.112	4037.66
475.484	4063.88
475.855	4188.84
476.227	4190.43
476.598	4323.76
476.97	4378.67
477.341	4488.5
477.713	4548.16
478.084	4605.56
478.455	4749.51
478.827	4749.51
479.198	4911.76
479.569	4977.75
479.94	5098.65
480.311	5146.11
480.682	5257.52
481.053	5415.03
481.424	5515.14
481.795	5569.6
482.166	5689.37
482.537	5730.5
482.908	5890.04
483.279	5915.58
483.65	6060.21
484.021	6211.39
484.391	6231.73
484.762	6373.65
485.133	6405.28
485.503	6551.95
485.874	6598.5
486.244	6726.18
486.615	6924.82
486.985	6997.13
487.356	7167.52
487.726	7149.22
488.097	7324.36
488.467	7403.9
488.837	7530.23
489.207	7611.58
489.578	7758.24
489.948	7861.74
490.318	7941.51
490.688	7981.51
491.058	8112.36
491.428	8210.66
491.798	8329.07
492.168	8464.44
492.538	8503.99
492.908	8644.09
493.278	8719.8
493.648	8751.66
494.017	8907.14
494.387	8973.8
494.757	9030.3
495.126	9131.09
495.496	9222.61
495.866	9181.48
496.235	9350.29
496.605	9381.02
496.974	9454.69
497.344	9543.51
497.713	9645.88
498.082	9660.57
498.452	9775.59
498.821	9766.1
499.19	9842.26
499.559	9905.08
499.928	9933.33
500.298	10032.31
500.667	10095.13
501.036	10058.07
501.405	10240.66
501.774	10125.86
502.143	10242.02
502.512	10293.99
502.88	10381.9
503.249	10425.29
503.618	10412.64
503.987	10470.94
504.356	10470.71
504.724	10522.01
505.093	10598.85
505.462	10662.57
505.83	10580.09
506.199	10674.32
506.567	10827.09
506.936	10832.74
507.304	10854.88
507.672	10938.27
508.041	10944.37
508.409	10962.68
508.777	11135.78
509.145	11115.22
509.514	11054.65
509.882	11197.02
510.25	11133.29
510.618	11178.04
510.986	11260.52
511.354	11205.84
511.722	11301.65
512.09	11361.54
512.458	11353.63
512.826	11405.83
513.193	11427.52
513.561	11411.48
513.929	11505.49
514.297	11488.99
514.664	11507.07
515.032	11523.79
515.4	11599.5
515.767	11690.12
516.135	11646.28
516.502	11511.82
516.869	11694.18
517.237	11668.42
517.604	11647.86
517.972	11711.58
518.339	11727.63
518.706	11681.98
519.073	11725.6
519.44	11721.08
519.808	11796.55
520.175	11764.01
520.542	11859.6
520.909	11853.95
521.276	11827.51
521.643	11875.87
522.009	11952.48
522.376	11955.87
522.743	11948.41
523.11	12029.77
523.477	12040.16
523.843	12030.45
524.21	12071.12
524.577	12161.97
524.943	12107.73
525.31	12107.28
525.676	12114.51
526.043	12143.66
526.409	12162.42
526.776	12247.16
527.142	12183.66
527.508	12208.75
527.874	12203.78
528.241	12257.33
528.607	12154.51
528.973	12233.83
529.339	12144.57
529.705	12246.94
530.071	12246.49
530.437	12174.62
530.803	12182.98
531.169	12200.84
531.535	12094.4
531.901	12142.76
532.267	12098.47
532.632	12102.99
532.998	12023.21
533.364	12067.06
533.73	11959.04
534.095	12022.09
534.461	11940.51
534.826	12004.46
535.192	11975.98
535.557	11958.36
535.923	11794.52
536.288	11894.86
536.653	11859.6
537.019	11787.06
537.384	11735.09
537.749	11810.57
538.114	11723.56
538.479	11647.41
538.845	11655.54
539.21	11473.62
539.575	11546.62
539.94	11502.1
540.305	11528.09
540.67	11427.07
541.034	11447.18
541.399	11369.45
541.764	11387.98
542.129	11252.84
542.494	11325.83
542.858	11219.85
543.223	11084.03
543.587	11170.58
543.952	11094.2
544.316	11114.09
544.681	10935.56
545.045	10987.99
545.41	11003.35
545.774	10969.91
546.138	10917.93
546.503	10796.13
546.867	10734.66
547.231	10745.51
547.595	10767.65
547.959	10685.62
548.324	10544.61
548.688	10523.82
549.052	10520.66
549.416	10487.44
549.779	10510.26
550.143	10378.06
550.507	10416.7
550.871	10266.88
551.235	10240.44
551.599	10302.81
551.962	10294.9
552.326	10178.52
552.689	10145.75
553.053	10083.38
553.417	10092.42
553.78	10147.56
554.143	9988.92
554.507	10054.23
554.87	10039.76
555.234	10008.58
555.597	9962.25
555.96	9963.38
556.323	9864.4
556.686	9899.2
557.05	9844.29
557.413	9785.76
557.776	9768.81
558.139	9806.1
558.502	9786.66
558.865	9688.59
559.228	9807
559.59	9756.16
559.953	9757.96
560.316	9741.24
560.679	9754.12
561.041	9703.73
561.404	9709.38
561.767	9710.06
562.129	9609.72
562.492	9715.25
562.854	9701.24
563.217	9597.29
563.579	9596.84
563.941	9622.37
564.304	9610.17
564.666	9634.8
565.028	9576.05
565.39	9561.81
565.753	9651.53
566.115	9599.55
566.477	9582.15
566.839	9595.03
567.201	9645.42
567.563	9576.5
567.925	9643.39
568.287	9604.07
568.648	9578.76
569.01	9614.24
569.372	9573.79
569.734	9604.97
570.095	9635.93
570.457	9675.25
570.819	9566.56
571.18	9547.57
571.542	9577.63
571.903	9571.53
572.265	9616.27
572.626	9633.67
572.987	9607.23
573.349	9636.39
573.71	9623.73
574.071	9609.72
574.432	9631.87
574.794	9731.3
575.155	9623.96
575.516	9665.08
575.877	9702.82
576.238	9664.63
576.599	9562.71
576.96	9643.84
577.32	9637.29
577.681	9649.49
578.042	9656.27
578.403	9653.79
578.763	9635.48
579.124	9617.18
579.485	9597.97
579.845	9625.09
580.206	9561.36
580.566	9555.94
580.927	9542.83
581.287	9662.37
581.648	9550.06
582.008	9642.94
582.368	9605.65
582.728	9587.12
583.089	9531.76
583.449	9557.52
583.809	9549.16
584.169	9522.94
584.529	9464.86
584.889	9556.61
585.249	9515.03
585.609	9506.67
585.969	9509.16
586.329	9356.84
586.688	9489.04
587.048	9557.07
587.408	9433.68
587.768	9475.03
588.127	9458.08
588.487	9412.66
588.846	9476.39
589.206	9333.34
589.565	9406.33
589.925	9461.25
590.284	9381.7
590.643	9425.32
591.003	9350.74
591.362	9433.23
591.721	9328.6
592.08	9357.3
592.44	9340.35
592.799	9367.24
593.158	9321.59
593.517	9332.44
593.876	9283.4
594.235	9328.6
594.593	9295.15
594.952	9234.14
595.311	9280.24
595.67	9276.17
596.029	9274.81
596.387	9278.2
596.746	9266.68
597.104	9255.38
597.463	9202.95
597.822	9227.58
598.18	9244.53
598.538	9205.21
598.897	9246.56
599.255	9180.35
599.613	9274.36
599.972	9266.9
600.33	9243.85
600.688	9233.91
601.046	9225.55
601.404	9303.96
601.762	9241.59
602.12	9204.08
602.478	9223.97
602.836	9195.72
603.194	9136.06
603.552	9206.11
603.91	9202.95
604.268	9235.27
604.625	9174.48
604.983	9203.85
605.341	9147.13
605.698	9186.91
606.056	9249.05
606.413	9244.53
606.771	9265.32
607.128	9201.59
607.485	9198.43
607.843	9185.32
608.2	9226.68
608.557	9261.93
608.914	9208.15
609.272	9257.19
609.629	9184.42
609.986	9269.16
610.343	9225.1
610.7	9230.29
611.057	9266.9
611.414	9258.77
611.771	9299.67
612.127	9270.97
612.484	9250.86
612.841	9292.44
613.198	9252.67
613.554	9311.65
613.911	9302.38
614.267	9322.95
614.624	9322.95
614.98	9296.51
615.337	9367.92
615.693	9350.74
616.05	9348.71
616.406	9344.64
616.762	9294.47
617.118	9344.19
617.475	9355.04
617.831	9300.57
618.187	9358.43
618.543	9375.37
618.899	9414.92
619.255	9357.75
619.611	9439.55
619.967	9472.77
620.323	9438.2
620.678	9388.26
621.034	9429.16
621.39	9398.43
621.746	9385.09
622.101	9454.92
622.457	9362.49
622.812	9391.42
623.168	9422.83
623.523	9362.72
623.879	9425.09
624.234	9372.21
624.589	9336.96
624.945	9377.86
625.3	9380.12
625.655	9314.36
626.01	9395.26
626.365	9378.31
626.72	9341.7
627.075	9347.35
627.43	9342.16
627.785	9306
628.14	9367.47
628.495	9382.15
628.85	9363.17
629.205	9321.37
629.559	9353.91
629.914	9379.22
630.269	9328.82
630.623	9297.41
630.978	9317.75
631.332	9341.03
631.687	9317.98
632.041	9324.08
632.396	9268.94
632.75	9233.01
633.104	9242.95
633.459	9200.24
633.813	9194.14
634.167	9202.5
634.521	9188.26
634.875	9193.91
635.229	9208.37
635.583	9166.34
635.937	9206.34
636.291	9103.29
636.645	9097.42
636.999	9117.08
637.352	9181.48
637.706	9082.95
638.06	9100.13
638.413	9039.34
638.767	9041.6
639.121	9029.85
639.474	8975.84
639.828	9028.04
640.181	8980.81
640.534	9028.49
640.888	9025.55
641.241	9003.18
641.594	9018.55
641.947	9022.39
642.301	8900.36
642.654	8944.65
643.007	9023.97
643.36	8943.3
643.713	8986.23
644.066	8944.65
644.419	8941.49
644.771	8846.58
645.124	8812.9
645.477	8739.69
645.83	8736.75
646.182	8682.06
646.535	8648.16
646.888	8714.15
647.24	8688.84
647.593	8696.75
647.945	8614.72
648.298	8620.59
648.65	8634.15
649.002	8552.8
649.355	8626.69
649.707	8642.06
650.059	8670.76
650.411	8776.97
650.763	8786.01
651.115	8871.66
651.467	8864.43
651.819	8890.87
652.171	8842.73
652.523	8792.57
652.875	8769.74
653.227	8796.41
653.578	8853.13
653.93	8885.9
654.282	8774.26
654.633	8831.89
654.985	8852.68
655.337	8822.62
655.688	8858.55
656.039	8934.93
656.391	8814.94
656.742	8835.05
657.094	8852
657.445	8853.35
657.796	8846.8
658.147	8861.94
658.498	8836.18
658.849	8913.01
659.2	8871.43
659.551	8765.9
659.902	8863.07
660.253	8776.75
660.604	8895.61
660.955	8878.21
661.306	8902.39
661.656	8812.45
662.007	8949.4
662.358	8862.62
662.708	8841.6
663.059	8871.66
663.409	8873.02
663.76	8901.94
664.11	8915.95
664.461	8905.56
664.811	8891.32
665.161	8914.14
665.511	8944.43
665.862	8936.74
666.212	9032.56
666.562	8969.51
666.912	8914.6
667.262	8940.13
667.612	8893.13
667.962	8916.63
668.312	8900.13
668.662	8972.67
669.011	8904.65
669.361	8973.8
669.711	8990.3
670.06	8908.72
670.41	8903.07
670.76	8927.25
671.109	8934.93
671.459	8866.91
671.808	8878.89
672.157	8895.61
672.507	8824.43
672.856	8857.65
673.205	8841.83
673.554	8868.27
673.904	8842.28
674.253	8888.16
674.602	8834.6
674.951	8691.55
675.3	8708.95
675.649	8739.01
675.998	8820.36
676.346	8769.06
676.695	8806.35
677.044	8735.17
677.393	8745.56
677.741	8810.64
678.09	8788.72
678.438	8701.04
678.787	8703.08
679.135	8727.93
679.484	8688.61
679.832	8699.91
680.181	8652.91
680.529	8630.31
680.877	8649.29
681.225	8616.75
681.573	8672.79
681.922	8589.86
682.27	8609.75
682.618	8596.19
682.966	8592.57
683.314	8515.74
683.661	8537.66
684.009	8498.79
684.357	8509.18
684.705	8440.26
685.053	8482.07
685.4	8415.4
685.748	8407.72
686.095	8411.33
686.443	8344.67
686.79	8359.81
687.138	8288.85
687.485	8337.89
687.832	8348.74
688.18	8278.68
688.527	8294.05
688.874	8226.25
689.221	8196.87
689.568	8213.82
689.915	8173.6
690.262	8185.8
690.609	8128.63
690.956	8119.14
691.303	8082.75
691.65	8084.11
691.997	8052.47
692.344	7995.07
692.69	7996.65
693.037	7969.31
693.383	7880.05
693.73	7907.39
694.077	7894.74
694.423	7849.31
694.769	7780.61
695.116	7809.99
695.462	7720.73
695.808	7751.91
696.155	7701.97
696.501	7650
696.847	7755.76
697.193	7536.33
697.539	7644.35
697.885	7524.58
698.231	7493.84
698.577	7548.98
698.923	7508.98
699.269	7477.12
699.614	7426.05
699.96	7395.54
700.306	7355.54
700.651	7367.52
700.997	7284.58
701.342	7289.55
701.688	7228.76
702.033	7247.3
702.379	7228.09
702.724	7200.52
703.069	7145.38
703.415	7086.62
703.76	7121.2
704.105	7119.16
704.45	7101.08
704.795	7047.75
705.14	6997.58
705.485	6952.84
705.83	6957.59
706.175	7030.8
706.52	6940.18
706.865	6904.71
707.209	6869.45
707.554	6817.93
707.899	6808.44
708.243	6827.19
708.588	6781.09
708.932	6739.74
709.277	6797.59
709.621	6714.65
709.966	6765.5
710.31	6739.51
710.654	6666.75
710.998	6657.48
711.342	6635.11
711.687	6659.29
712.031	6559.4
712.375	6607.54
712.719	6565.28
713.063	6630.81
713.407	6555.56
713.75	6520.76
714.094	6550.36
714.438	6430.59
714.782	6544.49
715.125	6462.01
715.469	6529.57
715.812	6488.67
716.156	6439.86
716.499	6473.08
716.843	6459.75
717.186	6379.97
717.53	6393.08
717.873	6400.09
718.216	6436.92
718.559	6333.42
718.902	6386.3
719.246	6385.62
719.589	6335.23
719.932	6303.59
720.275	6323.48
720.617	6343.82
720.96	6274.67
721.303	6306.53
721.646	6337.49
721.989	6263.59
722.331	6303.82
722.674	6299.75
723.016	6315.34
723.359	6267.66
723.701	6297.72
724.044	6191.96
724.386	6201.45
724.729	6234.21
725.071	6234.44
725.413	6280.54
725.755	6276.02
726.097	6224.95
726.439	6195.35
726.782	6220.2
727.124	6244.38
727.465	6186.53
727.807	6237.83
728.149	6145.86
728.491	6157.15
728.833	6188.11
729.175	6177.49
729.516	6196.25
729.858	6169.81
730.199	6167.78
730.541	6197.61
730.882	6240.32
731.224	6220.2
731.565	6139.53
731.906	6184.95
732.248	6204.38
732.589	6140.43
732.93	6136.36
733.271	6179.07
733.612	6192.41
733.953	6199.87
734.294	6189.02
734.635	6152.63
734.976	6229.69
735.317	6173.88
735.658	6222.69
735.999	6218.62
736.339	6211.84
736.68	6273.31
737.021	6233.76
737.361	6236.93
737.702	6225.18
738.042	6239.41
738.383	6254.78
738.723	6220.43
739.063	6181.79
739.404	6289.35
739.744	6314.44
740.084	6260.65
740.424	6301.56
740.764	6323.48
741.104	6284.61
741.444	6286.64
741.784	6352.86
742.124	6388.11
742.464	6365.96
742.804	6360.31
743.143	6400.76
743.483	6427.2
743.823	6483.47
744.162	6449.58
744.502	6524.38
744.841	6537.03
745.181	6528.9
745.52	6561.44
745.86	6618.84
746.199	6687.99
746.538	6667.65
746.877	6749.91
747.216	6771.83
747.556	6818.61
747.895	6831.04
748.234	6850.47
748.573	6987.87
748.911	6980.64
749.25	7089.56
749.589	7114.87
749.928	7177.92
750.267	7222.66
750.605	7286.16
750.944	7363.68
751.283	7438.7
751.621	7469.66
751.96	7640.05
752.298	7728.86
752.636	7835.98
752.975	7904.45
753.313	7960.04
753.651	8098.8
753.989	8144.45
754.327	8287.72
754.666	8335.4
755.004	8459.01
755.342	8649.52
755.679	8762.28
756.017	8868.27
756.355	8969.74
756.693	9157.75
757.031	9309.16
757.368	9351.87
757.706	9504.19
758.044	9650.85
758.381	9847.45
758.719	9959.99
759.056	10077.96
759.394	10253.54
759.731	10376.25
760.068	10592.52
760.405	10655.12
760.743	10807.65
761.08	11052.62
761.417	11126.97
761.754	11279.28
762.091	11537.58
762.428	11714.97
762.765	11783.9
763.102	12088.98
763.438	12234.06
763.775	12334.39
764.112	12523.09
764.449	12648.51
764.785	12882.63
765.122	12955.85
765.458	13108.38
