Data from hue_290_FLMS001491_00055.txt Node
Date: Tue Feb 07 15:52:55 GMT 2017
User: dcchb
Spectrometer: FLMS00149
Trigger mode: 0
Integration Time (sec): 2.000000E-2
Scans to average: 10
Electric dark correction enabled: true
Nonlinearity correction enabled: false
Boxcar width: 0
XAxis mode: Wavelengths
Number of Pixels in Spectrum: 2048
>>>>>Begin Spectral Data<<<<<
341.393	-3.46
341.776	-3.46
342.16	-3.46
342.543	-66.51
342.927	-54.98
343.31	-76.9
343.693	-59.5
344.077	-65.15
344.46	-61.31
344.843	-49.56
345.226	-65.61
345.61	-23.35
345.993	-11.37
346.376	9.42
346.759	4.9
347.142	13.71
347.525	56.88
347.908	46.71
348.291	84.9
348.674	85.58
349.057	110.66
349.44	114.28
349.823	136.87
350.206	159.47
350.588	186.82
350.971	196.08
351.354	223.88
351.737	215.29
352.119	241.73
352.502	249.41
352.884	280.15
353.267	278.57
353.65	281.28
354.032	299.81
354.414	314.05
354.797	298.9
355.179	289.64
355.562	305.01
355.944	314.27
356.326	300.49
356.709	332.58
357.091	329.41
357.473	338.45
357.855	328.28
358.238	325.8
358.62	346.81
359.002	355.17
359.384	330.99
359.766	333.93
360.148	324.67
360.53	326.93
360.912	325.34
361.294	305.46
361.676	339.81
362.057	337.55
362.439	322.18
362.821	307.72
363.203	314.27
363.584	345.68
363.966	326.93
364.348	325.57
364.729	324.21
365.111	307.94
365.493	303.65
365.874	316.98
366.256	312.69
366.637	315.63
367.019	324.44
367.4	324.44
367.781	305.91
368.163	316.76
368.544	289.19
368.925	319.69
369.306	313.82
369.688	314.05
370.069	308.17
370.45	286.7
370.831	326.02
371.212	305.23
371.593	316.31
371.974	322.41
372.355	300.03
372.736	306.59
373.117	305.46
373.498	315.63
373.879	305.01
374.26	301.62
374.641	309.53
375.021	296.87
375.402	323.08
375.783	310.2
376.163	314.5
376.544	335.97
376.925	314.27
377.305	309.07
377.686	313.59
378.066	315.18
378.447	328.06
378.827	325.57
379.208	334.84
379.588	325.34
379.968	319.02
380.349	353.59
380.729	329.86
381.109	322.18
381.489	314.05
381.87	324.44
382.25	341.16
382.63	332.12
383.01	332.12
383.39	334.16
383.77	343.88
384.15	330.77
384.53	344.1
384.91	333.03
385.29	349.07
385.67	331.9
386.049	357.43
386.429	332.35
386.809	317.44
387.189	345.68
387.568	345.23
387.948	359.92
388.328	370.54
388.707	365.12
389.087	332.35
389.466	368.51
389.846	333.03
390.225	351.78
390.605	387.94
390.984	360.82
391.363	362.18
391.743	370.54
392.122	374.83
392.501	373.93
392.881	376.19
393.26	382.97
393.639	372.35
394.018	393.37
394.397	391.11
394.776	393.82
395.155	378
395.534	373.48
395.913	408.51
396.292	388.39
396.671	379.81
397.05	401.5
397.429	379.81
397.808	364.67
398.186	390.65
398.565	399.24
398.944	378.45
399.323	419.35
399.701	408.73
400.08	392.69
400.458	403.31
400.837	406.47
401.215	423.87
401.594	418.68
401.972	436.98
402.351	431.78
402.729	420.94
403.107	420.71
403.486	433.59
403.864	430.43
404.242	429.3
404.62	443.99
404.999	436.75
405.377	435.17
405.755	439.92
406.133	455.96
406.511	447.6
406.889	484.66
407.267	454.15
407.645	465.91
408.023	483.76
408.401	488.05
408.779	488.5
409.156	482.4
409.534	500.93
409.912	519.92
410.29	524.66
410.667	509.75
411.045	502.74
411.422	503.19
411.8	537.09
412.178	554.27
412.555	534.83
412.933	521.72
413.31	566.92
413.687	574.15
414.065	568.73
414.442	583.42
414.819	607.82
415.197	603.53
415.574	590.42
415.951	621.83
416.328	628.84
416.705	643.3
417.082	625.22
417.46	642.85
417.837	625
418.214	663.41
418.591	652.12
418.967	698.67
419.344	684.88
419.721	693.24
420.098	685.11
420.475	699.8
420.852	694.37
421.228	727.82
421.605	719.68
421.982	747.25
422.358	730.98
422.735	742.96
423.111	762.4
423.488	763.98
423.864	771.89
424.241	787.03
424.617	798.78
424.994	798.78
425.37	814.82
425.746	827.7
426.123	838.78
426.499	836.97
426.875	823.86
427.251	833.13
427.627	865.9
428.003	874.26
428.379	890.08
428.756	901.37
429.132	911.54
429.507	921.49
429.883	919.45
430.259	958.77
430.635	952.45
431.011	978.89
431.387	970.3
431.763	1014.82
432.138	986.8
432.514	1032.22
432.89	1019.34
433.265	1045.78
433.641	1035.38
434.016	1042.84
434.392	1080.13
434.767	1094.36
435.143	1090.07
435.518	1099.11
435.894	1134.14
436.269	1168.26
436.644	1133.68
437.02	1158.77
437.395	1185.89
437.77	1192.21
438.145	1216.85
438.52	1217.07
438.895	1195.83
439.271	1208.94
439.646	1268.6
440.021	1259.33
440.395	1246.9
440.77	1259.78
441.145	1267.92
441.52	1302.04
441.895	1315.38
442.27	1295.04
442.645	1313.12
443.019	1302.49
443.394	1293
443.769	1345.66
444.143	1329.39
444.518	1375.49
444.892	1364.87
445.267	1365.32
445.641	1371.42
446.016	1380.23
446.39	1387.46
446.764	1396.73
447.139	1388.59
447.513	1387.01
447.887	1367.35
448.262	1401.02
448.636	1388.14
449.01	1420.01
449.384	1444.64
449.758	1462.26
450.132	1425.65
450.506	1467.69
450.88	1448.93
451.254	1444.41
451.628	1465.65
452.002	1465.88
452.376	1505.88
452.75	1483.28
453.123	1503.17
453.497	1524.41
453.871	1530.06
454.244	1574.35
454.618	1566.22
454.992	1594.69
455.365	1577.29
455.739	1620.9
456.112	1605.54
456.486	1612.54
456.859	1635.14
457.232	1683.95
457.606	1648.7
457.979	1688.25
458.352	1705.2
458.725	1676.95
459.099	1708.36
459.472	1740.9
459.845	1771.18
460.218	1783.39
460.591	1790.84
460.964	1780
461.337	1815.02
461.71	1827.9
462.083	1831.29
462.456	1845.76
462.829	1830.39
463.201	1864.06
463.574	1915.36
463.947	1915.13
464.32	1934.12
464.692	1947.22
465.065	1963.72
465.438	1953.32
465.81	1975.24
466.183	1994.45
466.555	2024.96
466.928	2038.75
467.3	2023.38
467.672	2045.75
468.045	2125.98
468.417	2116.26
468.789	2115.58
469.161	2110.61
469.534	2176.82
469.906	2190.38
470.278	2224.05
470.65	2225.63
471.022	2256.14
471.394	2285.97
471.766	2291.62
472.138	2304.5
472.51	2358.96
472.882	2380.88
473.253	2387.66
473.625	2430.15
473.997	2462.01
474.369	2463.37
474.74	2460.43
475.112	2490.26
475.484	2540.65
475.855	2559.18
476.227	2579.97
476.598	2620.88
476.97	2679.63
477.341	2666.75
477.713	2733.19
478.084	2754.21
478.455	2788.78
478.827	2782.91
479.198	2874.88
479.569	2890.93
479.94	2927.08
480.311	2943.81
480.682	2948.55
481.053	3045.27
481.424	3084.82
481.795	3091.83
482.166	3131.15
482.537	3122.56
482.908	3223.57
483.279	3242.78
483.65	3233.97
484.021	3273.97
484.391	3322.33
484.762	3301.54
485.133	3331.82
485.503	3387.64
485.874	3447.07
486.244	3473.51
486.615	3563
486.985	3531.81
487.356	3589.67
487.726	3593.73
488.097	3671.02
488.467	3677.12
488.837	3693.39
489.207	3772.03
489.578	3758.25
489.948	3815.2
490.318	3887.51
490.688	3854.29
491.058	3921.63
491.428	3922.31
491.798	3969.99
492.168	4054.96
492.538	4064.68
492.908	4012.03
493.278	4144.68
493.648	4142.65
494.017	4181.74
494.387	4223.55
494.757	4271.68
495.126	4297.22
495.496	4262.64
495.866	4314.17
496.235	4363.88
496.605	4333.37
496.974	4360.49
497.344	4397.1
497.713	4432.81
498.082	4422.41
498.452	4443.65
498.821	4495.63
499.19	4505.12
499.559	4477.33
499.928	4512.13
500.298	4536.08
500.667	4592.13
501.036	4547.38
501.405	4587.83
501.774	4615.85
502.143	4637.55
502.512	4656.53
502.88	4701.73
503.249	4676.42
503.618	4708.96
503.987	4665.34
504.356	4743.31
504.724	4790.76
505.093	4745.12
505.462	4750.09
505.83	4823.53
506.199	4841.61
506.567	4842.97
506.936	4876.86
507.304	4938.33
507.672	4953.02
508.041	4916.86
508.409	4955.73
508.777	5004.77
509.145	5004.77
509.514	4986.92
509.882	5050.64
510.25	5029.85
510.618	5056.29
510.986	5054.49
511.354	5095.16
511.722	5173.8
512.09	5136.07
512.458	5135.84
512.826	5156.18
513.193	5191.21
513.561	5174.71
513.929	5241.83
514.297	5247.7
514.664	5291.54
515.032	5286.34
515.4	5294.48
515.767	5303.29
516.135	5309.17
516.502	5284.31
516.869	5360.69
517.237	5365.66
517.604	5338.77
517.972	5396.4
518.339	5399.56
518.706	5424.87
519.073	5434.81
519.44	5404.08
519.808	5455.83
520.175	5407.7
520.542	5485.66
520.909	5500.58
521.276	5537.18
521.643	5516.85
522.009	5553.23
522.376	5626.67
522.743	5607.92
523.11	5702.38
523.477	5677.97
523.843	5771.3
524.21	5688.82
524.577	5769.72
524.943	5726.11
525.31	5759.55
525.676	5812.66
526.043	5800.23
526.409	5823.73
526.776	5892.2
527.142	5900.11
527.508	5931.3
527.874	5979.89
528.241	5979.21
528.607	6016.49
528.973	6036.15
529.339	6045.87
529.705	6097.17
530.071	6118.64
530.437	6154.57
530.803	6219.43
531.169	6183.5
531.535	6180.56
531.901	6176.94
532.267	6221.01
532.632	6253.55
532.998	6284.28
533.364	6272.76
533.73	6275.7
534.095	6267.11
534.461	6355.24
534.826	6417.16
535.192	6409.93
535.557	6474.11
535.923	6465.97
536.288	6461.45
536.653	6451.74
537.019	6456.26
537.384	6421
537.749	6590.49
538.114	6540.32
538.479	6538.51
538.845	6618.51
539.21	6617.61
539.575	6614.9
539.94	6671.62
540.305	6678.85
540.67	6704.84
541.034	6691.73
541.399	6782.58
541.764	6743.93
542.129	6705.97
542.494	6766.76
542.858	6816.25
543.223	6788.68
543.587	6809.92
543.952	6800.43
544.316	6842.01
544.681	6862.12
545.045	6852.18
545.41	6963.81
545.774	6956.81
546.138	6916.13
546.503	6969.46
546.867	6992.97
547.231	7007.43
547.595	7022.8
547.959	7001.33
548.324	7046.98
548.688	7077.03
549.052	7103.92
549.416	7083.13
549.779	7164.03
550.143	7131.04
550.507	7157.93
550.871	7198.61
551.235	7138.05
551.599	7225.05
551.962	7254.2
552.326	7220.3
552.689	7255.33
553.053	7276.57
553.417	7249.91
553.78	7354.31
554.143	7314.99
554.507	7291.94
554.87	7327.42
555.234	7415.1
555.597	7415.55
555.96	7398.15
556.323	7385.05
556.686	7446.29
557.05	7486.51
557.413	7500.52
557.776	7459.62
558.139	7491.94
558.502	7524.25
558.865	7514.31
559.228	7552.73
559.59	7577.58
559.953	7652.84
560.316	7719.73
560.679	7644.25
561.041	7716.34
561.404	7722.21
561.767	7745.49
562.129	7712.95
562.492	7773.51
562.854	7844.24
563.217	7809.44
563.579	7823.9
563.941	7892.15
564.304	7890.8
564.666	7964.24
565.028	7938.25
565.39	7931.92
565.753	7924.69
566.115	7951.13
566.477	7998.82
566.839	8027.97
567.201	8086.95
567.563	8072.26
567.925	8119.49
568.287	8129.43
568.648	8120.85
569.01	8172.37
569.372	8261.86
569.734	8263.44
570.095	8348.18
570.457	8342.31
570.819	8359.94
571.18	8332.82
571.542	8439.03
571.903	8502.98
572.265	8475.86
572.626	8505.47
572.987	8559.03
573.349	8556.31
573.71	8610.78
574.071	8611.23
574.432	8717.67
574.794	8784.33
575.155	8741.39
575.516	8837.66
575.877	8872.46
576.238	8859.58
576.599	8979.58
576.96	8995.63
577.32	9048.51
577.681	9108.39
578.042	9185
578.403	9226.13
578.763	9301.38
579.124	9391.55
579.485	9485.56
579.845	9403.07
580.206	9547.25
580.566	9567.81
580.927	9600.35
581.287	9748.6
581.648	9760.35
582.008	9913.34
582.368	10008.03
582.728	10051.42
583.089	10202.82
583.449	10212.54
583.809	10344.29
584.169	10479.65
584.529	10557.17
584.889	10695.24
585.249	10733.88
585.609	10836.48
585.969	10969.81
586.329	11099.98
586.688	11170.48
587.048	11296.13
587.408	11449.8
587.768	11525.73
588.127	11757.81
588.487	11773.41
588.846	11923.68
589.206	12008.65
589.565	12150.34
589.925	12298.36
590.284	12410.22
590.643	12601.41
591.003	12765.7
591.362	12883.66
591.721	13006.37
592.08	13127.27
592.44	13387.15
592.799	13429.63
593.158	13563.41
593.517	13720.92
593.876	13907.81
594.235	13950.52
594.593	14066.68
594.952	14177.86
595.311	14280.01
595.67	14504.18
596.029	14672.09
596.387	14774.91
596.746	14950.5
597.104	14998.63
597.463	15136.93
597.822	15342.12
598.18	15290.37
598.538	15484.49
598.897	15686.07
599.255	15714.32
599.613	16060.3
599.972	16147.53
600.33	16244.25
600.688	16260.29
601.046	16400.18
601.404	16617.35
601.762	16734.63
602.12	16950.44
602.478	17004.45
602.836	17079.71
603.194	17040.16
603.552	17224.56
603.91	17299.81
604.268	17489.86
604.625	17411.9
604.983	17709.75
605.341	17648.96
605.698	17939.34
606.056	17946.12
606.413	18029.51
606.771	18183.18
607.128	18199
607.485	18224.31
607.843	18364.87
608.2	18458.65
608.557	18572.55
608.914	18476.05
609.272	18713.11
609.629	18710.4
609.986	18911.52
610.343	18941.35
610.7	19157.39
611.057	19005.08
611.414	19155.36
611.771	19218.63
612.127	19441
612.484	19415.46
612.841	19515.57
613.198	19485.29
613.554	19665.63
613.911	19762.8
614.267	19878.05
614.624	19800.54
614.98	19881.44
615.337	20008.22
615.693	20017.26
616.05	20064.94
616.406	20242.56
616.762	20125.73
617.118	20193.97
617.475	20337.7
617.831	20354.2
618.187	20483.68
618.543	20419.05
618.899	20585.83
619.255	20610.46
619.611	20536.34
619.967	20767.74
620.323	20770.91
620.678	20751.7
621.034	20784.69
621.39	20795.77
621.746	20755.32
622.101	20963.67
622.457	20840.51
622.812	21049.32
623.168	21013.39
623.523	20985.59
623.879	21153.5
624.234	20994.18
624.589	21135.87
624.945	21038.92
625.3	21185.81
625.655	21232.82
626.01	21172.03
626.365	21261.97
626.72	21235.08
627.075	21202.54
627.43	21358.46
627.785	21318.69
628.14	21340.61
628.495	21333.61
628.85	21409.99
629.205	21262.42
629.559	21380.84
629.914	21375.86
630.269	21425.13
630.623	21235.53
630.978	21246.6
631.332	21372.25
631.687	21308.75
632.041	21273.04
632.396	21244.57
632.75	21258.13
633.104	21287.28
633.459	21209.77
633.813	21290.67
634.167	21198.92
634.521	21219.03
634.875	21165.47
635.229	21115.76
635.583	21105.14
635.937	21131.58
636.291	21109.2
636.645	21121.86
636.999	21087.06
637.352	21173.61
637.706	20924.58
638.06	21151.69
638.413	21063.33
638.767	21057.68
639.121	21083.89
639.474	20955.99
639.828	20984.69
640.181	21005.03
640.534	21044.12
640.888	21055.65
641.241	20835.31
641.594	20917.12
641.947	21009.55
642.301	20978.36
642.654	21040.51
643.007	21011.58
643.36	20913.5
643.713	20780.17
644.066	21121.63
644.419	20913.96
644.771	20762.77
645.124	20540.86
645.477	20555.77
645.83	20461.54
646.182	20390.58
646.535	20327.53
646.888	20431.26
647.24	20262.45
647.593	20472.61
647.945	20398.49
648.298	20285.72
648.65	20323.69
649.002	20234.88
649.355	20275.33
649.707	20242.79
650.059	20424.25
650.411	20582.21
650.763	20694.98
651.115	20874.86
651.467	20788.31
651.819	20775.88
652.171	20764.36
652.523	20721.19
652.875	20701.08
653.227	20642.1
653.578	20858.59
653.93	20698.59
654.282	20675.32
654.633	20699.72
654.985	20784.02
655.337	20706.96
655.688	20836.44
656.039	20863.11
656.391	20677.35
656.742	20848.87
657.094	20743.56
657.445	20867.4
657.796	20782.43
658.147	20763.9
658.498	20779.5
658.849	20845.71
659.2	20860.17
659.551	20687.52
659.902	20893.39
660.253	20784.02
660.604	20803.45
660.955	20736.56
661.306	20919.83
661.656	20912.37
662.007	20774.52
662.358	20826.5
662.708	20836.67
663.059	20803.22
663.409	20688.2
663.76	20920.28
664.11	20831.02
664.461	20847.29
664.811	20919.61
665.161	20908.31
665.511	20836.67
665.862	20734.07
666.212	20872.6
666.562	20905.37
666.912	20816.78
667.262	20854.97
667.612	20852.71
667.962	20855.43
668.312	20846.39
668.662	20903.56
669.011	20828.76
669.361	20732.27
669.711	20707.86
670.06	20770.46
670.41	20762.77
670.76	20712.61
671.109	20853.84
671.459	20691.14
671.808	20792.15
672.157	20769.78
672.507	20592.38
672.856	20690.23
673.205	20642.1
673.554	20784.02
673.904	20723.23
674.253	20796.9
674.602	20737.69
674.951	20367.98
675.3	20315.78
675.649	20652.04
675.998	20641.42
676.346	20644.81
676.695	20657.24
677.044	20531.37
677.393	20577.24
677.741	20529.79
678.09	20552.16
678.438	20411.6
678.787	20457.24
679.135	20547.64
679.484	20358.94
679.832	20440.3
680.181	20275.1
680.529	20338.83
680.877	20329.34
681.225	20361.65
681.573	20415.44
681.922	20262
682.27	20218.15
682.618	20145.16
682.966	20155.33
683.314	20172.05
683.661	20171.38
684.009	20023.13
684.357	19970.93
684.705	19915.34
685.053	20062.23
685.4	19921.89
685.748	19734.33
686.095	19712.41
686.443	19633.31
686.79	19664.27
687.138	19740.43
687.485	19601.22
687.832	19592.86
688.18	19598.06
688.527	19488.68
688.874	19401.91
689.221	19504.05
689.568	19350.61
689.915	19357.61
690.262	19281.91
690.609	19217.73
690.956	19144.51
691.303	19084.85
691.65	19019.09
691.997	19007.57
692.344	18990.16
692.69	18949.94
693.037	18821.58
693.383	18757.85
693.73	18808.7
694.077	18636.73
694.423	18628.37
694.769	18587.69
695.116	18606.22
695.462	18579.55
695.808	18474.25
696.155	18518.09
696.501	18295.95
696.847	18295.27
697.193	18168.49
697.539	18289.39
697.885	18005.78
698.231	18015.5
698.577	17994.48
698.923	17999.23
699.269	17951.1
699.614	17773.25
699.96	17702.97
700.306	17880.82
700.651	17604.44
700.997	17525.12
701.342	17572.35
701.688	17568.06
702.033	17417.78
702.379	17378.68
702.724	17415.97
703.069	17457.32
703.415	17095.75
703.76	17145.47
704.105	17120.38
704.45	17019.82
704.795	16965.36
705.14	16964
705.485	16875.87
705.83	16787.28
706.175	16823.89
706.52	16850.11
706.865	16697.8
707.209	16695.99
707.554	16627.29
707.899	16665.71
708.243	16581.19
708.588	16509.33
708.932	16456.9
709.277	16417.58
709.621	16398.59
709.966	16346.17
710.31	16328.54
710.654	16131.03
710.998	16166.06
711.342	16200.63
711.687	16201.99
712.031	16046.29
712.375	16056.46
712.719	16038.6
713.063	15949.34
713.407	16013.75
713.75	15882.22
714.094	15915.22
714.438	15854.65
714.782	15850.13
715.125	15704.15
715.469	15745.73
715.812	15687.43
716.156	15592.51
716.499	15607.88
716.843	15674.77
717.186	15576.24
717.53	15540.54
717.873	15657.14
718.216	15558.16
718.559	15518.62
718.902	15414.89
719.246	15511.16
719.589	15436.13
719.932	15344.84
720.275	15369.47
720.617	15368.56
720.96	15236.59
721.303	15355.23
721.646	15276.36
721.989	15221
722.331	15273.88
722.674	15241.34
723.016	15261.22
723.359	15197.95
723.701	15293.76
724.044	15098.06
724.386	15015.81
724.729	15174.45
725.071	15054.22
725.413	15080.44
725.755	15086.31
726.097	15009.7
726.439	14948.01
726.782	14984.17
727.124	15093.77
727.465	14953.89
727.807	14953.21
728.149	14926.54
728.491	14928.35
728.833	14926.99
729.175	14867.56
729.516	14884.96
729.858	14839.54
730.199	14980.78
730.541	14879.76
730.882	14850.84
731.224	14866.66
731.565	14877.96
731.906	14764.06
732.248	14820.1
732.589	14765.87
732.93	14780.33
733.271	14645.19
733.612	14767.45
733.953	14752.76
734.294	14717.51
734.635	14759.99
734.976	14765.87
735.317	14655.36
735.658	14655.59
735.999	14649.04
736.339	14689.49
736.68	14737.62
737.021	14695.81
737.361	14754.34
737.702	14749.82
738.042	14752.99
738.383	14683.16
738.723	14688.36
739.063	14705.76
739.404	14766.32
739.744	14622.14
740.084	14745.98
740.424	14745.53
740.764	14793.44
741.104	14828.92
741.444	14738.3
741.784	14778.07
742.124	14789.6
742.464	14806.55
742.804	14735.36
743.143	14851.74
743.483	14916.6
743.823	14837.05
744.162	14847.9
744.502	14908.46
744.841	14870.5
745.181	14902.81
745.52	14906.2
745.86	15028.69
746.199	15023.49
746.538	15030.04
746.877	15140.55
747.216	15173.77
747.556	15170.38
747.895	15291.96
748.234	15241.34
748.573	15205.41
748.911	15343.93
749.25	15432.07
749.589	15384.61
749.928	15535.11
750.267	15646.07
750.605	15689.46
750.944	15670.93
751.283	15746.18
751.621	15873.86
751.96	15859.17
752.298	15997.93
752.636	16172.16
752.975	16183.68
753.313	16063.91
753.651	16309.78
753.989	16349.1
754.327	16538.7
754.666	16448.31
755.004	16615.54
755.342	16683.56
755.679	16828.41
756.017	16915.64
756.355	17039.71
756.693	17035.19
757.031	17240.15
757.368	17243.09
757.706	17418.23
758.044	17448.06
758.381	17514.5
758.719	17688.5
759.056	17780.93
759.394	17969.17
