Data from hue_10_FLMS001491_26.txt Node
Date: Mon Feb 06 15:31:39 GMT 2017
User: dcchb
Spectrometer: FLMS00149
Trigger mode: 0
Integration Time (sec): 2.000000E-2
Scans to average: 10
Electric dark correction enabled: true
Nonlinearity correction enabled: false
Boxcar width: 0
XAxis mode: Wavelengths
Number of Pixels in Spectrum: 2048
>>>>>Begin Spectral Data<<<<<
341.393	-1.14
341.776	-1.14
342.16	-1.14
342.543	-53.8
342.927	-57.19
343.31	-69.16
343.693	-68.03
344.077	-61.48
344.46	-65.1
344.843	-75.49
345.226	-42.05
345.61	-13.57
345.993	-19.45
346.376	-6.57
346.759	22.13
347.142	25.75
347.525	38.18
347.908	77.05
348.291	67.55
348.674	74.33
349.057	115.92
349.44	124.95
349.823	128.8
350.206	174.67
350.588	199.98
350.971	203.37
351.354	233.88
351.737	233.88
352.119	253.09
352.502	267.55
352.884	279.53
353.267	281.56
353.65	304.38
354.032	314.78
354.414	322.92
354.797	307.32
355.179	332.86
355.562	310.26
355.944	319.75
356.326	331.73
356.709	347.55
357.091	315.68
357.473	357.72
357.855	350.49
358.238	346.19
358.62	347.77
359.002	346.87
359.384	344.61
359.766	340.99
360.148	348.23
360.53	322.46
360.912	330.37
361.294	330.15
361.676	315.68
362.057	338.96
362.439	318.4
362.821	330.37
363.203	322.69
363.584	318.4
363.966	316.14
364.348	314.1
364.729	312.29
365.111	348.9
365.493	322.92
365.874	325.4
366.256	312.29
366.637	307.77
367.019	314.78
367.4	305.74
367.781	305.51
368.163	298.06
368.544	307.1
368.925	316.14
369.306	330.37
369.688	290.37
370.069	274.1
370.45	299.41
370.831	315.68
371.212	320.43
371.593	310.26
371.974	312.97
372.355	288.79
372.736	318.85
373.117	319.98
373.498	302.35
373.879	310.03
374.26	326.53
374.641	303.48
375.021	324.05
375.402	311.39
375.783	325.85
376.163	325.63
376.544	318.85
376.925	319.75
377.305	324.95
377.686	316.81
378.066	321.11
378.447	331.05
378.827	334.44
379.208	322.46
379.588	334.44
379.968	324.72
380.349	322.92
380.729	331.05
381.109	293.09
381.489	328.11
381.87	310.71
382.25	341.67
382.63	341.67
383.01	350.71
383.39	345.06
383.77	336.25
384.15	336.7
384.53	347.1
384.91	347.55
385.29	345.74
385.67	346.64
386.049	334.44
386.429	339.19
386.809	352.97
387.189	345.06
387.568	361.78
387.948	352.97
388.328	350.71
388.707	355
389.087	366.53
389.466	373.08
389.846	362.01
390.225	340.99
390.605	376.93
390.984	373.99
391.363	369.69
391.743	361.56
392.122	363.59
392.501	388
392.881	376.47
393.26	368.11
393.639	372.63
394.018	387.09
394.397	381.67
394.776	371.5
395.155	354.1
395.534	357.04
395.913	378.06
396.292	372.63
396.671	386.42
397.05	377.15
397.429	392.97
397.808	395.91
398.186	383.7
398.565	391.39
398.944	380.99
399.323	385.96
399.701	377.83
400.08	403.82
400.458	395.68
400.837	403.14
401.215	409.24
401.594	380.77
401.972	398.85
402.351	398.17
402.729	399.75
403.107	388.68
403.486	398.85
403.864	409.92
404.242	395
404.62	392.97
404.999	402.91
405.377	388.45
405.755	410.6
406.133	425.96
406.511	418.05
406.889	429.81
407.267	427.32
407.645	431.39
408.023	443.14
408.401	443.82
408.779	424.83
409.156	422.35
409.534	429.13
409.912	445.85
410.29	436.58
410.667	443.82
411.045	435.45
411.422	461.44
411.8	433.42
412.178	469.58
412.555	447.21
412.933	456.25
413.31	478.17
413.687	448.79
414.065	442.23
414.442	452.18
414.819	472.74
415.197	471.84
415.574	471.16
415.951	478.17
416.328	461.89
416.705	480.43
417.082	473.19
417.46	479.75
417.837	486.3
418.214	478.17
418.591	477.26
418.967	485.85
419.344	477.49
419.721	514.55
420.098	500.54
420.475	511.16
420.852	505.74
421.228	513.42
421.605	505.96
421.982	529.24
422.358	536.24
422.735	522.46
423.111	527.66
423.488	530.59
423.864	527.66
424.241	534.44
424.617	538.95
424.994	528.79
425.37	533.53
425.746	541.89
426.123	543.02
426.499	557.94
426.875	548.67
427.251	557.94
427.627	569.46
428.003	577.6
428.379	553.19
428.756	578.05
429.132	557.26
429.507	585.28
429.883	584.83
430.259	604.94
430.635	569.01
431.011	598.39
431.387	580.31
431.763	608.33
432.138	597.48
432.514	616.69
432.89	616.92
433.265	653.53
433.641	657.82
434.016	622.34
434.392	638.16
434.767	654.21
435.143	635.68
435.518	656.47
435.894	647.2
436.269	661.44
436.644	666.18
437.02	661.89
437.395	672.74
437.77	691.27
438.145	709.8
438.52	667.54
438.895	698.95
439.271	698.05
439.646	723.13
440.021	695.79
440.395	718.84
440.77	681.1
441.145	717.48
441.52	736.92
441.895	731.94
442.27	729.68
442.645	728.78
443.019	746.86
443.394	698.27
443.769	748.89
444.143	711.83
444.518	757.71
444.892	750.7
445.267	782.34
445.641	772.62
446.016	756.58
446.39	797.48
446.764	766.97
447.139	754.99
447.513	778.5
447.887	808.33
448.262	784.82
448.636	783.02
449.01	769.01
449.384	782.11
449.758	820.53
450.132	806.29
450.506	803.81
450.88	825.95
451.254	819.63
451.628	805.39
452.002	827.53
452.376	842.45
452.75	853.3
453.123	836.8
453.497	851.71
453.871	862.56
454.244	864.82
454.618	853.3
454.992	890.36
455.365	877.7
455.739	902.34
456.112	896.69
456.486	928.55
456.859	921.32
457.232	945.27
457.606	950.7
457.979	951.6
458.352	944.14
458.725	957.93
459.099	971.49
459.472	965.84
459.845	986.63
460.218	1020.07
460.591	1020.07
460.964	1019.39
461.337	1024.59
461.71	1024.14
462.083	1061.2
462.456	1046.06
462.829	1082.9
463.201	1066.62
463.574	1067.08
463.947	1110.92
464.32	1106.62
464.692	1140.29
465.065	1145.94
465.438	1127.19
465.81	1132.84
466.183	1166.28
466.555	1217.58
466.928	1193.85
467.3	1171.25
467.672	1212.84
468.045	1232.95
468.417	1215.32
468.789	1263
469.161	1267.3
469.534	1286.51
469.906	1320.4
470.278	1312.04
470.65	1320.63
471.022	1344.81
471.394	1378.71
471.766	1397.92
472.138	1405.37
472.51	1435.43
472.882	1452.38
473.253	1468.87
473.625	1489.21
473.997	1536.67
474.369	1554.07
474.74	1559.04
475.112	1578.48
475.484	1631.81
475.855	1669.55
476.227	1672.26
476.598	1707.96
476.97	1713.61
477.341	1733.05
477.713	1799.26
478.084	1803.55
478.455	1849.2
478.827	1887.85
479.198	1926.94
479.569	1933.95
479.94	1990.67
480.311	2006.94
480.682	2049.2
481.053	2077.22
481.424	2150.44
481.795	2142.08
482.166	2173.94
482.537	2248.51
482.908	2255.29
483.279	2300.94
483.65	2375.29
484.021	2397.21
484.391	2422.52
484.762	2468.17
485.133	2502.52
485.503	2522.41
485.874	2592.23
486.244	2641.95
486.615	2700.25
486.985	2708.39
487.356	2768.95
487.726	2805.34
488.097	2833.81
488.467	2873.36
488.837	2926.24
489.207	2960.81
489.578	3044.43
489.948	3086.46
490.318	3121.49
490.688	3123.75
491.058	3164.65
491.428	3244.42
491.798	3241.48
492.168	3312.22
492.538	3325.77
492.908	3379.33
493.278	3448.71
493.648	3476.73
494.017	3487.8
494.387	3561.47
494.757	3537.52
495.126	3641.25
495.496	3620.46
495.866	3675.82
496.235	3730.06
496.605	3747.91
496.974	3800.11
497.344	3799.89
497.713	3862.48
498.082	3856.16
498.452	3890.96
498.821	3949.26
499.19	3903.84
499.559	3975.7
499.928	3990.39
500.298	4016.15
500.667	4059.31
501.036	4076.94
501.405	4111.29
501.774	4104.96
502.143	4140.22
502.512	4165.3
502.88	4226.77
503.249	4223.15
503.618	4240.78
503.987	4233.32
504.356	4278.74
504.724	4340.44
505.093	4301.12
505.462	4340.21
505.83	4371.4
506.199	4377.05
506.567	4365.52
506.936	4436.71
507.304	4480.32
507.672	4528.23
508.041	4582.24
508.409	4560.77
508.777	4582.69
509.145	4615.91
509.514	4606.87
509.882	4625.63
510.25	4632.86
510.618	4652.97
510.986	4675.12
511.354	4707.66
511.722	4738.62
512.09	4807.09
512.458	4744.49
512.826	4782.23
513.193	4819.07
513.561	4822.68
513.929	4857.71
514.297	4896.81
514.664	4978.61
515.032	4926.41
515.4	4977.03
515.767	4952.4
516.135	4965.05
516.502	4934.77
516.869	5039.4
517.237	5043.47
517.604	5037.82
517.972	5032.85
518.339	5047.99
518.706	5078.04
519.073	5054.77
519.44	5109.46
519.808	5137.03
520.175	5184.71
520.542	5170.02
520.909	5262.67
521.276	5198.04
521.643	5235.78
522.009	5282.78
522.376	5331.6
522.743	5340.64
523.11	5357.36
523.477	5394.65
523.843	5452.27
524.21	5469.22
524.577	5471.48
524.943	5473.29
525.31	5534.76
525.676	5589.67
526.043	5597.13
526.409	5605.04
526.776	5654.75
527.142	5681.19
527.508	5650.23
527.874	5741.3
528.241	5767.52
528.607	5737.46
528.973	5802.09
529.339	5820.4
529.705	5879.61
530.071	5843
530.437	5909.89
530.803	5943.56
531.169	5967.06
531.535	5988.98
531.901	5958.93
532.267	6042.31
532.632	6033.95
532.998	6100.62
533.364	6125.25
533.73	6121.86
534.095	6194.85
534.461	6207.28
534.826	6255.87
535.192	6227.39
535.557	6268.07
535.923	6318.46
536.288	6286.15
536.653	6358.01
537.019	6342.42
537.384	6391
537.749	6424.22
538.114	6429.2
538.479	6398.24
538.845	6463.54
539.21	6462.19
539.575	6523.88
539.94	6518.46
540.305	6543.99
540.67	6609.98
541.034	6641.17
541.399	6700.83
541.764	6733.82
542.129	6720.26
542.494	6683.65
542.858	6714.84
543.223	6750.77
543.587	6821.95
543.952	6858.56
544.316	6935.17
544.681	6847.04
545.045	6903.99
545.41	6949.18
545.774	6973.36
546.138	7040.48
546.503	6988.05
546.867	7004.77
547.231	7085.68
547.595	7116.86
547.959	7121.15
548.324	7101.95
548.688	7165.9
549.052	7234.15
549.416	7179.68
549.779	7238.44
550.143	7251.09
550.507	7242.96
550.871	7337.87
551.235	7357.08
551.599	7385.78
551.962	7431.43
552.326	7393.92
552.689	7458.32
553.053	7448.83
553.417	7484.31
553.78	7536.96
554.143	7586.45
554.507	7503.74
554.87	7529.73
555.234	7629.39
555.597	7588.71
555.96	7622.38
556.323	7683.63
556.686	7698.77
557.05	7745.09
557.413	7729.73
557.776	7717.75
558.139	7815.37
558.502	7866.22
558.865	7836.39
559.228	7855.6
559.59	7941.7
559.953	7898.31
560.316	8021.47
560.679	8004.3
561.041	7968.59
561.404	8092.65
561.767	8098.08
562.129	8071.64
562.492	8176.72
562.854	8135.14
563.217	8157.74
563.579	8132.43
563.941	8243.16
564.304	8292.42
564.666	8360.9
565.028	8356.38
565.39	8301.91
565.753	8376.04
566.115	8436.83
566.477	8494
566.839	8500.1
567.201	8517.95
567.563	8503.49
567.925	8562.25
568.287	8592.53
568.648	8638.85
569.01	8719.3
569.372	8692.64
569.734	8684.5
570.095	8701.45
570.457	8808.12
570.819	8902.12
571.18	8838.17
571.542	8892.18
571.903	8975.8
572.265	8943.25
572.626	9088.56
572.987	9058.73
573.349	9142.57
573.71	9181.21
574.071	9214.88
574.432	9305.28
574.794	9386.86
575.155	9384.6
575.516	9463.92
575.877	9540.53
576.238	9602.67
576.599	9720.41
576.96	9701.43
577.32	9788.2
577.681	9894.19
578.042	9992.04
578.403	10099.16
578.763	10143.45
579.124	10201.3
579.485	10331.24
579.845	10472.25
580.206	10587.28
580.566	10632.47
580.927	10840.83
581.287	10981.17
581.648	11043.54
582.008	11214.15
582.368	11336.86
582.728	11442.17
583.089	11631.77
583.449	11793.8
583.809	11976.39
584.169	12184.98
584.529	12344.97
584.889	12658.41
585.249	12750.84
585.609	12924.39
585.969	13295.23
586.329	13443.02
586.688	13682.34
587.048	13866.97
587.408	14103.12
587.768	14325.94
588.127	14553.05
588.487	14838.01
588.846	15242.97
589.206	15251.56
589.565	15691.32
589.925	15999.34
590.284	16183.29
590.643	16500.12
591.003	16892.88
591.362	17237.72
591.721	17500.77
592.08	17705.96
592.44	18062.79
592.799	18333.29
593.158	18728.76
593.517	19103.44
593.876	19444.67
594.235	19684.44
594.593	20066.58
594.952	20370.75
595.311	20662.04
595.67	21079.88
596.029	21453.21
596.387	21841.9
596.746	22227.88
597.104	22410.7
597.463	22785.6
597.822	23197.57
598.18	23450.67
598.538	23748.97
598.897	24195.73
599.255	24407.25
599.613	24993.9
599.972	25148.48
600.33	25566.32
600.688	25720.67
601.046	26201.56
601.404	26585.5
601.762	26908.43
602.12	27361.07
602.478	27706.6
602.836	27893.26
603.194	28108.85
603.552	28502.97
603.91	28615.96
604.268	29290.52
604.625	29380.68
604.983	29783.61
605.341	29961.46
605.698	30379.75
606.056	30704.04
606.413	30888.67
606.771	31339.27
607.128	31627.18
607.485	31812.48
607.843	32082.08
608.2	32504.44
608.557	32816.98
608.914	32945.79
609.272	33392.78
609.629	33641.81
609.986	34130.61
610.343	34091.29
610.7	34640.66
611.057	34738.96
611.414	34951.16
611.771	35063.7
612.127	35477.02
612.484	35705.94
612.841	35952.94
613.198	35945.71
613.554	36310.44
613.911	36625.92
614.267	36774.61
614.624	36970.54
614.98	37194.04
615.337	37572.11
615.693	37649.62
616.05	37822.04
616.406	38234.46
616.762	38212.99
617.118	38466.32
617.475	38592.64
617.831	38782.24
618.187	38948.57
618.543	39224.04
618.899	39489.79
619.255	39312.85
619.611	39623.12
619.967	39891.14
620.323	40044.81
620.678	39984.92
621.034	40144.69
621.39	40257.46
621.746	40390.11
622.101	40907.61
622.457	40501.52
622.812	40925.24
623.168	41028.96
623.523	41083.65
623.879	41433.02
624.234	41158.68
624.589	41539.68
624.945	41630.98
625.3	41794.59
625.655	41743.52
626.01	41913.69
626.365	41930.86
626.72	41903.52
627.075	42008.6
627.43	42103.96
627.785	42125.21
628.14	42228.93
628.495	42322.94
628.85	42458.3
629.205	42306.22
629.559	42687.68
629.914	42463.73
630.269	42587.57
630.623	42537.4
630.978	42424.18
631.332	42742.14
631.687	42863.04
632.041	42809.93
632.396	42852.87
632.75	42725.42
633.104	43012.41
633.459	42764.74
633.813	42782.59
634.167	42844.06
634.521	42860.1
634.875	43012.87
635.229	42999.76
635.583	42781.69
635.937	42855.81
636.291	42976.93
636.645	42836.6
636.999	42849.25
637.352	42950.95
637.706	42828.01
638.06	42853.55
638.413	42888.8
638.767	42821.46
639.121	42917.5
639.474	42773.1
639.828	42824.17
640.181	42910.27
640.534	42966.99
640.888	42834.79
641.241	42663.5
641.594	42700.78
641.947	42926.31
642.301	42705.08
642.654	42768.58
643.007	42839.99
643.36	42877.95
643.713	42709.82
644.066	42814.23
644.419	42618.53
644.771	42309.83
645.124	41955.04
645.477	42190.29
645.83	41796.85
646.182	41738.1
646.535	41569.51
646.888	41683.41
647.24	41385.34
647.593	41597.76
647.945	41466.69
648.298	41412.91
648.65	41381.5
649.002	41204.55
649.355	41448.61
649.707	41381.95
650.059	41573.36
650.411	42007.24
650.763	42008.15
651.115	42505.08
651.467	42433.45
651.819	42387.8
652.171	42303.28
652.523	42310.06
652.875	42218.76
653.227	42087.92
653.578	42381.02
653.93	42251.3
654.282	42060.35
654.633	41959.79
654.985	42113.23
655.337	42196.39
655.688	42232.1
656.039	42200.68
656.391	41950.97
656.742	42066.9
657.094	42043.85
657.445	42060.57
657.796	41921.37
658.147	41908.71
658.498	41977.19
658.849	42071.65
659.2	42039.78
659.551	41901.48
659.902	41980.35
660.253	42023.06
660.604	41941.71
660.955	41766.12
661.306	41974.7
661.656	41914.59
662.007	41775.84
662.358	41877.53
662.708	41941.93
663.059	41789.85
663.409	41654.03
663.76	42031.42
664.11	41972.44
664.461	41940.13
664.811	41861.26
665.161	41956.4
665.511	41724.76
665.862	41950.3
666.212	41948.71
666.562	41918.43
666.912	41889.73
667.262	41809.06
667.612	41928.15
667.962	41801.15
668.312	41840.92
668.662	41992.78
669.011	41861.71
669.361	41783.52
669.711	41692.45
670.06	41678.66
670.41	41499.01
670.76	41628.95
671.109	41673.01
671.459	41740.58
671.808	41662.85
672.157	41804.76
672.507	41527.48
672.856	41563.19
673.205	41468.73
673.554	41567.48
673.904	41595.95
674.253	41737.19
674.602	41525
674.951	41001.62
675.3	40765.47
675.649	41426.02
675.998	41315.51
676.346	41427.82
676.695	41613.13
677.044	41354.6
677.393	41447.48
677.741	41266.92
678.09	41300.14
678.438	41186.7
678.787	41329.52
679.135	41315.96
679.484	41099.24
679.832	41181.73
680.181	40873.94
680.529	41043.88
680.877	40971.56
681.225	40907.38
681.573	41094.05
681.922	40843.88
682.27	40744
682.618	40734.96
682.966	40589.88
683.314	40644.11
683.661	40545.81
684.009	40393.5
684.357	40395.53
684.705	40343.78
685.053	40304.01
685.4	40191.7
685.748	40086.62
686.095	40021.76
686.443	39973.62
686.79	40028.99
687.138	39861.08
687.485	39979.73
687.832	40011.36
688.18	39861.54
688.527	39588.78
688.874	39612.73
689.221	39635.78
689.568	39504.94
689.915	39473.75
690.262	39418.16
690.609	39283.7
690.956	39101.1
691.303	38999.64
691.65	38938.62
691.997	38889.13
692.344	38674.45
692.69	38671.29
693.037	38756.71
693.383	38385.64
693.73	38510.16
694.077	38261.58
694.423	38351.97
694.769	38149.49
695.116	37989.04
695.462	38063.84
695.808	37874.02
696.155	37946.78
696.501	37698.2
696.847	37659.11
697.193	37509.51
697.539	37663.63
697.885	37217.99
698.231	37115.39
698.577	37230.65
698.923	37033.36
699.269	37010.99
699.614	36845.34
699.96	36762.41
700.306	36748.85
700.651	36569.19
700.997	36567.84
701.342	36551.79
701.688	36394.96
702.033	36313.16
702.379	36174.18
702.724	36233.38
703.069	36153.61
703.415	35664.13
703.76	35797.46
704.105	35893.05
704.45	35762.66
704.795	35540.29
705.14	35408.77
705.485	35474.53
705.83	35312.28
706.175	35345.27
706.52	35148.89
706.865	35235.44
707.209	35070.25
707.554	34891.27
707.899	35065.5
708.243	34841.33
708.588	34754.78
708.932	34438.63
709.277	34622.35
709.621	34584.84
709.966	34338.97
710.31	34517.95
710.654	34173.32
710.998	34220.1
711.342	34218.3
711.687	34093.55
712.031	33978.08
712.375	33838.87
712.719	33911.41
713.063	33758.19
713.407	34004.06
713.75	33603.17
714.094	33649.27
714.438	33619.67
714.782	33587.35
715.125	33320.92
715.469	33412.21
715.812	33160.24
716.156	33122.05
716.499	33174.93
716.843	33162.5
717.186	32907.82
717.53	33170.19
717.873	32991.43
718.216	32975.84
718.559	32909.63
718.902	32558.45
719.246	32777.43
719.589	32552.35
719.932	32520.26
720.275	32487.49
720.617	32425.35
720.96	32382.86
721.303	32366.37
721.646	32313.94
721.989	32060.16
722.331	32270.55
722.674	32085.92
723.016	32160.27
723.359	32060.39
723.701	31971.8
724.044	31966.83
724.386	31721.86
724.729	31931.58
725.071	31811.13
725.413	31745.14
725.755	31656.55
726.097	31624.01
726.439	31434.41
726.782	31505.37
727.124	31638.02
727.465	31401.19
727.807	31282.33
728.149	31306.96
728.491	31256.79
728.833	31242.78
729.175	31177.47
729.516	31022.67
729.858	31122.11
730.199	31145.83
730.541	31017.93
730.882	30898.83
731.224	31080.3
731.565	30795.33
731.906	30766.41
732.248	30958.49
732.589	30734.09
732.93	30598.05
733.271	30643.25
733.612	30629.01
733.953	30603.93
734.294	30443.93
734.635	30445.96
734.976	30466.53
735.317	30366.65
735.658	30388.79
735.999	30214.33
736.339	30271.28
736.68	30317.38
737.021	30203.71
737.361	30040.55
737.702	30288.68
738.042	30182.7
738.383	30092.98
738.723	30065.86
739.063	29907
739.404	29979.99
739.744	29870.39
740.084	29739.32
740.424	29925.53
740.764	29740.22
741.104	29909.26
741.444	29622.03
741.784	29639.66
742.124	29628.81
742.464	29693.44
742.804	29540.68
743.143	29520.11
743.483	29506.78
743.823	29341.36
744.162	29307.01
744.502	29303.17
744.841	29294.58
745.181	29301.36
745.52	29124.64
745.86	29200.8
746.199	29169.61
746.538	29231.53
746.877	29102.27
747.216	29141.37
747.556	28975.27
747.895	29060.92
748.234	28848.72
748.573	28818.44
748.911	28843.07
749.25	28821.83
749.589	28644.66
749.928	28715.39
750.267	28744.31
750.605	28661.83
750.944	28563.53
751.283	28435.62
751.621	28630.65
751.96	28282.63
752.298	28348.62
752.636	28431.78
752.975	28238.11
753.313	28171
753.651	28301.61
753.989	28133.03
754.327	28031.11
754.666	27981.62
755.004	28032.92
755.342	28039.93
755.679	27994.28
756.017	27684.91
756.355	27806.49
756.693	27745.7
757.031	27730.78
757.368	27611.01
757.706	27635.87
758.044	27537.57
758.381	27546.15
758.719	27347.74
759.056	27334.18
759.394	27245.82
759.731	27065.04
760.068	27178.71
760.405	27077.69
760.743	26961.76
