Data from hue_220_FLMS001491_00075.txt Node
Date: Tue Feb 07 16:39:55 GMT 2017
User: dcchb
Spectrometer: FLMS00149
Trigger mode: 0
Integration Time (sec): 2.000000E-2
Scans to average: 10
Electric dark correction enabled: true
Nonlinearity correction enabled: false
Boxcar width: 0
XAxis mode: Wavelengths
Number of Pixels in Spectrum: 2048
>>>>>Begin Spectral Data<<<<<
341.393	-12.27
341.776	-12.27
342.16	-12.27
342.543	-72.39
342.927	-66.51
343.31	-71.48
343.693	-57.02
344.077	-53.4
344.46	-53.63
344.843	-57.7
345.226	-63.8
345.61	-56.57
345.993	-2.33
346.376	-1.88
346.759	12.13
347.142	15.07
347.525	31.79
347.908	55.07
348.291	77.44
348.674	108.85
349.057	117.44
349.44	109.08
349.823	129.64
350.206	145.69
350.588	214.61
350.971	203.54
351.354	228.85
351.737	224.1
352.119	232.47
352.502	263.2
352.884	256.65
353.267	285.12
353.65	289.87
354.032	282.41
354.414	296.42
354.797	307.94
355.179	310.66
355.562	316.31
355.944	315.85
356.326	340.49
356.709	324.21
357.091	308.17
357.473	337.77
357.855	346.36
358.238	346.36
358.62	329.41
359.002	341.62
359.384	357.89
359.766	344.1
360.148	347.72
360.53	347.26
360.912	326.02
361.294	346.36
361.676	335.74
362.057	328.28
362.439	327.38
362.821	329.64
363.203	308.4
363.584	335.29
363.966	321.95
364.348	309.53
364.729	301.62
365.111	312.69
365.493	311.56
365.874	308.4
366.256	310.2
366.637	324.44
367.019	306.81
367.4	318.11
367.781	286.02
368.163	311.33
368.544	297.77
368.925	308.17
369.306	291.22
369.688	303.42
370.069	326.7
370.45	304.78
370.831	291.22
371.212	308.17
371.593	294.84
371.974	317.66
372.355	324.67
372.736	309.53
373.117	305.01
373.498	308.62
373.879	336.19
374.26	324.67
374.641	320.82
375.021	337.55
375.402	322.18
375.783	299.58
376.163	328.28
376.544	336.87
376.925	334.61
377.305	336.87
377.686	344.78
378.066	308.62
378.447	304.33
378.827	307.94
379.208	327.83
379.588	316.53
379.968	324.67
380.349	347.49
380.729	332.12
381.109	359.24
381.489	334.61
381.87	339.81
382.25	311.11
382.63	329.41
383.01	341.84
383.39	334.61
383.77	356.98
384.15	337.77
384.53	342.52
384.91	342.07
385.29	330.77
385.67	349.52
386.049	337.1
386.429	358.34
386.809	325.57
387.189	339.36
387.568	352.91
387.948	341.84
388.328	340.49
388.707	359.24
389.087	366.02
389.466	342.52
389.846	366.47
390.225	373.93
390.605	367.83
390.984	356.08
391.363	353.82
391.743	387.04
392.122	370.32
392.501	367.6
392.881	381.39
393.26	360.37
393.639	389.98
394.018	394.95
394.397	378
394.776	387.49
395.155	391.11
395.534	375.74
395.913	382.97
396.292	395.17
396.671	390.88
397.05	395.63
397.429	402.18
397.808	389.98
398.186	411.9
398.565	388.62
398.944	404.21
399.323	393.37
399.701	379.58
400.08	412.57
400.458	406.25
400.837	410.77
401.215	406.25
401.594	407.38
401.972	405.34
402.351	408.73
402.729	436.75
403.107	436.98
403.486	411.67
403.864	437.66
404.242	439.01
404.62	458
404.999	446.02
405.377	448.96
405.755	454.15
406.133	450.31
406.511	445.34
406.889	468.39
407.267	474.49
407.645	481.95
408.023	472.91
408.401	490.76
408.779	485.34
409.156	494.15
409.534	491.89
409.912	514.72
410.29	507.26
410.667	523.76
411.045	534.83
411.422	544.77
411.8	528.73
412.178	550.65
412.555	568.05
412.933	563.53
413.31	576.19
413.687	589.52
414.065	608.73
414.442	595.62
414.819	589.52
415.197	621.38
415.574	618.22
415.951	643.75
416.328	646.47
416.705	642.4
417.082	650.76
417.46	671.32
417.837	655.28
418.214	680.82
418.591	691.66
418.967	711.78
419.344	700.02
419.721	718.33
420.098	712.45
420.475	735.05
420.852	718.1
421.228	758.55
421.605	768.27
421.982	768.27
422.358	792
422.735	797.42
423.111	805.56
423.488	830.42
423.864	842.17
424.241	869.29
424.617	857.31
424.994	873.58
425.37	878.1
425.746	896.4
426.123	894.82
426.499	911.54
426.875	945.67
427.251	932.56
427.627	944.54
428.003	967.81
428.379	972.56
428.756	997.42
429.132	1003.29
429.507	1037.42
429.883	1058.88
430.259	1055.49
430.635	1042.84
431.011	1062.05
431.387	1069.73
431.763	1106.11
432.138	1108.83
432.514	1113.8
432.89	1143.85
433.265	1145.21
433.641	1179.56
434.016	1180.92
434.392	1226.34
434.767	1270.63
435.143	1261.59
435.518	1269.5
435.894	1314.02
436.269	1333.91
436.644	1353.11
437.02	1367.8
437.395	1391.08
437.77	1387.46
438.145	1424.3
438.52	1423.62
438.895	1507.01
439.271	1503.39
439.646	1533.45
440.021	1533.67
440.395	1565.09
440.77	1555.59
441.145	1548.36
441.52	1617.97
441.895	1614.35
442.27	1650.28
442.645	1641.02
443.019	1664.97
443.394	1693.9
443.769	1671.3
444.143	1679.66
444.518	1746.55
444.892	1742.03
445.267	1759.21
445.641	1790.16
446.016	1778.19
446.39	1789.03
446.764	1815.7
447.139	1802.82
447.513	1805.31
447.887	1816.15
448.262	1877.62
448.636	1846.21
449.01	1888.47
449.384	1918.07
449.758	1912.42
450.132	1916.49
450.506	1936.15
450.88	1961.69
451.254	1969.37
451.628	2020.22
452.002	1992.87
452.376	2031.97
452.75	2045.07
453.123	2060.44
453.497	2067.45
453.871	2093.43
454.244	2154.22
454.618	2142.02
454.992	2162.58
455.365	2164.39
455.739	2226.99
456.112	2225.18
456.486	2278.29
456.859	2233.99
457.232	2322.35
457.606	2327.55
457.979	2334.33
458.352	2378.4
458.725	2370.26
459.099	2419.07
459.472	2468.34
459.845	2485.51
460.218	2465.18
460.591	2536.36
460.964	2520.32
461.337	2581.56
461.71	2657.49
462.083	2637.83
462.456	2630.37
462.829	2647.77
463.201	2713.3
463.574	2681.44
463.947	2778.84
464.32	2799.4
464.692	2844.37
465.065	2860.42
465.438	2847.09
465.81	2926.63
466.183	2903.58
466.555	3013.41
466.928	3019.51
467.3	3009.57
467.672	3069.45
468.045	3144.48
468.417	3123.69
468.789	3145.61
469.161	3192.39
469.534	3272.16
469.906	3312.16
470.278	3319.39
470.65	3356.9
471.022	3376.56
471.394	3449.1
471.766	3496.56
472.138	3521.42
472.51	3594.86
472.882	3583.11
473.253	3609.78
473.625	3689.78
473.997	3747.85
474.369	3791.02
474.74	3835.53
475.112	3899.04
475.484	3929.77
475.855	3948.07
476.227	3998.47
476.598	4106.94
476.97	4140.39
477.341	4247.28
477.713	4285.92
478.084	4312.13
478.455	4390.1
478.827	4420.15
479.198	4504.22
479.569	4517.55
479.94	4630.54
480.311	4610.88
480.682	4715.74
481.053	4846.36
481.424	4903.76
481.795	4946.47
482.166	5002.74
482.537	5063.98
482.908	5150.98
483.279	5163.18
483.65	5257.87
484.021	5326.12
484.391	5376.74
484.762	5421.93
485.133	5450.63
485.503	5561.37
485.874	5646.56
486.244	5696.28
486.615	5764.98
486.985	5801.13
487.356	5891.07
487.726	5975.14
488.097	6028.7
488.467	6041.13
488.837	6144.4
489.207	6211.74
489.578	6279.76
489.948	6317.05
490.318	6395.92
490.688	6403.83
491.058	6479.76
491.428	6579.87
491.798	6663.48
492.168	6725.18
492.538	6736.93
492.908	6761.56
493.278	6867.09
493.648	6896.02
494.017	6992.06
494.387	6984.15
494.757	7026.19
495.126	7110.93
495.496	7129.46
495.866	7119.97
496.235	7166.75
496.605	7228.44
496.974	7320.87
497.344	7324.26
497.713	7299.4
498.082	7393.86
498.452	7450.58
498.821	7498.49
499.19	7456.23
499.559	7525.83
499.928	7573.06
500.298	7636.11
500.667	7640.41
501.036	7601.31
501.405	7704.36
501.774	7746.39
502.143	7759.5
502.512	7745.49
502.88	7858.48
503.249	7822.32
503.618	7863.23
503.987	7849.21
504.356	7906.16
504.724	7914.07
505.093	7912.04
505.462	7992.94
505.83	8035.2
506.199	8067.06
506.567	8089.66
506.936	8046.27
507.304	8103.45
507.672	8175.53
508.041	8126.5
508.409	8218.7
508.777	8235.19
509.145	8263.21
509.514	8236.77
509.882	8307.96
510.25	8261.18
510.618	8326.26
510.986	8286.04
511.354	8374.17
511.722	8388.41
512.09	8411.46
512.458	8403.32
512.826	8415.53
513.193	8442.42
513.561	8464.11
513.929	8466.83
514.297	8541.85
514.664	8446.49
515.032	8481.97
515.4	8566.48
515.767	8599.25
516.135	8526.26
516.502	8438.8
516.869	8627.27
517.237	8523.1
517.604	8559.93
517.972	8606.48
518.339	8622.08
518.706	8576.65
519.073	8624.34
519.44	8605.13
519.808	8684.45
520.175	8568.29
520.542	8709.3
520.909	8679.7
521.276	8600.38
521.643	8713.37
522.009	8671.79
522.376	8743.88
522.743	8761.96
523.11	8801.51
523.477	8822.75
523.843	8837.44
524.21	8833.37
524.577	8888.74
524.943	8912.01
525.31	8871.33
525.676	8986.59
526.043	8915.18
526.409	8945
526.776	9010.54
527.142	8935.74
527.508	9004.44
527.874	8955.17
528.241	8973.93
528.607	8972.35
528.973	8977.77
529.339	8958.56
529.705	9057.54
530.071	9069.52
530.437	9022.97
530.803	9035.17
531.169	9023.19
531.535	9000.82
531.901	8974.38
532.267	9025.68
532.632	9050.76
532.998	8996.08
533.364	9034.95
533.73	9003.08
534.095	8999.24
534.461	9031.33
534.826	9005.57
535.192	8999.47
535.557	9010.31
535.923	8981.39
536.288	9001.27
536.653	8985.68
537.019	8912.01
537.384	8904.33
537.749	8948.39
538.114	8840.6
538.479	8852.58
538.845	8835.86
539.21	8787.49
539.575	8828.4
539.94	8797.44
540.305	8826.82
540.67	8775.29
541.034	8808.06
541.399	8712.47
541.764	8786.14
542.129	8751.11
542.494	8671.57
542.858	8708.85
543.223	8749.08
543.587	8694.39
543.952	8636.99
544.316	8618.69
544.681	8582.3
545.045	8656.88
545.41	8614.84
545.774	8583.66
546.138	8539.14
546.503	8510.89
546.867	8513.38
547.231	8554.73
547.595	8585.47
547.959	8484.45
548.324	8489.88
548.688	8469.76
549.052	8458.46
549.416	8498.91
549.779	8412.14
550.143	8349.77
550.507	8383.89
550.871	8397.22
551.235	8352.25
551.599	8397
551.962	8299.15
552.326	8302.54
552.689	8347.96
553.053	8221.41
553.417	8265.93
553.78	8327.17
554.143	8218.47
554.507	8180.28
554.87	8290.78
555.234	8347.73
555.597	8203.78
555.96	8144.57
556.323	8249.66
556.686	8195.19
557.05	8193.16
557.413	8201.97
557.776	8186.83
558.139	8236.1
558.502	8229.77
558.865	8167.62
559.228	8172.37
559.59	8235.42
559.953	8130.56
560.316	8229.54
560.679	8189.54
561.041	8257.57
561.404	8249.43
561.767	8216.89
562.129	8201.75
562.492	8293.95
562.854	8232.93
563.217	8216.89
563.579	8224.57
563.941	8272.71
564.304	8305.47
564.666	8305.47
565.028	8323.33
565.39	8263.21
565.753	8304.8
566.115	8339.37
566.477	8378.01
566.839	8335.53
567.201	8380.5
567.563	8331.01
567.925	8410.33
568.287	8341.86
568.648	8428.18
569.01	8423.89
569.372	8499.37
569.734	8381.18
570.095	8497.33
570.457	8447.16
570.819	8486.94
571.18	8506.37
571.542	8498.24
571.903	8519.25
572.265	8558.12
572.626	8508.41
572.987	8526.03
573.349	8610.78
573.71	8643.77
574.071	8623.43
574.432	8629.53
574.794	8691
575.155	8700.49
575.516	8650.78
575.877	8674.96
576.238	8696.65
576.599	8745.69
576.96	8786.37
577.32	8770.77
577.681	8743.88
578.042	8832.69
578.403	8881.05
578.763	8818.45
579.124	8925.57
579.485	8879.92
579.845	8995.4
580.206	8923.99
580.566	8891
580.927	9042.63
581.287	9027.04
581.648	8971.9
582.008	8982.74
582.368	9036.53
582.728	8987.72
583.089	9027.04
583.449	9065.23
583.809	9113.36
584.169	9108.39
584.529	9048.51
584.889	9145
585.249	9110.88
585.609	9166.92
585.969	9171.21
586.329	9145.68
586.688	9251.89
587.048	9209.63
587.408	9200.59
587.768	9245.34
588.127	9231.33
588.487	9215.51
588.846	9384.99
589.206	9300.25
589.565	9256.86
589.925	9306.35
590.284	9298.44
590.643	9377.54
591.003	9355.39
591.362	9402.17
591.721	9315.62
592.08	9373.47
592.44	9401.49
592.799	9402.85
593.158	9332.57
593.517	9398.78
593.876	9446.69
594.235	9446.69
594.593	9393.35
594.952	9510.87
595.311	9399
595.67	9416.63
596.029	9473.8
596.387	9534.82
596.746	9514.93
597.104	9470.41
597.463	9482.17
597.822	9511.77
598.18	9522.62
598.538	9470.64
598.897	9594.71
599.255	9516.06
599.613	9625.21
599.972	9505.89
600.33	9593.35
600.688	9589.06
601.046	9568.49
601.404	9674.03
601.762	9561.94
602.12	9605.55
602.478	9658.66
602.836	9622.5
603.194	9529.17
603.552	9624.99
603.91	9649.17
604.268	9659.79
604.625	9594.25
604.983	9608.72
605.341	9610.98
605.698	9628.83
606.056	9667.47
606.413	9682.84
606.771	9729.84
607.128	9680.58
607.485	9665.89
607.843	9624.08
608.2	9737.75
608.557	9784.3
608.914	9747.92
609.272	9733.91
609.629	9826.79
609.986	9803.29
610.343	9758.99
610.7	9849.84
611.057	9804.64
611.414	9829.28
611.771	9781.59
612.127	9847.13
612.484	9827.24
612.841	9798.54
613.198	9849.84
613.554	9852.33
613.911	9880.57
614.267	9945.66
614.624	9815.26
614.98	9894.58
615.337	9946.33
615.693	9918.09
616.05	9955.83
616.406	9984.07
616.762	9971.42
617.118	9912.44
617.475	9928.48
617.831	9938.2
618.187	10005.54
618.543	9938.88
618.899	10005.77
619.255	9992.44
619.611	10016.62
619.967	10046.44
620.323	10061.59
620.678	9987.01
621.034	9967.35
621.39	10018.65
621.746	9974.36
622.101	10141.36
622.457	10038.76
622.812	10040.12
623.168	9977.07
623.523	10105.88
623.879	10090.51
624.234	10000.57
624.589	10060.91
624.945	10059.1
625.3	10061.36
625.655	10114.47
626.01	10077.18
626.365	9997.63
626.72	10024.98
627.075	10038.76
627.43	10050.51
627.785	10047.8
628.14	10046.9
628.495	10067.46
628.85	9994.47
629.205	9982.72
629.559	10010.74
629.914	9988.59
630.269	9988.37
630.623	9966.67
630.978	9951.31
631.332	9986.11
631.687	10014.13
632.041	9919.89
632.396	9883.51
632.75	9835.6
633.104	9980.23
633.459	9861.37
633.813	9777.53
634.167	9882.38
634.521	9868.37
634.875	9853
635.229	9829.05
635.583	9815.72
635.937	9808.26
636.291	9741.14
636.645	9770.29
636.999	9792.44
637.352	9803.51
637.706	9674.48
638.06	9763.74
638.413	9743.85
638.767	9735.72
639.121	9710.63
639.474	9688.49
639.828	9656.62
640.181	9602.16
640.534	9636.06
640.888	9576.17
641.241	9601.26
641.594	9580.69
641.947	9601.94
642.301	9619.11
642.654	9547.02
643.007	9546.57
643.36	9553.12
643.713	9585.89
644.066	9563.97
644.419	9536.4
644.771	9490.53
645.124	9453.47
645.477	9433.58
645.83	9345.22
646.182	9346.8
646.535	9304.54
646.888	9373.69
647.24	9242.62
647.593	9391.55
647.945	9319.68
648.298	9266.8
648.65	9249.18
649.002	9234.71
649.355	9318.55
649.707	9289.85
650.059	9312.68
650.411	9394.94
650.763	9433.81
651.115	9538.89
651.467	9461.15
651.819	9548.15
652.171	9483.75
652.523	9442.62
652.875	9431.55
653.227	9471.77
653.578	9504.31
653.93	9525.33
654.282	9421.15
654.633	9444.43
654.985	9506.57
655.337	9464.09
655.688	9478.1
656.039	9473.13
656.391	9369.85
656.742	9431.32
657.094	9497.98
657.445	9475.61
657.796	9471.77
658.147	9450.3
658.498	9433.81
658.849	9493.92
659.2	9464.54
659.551	9444.88
659.902	9395.16
660.253	9480.13
660.604	9471.54
660.955	9472.22
661.306	9531.43
661.656	9537.76
662.007	9498.66
662.358	9591.09
662.708	9532.33
663.059	9500.92
663.409	9540.02
663.76	9538.44
664.11	9535.95
664.461	9516.97
664.811	9541.15
665.161	9573.24
665.511	9488.04
665.862	9554.48
666.212	9524.2
666.562	9526.23
666.912	9483.07
667.262	9445.1
667.612	9578.89
667.962	9491.66
668.312	9492.34
668.662	9521.49
669.011	9495.27
669.361	9442.39
669.711	9482.62
670.06	9502.73
670.41	9467.93
670.76	9499.57
671.109	9445.33
671.459	9477.19
671.808	9495.72
672.157	9504.99
672.507	9390.64
672.856	9415.73
673.205	9402.39
673.554	9416.63
673.904	9364.2
674.253	9457.31
674.602	9399.68
674.951	9288.05
675.3	9268.39
675.649	9414.6
675.998	9357.88
676.346	9382.51
676.695	9398.78
677.044	9291.89
677.393	9333.24
677.741	9423.86
678.09	9362.85
678.438	9274.26
678.787	9389.29
679.135	9323.98
679.484	9263.41
679.832	9281.72
680.181	9194.72
680.529	9207.6
680.877	9195.85
681.225	9228.16
681.573	9206.69
681.922	9220.48
682.27	9135.51
682.618	9108.84
682.966	9198.56
683.314	9131.67
683.661	9088.5
684.009	9041.95
684.357	9029.07
684.705	8976.64
685.053	8997.43
685.4	8981.84
685.748	8931.9
686.095	8975.96
686.443	8901.39
686.79	8944.1
687.138	8896.64
687.485	8974.83
687.832	8888.06
688.18	8850.32
688.527	8867.72
688.874	8852.35
689.221	8739.81
689.568	8730.55
689.915	8702.3
690.262	8734.61
690.609	8651.91
690.956	8630.21
691.303	8607.84
691.65	8591.34
691.997	8616.88
692.344	8477.45
692.69	8459.82
693.037	8512.7
693.383	8450.55
693.73	8470.67
694.077	8411.23
694.423	8404
694.769	8335.08
695.116	8250.56
695.462	8274.29
695.808	8241.97
696.155	8315.87
696.501	8166.72
696.847	8202.2
697.193	8110
697.539	8162.2
697.885	8070.23
698.231	8067.29
698.577	8125.82
698.923	7968.08
699.269	7980.06
699.614	7870.91
699.96	7911.59
700.306	7920.4
700.651	7845.15
700.997	7804.02
701.342	7825.49
701.688	7814.87
702.033	7795.66
702.379	7748.2
702.724	7707.3
703.069	7657.81
703.415	7654.64
703.76	7646.28
704.105	7605.83
704.45	7562.44
704.795	7543.69
705.14	7493.74
705.485	7521.77
705.83	7426.63
706.175	7483.12
706.52	7436.8
706.865	7410.58
707.209	7387.98
707.554	7367.65
707.899	7426.85
708.243	7351.37
708.588	7271.83
708.932	7240.19
709.277	7254.65
709.621	7191.6
709.966	7172.4
710.31	7218.04
710.654	7129.91
710.998	7111.38
711.342	7137.14
711.687	7130.36
712.031	7086.97
712.375	7102.34
712.719	7059.4
713.063	7068.9
713.407	7037.26
713.75	7027.99
714.094	7039.97
714.438	7015.34
714.782	6984.6
715.125	6983.02
715.469	7017.37
715.812	6914.32
716.156	6935.11
716.499	6894.89
716.843	6916.13
717.186	6877.94
717.53	6972.63
717.873	6909.35
718.216	6830.03
718.559	6838.85
718.902	6867.77
719.246	6874.55
719.589	6859.18
719.932	6787.32
720.275	6814.44
720.617	6779.64
720.96	6810.82
721.303	6806.08
721.646	6787.77
721.989	6713.43
722.331	6803.59
722.674	6781.45
723.016	6778.06
723.359	6766.31
723.701	6771.05
724.044	6697.38
724.386	6706.42
724.729	6750.94
725.071	6714.56
725.413	6694.67
725.755	6668
726.097	6665.29
726.439	6655.8
726.782	6625.74
727.124	6716.36
727.465	6696.93
727.807	6678.85
728.149	6598.4
728.491	6690.15
728.833	6641.11
729.175	6621.45
729.516	6673.2
729.858	6620.32
730.199	6612.86
730.541	6619.19
730.882	6584.16
731.224	6682.47
731.565	6604.95
731.906	6667.78
732.248	6642.92
732.589	6617.83
732.93	6614.67
733.271	6554.79
733.612	6645.4
733.953	6683.82
734.294	6651.96
734.635	6610.6
734.976	6640.88
735.317	6615.8
735.658	6640.88
735.999	6647.21
736.339	6609.47
736.68	6648.57
737.021	6655.57
737.361	6620.55
737.702	6670.71
738.042	6641.56
738.383	6704.61
738.723	6704.61
739.063	6648.34
739.404	6701.9
739.744	6673.65
740.084	6636.14
740.424	6728.79
740.764	6752.97
741.104	6746.64
741.444	6757.94
741.784	6731.73
742.124	6790.49
742.464	6768.34
742.804	6780.54
743.143	6800.43
743.483	6875.45
743.823	6858.28
744.162	6880.88
744.502	6911.84
744.841	6915.91
745.181	7006.52
745.52	7012.85
745.86	7030.03
746.199	7005.17
746.538	7079.74
746.877	7155.22
747.216	7173.07
747.556	7171.04
747.895	7216.91
748.234	7253.07
748.573	7374.2
748.911	7370.13
749.25	7427.3
749.589	7482.44
749.928	7536.68
750.267	7623.91
750.605	7658.71
750.944	7736.45
751.283	7837.69
751.621	7944.81
751.96	7990.68
752.298	8055.76
752.636	8182.09
752.975	8233.84
753.313	8306.15
753.651	8421.63
753.989	8513.38
754.327	8597.44
754.666	8682.64
755.004	8822.07
755.342	8956.53
755.679	9093.7
756.017	9154.49
756.355	9353.58
756.693	9433.35
757.031	9597.42
757.368	9694.14
757.706	9847.13
758.044	9927.58
758.381	10197.85
758.719	10257.96
759.056	10481.69
759.394	10637.84
759.731	10669.03
760.068	10895.24
760.405	11049.36
760.743	11216.58
761.08	11422.68
761.417	11521.43
761.754	11701.77
762.091	11860.86
762.428	12054.53
762.765	12141.08
763.102	12376.1
763.438	12517.11
763.775	12693.38
764.112	12932.92
764.449	13068.74
764.785	13270.54
765.122	13376.3
765.458	13505.11
765.795	13721.15
766.131	13848.83
766.467	13950.07
766.804	14139.22
767.14	14177.18
767.476	14456.27
767.812	14589.38
768.148	14803.16
