Data from hue_310_FLMS001491_64.txt Node
Date: Mon Feb 06 15:50:00 GMT 2017
User: dcchb
Spectrometer: FLMS00149
Trigger mode: 0
Integration Time (sec): 2.000000E-2
Scans to average: 10
Electric dark correction enabled: true
Nonlinearity correction enabled: false
Boxcar width: 0
XAxis mode: Wavelengths
Number of Pixels in Spectrum: 2048
>>>>>Begin Spectral Data<<<<<
341.393	-9.32
341.776	-9.32
342.16	-9.32
342.543	-77.12
342.927	-72.82
343.31	-52.71
343.693	-80.05
344.077	-60.39
344.46	-58.59
344.843	-70.79
345.226	-29.43
345.61	-28.53
345.993	-30.11
346.376	-14.52
346.759	4.92
347.142	12.82
347.525	50.56
347.908	56.67
348.291	100.96
348.674	81.07
349.057	118.13
349.44	98.02
349.823	141.41
350.206	159.04
350.588	188.87
350.971	215.98
351.354	214.85
351.737	221.86
352.119	257.34
352.502	249.2
352.884	271.57
353.267	269.99
353.65	275.42
354.032	275.42
354.414	316.32
354.797	311.8
355.179	297.34
355.562	307.28
355.944	310.9
356.326	316.55
356.709	322.65
357.091	321.97
357.473	340.73
357.855	331.91
358.238	329.2
358.62	347.73
359.002	319.94
359.384	340.27
359.766	338.69
360.148	343.44
360.53	341.4
360.912	335.3
361.294	332.14
361.676	320.39
362.057	347.5
362.439	323.78
362.821	329.2
363.203	308.41
363.584	316.55
363.966	308.18
364.348	327.17
364.729	298.01
365.111	329.43
365.493	326.49
365.874	335.98
366.256	339.14
366.637	317.68
367.019	335.08
367.4	335.53
367.781	312.93
368.163	329.88
368.544	308.18
368.925	324.68
369.306	328.75
369.688	324.45
370.069	310.22
370.45	300.05
370.831	331.01
371.212	330.56
371.593	309.31
371.974	310.44
372.355	317.9
372.736	313.38
373.117	314.96
373.498	331.69
373.879	320.16
374.26	318.13
374.641	321.07
375.021	311.12
375.402	321.29
375.783	306.38
376.163	335.98
376.544	303.44
376.925	321.97
377.305	314.06
377.686	327.84
378.066	319.03
378.447	315.42
378.827	315.64
379.208	333.72
379.588	336.66
379.968	340.95
380.349	327.39
380.729	319.48
381.109	347.05
381.489	336.66
381.87	326.94
382.25	311.35
382.63	330.78
383.01	331.91
383.39	348.41
383.77	342.53
384.15	345.47
384.53	340.73
384.91	348.63
385.29	333.27
385.67	350.89
386.049	364.23
386.429	331.01
386.809	344.79
387.189	348.41
387.568	364
387.948	314.06
388.328	374.62
388.707	356.54
389.087	371.01
389.466	350.44
389.846	348.63
390.225	373.49
390.605	365.13
390.984	354.28
391.363	365.13
391.743	373.72
392.122	361.52
392.501	391.35
392.881	361.97
393.26	359.03
393.639	378.69
394.018	383.44
394.397	396.54
394.776	369.2
395.155	353.61
395.534	387.28
395.913	372.82
396.292	394.51
396.671	387.73
397.05	363.1
397.429	398.58
397.808	406.94
398.186	389.31
398.565	383.89
398.944	387.05
399.323	402.87
399.701	404.23
400.08	418.92
400.458	408.97
400.837	404.45
401.215	437.45
401.594	409.2
401.972	407.62
402.351	401.97
402.729	403.1
403.107	401.29
403.486	413.94
403.864	422.76
404.242	416.66
404.62	430.89
404.999	433.38
405.377	425.92
405.755	432.47
406.133	444.9
406.511	445.58
406.889	471.57
407.267	470.89
407.645	457.78
408.023	464.11
408.401	449.88
408.779	484.22
409.156	472.02
409.534	465.92
409.912	464.34
410.29	484
410.667	480.61
411.045	508.18
411.422	493.94
411.8	499.14
412.178	495.98
412.555	526.94
412.933	550.66
413.31	498.24
413.687	564.22
414.065	535.75
414.442	543.88
414.819	558.8
415.197	556.54
415.574	543.88
415.951	570.32
416.328	578.23
416.705	580.04
417.082	609.87
417.46	596.31
417.837	588.63
418.214	634.5
418.591	620.72
418.967	662.3
419.344	638.57
419.721	634.5
420.098	663.43
420.475	665.69
420.852	676.54
421.228	664.33
421.605	685.58
421.982	695.74
422.358	715.86
422.735	698.68
423.111	707.27
423.488	727.16
423.864	714.95
424.241	717.89
424.617	746.59
424.994	736.65
425.37	749.53
425.746	734.84
426.123	761.96
426.499	791.56
426.875	776.87
427.251	813.48
427.627	801.73
428.003	814.16
428.379	807.83
428.756	822.97
429.132	824.78
429.507	832.92
429.883	864.1
430.259	857.55
430.635	872.69
431.011	882.63
431.387	911.33
431.763	910.65
432.138	893.48
432.514	936.19
432.89	922.41
433.265	985.23
433.641	941.84
434.016	976.19
434.392	963.99
434.767	990.2
435.143	1013.7
435.518	1006.92
435.894	1045.11
436.269	1013.93
436.644	1049.63
437.02	1042.63
437.395	1050.09
437.77	1051.89
438.145	1082.85
438.52	1082.17
438.895	1083.3
439.271	1096.41
439.646	1139.35
440.021	1114.04
440.395	1125.34
440.77	1099.12
441.145	1139.8
441.52	1159.24
441.895	1145.45
442.27	1153.36
442.645	1152.91
443.019	1172.34
443.394	1173.25
443.769	1193.13
444.143	1199.69
444.518	1222.74
444.892	1208.73
445.267	1206.01
445.641	1178.22
446.016	1198.56
446.39	1187.71
446.764	1220.7
447.139	1219.57
447.513	1233.36
447.887	1222.74
448.262	1222.06
448.636	1250.08
449.01	1252.34
449.384	1268.16
449.758	1240.14
450.132	1268.38
450.506	1269.06
450.88	1270.87
451.254	1277.42
451.628	1298.44
452.002	1302.51
452.376	1295.5
452.75	1308.61
453.123	1310.42
453.497	1327.37
453.871	1325.33
454.244	1357.87
454.618	1347.03
454.992	1348.61
455.365	1361.94
455.739	1402.39
456.112	1395.84
456.486	1400.36
456.859	1396.52
457.232	1403.52
457.606	1391.55
457.979	1439.45
458.352	1435.61
458.725	1472.45
459.099	1492.33
459.472	1483.75
459.845	1501.37
460.218	1519.9
460.591	1529.39
460.964	1526.46
461.337	1528.72
461.71	1555.38
462.083	1594.03
462.456	1562.39
462.829	1541.82
463.201	1575.27
463.574	1604.42
463.947	1600.13
464.32	1615.49
464.692	1671.76
465.065	1652.33
465.438	1662.72
465.81	1680.13
466.183	1684.87
466.555	1716.51
466.928	1731.42
467.3	1719.22
467.672	1724.42
468.045	1763.51
468.417	1752.67
468.789	1751.76
469.161	1780.46
469.534	1799.9
469.906	1813
470.278	1830.18
470.65	1827.47
471.022	1887.35
471.394	1907.92
471.766	1889.61
472.138	1924.86
472.51	1928.93
472.882	1948.37
473.253	2005.99
473.625	1972.55
473.997	2023.62
474.369	2013.9
474.74	2053.67
475.112	2119.44
475.484	2112.88
475.855	2100
476.227	2106.55
476.598	2160.79
476.97	2156.5
477.341	2186.78
477.713	2215.7
478.084	2229.72
478.455	2305.87
478.827	2294.57
479.198	2362.14
479.569	2378.19
479.94	2418.19
480.311	2392.2
480.682	2467.9
481.053	2422.48
481.424	2503.15
481.795	2490.5
482.166	2535.24
482.537	2542.93
482.908	2589.48
483.279	2630.38
483.65	2638.52
484.021	2670.83
484.391	2693.88
484.762	2713.09
485.133	2760.55
485.503	2736.37
485.874	2797.38
486.244	2794.45
486.615	2841.22
486.985	2871.51
487.356	2928.23
487.726	2915.57
488.097	2971.84
488.467	2969.58
488.837	3017.94
489.207	3014.78
489.578	3101.1
489.948	3110.37
490.318	3096.59
490.688	3153.76
491.058	3138.84
491.428	3218.62
491.798	3227.66
492.168	3240.08
492.538	3243.02
492.908	3332.29
493.278	3352.85
493.648	3348.1
494.017	3315.79
494.387	3421.32
494.757	3404.6
495.126	3417.71
495.496	3464.71
495.866	3451.83
496.235	3464.26
496.605	3541.32
496.974	3541.32
497.344	3560.08
497.713	3576.35
498.082	3596.46
498.452	3581.77
498.821	3607.31
499.19	3626.06
499.559	3631.94
499.928	3673.29
500.298	3666.29
500.667	3706.96
501.036	3695.89
501.405	3726.63
501.774	3694.54
502.143	3759.62
502.512	3741.09
502.88	3781.09
503.249	3805.27
503.618	3774.31
503.987	3824.25
504.356	3831.71
504.724	3830.13
505.093	3853.85
505.462	3845.72
505.83	3876.68
506.199	3881.88
506.567	3939.27
506.936	3917.35
507.304	3962.1
507.672	3954.64
508.041	4008.88
508.409	3970.91
508.777	3990.8
509.145	4048.65
509.514	4017.24
509.882	4039.84
510.25	4015.21
510.618	4078.93
510.986	4076.45
511.354	4060.85
511.722	4065.15
512.09	4161.42
512.458	4096.33
512.826	4137.46
513.193	4187.63
513.561	4166.16
513.929	4167.52
514.297	4178.36
514.664	4225.82
515.032	4209.55
515.4	4230.57
515.767	4249.32
516.135	4228.31
516.502	4262.66
516.869	4287.74
517.237	4255.2
517.604	4306.5
517.972	4313.28
518.339	4297.23
518.706	4341.75
519.073	4348.76
519.44	4374.07
519.808	4389.21
520.175	4366.38
520.542	4387.4
520.909	4445.02
521.276	4420.62
521.643	4440.28
522.009	4478.24
522.376	4482.76
522.743	4519.15
523.11	4502.88
523.477	4610.22
523.843	4571.12
524.21	4548.75
524.577	4621.74
524.943	4646.6
525.31	4607.51
525.676	4704
526.043	4684.79
526.409	4702.64
526.776	4747.39
527.142	4730.89
527.508	4783.55
527.874	4797.56
528.241	4847.73
528.607	4804.56
528.973	4882.3
529.339	4843.66
529.705	4938.57
530.071	4956.42
530.437	5016.99
530.803	5011.56
531.169	5026.93
531.535	5001.85
531.901	5011.34
532.267	5096.98
532.632	5068.51
532.998	5094.5
533.364	5126.14
533.73	5149.19
534.095	5159.81
534.461	5145.8
534.826	5226.47
535.192	5210.2
535.557	5269.86
535.923	5282.06
536.288	5294.49
536.653	5280.48
537.019	5308.96
537.384	5360.25
537.749	5352.35
538.114	5354.38
538.479	5415.17
538.845	5415.62
539.21	5412.23
539.575	5475.28
539.94	5463.08
540.305	5529.29
540.67	5435.51
541.034	5532.91
541.399	5534.49
541.764	5593.69
542.129	5576.07
542.494	5660.59
542.858	5654.48
543.223	5643.86
543.587	5701.26
543.952	5697.42
544.316	5697.65
544.681	5718.44
545.045	5810.19
545.41	5821.03
545.774	5803.18
546.138	5852.67
546.503	5857.19
546.867	5876.4
547.231	5925.21
547.595	5874.14
547.959	5976.74
548.324	5951.88
548.688	6034.14
549.052	6056.96
549.416	6072.78
549.779	6073.91
550.143	6049.28
550.507	6138.54
550.871	6132.44
551.235	6104.64
551.599	6182.38
551.962	6216.73
552.326	6198.65
552.689	6272.32
553.053	6190.29
553.417	6270.51
553.78	6350.29
554.143	6292.66
554.507	6313
554.87	6331.98
555.234	6350.74
555.597	6362.49
555.96	6380.34
556.323	6420.57
556.686	6455.82
557.05	6502.15
557.413	6460.56
557.776	6466.21
558.139	6493.78
558.502	6505.31
558.865	6516.61
559.228	6538.3
559.59	6611.75
559.953	6604.29
560.316	6705.76
560.679	6616.27
561.041	6658.07
561.404	6718.86
561.767	6701.46
562.129	6741.69
562.492	6791.63
562.854	6766.09
563.217	6784.17
563.579	6833.89
563.941	6790.27
564.304	6847.9
564.666	6913.89
565.028	6912.98
565.39	6917.05
565.753	6929.03
566.115	6951.85
566.477	6996.37
566.839	7042.24
567.201	7017.39
567.563	7050.38
567.925	7108.91
568.287	7096.48
568.648	7134.67
569.01	7178.06
569.372	7218.74
569.734	7235.23
570.095	7270.26
570.457	7308.68
570.819	7278.4
571.18	7319.98
571.542	7406.98
571.903	7420.54
572.265	7418.51
572.626	7547.77
572.987	7495.57
573.349	7542.8
573.71	7655.56
574.071	7691.49
574.432	7709.35
574.794	7705.73
575.155	7854.65
575.516	7832.28
575.877	7945.27
576.238	8020.98
576.599	8082.67
576.96	8108.2
577.32	8162.67
577.681	8300.52
578.042	8344.13
578.403	8486.5
578.763	8489.89
579.124	8670.9
579.485	8776.89
579.845	8846.04
580.206	8914.06
580.566	9002.87
580.927	9185.69
581.287	9319.02
581.648	9319.7
582.008	9453.48
582.368	9624.78
582.728	9803.98
583.089	9903.41
583.449	10092.33
583.809	10186.79
584.169	10392.44
584.529	10538.42
584.889	10837.4
585.249	10930.05
585.609	11126.43
585.969	11300.89
586.329	11472.41
586.688	11759.18
587.048	11934.09
587.408	12088.89
587.768	12376.57
588.127	12523
588.487	12753.51
588.846	13044.8
589.206	13186.04
589.565	13523.66
589.925	13838.45
590.284	14060.36
590.643	14297.19
591.003	14598.2
591.362	14881.13
591.721	15166.1
592.08	15402.93
592.44	15628.91
592.799	15978.05
593.158	16218.05
593.517	16538.72
593.876	16804.25
594.235	16995.2
594.593	17416.43
594.952	17772.13
595.311	17868.4
595.67	18301.38
596.029	18564.88
596.387	18970.52
596.746	19267.46
597.104	19439.43
597.463	19770.72
597.822	20029.25
598.18	20328.22
598.538	20566.41
598.897	20977.47
599.255	21118.48
599.613	21755.53
599.972	21906.49
600.33	22089.53
600.688	22339.47
601.046	22641.83
601.404	22997.3
601.762	23393.68
602.12	23642.94
602.478	23959.99
602.836	24176.26
603.194	24317.5
603.552	24607.21
603.91	24916.8
604.268	25144.82
604.625	25383.91
604.983	25733.05
605.341	25924.01
605.698	26183.44
606.056	26475.41
606.413	26656.19
606.771	27088.95
607.128	27251.88
607.485	27347.02
607.843	27632.89
608.2	28025.2
608.557	28264.96
608.914	28373.43
609.272	28751.05
609.629	29017.26
609.986	29239.85
610.343	29356.01
610.7	29603.91
611.057	29757.58
611.414	29985.6
611.771	30290.45
612.127	30492.48
612.484	30687.27
612.841	30999.35
613.198	30951.45
613.554	31108.73
613.911	31403.64
614.267	31616.29
614.624	31757.98
614.98	32009.05
615.337	32324.74
615.693	32348.7
616.05	32339.43
616.406	32682.02
616.762	32663.27
617.118	32820.78
617.475	33088.11
617.831	33300.76
618.187	33367.43
618.543	33572.39
618.899	33790.92
619.255	33823.23
619.611	34031.14
619.967	34250.34
620.323	34197.24
620.678	34360.4
621.034	34420.96
621.39	34374.41
621.746	34511.35
622.101	35100.49
622.457	34884.68
622.812	35083.09
623.168	35200.15
623.523	35232.46
623.879	35476.52
624.234	35333.93
624.589	35521.27
624.945	35613.47
625.3	35731.21
625.655	35823.41
626.01	35884.88
626.365	36004.19
626.72	36007.36
627.075	36058.43
627.43	36127.36
627.785	36104.08
628.14	36255.49
628.495	36324.19
628.85	36440.34
629.205	36384.98
629.559	36669.26
629.914	36472.88
630.269	36670.17
630.623	36389.5
630.978	36509.94
631.332	36752.65
631.687	36791.07
632.041	36748.81
632.396	36850.5
632.75	36657.06
633.104	36704.97
633.459	36842.14
633.813	36858.86
634.167	36714.01
634.521	36601.02
634.875	36883.49
635.229	36794.68
635.583	36724.85
635.937	36813.89
636.291	36916.26
636.645	36926.43
636.999	36655.02
637.352	36933.89
637.706	36853.66
638.06	36920.1
638.413	36819.77
638.767	36868.58
639.121	36815.47
639.474	36772.54
639.828	36737.73
640.181	36793.33
640.534	36888.69
640.888	36916.94
641.241	36606.66
641.594	36750.84
641.947	36934.57
642.301	36741.35
642.654	36805.53
643.007	36801.46
643.36	36785.42
643.713	36734.8
644.066	36852.76
644.419	36577.06
644.771	36505.88
645.124	36220.46
645.477	36083.06
645.83	35948.15
646.182	35693.69
646.535	35673.13
646.888	35765.1
647.24	35540.48
647.593	35903.41
647.945	35744.54
648.298	35537.99
648.65	35574.38
649.002	35429.07
649.355	35657.76
649.707	35568.27
650.059	35741.83
650.411	36165.77
650.763	36242.38
651.115	36574.58
651.467	36381.59
651.819	36453.9
652.171	36352.89
652.523	36364.41
652.875	36284.64
653.227	36161.25
653.578	36431.53
653.93	36397.86
654.282	36149.95
654.633	36182.49
654.985	36317.18
655.337	36182.27
655.688	36244.19
656.039	36330.51
656.391	36081.71
656.742	36233.57
657.094	36141.82
657.445	36264.07
657.796	36158.99
658.147	36167.13
658.498	36212.55
658.849	36297.07
659.2	36182.27
659.551	36060.01
659.902	36281.7
660.253	36085.77
660.604	36195.38
660.955	36093.91
661.306	36053.46
661.656	36098.66
662.007	36052.33
662.358	36229.05
662.708	36122.16
663.059	36189.95
663.409	35814.82
663.76	36169.61
664.11	35987.47
664.461	36101.82
664.811	36096.4
665.161	36162.83
665.511	35929.39
665.862	35998.54
666.212	36121.93
666.562	36061.14
666.912	36000.58
667.262	36009.17
667.612	36032.89
667.962	36064.76
668.312	35944.08
668.662	36004.19
669.011	35940.47
669.361	35945.21
669.711	35810.98
670.06	35782.73
670.41	35837.65
670.76	35745.67
671.109	35952.22
671.459	35993.57
671.808	35839
672.157	36004.87
672.507	35651.89
672.856	35783.86
673.205	35546.81
673.554	35866.35
673.904	35864.09
674.253	35853.69
674.602	35779.57
674.951	35273.82
675.3	35137.32
675.649	35647.37
675.998	35689.4
676.346	35603.3
676.695	35752.68
677.044	35540.48
677.393	35568.95
677.741	35599.01
678.09	35600.36
678.438	35456.41
678.787	35632.9
679.135	35586.8
679.484	35366.92
679.832	35492.12
680.181	35224.78
680.529	35458.45
680.877	35217.32
681.225	35223.2
681.573	35516.52
681.922	35110.43
682.27	35058
682.618	35128.96
682.966	35000.61
683.314	35094.84
683.661	35000.83
684.009	34743.44
684.357	34855.98
684.705	34804.68
685.053	34760.61
685.4	34752.02
685.748	34636.09
686.095	34625.02
686.443	34412.6
686.79	34392.26
687.138	34501.64
687.485	34408.76
687.832	34480.84
688.18	34406.04
688.527	34114.75
688.874	34156.56
689.221	34148.88
689.568	33999.73
689.915	33898.49
690.262	34005.15
690.609	33917.7
690.956	33771.03
691.303	33738.94
691.65	33529.46
691.997	33484.03
692.344	33383.02
692.69	33383.92
693.037	33394.32
693.383	33102.8
693.73	33341.44
694.077	33049.92
694.423	32973.77
694.769	32903.03
695.116	32821
695.462	32785.97
695.808	32687.67
696.155	32799.76
696.501	32510.95
696.847	32596.15
697.193	32220.34
697.539	32340.34
697.885	32191.19
698.231	32028.25
698.577	32094.47
698.923	32111.19
699.269	31958.43
699.614	31890.18
699.96	31657.19
700.306	31841.37
700.651	31474.14
700.997	31570.19
701.342	31450.42
701.688	31585.55
702.033	31235.96
702.379	31327.03
702.724	31242.29
703.069	31292
703.415	30971.11
703.76	30894.05
704.105	30896.53
704.45	30910.09
704.795	30624.22
705.14	30723.88
705.485	30575.41
705.83	30492.7
706.175	30490.89
706.52	30307.4
706.865	30288.19
707.209	30198.47
707.554	30088.42
707.899	30239.6
708.243	30040.96
708.588	30024.24
708.932	29818.82
709.277	29912.15
709.621	29972.71
709.966	29586.96
710.31	29657.69
710.654	29430.13
710.998	29498.6
711.342	29518.94
711.687	29523.24
712.031	29342.9
712.375	29140.42
712.719	29317.59
713.063	29142.45
713.407	29287.76
713.75	29058.39
714.094	29107.88
714.438	28884.83
714.782	29014.32
715.125	28873.08
715.469	28839.64
715.812	28709.92
716.156	28587.21
716.499	28625.63
716.843	28657.27
717.186	28481.45
717.53	28659.98
717.873	28627.44
718.216	28517.84
718.559	28259.77
718.902	28168.69
719.246	28282.14
719.589	28132.76
719.932	28031.97
720.275	28133.89
720.617	28040.56
720.96	28109.03
721.303	27941.58
721.646	28034.23
721.989	27904.97
722.331	27935.71
722.674	27886.44
723.016	27819.78
723.359	27740.91
723.701	27680.8
724.044	27534.81
724.386	27400.58
724.729	27628.6
725.071	27460.01
725.413	27332.11
725.755	27504.98
726.097	27382.05
726.439	27168.04
726.782	27166.01
727.124	27202.84
727.465	27152.9
727.807	27092.11
728.149	27062.28
728.491	26860.03
728.833	27112.22
729.175	26882.4
729.516	26815.74
729.858	26871.55
730.199	26848.96
730.541	26734.38
730.882	26737.77
731.224	26759.92
731.565	26598.34
731.906	26589.53
732.248	26647.6
732.589	26401.28
732.93	26408.51
733.271	26398.12
733.612	26394.05
733.953	26505.01
734.294	26335.52
734.635	26294.62
734.976	26330.32
735.317	26190.67
735.658	26191.8
735.999	26253.26
736.339	26165.81
736.68	26171.01
737.021	26108.64
737.361	26104.34
737.702	26176.43
738.042	26062.99
738.383	25938.24
738.723	25938.7
739.063	25907.06
739.404	25840.17
739.744	25825.03
740.084	25775.08
740.424	25809.66
740.764	25727.63
741.104	25809.43
741.444	25690.79
741.784	25623.45
742.124	25502.55
742.464	25511.36
742.804	25293.97
743.143	25369.9
743.483	25388.43
743.823	25300.97
744.162	25331.71
744.502	25375.1
744.841	25241.31
745.181	25214.2
745.52	25153.63
745.86	25084.26
746.199	25121.09
746.538	25032.51
746.877	25032.51
747.216	25114.99
747.556	24963.35
747.895	24978.95
748.234	24848.33
748.573	24780.76
748.911	24764.49
749.25	24676.13
749.589	24642.46
749.928	24693.53
750.267	24705.73
750.605	24541.9
750.944	24537.15
751.283	24423.48
751.621	24532.86
751.96	24343.94
752.298	24336.03
752.636	24302.13
752.975	24229.81
753.313	24057.84
753.651	24338.74
753.989	24057.62
754.327	24077.73
754.666	23983.72
755.004	23851.97
755.342	23921.8
755.679	23909.82
756.017	23832.54
756.355	23773.56
756.693	23776.49
757.031	23732.65
757.368	23644.52
757.706	23538.08
758.044	23522.26
758.381	23627.8
758.719	23363.62
759.056	23340.8
759.394	23357.75
759.731	23196.4
