Data from hue_310_FLMS001491_47.txt Node
Date: Mon Feb 06 15:49:45 GMT 2017
User: dcchb
Spectrometer: FLMS00149
Trigger mode: 0
Integration Time (sec): 2.000000E-2
Scans to average: 10
Electric dark correction enabled: true
Nonlinearity correction enabled: false
Boxcar width: 0
XAxis mode: Wavelengths
Number of Pixels in Spectrum: 2048
>>>>>Begin Spectral Data<<<<<
341.393	-20.85
341.776	-20.85
342.16	-20.85
342.543	-56.55
342.927	-59.26
343.31	-80.96
343.693	-60.17
344.077	-61.07
344.46	-61.75
344.843	-61.07
345.226	-58.59
345.61	-25.82
345.993	-19.72
346.376	-2.32
346.759	14.41
347.142	36.33
347.525	55.54
347.908	72.71
348.291	59.83
348.674	86.04
349.057	106.61
349.44	140.05
349.823	126.49
350.206	158.36
350.588	180.05
350.971	217.79
351.354	201.97
351.737	224.12
352.119	249.43
352.502	255.3
352.884	268.19
353.267	296.88
353.65	295.75
354.032	290.33
354.414	306.15
354.797	298.01
355.179	324.45
355.562	307.73
355.944	307.73
356.326	334.4
356.709	324.45
357.091	329.2
357.473	333.04
357.855	330.56
358.238	333.72
358.62	318.81
359.002	338.69
359.384	342.53
359.766	326.94
360.148	337.34
360.53	318.13
360.912	344.34
361.294	322.87
361.676	329.88
362.057	317
362.439	314.51
362.821	338.24
363.203	315.87
363.584	326.04
363.966	291.69
364.348	319.26
364.729	317.22
365.111	327.17
365.493	325.58
365.874	316.32
366.256	295.75
366.637	333.49
367.019	309.77
367.4	301.4
367.781	320.61
368.163	307.28
368.544	309.09
368.925	312.25
369.306	307.96
369.688	304.12
370.069	335.3
370.45	315.19
370.831	314.74
371.212	299.37
371.593	309.31
371.974	330.56
372.355	314.51
372.736	317.9
373.117	315.19
373.498	288.52
373.879	312.7
374.26	287.85
374.641	310.22
375.021	312.03
375.402	321.97
375.783	313.83
376.163	317.9
376.544	317.9
376.925	323.55
377.305	310.67
377.686	339.14
378.066	299.6
378.447	326.26
378.827	325.81
379.208	347.28
379.588	329.65
379.968	316.32
380.349	321.74
380.729	326.04
381.109	326.71
381.489	320.84
381.87	337.34
382.25	329.2
382.63	313.38
383.01	325.36
383.39	350.44
383.77	345.02
384.15	344.34
384.53	337.56
384.91	333.95
385.29	371.23
385.67	353.83
386.049	357
386.429	362.42
386.809	363.55
387.189	341.86
387.568	339.6
387.948	342.76
388.328	352.02
388.707	352.7
389.087	343.44
389.466	361.97
389.846	338.01
390.225	349.31
390.605	372.59
390.984	355.87
391.363	364
391.743	370.56
392.122	363.78
392.501	376.43
392.881	369.43
393.26	362.19
393.639	378.46
394.018	378.24
394.397	365.13
394.776	341.4
395.155	378.01
395.534	383.44
395.913	358.58
396.292	399.03
396.671	381.63
397.05	392.25
397.429	382.08
397.808	386.37
398.186	407.84
398.565	388.18
398.944	386.6
399.323	384.79
399.701	382.08
400.08	400.61
400.458	397
400.837	402.42
401.215	411.91
401.594	402.42
401.972	409.2
402.351	402.42
402.729	414.17
403.107	429.76
403.486	417.33
403.864	419.59
404.242	432.47
404.62	416.88
404.999	426.6
405.377	413.72
405.755	419.14
406.133	449.42
406.511	439.93
406.889	456.65
407.267	450.78
407.645	464.11
408.023	476.99
408.401	478.57
408.779	436.99
409.156	473.6
409.534	468.63
409.912	489.87
410.29	500.72
410.667	491.68
411.045	502.53
411.422	506.37
411.8	511.57
412.178	523.77
412.555	523.77
412.933	523.77
413.31	519.93
413.687	530.33
414.065	535.07
414.442	556.09
414.819	567.16
415.197	556.77
415.574	580.72
415.951	564.67
416.328	588.4
416.705	589.08
417.082	585.24
417.46	601.74
417.837	626.37
418.214	624.56
418.591	637.21
418.967	645.35
419.344	637.67
419.721	651.45
420.098	657.55
420.475	654.84
420.852	674.05
421.228	675.18
421.605	688.51
421.982	688.06
422.358	715.86
422.735	713.6
423.111	715.63
423.488	725.35
423.864	733.26
424.241	753.14
424.617	741.62
424.994	742.75
425.37	741.84
425.746	784.78
426.123	792.47
426.499	752.92
426.875	808.74
427.251	814.84
427.627	819.81
428.003	839.47
428.379	826.14
428.756	840.15
429.132	858.68
429.507	870.88
429.883	852.58
430.259	874.95
430.635	900.26
431.011	891.45
431.387	902.97
431.763	909.75
432.138	909.98
432.514	958.56
432.89	965.79
433.265	963.99
433.641	975.74
434.016	970.54
434.392	992.01
434.767	1005.34
435.143	1021.84
435.518	1009.41
435.894	1039.92
436.269	1066.58
436.644	1063.87
437.02	1087.82
437.395	1074.94
437.77	1082.4
438.145	1107.94
438.52	1109.07
438.895	1095.96
439.271	1097.77
439.646	1129.86
440.021	1142.06
440.395	1169.18
440.77	1126.69
441.145	1150.65
441.52	1181.16
441.895	1165.11
442.27	1162.62
442.645	1184.55
443.019	1203.75
443.394	1206.92
443.769	1184.32
444.143	1173.47
444.518	1213.47
444.892	1203.75
445.267	1225.22
445.641	1226.35
446.016	1245.11
446.39	1225
446.764	1237.2
447.139	1253.24
447.513	1239.01
447.887	1248.27
448.262	1257.76
448.636	1258.22
449.01	1274.49
449.384	1275.39
449.758	1256.18
450.132	1298.89
450.506	1264.77
450.88	1293.69
451.254	1306.35
451.628	1307.93
452.002	1313.13
452.376	1341.83
452.75	1323.52
453.123	1323.75
453.497	1363.3
453.871	1326.69
454.244	1408.49
454.618	1360.59
454.992	1406.91
455.365	1383.41
455.739	1402.39
456.112	1435.61
456.486	1407.82
456.859	1447.36
457.232	1443.07
457.606	1408.27
457.979	1452.33
458.352	1507.25
458.725	1475.38
459.099	1516.74
459.472	1492.11
459.845	1528.72
460.218	1510.41
460.591	1512.45
460.964	1549.51
461.337	1548.15
461.71	1559
462.083	1603.07
462.456	1597.87
462.829	1590.86
463.201	1621.37
463.574	1606.45
463.947	1642.61
464.32	1654.36
464.692	1667.7
465.065	1670.63
465.438	1695.04
465.81	1676.28
466.183	1664.53
466.555	1718.32
466.928	1748.82
467.3	1713.57
467.672	1762.84
468.045	1798.31
468.417	1774.81
468.789	1775.72
469.161	1851.19
469.534	1840.12
469.906	1904.53
470.278	1862.27
470.65	1886
471.022	1865.43
471.394	1926.9
471.766	1958.76
472.138	1949.5
472.51	1987.24
472.882	1990.63
473.253	1986.78
473.625	2035.14
473.997	2062.71
474.369	2050.29
474.74	2096.39
475.112	2082.83
475.484	2124.86
475.855	2142.94
476.227	2191.3
476.598	2222.94
476.97	2214.8
477.341	2260.68
477.713	2281.69
478.084	2270.17
478.455	2306.1
478.827	2311.52
479.198	2382.03
479.569	2351.52
479.94	2398.98
480.311	2439.65
480.682	2461.12
481.053	2508.13
481.424	2532.98
481.795	2546.32
482.166	2559.65
482.537	2583.6
482.908	2620.67
483.279	2662.25
483.65	2691.4
484.021	2715.35
484.391	2778.18
484.762	2735.69
485.133	2758.74
485.503	2788.8
485.874	2842.81
486.244	2832.64
486.615	2919.87
486.985	2921
487.356	2971.84
487.726	2997.15
488.097	3012.52
488.467	3026.08
488.837	3086.19
489.207	3094.78
489.578	3141.78
489.948	3157.6
490.318	3185.85
490.688	3163.7
491.058	3170.26
491.428	3231.04
491.798	3248.45
492.168	3333.87
492.538	3314.43
492.908	3315.56
493.278	3401.89
493.648	3359.18
494.017	3367.09
494.387	3422
494.757	3466.97
495.126	3429.46
495.496	3510.36
495.866	3511.26
496.235	3532.73
496.605	3538.83
496.974	3553.75
497.344	3593.52
497.713	3609.34
498.082	3626.51
498.452	3664.71
498.821	3633.52
499.19	3640.98
499.559	3712.39
499.928	3721.65
500.298	3725.5
500.667	3722.56
501.036	3784.93
501.405	3793.97
501.774	3737.25
502.143	3816.34
502.512	3763.23
502.88	3891.14
503.249	3822.22
503.618	3824.25
503.987	3859.28
504.356	3890.24
504.724	3902.21
505.093	3901.76
505.462	3893.85
505.83	3920.74
506.199	3971.36
506.567	3957.58
506.936	3963
507.304	4016.11
507.672	4047.07
508.041	4052.27
508.409	4024.7
508.777	4025.83
509.145	4059.05
509.514	4051.14
509.882	4108.99
510.25	4089.1
510.618	4089.78
510.986	4094.98
511.354	4169.78
511.722	4187.4
512.09	4190.34
512.458	4160.96
512.826	4195.31
513.193	4185.14
513.561	4194.18
513.929	4188.31
514.297	4258.36
514.664	4252.49
515.032	4261.3
515.4	4271.02
515.767	4320.28
516.135	4297.46
516.502	4282.32
516.869	4362.31
517.237	4339.72
517.604	4324.58
517.972	4332.48
518.339	4357.12
518.706	4353.95
519.073	4370.9
519.44	4405.93
519.808	4407.96
520.175	4384.46
520.542	4439.83
520.909	4448.87
521.276	4448.41
521.643	4473.27
522.009	4475.98
522.376	4521.86
522.743	4526.83
523.11	4613.38
523.477	4586.04
523.843	4594.17
524.21	4614.06
524.577	4626.71
524.943	4643.89
525.31	4659.93
525.676	4729.99
526.043	4704.9
526.409	4670.33
526.776	4775.86
527.142	4793.94
527.508	4818.35
527.874	4853.38
528.241	4817.9
528.607	4860.38
528.973	4884.56
529.339	4880.04
529.705	4967.04
530.071	4986.03
530.437	4922.98
530.803	5003.43
531.169	5021.73
531.535	5021.28
531.901	5075.97
532.267	5087.49
532.632	5120.26
532.998	5091.34
533.364	5150.77
533.73	5133.59
534.095	5220.6
534.461	5175.85
534.826	5223.53
535.192	5314.15
535.557	5270.09
535.923	5257.88
536.288	5312.8
536.653	5328.16
537.019	5324.55
537.384	5359.12
537.749	5418.56
538.114	5398.45
538.479	5467.37
538.845	5405.23
539.21	5419.46
539.575	5499.23
539.94	5433.25
540.305	5492
540.67	5528.39
541.034	5574.03
541.399	5573.13
541.764	5624.88
542.129	5644.54
542.494	5633.92
542.858	5718.21
543.223	5682.51
543.587	5756.85
543.952	5797.31
544.316	5767.02
544.681	5779.9
545.045	5759.57
545.41	5807.93
545.774	5849.28
546.138	5839.56
546.503	5887.92
546.867	5860.35
547.231	5943.06
547.595	5998.2
547.959	5971.76
548.324	6000.46
548.688	6028.49
549.052	6042.04
549.416	6029.39
549.779	6114.81
550.143	6060.35
550.507	6170.4
550.871	6128.37
551.235	6144.87
551.599	6164.75
551.962	6170.18
552.326	6225.32
552.689	6196.39
553.053	6260.8
553.417	6244.07
553.78	6329.49
554.143	6325.2
554.507	6341.92
554.87	6351.64
555.234	6401.13
555.597	6365.43
555.96	6414.92
556.323	6399.78
556.686	6459.89
557.05	6484.52
557.413	6439.55
557.776	6441.36
558.139	6493.56
558.502	6531.75
558.865	6568.36
559.228	6541.69
559.59	6569.04
559.953	6664.85
560.316	6733.78
560.679	6622.59
561.041	6682.48
561.404	6695.13
561.767	6775.13
562.129	6771.97
562.492	6791.86
562.854	6732.87
563.217	6759.09
563.579	6817.84
563.941	6837.28
564.304	6830.05
564.666	6906.88
565.028	6868.01
565.39	6937.16
565.753	6914.11
566.115	6979.2
566.477	6977.39
566.839	7020.78
567.201	7076.14
567.563	7069.36
567.925	7026.88
568.287	7124.28
568.648	7079.31
569.01	7121.11
569.372	7228.91
569.734	7242.46
570.095	7234.56
570.457	7296.02
570.819	7295.8
571.18	7343.71
571.542	7356.36
571.903	7386.42
572.265	7471.39
572.626	7506.19
572.987	7517.03
573.349	7554.55
573.71	7603.36
574.071	7683.36
574.432	7748.44
574.794	7816.69
575.155	7806.97
575.516	7859.4
575.877	7957.47
576.238	7985.04
576.599	8049.9
576.96	8079.05
577.32	8216
577.681	8311.59
578.042	8365.37
578.403	8440.63
578.763	8412.38
579.124	8597.91
579.485	8727.17
579.845	8813.95
580.206	8927.84
580.566	8997.9
580.927	9112.47
581.287	9233.6
581.648	9437.44
582.008	9558.56
582.368	9621.39
582.728	9852.34
583.089	9945.67
583.449	10065.89
583.809	10316.28
584.169	10449.84
584.529	10609.61
584.889	10855.25
585.249	10980.45
585.609	11122.81
585.969	11359.42
586.329	11521
586.688	11831.95
587.048	12022.9
587.408	12321.88
587.768	12451.37
588.127	12737.69
588.487	12895.88
588.846	13236.88
589.206	13433.04
589.565	13680.71
589.925	14004.1
590.284	14248.16
590.643	14480.47
591.003	14787.13
591.362	15099.43
591.721	15295.13
592.08	15532.87
592.44	15860.32
592.799	16176.02
593.158	16356.12
593.517	16703.01
593.876	16949.78
594.235	17279.49
594.593	17566.04
594.952	17825.01
595.311	18159.47
595.67	18407.82
596.029	18709.28
596.387	19044.41
596.746	19372.99
597.104	19596.04
597.463	19954
597.822	20304.27
598.18	20387.88
598.538	20626.52
598.897	21155.77
599.255	21240.74
599.613	21806.6
599.972	21926.15
600.33	22205.24
600.688	22441.39
601.046	22851.55
601.404	23129.96
601.762	23399.55
602.12	23640
602.478	23962.48
602.836	24233.66
603.194	24455.35
603.552	24715.45
603.91	24818.5
604.268	25354.76
604.625	25449.44
604.983	25769.21
605.341	25782.09
605.698	26232.25
606.056	26454.39
606.413	26705.68
606.771	27026.58
607.128	27213.69
607.485	27390.41
607.843	27495.94
608.2	27961.69
608.557	28205.08
608.914	28316.71
609.272	28621.11
609.629	28915.34
609.986	29073.76
610.343	29250.7
610.7	29615.21
611.057	29716.68
611.414	29900.17
611.771	30098.14
612.127	30354.85
612.484	30355.76
612.841	30647.5
613.198	30697.22
613.554	30953.25
613.911	31309.4
614.267	31494.03
614.624	31365.67
614.98	31757.3
615.337	32018.08
615.693	32123.17
616.05	32143.28
616.406	32415.14
616.762	32489.94
617.118	32660.78
617.475	32755.47
617.831	33092.86
618.187	33084.27
618.543	33272.51
618.899	33565.39
619.255	33573.3
619.611	33660.75
619.967	33995.43
620.323	34177.58
620.678	33974.42
621.034	34017.35
621.39	34333.5
621.746	34275.88
622.101	34693.72
622.457	34564.23
622.812	34733.49
623.168	34762.65
623.523	34965.35
623.879	35269.07
624.234	34998.12
624.589	35246.25
624.945	35253.71
625.3	35484.21
625.655	35405.57
626.01	35549.74
626.365	35533.92
626.72	35676.07
627.075	35757.2
627.43	35838.1
627.785	35713.58
628.14	35982.27
628.495	36048.71
628.85	35975.27
629.205	36031.99
629.559	36214.13
629.914	36089.62
630.269	36146.56
630.623	36140.24
630.978	36105.89
631.332	36341.81
631.687	36455.03
632.041	36380
632.396	36341.36
632.75	36310.85
633.104	36523.5
633.459	36325.09
633.813	36413.45
634.167	36371.42
634.521	36358.08
634.875	36474.46
635.229	36503.39
635.583	36416.61
635.937	36389.95
636.291	36379.1
636.645	36491.64
636.999	36413.9
637.352	36498.87
637.706	36426.1
638.06	36494.13
638.413	36347.24
638.767	36499.32
639.121	36432.43
639.474	36306.56
639.828	36374.35
640.181	36324.41
640.534	36463.17
640.888	36342.26
641.241	36196.96
641.594	36349.27
641.947	36398.76
642.301	36438.31
642.654	36407.57
643.007	36419.32
643.36	36418.19
643.713	36281.02
644.066	36465.88
644.419	36391.75
644.771	36078.09
645.124	35697.54
645.477	35762.17
645.83	35405.34
646.182	35380.48
646.535	35203.99
646.888	35351.56
647.24	35104.56
647.593	35397.66
647.945	35419.13
648.298	35276.53
648.65	35226.14
649.002	35018.68
649.355	35327.38
649.707	35124.44
650.059	35388.84
650.411	35671.77
650.763	35771.43
651.115	36125.77
651.467	36059.11
651.819	36000.35
652.171	35989.73
652.523	35919
652.875	35887.81
653.227	35820.02
653.578	36103.18
653.93	35972.56
654.282	35857.08
654.633	35770.75
654.985	35922.84
655.337	35822.5
655.688	35761.94
656.039	35904.31
656.391	35560.82
656.742	35640.59
657.094	35827.48
657.445	35803.3
657.796	35690.76
658.147	35637.88
658.498	35766.01
658.849	35746.57
659.2	35734.15
659.551	35551.33
659.902	35797.87
660.253	35756.29
660.604	35881.03
660.955	35539.57
661.306	35857.31
661.656	35541.83
662.007	35711.55
662.358	35541.83
662.708	35529.4
663.059	35602.4
663.409	35436.98
663.76	35671.77
664.11	35658.21
664.461	35582.06
664.811	35668.61
665.161	35695.5
665.511	35469.29
665.862	35559.91
666.212	35624.09
666.562	35706.8
666.912	35550.65
667.262	35561.49
667.612	35617.76
667.962	35672.68
668.312	35411.67
668.662	35672.45
669.011	35721.26
669.361	35470.88
669.711	35521.95
670.06	35474.26
670.41	35368.28
670.76	35362.86
671.109	35582.74
671.459	35484.66
671.808	35359.24
672.157	35489.63
672.507	35250.54
672.856	35266.13
673.205	35333.03
673.554	35324.44
673.904	35282.18
674.253	35433.36
674.602	35273.37
674.951	34839.03
675.3	34599.71
675.649	35263.2
675.998	35270.2
676.346	35186.36
676.695	35299.58
677.044	35059.81
677.393	35220.71
677.741	35293.7
678.09	35123.09
678.438	35091.9
678.787	35330.54
679.135	35154.95
679.484	34933.26
679.832	35175.06
680.181	34714.06
680.529	35133.93
680.877	34817.79
681.225	34751.35
681.573	35036.99
681.922	34696.43
682.27	34652.59
682.618	34751.8
682.966	34541.18
683.314	34627.06
683.661	34615.53
684.009	34389.1
684.357	34296.67
684.705	34210.8
685.053	34244.47
685.4	34250.79
685.748	34058.71
686.095	34168.08
686.443	34049.44
686.79	33936
687.138	34018.48
687.485	34011.25
687.832	33840.18
688.18	33931.25
688.527	33698.72
688.874	33807.19
689.221	33639.51
689.568	33672.96
689.915	33521.1
690.262	33538.04
690.609	33432.96
690.956	33265.74
691.303	33305.51
691.65	33206.53
691.997	33213.08
692.344	32868.46
692.69	32969.02
693.037	32882.47
693.383	32765.41
693.73	32693.32
694.077	32578.3
694.423	32646.54
694.769	32633.21
695.116	32473.44
695.462	32474.12
695.808	32284.74
696.155	32347.34
696.501	32089.95
696.847	31971.76
697.193	31924.08
697.539	32051.98
697.885	31848.37
698.231	31809.28
698.577	31773.57
698.923	31624.2
699.269	31404.77
699.614	31209.74
699.96	31403.41
700.306	31324.09
700.651	31169.52
700.997	31109.18
701.342	31016.98
701.688	31110.99
702.033	30921.16
702.379	30947.38
702.724	30820.38
703.069	30835.06
703.415	30552.81
703.76	30579.93
704.105	30504
704.45	30556.65
704.795	30243.89
705.14	30076.89
705.485	30173.16
705.83	29948.53
706.175	30097.23
706.52	30031.24
706.865	29832.38
707.209	29832.61
707.554	29723.23
707.899	29819.5
708.243	29563.46
708.588	29631.25
708.932	29403.69
709.277	29400.07
709.621	29484.37
709.966	29197.37
710.31	29403.46
710.654	29074.21
710.998	29158.95
711.342	29131.38
711.687	29052.96
712.031	28851.84
712.375	28855.46
712.719	28770.26
713.063	28787.21
713.407	28929.13
713.75	28791.95
714.094	28718.28
714.438	28528.46
714.782	28735.23
715.125	28360.55
715.469	28509.25
715.812	28370.05
716.156	28184.29
716.499	28343.61
716.843	28410.27
717.186	28102.26
717.53	28210.5
717.873	28306.32
718.216	28100.67
718.559	28031.75
718.902	27905.65
719.246	27944.52
719.589	27825.88
719.932	27774.81
720.275	27757.63
720.617	27723.96
720.96	27670.63
721.303	27575.26
721.646	27655.04
721.989	27455.27
722.331	27486.45
722.674	27531.65
723.016	27390.64
723.359	27406.23
723.701	27398.09
724.044	27274.93
724.386	27093.02
724.729	27248.27
725.071	27101.83
725.413	27058.67
725.755	27072.45
726.097	26902.96
726.439	26782.74
726.782	26808.5
727.124	26912.91
727.465	26712.69
727.807	26794.95
728.149	26748.39
728.491	26638.11
728.833	26625.01
729.175	26512.47
729.516	26410.32
729.858	26588.85
730.199	26513.6
730.541	26443.54
730.882	26344.79
731.224	26485.8
731.565	26277.22
731.906	26388.85
732.248	26324
732.589	26196.77
732.93	26137.11
733.271	26037.68
733.612	26121.74
733.953	26096.66
734.294	25998.81
734.635	25895.31
734.976	26072.03
735.317	25862.77
735.658	25950.45
735.999	25757.01
736.339	25835.65
736.68	25818.47
737.021	25728.08
737.361	25637.69
737.702	25710.23
738.042	25630.68
738.383	25455.09
738.723	25643.79
739.063	25435.66
739.404	25570.57
739.744	25449.67
740.084	25336.23
740.424	25357.92
740.764	25335.55
741.104	25440.18
741.444	25200.41
741.784	25192.5
742.124	25230.01
742.464	25315.66
742.804	25105.72
743.143	25037.48
743.483	25167.64
743.823	24925.39
744.162	25027.53
744.502	24925.39
744.841	24924.03
745.181	24986.63
745.52	24874.09
745.86	24951.15
746.199	24842.23
746.538	24750.71
746.877	24771.04
747.216	24689.69
747.556	24689.01
747.895	24725.4
748.234	24612.86
748.573	24498.73
748.911	24509.36
749.25	24430.71
749.589	24415.12
749.928	24425.97
750.267	24388.45
750.605	24345.97
750.944	24153.21
751.283	24124.51
751.621	24227.56
751.96	24066.2
752.298	24123.15
752.636	24023.94
752.975	23912.31
753.313	23762.93
753.651	23904.17
753.989	23860.56
754.327	23728.81
754.666	23705.76
755.004	23606.33
755.342	23678.42
755.679	23654.91
756.017	23475.94
756.355	23608.36
756.693	23381.48
757.031	23381.48
757.368	23201.37
757.706	23354.13
758.044	23181.71
758.381	23294.92
758.719	22981.94
759.056	23077.75
759.394	23044.54
759.731	22868.95
760.068	22776.07
