Data from hue_38_FLMS001491_00065.txt Node
Date: Tue Feb 07 17:31:49 GMT 2017
User: dcchb
Spectrometer: FLMS00149
Trigger mode: 0
Integration Time (sec): 2.000000E-2
Scans to average: 10
Electric dark correction enabled: true
Nonlinearity correction enabled: false
Boxcar width: 0
XAxis mode: Wavelengths
Number of Pixels in Spectrum: 2048
>>>>>Begin Spectral Data<<<<<
341.393	-19.41
341.776	-19.41
342.16	-19.41
342.543	-73.42
342.927	-40.2
343.31	-65.51
343.693	-69.12
344.077	-49.69
344.46	-51.27
344.843	-44.94
345.226	-44.49
345.61	-53.08
345.993	-39.29
346.376	-7.43
346.759	6.36
347.142	25.11
347.525	35.51
347.908	62.4
348.291	85.22
348.674	100.14
349.057	110.08
349.44	136.75
349.823	139.69
350.206	180.14
350.588	200.02
350.971	214.03
351.354	236.63
351.737	243.86
352.119	261.49
352.502	263.07
352.884	287.7
353.267	294.03
353.65	304.43
354.032	305.56
354.414	300.36
354.797	344.88
355.179	345.56
355.562	322.96
355.944	334.48
356.326	324.09
356.709	329.51
357.091	360.24
357.473	355.5
357.855	334.48
358.238	359.11
358.62	352.11
359.002	352.11
359.384	356.86
359.766	376.52
360.148	339.91
360.53	350.75
360.912	348.27
361.294	354.82
361.676	355.73
362.057	355.5
362.439	344.65
362.821	329.06
363.203	312.11
363.584	334.71
363.966	350.75
364.348	332.67
364.729	338.32
365.111	331.54
365.493	329.51
365.874	317.08
366.256	342.62
366.637	327.03
367.019	307.14
367.4	318.21
367.781	334.03
368.163	323.18
368.544	321.38
368.925	338.78
369.306	343.3
369.688	328.61
370.069	310.53
370.45	311.43
370.831	332.45
371.212	323.18
371.593	320.02
371.974	320.92
372.355	344.88
372.736	344.2
373.117	351.66
373.498	326.57
373.879	324.54
374.26	320.47
374.641	327.48
375.021	335.16
375.402	330.42
375.783	357.08
376.163	333.8
376.544	332.45
376.925	325.9
377.305	340.58
377.686	328.83
378.066	322.28
378.447	334.71
378.827	348.72
379.208	320.25
379.588	324.09
379.968	329.51
380.349	346.01
380.729	343.97
381.109	340.58
381.489	358.89
381.87	348.27
382.25	348.72
382.63	351.21
383.01	357.08
383.39	351.43
383.77	347.14
384.15	353.24
384.53	360.24
384.91	381.71
385.29	356.63
385.67	374.26
386.049	384.2
386.429	384.65
386.809	345.78
387.189	342.62
387.568	361.83
387.948	354.6
388.328	362.73
388.707	383.3
389.087	386.91
389.466	389.85
389.846	378.1
390.225	374.03
390.605	398.66
390.984	393.69
391.363	393.46
391.743	383.75
392.122	376.97
392.501	403.41
392.881	408.83
393.26	407.48
393.639	385.33
394.018	374.71
394.397	401.6
394.776	383.3
395.155	404.99
395.534	404.99
395.913	387.59
396.292	415.16
396.671	417.42
397.05	416.51
397.429	375.39
397.808	405.89
398.186	426.46
398.565	391.2
398.944	403.86
399.323	408.83
399.701	399.57
400.08	395.5
400.458	409.96
400.837	431.66
401.215	417.42
401.594	422.39
401.972	411.32
402.351	416.51
402.729	424.88
403.107	426.46
403.486	411.77
403.864	407.93
404.242	412.9
404.62	433.24
404.999	418.77
405.377	449.28
405.755	448.83
406.133	432.79
406.511	450.64
406.889	445.67
407.267	444.54
407.645	460.58
408.023	476.63
408.401	455.38
408.779	440.47
409.156	456.97
409.534	459.9
409.912	469.39
410.29	475.04
410.667	496.74
411.045	489.73
411.422	479.34
411.8	487.93
412.178	492.44
412.555	518.88
412.933	484.76
413.31	508.49
413.687	512.33
414.065	510.52
414.442	499
414.819	517.98
415.197	475.5
415.574	528.38
415.951	527.02
416.328	514.14
416.705	514.37
417.082	526.34
417.46	535.83
417.837	553.23
418.214	552.78
418.591	561.37
418.967	539.45
419.344	560.92
419.721	562.95
420.098	574.7
420.475	570.86
420.852	569.28
421.228	569.05
421.605	577.41
421.982	547.13
422.358	582.61
422.735	587.13
423.111	574.25
423.488	575.15
423.864	588.94
424.241	600.24
424.617	594.14
424.994	595.27
425.37	603.63
425.746	593.01
426.123	590.75
426.499	602.27
426.875	626.68
427.251	632.55
427.627	638.66
428.003	619.45
428.379	650.41
428.756	642.27
429.132	652.21
429.507	644.31
429.883	673.68
430.259	668.49
430.635	649.5
431.011	671.87
431.387	670.75
431.763	681.37
432.138	696.51
432.514	727.01
432.89	693.34
433.265	691.54
433.641	710.74
434.016	708.94
434.392	738.99
434.767	742.61
435.143	731.99
435.518	757.75
435.894	751.87
436.269	775.15
436.644	766.34
437.02	780.12
437.395	761.82
437.77	782.61
438.145	794.81
438.52	794.13
438.895	789.39
439.271	824.87
439.646	824.87
440.021	812.89
440.395	822.38
440.77	832.32
441.145	830.06
441.52	813.11
441.895	850.18
442.27	836.84
442.645	830.74
443.019	866.67
443.394	854.7
443.769	845.88
444.143	879.78
444.518	885.65
444.892	852.44
445.267	867.12
445.641	886.11
446.016	867.8
446.39	902.38
446.764	916.84
447.139	891.3
447.513	899.21
447.887	917.97
448.262	926.11
448.636	922.72
449.01	936.73
449.384	945.09
449.758	935.37
450.132	921.81
450.506	931.98
450.88	972.66
451.254	970.17
451.628	958.87
452.002	988.7
452.376	981.25
452.75	998.19
453.123	1007.23
453.497	1026.44
453.871	1029.61
454.244	1020.57
454.618	1035.03
454.992	1049.49
455.365	1047.23
455.739	1082.94
456.112	1089.49
456.486	1075.25
456.859	1087.01
457.232	1125.65
457.606	1147.12
457.979	1153.44
458.352	1152.54
458.725	1157.51
459.099	1175.36
459.472	1178.75
459.845	1216.04
460.218	1226.89
460.591	1234.12
460.964	1228.47
461.337	1281.35
461.71	1242.03
462.083	1317.73
462.456	1303.72
462.829	1300.79
463.201	1324.74
463.574	1336.04
463.947	1378.52
464.32	1380.56
464.692	1366.77
465.065	1416.04
465.438	1427.34
465.81	1454.91
466.183	1439.09
466.555	1495.36
466.928	1494.68
467.3	1484.96
467.672	1536.71
468.045	1564.96
468.417	1590.49
468.789	1584.39
469.161	1604.28
469.534	1648.12
469.906	1692.87
470.278	1717.72
470.65	1709.59
471.022	1755.01
471.394	1824.39
471.766	1842.47
472.138	1866.19
472.51	1884.95
472.882	1946.19
473.253	1933.54
473.625	1997.94
473.997	2010.37
474.369	2071.84
474.74	2088.79
475.112	2141.89
475.484	2177.82
475.855	2241.55
476.227	2255.56
476.598	2341.44
476.97	2373.53
477.341	2418.5
477.713	2458.04
478.084	2471.38
478.455	2557.7
478.827	2613.74
479.198	2736.45
479.569	2725.38
479.94	2842.44
480.311	2895.77
480.682	2952.72
481.053	3027.07
481.424	3113.17
481.795	3172.37
482.166	3228.87
482.537	3343.22
482.908	3406.49
483.279	3455.3
483.65	3560.39
484.021	3670.89
484.391	3755.64
484.762	3796.54
485.133	3855.29
485.503	3926.48
485.874	4059.13
486.244	4152.01
486.615	4240.82
486.985	4321.5
487.356	4460.25
487.726	4523.3
488.097	4667.02
488.467	4730.07
488.837	4841.93
489.207	4939.79
489.578	5109.05
489.948	5125.77
490.318	5278.76
490.688	5322.83
491.058	5488.25
491.428	5584.51
491.798	5638.98
492.168	5803.27
492.538	5919.65
492.908	6029.02
493.278	6152.63
493.648	6186.53
494.017	6253.88
494.387	6449.8
494.757	6504.49
495.126	6660.87
495.496	6640.76
495.866	6760.08
496.235	6874.2
496.605	6988.77
496.974	7068.77
497.344	7180.63
497.713	7241.19
498.082	7366.61
498.452	7484.13
498.821	7591.69
499.19	7649.09
499.559	7754.63
499.928	7855.41
500.298	7905.36
500.667	7951.23
501.036	8074.39
501.405	8158.01
501.774	8187.61
502.143	8271.68
502.512	8344.89
502.88	8500.82
503.249	8518.9
503.618	8708.73
503.987	8710.08
504.356	8790.76
504.724	8903.3
505.093	8868.95
505.462	8999.11
505.83	9092.9
506.199	9119.34
506.567	9336.05
506.936	9355.49
507.304	9447.01
507.672	9496.05
508.041	9567.01
508.409	9621.02
508.777	9706.44
509.145	9854.01
509.514	9797.28
509.882	9914.8
510.25	10004.51
510.618	10033.44
510.986	10128.58
511.354	10228.91
511.722	10303.03
512.09	10408.34
512.458	10404.95
512.826	10501.22
513.193	10579.86
513.561	10701.22
513.929	10662.12
514.297	10826.86
514.664	10861.44
515.032	10966.97
515.4	11078.61
515.767	11136.46
516.135	11260.75
516.502	11098.49
516.869	11305.27
517.237	11341.2
517.604	11244.03
517.972	11504.36
518.339	11564.92
518.706	11492.38
519.073	11582.55
519.44	11721.98
519.808	11804.24
520.175	11904.35
520.542	11969.66
520.909	12113.83
521.276	12024.8
521.643	12161.29
522.009	12205.36
522.376	12352.47
522.743	12406.26
523.11	12506.14
523.477	12531.68
523.843	12684.67
524.21	12765.34
524.577	12878.79
524.943	12948.61
525.31	13008.95
525.676	13150.42
526.043	13167.82
526.409	13248.04
526.776	13338.66
527.142	13399.9
527.508	13499.56
527.874	13575.26
528.241	13607.35
528.607	13705.43
528.973	13839.21
529.339	13826.78
529.705	13950.85
530.071	14147.68
530.437	14137.06
530.803	14308.35
531.169	14315.81
531.535	14290.95
531.901	14380.22
532.267	14361.46
532.632	14523.04
532.998	14564.17
533.364	14688.46
533.73	14597.16
534.095	14839.41
534.461	14857.04
534.826	14974.78
535.192	14930.48
535.557	15132.96
535.923	15210.25
536.288	15244.83
536.653	15287.99
537.019	15225.39
537.384	15426.29
537.749	15423.8
538.114	15426.74
538.479	15532.05
538.845	15581.54
539.21	15480.75
539.575	15646.4
539.94	15789.44
540.305	15918.71
540.67	15891.81
541.034	15928.2
541.399	16026.5
541.764	16065.59
542.129	16051.13
542.494	16266.27
542.858	16184.24
543.223	16264.23
543.587	16371.35
543.952	16470.1
544.316	16413.38
544.681	16485.92
545.045	16580.16
545.41	16668.74
545.774	16675.07
546.138	16700.83
546.503	16827.16
546.867	16837.1
547.231	16939.02
547.595	16999.36
547.959	17096.98
548.324	17042.29
548.688	17139.46
549.052	17237.99
549.416	17287.03
549.779	17301.49
550.143	17393.02
550.507	17397.76
550.871	17477.31
551.235	17457.42
551.599	17687.92
551.962	17704.2
552.326	17654.71
552.689	17800.46
553.053	17823.06
553.417	17877.98
553.78	18129.95
554.143	18010.85
554.507	18105.54
554.87	18231.64
555.234	18384.63
555.597	18217.4
555.96	18329.04
556.323	18436.38
556.686	18414.91
557.05	18554.57
557.413	18591.86
557.776	18713.43
558.139	18692.87
558.502	18634.11
558.865	18808.12
559.228	18946.65
559.59	18997.04
559.953	18959.53
560.316	19289.24
560.679	19156.13
561.041	19373.53
561.404	19392.96
561.767	19512.74
562.129	19484.49
562.492	19693.3
562.854	19651.49
563.217	19674.54
563.579	19689.68
563.941	19858.26
564.304	19952.27
564.666	20022.1
565.028	20079.05
565.39	20140.97
565.753	20176.9
566.115	20247.63
566.477	20345.03
566.839	20504.57
567.201	20645.59
567.563	20596.55
567.925	20681.97
568.287	20775.53
568.648	20747.51
569.01	20920.61
569.372	20982.3
569.734	20936.43
570.095	21131.9
570.457	21325.8
570.819	21451.67
571.18	21389.07
571.542	21490.99
571.903	21541.38
572.265	21709.06
572.626	21736.63
572.987	21804.88
573.349	21953.58
573.71	22104.98
574.071	22227.69
574.432	22236.96
574.794	22471.3
575.155	22252.32
575.516	22390.63
575.877	22605.31
576.238	22649.6
576.599	22665.2
576.96	22879.43
577.32	22951.52
577.681	23146.54
578.042	23214.11
578.403	23316.03
578.763	23472.41
579.124	23623.81
579.485	23806.18
579.845	24089.11
580.206	24072.16
580.566	24270.8
580.927	24427.86
581.287	24635.76
581.648	24665.59
582.008	24929.32
582.368	24912.82
582.728	25151.68
583.089	25360.94
583.449	25565.46
583.809	25618.11
584.169	25936.07
584.529	26003.19
584.889	26313.23
585.249	26325.66
585.609	26449.05
585.969	26894.46
586.329	26936.04
586.688	27322.25
587.048	27362.7
587.408	27411.96
587.768	27778.51
588.127	27889.01
588.487	28046.3
588.846	28503.46
589.206	28521.76
589.565	28666.62
589.925	29069.77
590.284	29183.89
590.643	29370.33
591.003	29753.37
591.362	29983.42
591.721	30067.94
592.08	30208.73
592.44	30620.92
592.799	30692.1
593.158	30774.36
593.517	31107.23
593.876	31369.15
594.235	31377.06
594.593	31621.8
594.952	31990.6
595.311	32042.58
595.67	32369.57
596.029	32706.29
596.387	32782.67
596.746	33066.73
597.104	33115.99
597.463	33391.01
597.822	33669.2
598.18	33837.78
598.538	33979.7
598.897	34311.67
599.255	34215.17
599.613	34802.5
599.972	34725.67
600.33	35127.47
600.688	35002.5
601.046	35297.86
601.404	35707.56
601.762	35688.58
602.12	36067.55
602.478	36264.61
602.836	36338.06
603.194	36197.27
603.552	36499.18
603.91	36515.9
604.268	36811.94
604.625	36814.65
604.983	37346.62
605.341	37115.89
605.698	37510.91
606.056	37622.54
606.413	37643.11
606.771	37852.37
607.128	38107.05
607.485	38053.94
607.843	38140.95
608.2	38479.24
608.557	38680.37
608.914	38705.9
609.272	38903.19
609.629	39030.87
609.986	39344.98
610.343	39285.55
610.7	39662.71
611.057	39637.4
611.414	39770.73
611.771	39829.72
612.127	40029.71
612.484	40061.35
612.841	40468.57
613.198	40297.05
613.554	40409.59
613.911	40672.63
614.267	40634.67
614.624	40851.16
614.98	40858.16
615.337	41169.57
615.693	41120.98
616.05	41111.94
616.406	41609.33
616.762	41395.1
617.118	41570.01
617.475	41611.82
617.831	41840.28
618.187	41870.11
618.543	41949.21
618.899	42175.19
619.255	42050.22
619.611	42167.73
619.967	42385.35
620.323	42427.39
620.678	42303.77
621.034	42302.87
621.39	42381.51
621.746	42419.03
622.101	42914.61
622.457	42688.62
622.812	42814.95
623.168	42857.43
623.523	42956.64
623.879	43118.22
624.234	42878
624.589	43146.69
624.945	43165.67
625.3	43235.73
625.655	43221.94
626.01	43244.09
626.365	43430.52
626.72	43348.04
627.075	43337.87
627.43	43337.42
627.785	43382.84
628.14	43315.73
628.495	43468.26
628.85	43382.16
629.205	43443.18
629.559	43571.31
629.914	43489.73
630.269	43501.94
630.623	43366.57
630.978	43437.3
631.332	43638.2
631.687	43720.46
632.041	43609.05
632.396	43509.17
632.75	43490.86
633.104	43517.3
633.459	43360.92
633.813	43446.8
634.167	43397.31
634.521	43443.86
634.875	43553.91
635.229	43386.01
635.583	43325.44
635.937	43384.2
636.291	43328.38
636.645	43380.81
636.999	43362.5
637.352	43501.71
637.706	43139.68
638.06	43384.65
638.413	43298.32
638.767	43110.76
639.121	43282.73
639.474	43077.77
639.828	43220.59
640.181	43104.66
640.534	43308.27
640.888	43053.36
641.241	42940.37
641.594	43023.3
641.947	43194.15
642.301	42920.71
642.654	42972.91
643.007	43202.51
643.36	43039.35
643.713	42931.1
644.066	43087.48
644.419	42809.52
644.771	42567.04
645.124	42269.43
645.477	42057
645.83	41956.89
646.182	41802.32
646.535	41762.55
646.888	41850.45
647.24	41673.06
647.593	41914.41
647.945	41815.88
648.298	41584.02
648.65	41545.15
649.002	41494.3
649.355	41732.04
649.707	41641.65
650.059	41821.08
650.411	42199.37
650.763	42261.74
651.115	42712.8
651.467	42644.56
651.819	42481.4
652.171	42452.47
652.523	42416.77
652.875	42222.19
653.227	42255.19
653.578	42460.83
653.93	42340.38
654.282	42345.36
654.633	42048.41
654.985	42185.13
655.337	42207.73
655.688	42209.31
656.039	42265.13
656.391	41984.46
656.742	42107.17
657.094	42129.32
657.445	42281.63
657.796	42170.67
658.147	42184.68
658.498	42141.75
658.849	42175.64
659.2	42031.92
659.551	42068.07
659.902	42066.27
660.253	42135.87
660.604	42161.41
660.955	41941.3
661.306	41994.18
661.656	41894.75
662.007	42060.62
662.358	42091.8
662.708	42008.64
663.059	41902.88
663.409	41747.63
663.76	42176.09
664.11	42022.88
664.461	42022.43
664.811	41950.34
665.161	41997.34
665.511	41765.94
665.862	41879.83
666.212	41953.05
666.562	41983.56
666.912	41926.16
667.262	41796.44
667.612	41864.24
667.962	41736.33
668.312	41816.1
668.662	42033.5
669.011	41902.43
669.361	41796.44
669.711	41751.7
670.06	41704.69
670.41	41719.61
670.76	41668.54
671.109	41944.01
671.459	41801.64
671.808	41636.67
672.157	41805.03
672.507	41464.93
672.856	41590.57
673.205	41690.91
673.554	41681.19
673.904	41672.6
674.253	41725.26
674.602	41709.89
674.951	41099.29
675.3	40820.65
675.649	41605.26
675.998	41469.45
676.346	41588.77
676.695	41617.69
677.044	41176.57
677.393	41423.35
677.741	41355.1
678.09	41373.4
678.438	41258.15
678.787	41357.36
679.135	41361.88
679.484	41051.38
679.832	41231.71
680.181	41071.49
680.529	41024.49
680.877	40973.64
681.225	40980.42
681.573	41224.48
681.922	40985.62
682.27	40816.81
682.618	40822.68
682.966	40542.01
683.314	40767.09
683.661	40552.18
684.009	40427.67
684.357	40420.43
684.705	40318.52
685.053	40349.7
685.4	40333.43
685.748	40301.57
686.095	40130.72
686.443	40074.45
686.79	40093.21
687.138	39958.98
687.485	40097.51
687.832	39906.55
688.18	40025.87
688.527	39676.27
688.874	39728.48
689.221	39672.43
689.568	39419.33
689.915	39515.83
690.262	39481.02
690.609	39273.8
690.956	39179.11
691.303	39262.95
691.65	38999.23
691.997	38931.89
692.344	38910.64
692.69	38802.4
693.037	38787.93
693.383	38336.42
693.73	38594.95
694.077	38241.28
694.423	38315.86
694.769	38262.98
695.116	38206.48
695.462	38154.51
695.808	37958.8
696.155	38104.79
696.501	37841.29
696.847	37879.26
697.193	37585.25
697.539	37692.82
697.885	37441.08
698.231	37234.3
698.577	37244.25
698.923	37358.82
699.269	37135.1
699.614	36821.66
699.96	36782.56
700.306	36930.36
700.651	36717.03
700.997	36602.23
701.342	36646.75
701.688	36560.65
702.033	36331.5
702.379	36437.71
702.724	36258.06
703.069	36405.4
703.415	35954.34
703.76	35918.18
704.105	35986.88
704.45	35910.5
704.795	35665.31
705.14	35538.75
705.485	35546.89
705.83	35537.4
706.175	35528.81
706.52	35323.85
706.865	35273
707.209	35183.74
707.554	35087.92
707.899	35190.06
708.243	34981.03
708.588	34872.33
708.932	34840.92
709.277	34708.72
709.621	34797.76
709.966	34673.24
710.31	34652.45
710.654	34280.48
710.998	34399.35
711.342	34415.85
711.687	34251.33
712.031	34072.8
712.375	33958.23
712.719	34054.95
713.063	33962.3
713.407	34092.24
713.75	33810.66
714.094	33817.67
714.438	33592.82
714.782	33753.49
715.125	33462.65
715.469	33581.29
715.812	33496.77
716.156	33228.53
716.499	33208.42
716.843	33424.01
717.186	33238.48
717.53	33190.57
717.873	33178.59
718.216	33167.29
718.559	33115.09
718.902	32657.93
719.246	32830.58
719.589	32695.44
719.932	32657.93
720.275	32683.69
720.617	32671.49
720.96	32560.3
721.303	32439.18
721.646	32511.26
721.989	32392.85
722.331	32474.43
722.674	32308.11
723.016	32326.18
723.359	32162.35
723.701	32250.03
724.044	32079.18
724.386	31949.02
724.729	32127.09
725.071	31915.8
725.413	31961.67
725.755	31975.91
726.097	31779.08
726.439	31707.67
726.782	31605.07
727.124	31771.17
727.465	31578.41
727.807	31549.03
728.149	31452.76
728.491	31464.51
728.833	31487.56
729.175	31339.54
729.516	31229.26
729.858	31243.05
730.199	31210.28
730.541	31152.43
730.882	31150.62
731.224	31178.19
731.565	30939.55
731.906	30998.08
732.248	30972.77
732.589	30865.88
732.93	30778.43
733.271	30816.17
733.612	30801.7
733.953	30899.55
734.294	30483.07
734.635	30627.7
734.976	30664.08
735.317	30580.02
735.658	30558.55
735.999	30486.46
736.339	30398.33
736.68	30492.56
737.021	30359.68
737.361	30181.38
737.702	30447.14
738.042	30284.88
738.383	30228.61
738.723	30293.92
739.063	30093.25
739.404	30195.17
739.744	30192
740.084	30011.89
740.424	29959.01
740.764	29970.99
741.104	30109.52
741.444	30002.86
741.784	29728.51
742.124	29841.96
742.464	29761.96
742.804	29737.78
743.143	29598.8
743.483	29574.39
743.823	29398.58
744.162	29441.51
744.502	29570.1
744.841	29436.09
745.181	29511.34
745.52	29321.52
745.86	29356.77
746.199	29381.4
746.538	29284.23
746.877	29341.18
747.216	29287.62
747.556	29277.45
747.895	29177.79
748.234	29099.38
748.573	28979.15
748.911	28870.23
749.25	28937.35
749.589	28781.64
749.928	28879.27
750.267	28898.93
750.605	28746.84
750.944	28764.92
751.283	28554.98
751.621	28566.51
751.96	28494.87
752.298	28449
752.636	28436.12
752.975	28278.15
753.313	28327.19
753.651	28319.06
753.989	28302.33
754.327	28119.74
754.666	28172.62
755.004	28149.34
755.342	28176.69
755.679	28104.37
756.017	27775.12
756.355	27930.82
756.693	27883.36
