Data from hue_34_FLMS001491_00094.txt Node
Date: Tue Feb 07 17:26:28 GMT 2017
User: dcchb
Spectrometer: FLMS00149
Trigger mode: 0
Integration Time (sec): 2.000000E-2
Scans to average: 10
Electric dark correction enabled: true
Nonlinearity correction enabled: false
Boxcar width: 0
XAxis mode: Wavelengths
Number of Pixels in Spectrum: 2048
>>>>>Begin Spectral Data<<<<<
341.393	-38.32
341.776	-38.32
342.16	-38.32
342.543	-62.05
342.927	-83.29
343.31	-69.05
343.693	-82.84
344.077	-64.53
344.46	-58.43
344.843	-49.17
345.226	-44.42
345.61	-34.02
345.993	-20.24
346.376	16.14
346.759	25.63
347.142	35.8
347.525	35.58
347.908	62.47
348.291	63.15
348.674	91.17
349.057	92.75
349.44	124.62
349.823	125.29
350.206	160.55
350.588	195.8
350.971	215.46
351.354	229.25
351.737	245.74
352.119	253.65
352.502	271.05
352.884	289.13
353.267	282.8
353.65	312.63
354.032	284.84
354.414	291.62
354.797	296.59
355.179	312.86
355.562	322.8
355.944	341.33
356.326	339.3
356.709	327.55
357.091	325.06
357.473	329.13
357.855	347.66
358.238	336.14
358.62	323.71
359.002	320.77
359.384	323.48
359.766	344.5
360.148	350.15
360.53	342.91
360.912	344.27
361.294	343.14
361.676	341.56
362.057	316.02
362.439	333.42
362.821	332.52
363.203	323.93
363.584	332.75
363.966	336.81
364.348	311.5
364.729	312.63
365.111	305.4
365.493	316.93
365.874	314.44
366.256	321.22
366.637	303.59
367.019	305.18
367.4	314.89
367.781	334.1
368.163	299.3
368.544	318.73
368.925	291.16
369.306	324.38
369.688	311.28
370.069	319.19
370.45	304.95
370.831	299.98
371.212	330.03
371.593	307.21
371.974	303.59
372.355	323.03
372.736	305.85
373.117	324.84
373.498	299.07
373.879	300.2
374.26	309.7
374.641	329.13
375.021	318.51
375.402	336.14
375.783	330.49
376.163	319.41
376.544	339.98
376.925	328.45
377.305	329.13
377.686	326.19
378.066	314.44
378.447	333.65
378.827	335.46
379.208	324.61
379.588	321.45
379.968	326.42
380.349	316.47
380.729	336.14
381.109	321.9
381.489	320.54
381.87	337.72
382.25	346.53
382.63	353.31
383.01	342.91
383.39	355.57
383.77	328
384.15	351.73
384.53	338.62
384.91	357.83
385.29	344.27
385.67	331.16
386.049	355.57
386.429	344.95
386.809	346.3
387.189	351.05
387.568	349.69
387.948	338.62
388.328	341.33
388.707	377.49
389.087	351.5
389.466	340.88
389.846	345.4
390.225	345.63
390.605	358.28
390.984	364.61
391.363	347.43
391.743	362.12
392.122	376.59
392.501	355.12
392.881	386.3
393.26	381.56
393.639	365.51
394.018	384.95
394.397	355.8
394.776	375.91
395.155	371.84
395.534	381.11
395.913	384.5
396.292	372.07
396.671	376.36
397.05	364.16
397.429	367.32
397.808	386.53
398.186	384.27
398.565	373.42
398.944	393.08
399.323	387.21
399.701	382.01
400.08	382.24
400.458	398.96
400.837	393.31
401.215	380.43
401.594	395.12
401.972	407.77
402.351	396.47
402.729	403.25
403.107	388.34
403.486	395.57
403.864	399.18
404.242	412.74
404.62	398.96
404.999	421.56
405.377	432.18
405.755	421.56
406.133	412.97
406.511	415.68
406.889	418.84
407.267	413.87
407.645	428.34
408.023	426.75
408.401	431.27
408.779	426.3
409.156	426.75
409.534	436.7
409.912	443.7
410.29	437.6
410.667	438.73
411.045	434.44
411.422	466.08
411.8	464.72
412.178	456.58
412.555	471.95
412.933	477.6
413.31	480.31
413.687	462.01
414.065	453.87
414.442	490.03
414.819	488.9
415.197	465.62
415.574	466.08
415.951	486.41
416.328	492.06
416.705	500.2
417.082	475.34
417.46	502.68
417.837	498.16
418.214	487.09
418.591	485.06
418.967	512.4
419.344	512.85
419.721	507.66
420.098	511.95
420.475	506.75
420.852	512.63
421.228	506.53
421.605	536.81
421.982	514.89
422.358	516.92
422.735	537.26
423.111	512.85
423.488	546.07
423.864	532.97
424.241	521.89
424.617	516.47
424.994	542.23
425.37	535
425.746	553.98
426.123	555.34
426.499	556.02
426.875	550.59
427.251	553.08
427.627	587.2
428.003	571.84
428.379	579.97
428.756	578.39
429.132	575.45
429.507	566.41
429.883	589.69
430.259	612.51
430.635	607.54
431.011	573.64
431.387	618.61
431.763	597.37
432.138	639.4
432.514	615.68
432.89	624.94
433.265	641.66
433.641	630.59
434.016	643.7
434.392	633.75
434.767	662.91
435.143	679.18
435.518	661.78
435.894	663.13
436.269	652.29
436.644	678.27
437.02	691.38
437.395	681.66
437.77	682.11
438.145	697.03
438.52	692.06
438.895	722.34
439.271	694.09
439.646	715.33
440.021	713.98
440.395	732.96
440.77	728.89
441.145	749.01
441.52	746.29
441.895	757.59
442.27	748.33
442.645	756.01
443.019	732.96
443.394	731.61
443.769	754.43
444.143	756.01
444.518	756.92
444.892	758.72
445.267	772.73
445.641	788.33
446.016	777.71
446.39	800.76
446.764	776.12
447.139	788.78
447.513	793.52
447.887	796.69
448.262	802.11
448.636	820.87
449.01	784.26
449.384	812.96
449.758	848.66
450.132	829.23
450.506	815.22
450.88	852.28
451.254	843.24
451.628	838.95
452.002	841.43
452.376	875.1
452.75	865.16
453.123	872.62
453.497	889.12
453.871	865.84
454.244	906.74
454.618	906.29
454.992	921.66
455.365	919.62
455.739	913.97
456.112	931.37
456.486	923.24
456.859	943.12
457.232	958.49
457.606	965.95
457.979	965.27
458.352	981.54
458.725	1001.2
459.099	1028.32
459.472	992.62
459.845	1032.61
460.218	1013.86
460.591	1039.39
460.964	1062.67
461.337	1079.39
461.71	1097.92
462.083	1094.53
462.456	1108.54
462.829	1094.31
463.201	1142.44
463.574	1135.66
463.947	1142.22
464.32	1156.9
464.692	1189.22
465.065	1200.75
465.438	1210.46
465.81	1187.19
466.183	1237.13
466.555	1240.74
466.928	1286.84
467.3	1296.56
467.672	1288.88
468.045	1300.18
468.417	1327.97
468.789	1343.57
469.161	1379.72
469.534	1390.8
469.906	1401.87
470.278	1443.9
470.65	1490
471.022	1483.45
471.394	1522.32
471.766	1523.22
472.138	1556.22
472.51	1550.79
472.882	1576.78
473.253	1626.5
473.625	1649.1
473.997	1691.58
474.369	1717.34
474.74	1740.62
475.112	1775.19
475.484	1810.45
475.855	1865.13
476.227	1906.26
476.598	1932.03
476.97	1959.82
477.341	2021.29
477.713	2074.17
478.084	2082.3
478.455	2170.44
478.827	2238.91
479.198	2261.06
479.569	2311.22
479.94	2384.89
480.311	2400.49
480.682	2469.19
481.053	2525.91
481.424	2572.46
481.795	2644.32
482.166	2716.86
482.537	2778.33
482.908	2819.69
483.279	2904.88
483.65	2993.01
484.021	3050.19
484.391	3142.16
484.762	3164.31
485.133	3256.74
485.503	3361.14
485.874	3422.61
486.244	3497.41
486.615	3650.62
486.985	3682.04
487.356	3760.68
487.726	3772.43
488.097	3917.28
488.467	3964.06
488.837	4105.98
489.207	4214.23
489.578	4265.52
489.948	4327.89
490.318	4411.96
490.688	4490.6
491.058	4581.22
491.428	4712.29
491.798	4766.53
492.168	4874.55
492.538	4953.19
492.908	5053.53
493.278	5101.89
493.648	5201.54
494.017	5300.98
494.387	5365.16
494.757	5436.57
495.126	5575.55
495.496	5611.02
495.866	5728.54
496.235	5793.62
496.605	5791.13
496.974	5933.5
497.344	6006.27
497.713	6052.82
498.082	6168.07
498.452	6256.43
498.821	6286.49
499.19	6331.91
499.559	6437.22
499.928	6465.24
500.298	6535.52
500.667	6654.84
501.036	6673.37
501.405	6754.27
501.774	6782.07
502.143	6874.27
502.512	6908.62
502.88	6997.43
503.249	7022.97
503.618	7115.39
503.987	7191.32
504.356	7242.62
504.724	7313.58
505.093	7352
505.462	7399.9
505.83	7504.08
506.199	7514.48
506.567	7664.76
506.936	7608.49
507.304	7722.61
507.672	7844.86
508.041	7853.23
508.409	7926.44
508.777	7939.55
509.145	8013.22
509.514	8065.88
509.882	8135.7
510.25	8192.2
510.618	8322.82
510.986	8280.33
511.354	8385.87
511.722	8395.58
512.09	8521.91
512.458	8445.07
512.826	8585.41
513.193	8622.47
513.561	8655.24
513.929	8681.23
514.297	8787.44
514.664	8852.75
515.032	8879.87
515.4	8921.22
515.767	8980.43
516.135	9033.31
516.502	8990.14
516.869	9147.65
517.237	9151.04
517.604	9104.27
517.972	9232.4
518.339	9271.72
518.706	9285.5
519.073	9370.25
519.44	9428.33
519.808	9559.62
520.175	9480.75
520.542	9596.68
520.909	9615.67
521.276	9615.44
521.643	9763.46
522.009	9816.79
522.376	9917.13
522.743	9846.62
523.11	10050.68
523.477	10071.25
523.843	10033.51
524.21	10223.33
524.577	10284.35
524.943	10327.06
525.31	10392.37
525.676	10452.48
526.043	10519.37
526.409	10522.31
526.776	10626.26
527.142	10643.43
527.508	10717.33
527.874	10824.9
528.241	10828.51
528.607	10905.35
528.973	10981.51
529.339	10961.17
529.705	11078.23
530.071	11167.71
530.437	11172.91
530.803	11324.09
531.169	11302.63
531.535	11230.54
531.901	11377.65
532.267	11400.48
532.632	11487.93
532.998	11501.04
533.364	11604.77
533.73	11642.73
534.095	11726.12
534.461	11823.29
534.826	11823.29
535.192	11904.19
535.557	11921.82
535.923	11956.17
536.288	12000.46
536.653	12068.48
537.019	12100.35
537.384	12124.75
537.749	12219.21
538.114	12254.24
538.479	12281.13
538.845	12354.58
539.21	12380.56
539.575	12389.15
539.94	12436.16
540.305	12569.03
540.67	12546.89
541.034	12615.81
541.399	12627.56
541.764	12734.45
542.129	12796.15
542.494	12809.03
542.858	12874.11
543.223	12867.11
543.587	12988.23
543.952	12950.27
544.316	13057.38
544.681	13027.78
545.045	13146.87
545.41	13287.43
545.774	13212.18
546.138	13265.51
546.503	13287.89
546.867	13296.7
547.231	13416.47
547.595	13456.92
547.959	13527.65
548.324	13516.13
548.688	13583.02
549.052	13656.91
549.416	13674.99
549.779	13731.72
550.143	13837.48
550.507	13858.94
550.871	13881.77
551.235	13836.57
551.599	14084.02
551.962	13933.97
552.326	14063.91
552.689	14225.04
553.053	14118.6
553.417	14117.69
553.78	14315.2
554.143	14268.42
554.507	14387.97
554.87	14414.64
555.234	14602.2
555.597	14446.72
555.96	14457.57
556.323	14584.35
556.686	14614.4
557.05	14670.45
557.413	14719.49
557.776	14735.98
558.139	14874.06
558.502	14819.14
558.865	14909.99
559.228	14971
559.59	14969.2
559.953	15117.67
560.316	15240.38
560.679	15243.99
561.041	15260.94
561.404	15262.97
561.767	15408.73
562.129	15422.29
562.492	15469.52
562.854	15553.14
563.217	15583.19
563.579	15621.84
563.941	15733.92
564.304	15763.98
564.666	15926.46
565.028	15890.3
565.39	15831.55
565.753	15978.44
566.115	16111.54
566.477	16105.21
566.839	16080.13
567.201	16181.59
567.563	16266.34
567.925	16388.59
568.287	16370.74
568.648	16437.63
569.01	16613.9
569.372	16607.12
569.734	16562.15
570.095	16720.56
570.457	16815.48
570.819	16772.77
571.18	16789.71
571.542	16977.28
571.903	16979.09
572.265	17137.28
572.626	17158.97
572.987	17285.52
573.349	17320.1
573.71	17428.34
574.071	17499.53
574.432	17667.66
574.794	17762.34
575.155	17802.12
575.516	17817.26
575.877	17950.59
576.238	18022.9
576.599	18221.99
576.96	18294.08
577.32	18430.35
577.681	18500.18
578.042	18677.57
578.403	18802.77
578.763	18895.42
579.124	18982.2
579.485	19198.24
579.845	19441.62
580.206	19419.7
580.566	19596.42
580.927	19646.59
581.287	20015.17
581.648	20008.61
582.008	20317.08
582.368	20389.62
582.728	20560.91
583.089	20827.8
583.449	20952.77
583.809	21101.24
584.169	21318.18
584.529	21436.6
584.889	21912.74
585.249	21949.13
585.609	22129.01
585.969	22425.5
586.329	22551.37
586.688	22854.87
587.048	23056.22
587.408	23144.8
587.768	23512.93
588.127	23585.02
588.487	23855.74
588.846	24360.36
589.206	24353.13
589.565	24505.67
589.925	24887.35
590.284	25193.33
590.643	25396.95
591.003	25668.58
591.362	26018.85
591.721	26069.24
592.08	26506.97
592.44	26753.97
592.799	27040.52
593.158	27239.16
593.517	27473.73
593.876	27770.44
594.235	27885.69
594.593	28223.09
594.952	28336.3
595.311	28664.66
595.67	29032.56
596.029	29402.72
596.387	29480
596.746	29963.6
597.104	29927.67
597.463	30245.18
597.822	30528.11
598.18	30714.32
598.538	30872.51
598.897	31229.33
599.255	31130.35
599.613	31867.96
599.972	31927.39
600.33	32157.22
600.688	32306.59
601.046	32646.02
601.404	32843.76
601.762	33057.31
602.12	33281.26
602.478	33550.4
602.836	33610.06
603.194	33720.57
603.552	34007.34
603.91	34092.54
604.268	34457.05
604.625	34398.29
604.983	34897.94
605.341	34834.89
605.698	35186.07
606.056	35417.7
606.413	35528.66
606.771	35778.82
607.128	35896.33
607.485	35947.4
607.843	36111.92
608.2	36436.2
608.557	36569.31
608.914	36710.55
609.272	37029.63
609.629	37120.48
609.986	37435.27
610.343	37233.7
610.7	37677.75
611.057	37844.53
611.414	37889.72
611.771	37875.94
612.127	38195.48
612.484	38321.35
612.841	38606.99
613.198	38495.36
613.554	38704.17
613.911	38905.29
614.267	38997.49
614.624	39117.49
614.98	39383.92
615.337	39316.81
615.693	39614.88
616.05	39511.6
616.406	40005.37
616.762	39913.4
617.118	39963.79
617.475	40180.96
617.831	40291.69
618.187	40429.54
618.543	40517.9
618.899	40731.91
619.255	40710.21
619.611	40608.52
619.967	40996.76
620.323	41112.24
620.678	40990.43
621.034	40961.96
621.39	41108.17
621.746	40993.37
622.101	41508.61
622.457	41216.42
622.812	41322.85
623.168	41540.93
623.523	41493.47
623.879	41756.97
624.234	41645.33
624.589	41739.34
624.945	41869.51
625.3	41943.63
625.655	41947.02
626.01	42002.84
626.365	42213.9
626.72	41917.64
627.075	42051.87
627.43	42016.4
627.785	42081.25
628.14	42222.94
628.495	42258.87
628.85	42188.37
629.205	42158.54
629.559	42337.74
629.914	42240.12
630.269	42120.35
630.623	42116.96
630.978	42118.54
631.332	42306.33
631.687	42356.73
632.041	42475.37
632.396	42375.93
632.75	42194.24
633.104	42314.01
633.459	42057.52
633.813	42208.25
634.167	42255.26
634.521	42380.91
634.875	42352.66
635.229	42257.07
635.583	42194.7
635.937	42212.55
636.291	42172.32
636.645	42284.18
636.999	42311.53
637.352	42457.51
637.706	42053
638.06	42259.1
638.413	42304.75
638.767	42102.95
639.121	42050.74
639.474	41888.49
639.828	42063.4
640.181	42049.16
640.534	42158.31
640.888	41924.42
641.241	41689.17
641.594	41818.66
641.947	42057.3
642.301	41907.02
642.654	41959
643.007	41951.09
643.36	41881.03
643.713	41834.93
644.066	41897.53
644.419	41655.95
644.771	41589.06
645.124	41003.77
645.477	41079.02
645.83	40935.52
646.182	40698.69
646.535	40745.02
646.888	40789.99
647.24	40524.68
647.593	40673.15
647.945	40529.43
648.298	40516.1
648.65	40450.79
649.002	40345.48
649.355	40403.78
649.707	40464.12
650.059	40711.34
650.411	40982.75
650.763	41081.5
651.115	41550.42
651.467	41239.92
651.819	41354.27
652.171	41286.24
652.523	41200.82
652.875	41161.28
653.227	40994.95
653.578	41332.35
653.93	41339.58
654.282	41204.89
654.633	41116.31
654.985	41123.09
655.337	41176.42
655.688	41214.61
656.039	41293.48
656.391	40942.3
656.742	41166.47
657.094	41154.05
657.445	41164.89
657.796	41036.08
658.147	41078.79
658.498	41060.26
658.849	41068.17
659.2	41045.35
659.551	40817.33
659.902	41096.19
660.253	40983.65
660.604	41081.96
660.955	40929.87
661.306	41043.54
661.656	40954.28
662.007	40859.36
662.358	40859.14
662.708	40820.72
663.059	40798.12
663.409	40674.96
663.76	40994.28
664.11	40778.24
664.461	40979.59
664.811	40909.08
665.161	40939.36
665.511	40745.47
665.862	40768.97
666.212	40849.42
666.562	40826.6
666.912	40825.69
667.262	40702.53
667.612	40723.55
667.962	40745.92
668.312	40715.64
668.662	40806.71
669.011	40665.47
669.361	40686.26
669.711	40724
670.06	40666.6
670.41	40618.92
670.76	40598.58
671.109	40752.7
671.459	40611.91
671.808	40611.91
672.157	40640.84
672.507	40439.04
672.856	40552.48
673.205	40587.05
673.554	40730.33
673.904	40454.18
674.253	40701.18
674.602	40484.23
674.951	39990.46
675.3	39960.18
675.649	40375.76
675.998	40322.2
676.346	40328.08
676.695	40524.23
677.044	40239.49
677.393	40268.42
677.741	40388.87
678.09	40105.26
678.438	40093.73
678.787	40255.99
679.135	40243.33
679.484	39961.76
679.832	40128.08
680.181	39998.82
680.529	40099.16
680.877	39907.3
681.225	39814.42
681.573	40043.11
681.922	39640.41
682.27	39747.98
682.618	39712.05
682.966	39491.26
683.314	39759.96
683.661	39552.96
684.009	39429.12
684.357	39273.42
684.705	39275.45
685.053	39414.66
685.4	39302.34
685.748	38979.41
686.095	39039.3
686.443	39072.07
686.79	38964.72
687.138	39026.42
687.485	38915.69
687.832	38815.8
688.18	38860.09
688.527	38644.73
688.874	38577.16
689.221	38581.68
689.568	38582.36
689.915	38354.34
690.262	38373.1
690.609	38224.63
690.956	38150.28
691.303	38169.04
691.65	37889.95
691.997	38048.59
692.344	37761.37
692.69	37709.39
693.037	37670.07
693.383	37366.35
693.73	37508.04
694.077	37335.39
694.423	37243.19
694.769	37169.07
695.116	37243.41
695.462	37160.48
695.808	37134.49
696.155	37138.33
696.501	36818.11
696.847	36903.99
697.193	36613.83
697.539	36712.81
697.885	36457.22
698.231	36433.72
698.577	36430.55
698.923	36271.46
699.269	36119.15
699.614	35951.24
699.96	35952.15
700.306	36109.66
700.651	35945.59
700.997	35786.28
701.342	35570.91
701.688	35615.21
702.033	35420.86
702.379	35403.46
702.724	35336.34
703.069	35288.21
703.415	34945.39
703.76	34972.51
704.105	35022.68
704.45	34880.09
704.795	34793.08
705.14	34677.61
705.485	34478.97
705.83	34471.73
706.175	34498.85
706.52	34387.9
706.865	34266.77
707.209	34248.92
707.554	34115.59
707.899	34184.06
708.243	33873.33
708.588	33871.75
708.932	33742.94
709.277	33641.25
709.621	33833.56
709.966	33691.19
710.31	33601.93
710.654	33260.02
710.998	33383.4
711.342	33416.62
711.687	33209.4
712.031	33069.74
712.375	32997.65
712.719	32991.1
713.063	33034.03
713.407	33099.79
713.75	32940.93
714.094	32833.36
714.438	32749.75
714.782	32709.75
715.125	32592.46
715.469	32698
715.812	32462.07
716.156	32296.42
716.499	32422.3
716.843	32423.43
717.186	32173.04
717.53	32271.11
717.873	32279.48
718.216	32293.94
718.559	32111.34
718.902	31835.65
719.246	31849.66
719.589	31913.38
719.932	31793.61
720.275	31840.17
720.617	31638.59
720.96	31624.13
721.303	31589.32
721.646	31695.08
721.989	31450.35
722.331	31508.2
722.674	31350.69
723.016	31446.28
723.359	31380.52
723.701	31416.22
724.044	31182.56
724.386	30905.73
724.729	31214.19
725.071	31171.93
725.413	31102.78
725.755	30962.67
726.097	30865.5
726.439	30785.28
726.782	30683.59
727.124	30915.9
727.465	30739.63
727.807	30745.96
728.149	30553.87
728.491	30693.53
728.833	30542.12
729.175	30558.84
729.516	30358.4
729.858	30474.1
730.199	30504.16
730.541	30346.87
730.882	30328.57
731.224	30400.2
731.565	30239.98
731.906	30126.54
732.248	30110.95
732.589	30022.59
732.93	29851.97
733.271	29809.26
733.612	29982.59
733.953	29946.66
734.294	29764.06
734.635	29797.51
734.976	29948.69
735.317	29639.09
735.658	29745.76
735.999	29556.38
736.339	29661.24
736.68	29684.29
737.021	29529.04
737.361	29461.7
737.702	29550.96
738.042	29425.54
738.383	29363.39
738.723	29502.15
739.063	29404.75
739.404	29276.17
739.744	29283.85
740.084	29107.58
740.424	29137.64
740.764	29101.48
741.104	29167.92
741.444	29021.48
741.784	28905.1
742.124	29082.05
742.464	29006.57
742.804	28944.65
743.143	28757.08
743.483	28882.5
743.823	28550.76
744.162	28584.66
744.502	28722.28
744.841	28538.33
745.181	28591.89
745.52	28450.88
745.86	28565.9
746.199	28470.31
746.538	28453.59
746.877	28510.08
747.216	28392.12
747.556	28245.91
747.895	28365.68
748.234	28144.22
748.573	28127.95
748.911	28179.7
749.25	28059.7
749.589	27869.65
749.928	28022.86
750.267	27977.89
750.605	27893.15
750.944	27765.47
751.283	27785.36
751.621	27831.46
751.96	27725.7
752.298	27616.77
752.636	27654.96
752.975	27540.84
753.313	27468.3
753.651	27606.6
753.989	27447.51
754.327	27405.71
754.666	27240.51
755.004	27271.02
755.342	27259.72
755.679	27163
756.017	27057.01
756.355	27148.09
756.693	27034.87
757.031	27017.47
757.368	26816.57
757.706	26837.81
758.044	26745.61
