Data from hue_28_FLMS001491_00058.txt Node
Date: Tue Feb 07 17:17:28 GMT 2017
User: dcchb
Spectrometer: FLMS00149
Trigger mode: 0
Integration Time (sec): 2.000000E-2
Scans to average: 10
Electric dark correction enabled: true
Nonlinearity correction enabled: false
Boxcar width: 0
XAxis mode: Wavelengths
Number of Pixels in Spectrum: 2048
>>>>>Begin Spectral Data<<<<<
341.393	-20.97
341.776	-20.97
342.16	-20.97
342.543	-78.83
342.927	-63.46
343.31	-73.4
343.693	-74.76
344.077	-50.8
344.46	-57.58
344.843	-38.6
345.226	-56.91
345.61	-17.58
345.993	-36.11
346.376	-2.44
346.759	-2.9
347.142	27.84
347.525	41.17
347.908	63.32
348.291	83.66
348.674	92.92
349.057	102.19
349.44	136.99
349.823	130.66
350.206	174.5
350.588	191
350.971	213.14
351.354	208.4
351.737	226.93
352.119	251.56
352.502	269.19
352.884	297.21
353.267	289.07
353.65	298.34
354.032	329.53
354.414	315.06
354.797	325.46
355.179	321.39
355.562	332.69
355.944	341.73
356.326	326.36
356.709	321.84
357.091	333.14
357.473	349.64
357.855	352.35
358.238	349.86
358.62	336.98
359.002	352.12
359.384	344.44
359.766	362.29
360.148	345.8
360.53	353.25
360.912	359.35
361.294	345.34
361.676	341.5
362.057	329.07
362.439	339.47
362.821	334.95
363.203	319.81
363.584	319.81
363.966	323.88
364.348	312.58
364.729	329.3
365.111	322.97
365.493	326.59
365.874	324.1
366.256	323.65
366.637	327.94
367.019	301.73
367.4	326.36
367.781	319.36
368.163	316.64
368.544	327.94
368.925	318.68
369.306	326.81
369.688	313.03
370.069	319.81
370.45	296.31
370.831	327.49
371.212	332.69
371.593	324.55
371.974	320.94
372.355	328.62
372.736	326.14
373.117	291.79
373.498	313.03
373.879	324.78
374.26	327.27
374.641	319.13
375.021	297.21
375.402	319.58
375.783	322.97
376.163	322.52
376.544	355.97
376.925	332.69
377.305	315.06
377.686	313.25
378.066	319.81
378.447	327.27
378.827	363.42
379.208	345.57
379.588	338.56
379.968	328.62
380.349	347.15
380.729	317.55
381.109	317.77
381.489	334.04
381.87	326.36
382.25	355.51
382.63	339.92
383.01	335.4
383.39	318.9
383.77	349.19
384.15	339.47
384.53	361.84
384.91	352.58
385.29	329.98
385.67	340.37
386.049	351.22
386.429	370.65
386.809	329.3
387.189	344.21
387.568	360.03
387.948	367.26
388.328	356.42
388.707	362.07
389.087	346.7
389.466	379.92
389.846	365.91
390.225	377.89
390.605	355.74
390.984	357.77
391.363	353.71
391.743	375.4
392.122	370.2
392.501	362.74
392.881	386.25
393.26	374.72
393.639	386.25
394.018	396.87
394.397	377.66
394.776	365.91
395.155	383.31
395.534	378.79
395.913	378.79
396.292	392.57
396.671	392.57
397.05	389.18
397.429	370.2
397.808	384.44
398.186	397.77
398.565	407.04
398.944	388.73
399.323	378.56
399.701	384.67
400.08	420.37
400.458	401.39
400.837	412.46
401.215	400.71
401.594	408.85
401.972	392.57
402.351	412.69
402.729	400.94
403.107	412.01
403.486	416.53
403.864	401.84
404.242	418.11
404.62	434.83
404.999	408.62
405.377	412.91
405.755	416.75
406.133	430.09
406.511	420.6
406.889	434.83
407.267	415.4
407.645	467.37
408.023	422.18
408.401	430.54
408.779	436.64
409.156	438.9
409.534	446.13
409.912	453.82
410.29	436.42
410.667	461.95
411.045	441.61
411.422	448.62
411.8	442.06
412.178	475.28
412.555	453.36
412.933	464.66
413.31	465.34
413.687	477.77
414.065	448.62
414.442	459.69
414.819	476.64
415.197	468.5
415.574	484.1
415.951	471.44
416.328	489.75
416.705	493.59
417.082	498.33
417.46	478.45
417.837	503.98
418.214	487.04
418.591	495.4
418.967	511.44
419.344	510.09
419.721	515.96
420.098	496.53
420.475	527.03
420.852	498.11
421.228	520.48
421.605	517.77
421.982	518.22
422.358	507.15
422.735	531.55
423.111	543.76
423.488	523.19
423.864	551.67
424.241	566.36
424.617	541.27
424.994	538.56
425.37	546.02
425.746	547.6
426.123	549.86
426.499	553.47
426.875	558.67
427.251	557.32
427.627	567.49
428.003	590.31
428.379	571.1
428.756	578.56
429.132	581.27
429.507	592.8
429.883	592.12
430.259	611.1
430.635	607.03
431.011	576.75
431.387	634.15
431.763	621.49
432.138	621.95
432.514	609.52
432.89	635.73
433.265	628.5
433.641	637.54
434.016	656.07
434.392	664.21
434.767	661.72
435.143	662.62
435.518	651.78
435.894	664.21
436.269	672.79
436.644	679.35
437.02	715.96
437.395	665.11
437.77	699.46
438.145	711.66
438.52	704.88
438.895	725.9
439.271	709.4
439.646	736.07
440.021	718.89
440.395	712.57
440.77	723.19
441.145	750.76
441.52	740.81
441.895	726.58
442.27	733.36
442.645	751.44
443.019	758.89
443.394	739.46
443.769	766.58
444.143	745.79
444.518	744.43
444.892	784.43
445.267	773.81
445.641	786.69
446.016	787.37
446.39	797.31
446.764	794.37
447.139	788.72
447.513	783.98
447.887	790.76
448.262	816.29
448.636	814.71
449.01	817.2
449.384	819.91
449.758	808.61
450.132	831.66
450.506	863.3
450.88	837.53
451.254	843.41
451.628	841.6
452.002	855.16
452.376	839.12
452.75	871.66
453.123	866.46
453.497	893.8
453.871	863.3
454.244	908.95
454.618	884.76
454.992	896.52
455.365	906.91
455.739	899.91
456.112	934.48
456.486	929.96
456.859	967.02
457.232	929.74
457.606	974.71
457.979	965.44
458.352	998.66
458.725	1004.08
459.099	991.43
459.472	1011.77
459.845	1006.8
460.218	1047.47
460.591	1030.52
460.964	1049.96
461.337	1062.39
461.71	1080.92
462.083	1101.03
462.456	1106.68
462.829	1093.12
463.201	1102.39
463.574	1121.37
463.947	1120.92
464.32	1135.61
464.692	1164.53
465.065	1152.1
465.438	1190.52
465.81	1191.2
466.183	1196.4
466.555	1228.94
466.928	1246.34
467.3	1258.77
467.672	1254.02
468.045	1308.26
468.417	1300.57
468.789	1305.77
469.161	1336.96
469.534	1348.48
469.906	1367.24
470.278	1414.02
470.65	1402.72
471.022	1442.04
471.394	1447.01
471.766	1490.62
472.138	1486.56
472.51	1516.39
472.882	1551.19
473.253	1584.86
473.625	1594.12
473.997	1630.96
474.369	1625.54
474.74	1649.04
475.112	1689.72
475.484	1679.32
475.855	1721.13
476.227	1785.98
476.598	1805.19
476.97	1821.92
477.341	1838.64
477.713	1935.13
478.084	1925.64
478.455	1993.66
478.827	2025.07
479.198	2077.73
479.569	2079.76
479.94	2141
480.311	2193.88
480.682	2239.53
481.053	2296.25
481.424	2330.38
481.795	2342.81
482.166	2400.88
482.537	2446.31
482.908	2507.55
483.279	2546.19
483.65	2590.48
484.021	2672.51
484.391	2750.48
484.762	2735.79
485.133	2778.5
485.503	2874.09
485.874	2905.73
486.244	2953.64
486.615	3038.83
486.985	3069.11
487.356	3165.16
487.726	3177.81
488.097	3279.5
488.467	3300.97
488.837	3364.47
489.207	3430.46
489.578	3466.39
489.948	3529.44
490.318	3582.77
490.688	3592.72
491.058	3679.04
491.428	3779.83
491.798	3806.72
492.168	3848.3
492.538	3896.66
492.908	4022.08
493.278	4109.31
493.648	4087.17
494.017	4169.2
494.387	4178.01
494.757	4248.97
495.126	4291.91
495.496	4303.88
495.866	4366.03
496.235	4439.7
496.605	4471.79
496.974	4492.35
497.344	4550.21
497.713	4587.72
498.082	4662.74
498.452	4678.11
498.821	4717.66
499.19	4751.33
499.559	4870.2
499.928	4872.68
500.298	4920.14
500.667	4949.06
501.036	4918.78
501.405	4980.7
501.774	4992.91
502.143	5066.12
502.512	5126.46
502.88	5147.25
503.249	5165.1
503.618	5175.05
503.987	5210.98
504.356	5271.99
504.724	5346.79
505.093	5325.1
505.462	5349.51
505.83	5340.01
506.199	5404.87
506.567	5490.75
506.936	5496.85
507.304	5580.69
507.672	5558.54
508.041	5606.9
508.409	5635.6
508.777	5702.94
509.145	5707.69
509.514	5743.85
509.882	5782.72
510.25	5799.44
510.618	5853.9
510.986	5818.19
511.354	5895.25
511.722	5938.87
512.09	5937.29
512.458	5947
512.826	5969.83
513.193	6049.6
513.561	6028.36
513.929	6031.75
514.297	6106.55
514.664	6137.28
515.032	6163.72
515.4	6222.03
515.767	6193.1
516.135	6229.94
516.502	6257.05
516.869	6329.37
517.237	6333.66
517.604	6329.82
517.972	6342.47
518.339	6358.52
518.706	6398.97
519.073	6437.39
519.44	6431.29
519.808	6488.69
520.175	6514.22
520.542	6517.84
520.909	6577.95
521.276	6545.41
521.643	6617.95
522.009	6689.81
522.376	6707.89
522.743	6734.1
523.11	6742.69
523.477	6837.83
523.843	6872.63
524.21	6918.73
524.577	6958.5
524.943	6950.82
525.31	6991.95
525.676	6960.54
526.043	7095.68
526.409	7066.3
526.776	7211.83
527.142	7168.89
527.508	7153.07
527.874	7270.36
528.241	7322.56
528.607	7282.11
528.973	7280.75
529.339	7341.09
529.705	7365.72
530.071	7504.48
530.437	7509
530.803	7620.86
531.169	7658.82
531.535	7525.27
531.901	7582.22
532.267	7677.58
532.632	7749.67
532.998	7692.72
533.364	7840.06
533.73	7767.52
534.095	7820.85
534.461	7854.75
534.826	7921.87
535.192	7883.9
535.557	8038.48
535.923	7985.82
536.288	7986.5
536.653	8066.27
537.019	8080.51
537.384	8112.6
537.749	8186.27
538.114	8202.09
538.479	8228.98
538.845	8251.12
539.21	8252.03
539.575	8278.02
539.94	8371.8
540.305	8423.32
540.67	8330.67
541.034	8427.39
541.399	8482.08
541.764	8422.42
542.129	8594.17
542.494	8589.2
542.858	8669.64
543.223	8617.67
543.587	8706.71
543.952	8674.16
544.316	8756.2
544.681	8724.78
545.045	8811.11
545.41	8838
545.774	8906.47
546.138	8956.87
546.503	8965.23
546.867	9002.74
547.231	9010.43
547.595	9023.99
547.959	9093.81
548.324	9142.63
548.688	9141.95
549.052	9116.86
549.416	9196.41
549.779	9256.52
550.143	9247.03
550.507	9317.54
550.871	9292.68
551.235	9341.94
551.599	9479.79
551.962	9417.87
552.326	9428.04
552.689	9488.38
553.053	9445.44
553.417	9524.99
553.78	9626.68
554.143	9645.89
554.507	9673.46
554.87	9660.58
555.234	9762.5
555.597	9717.53
555.96	9795.94
556.323	9771.08
556.686	9815.6
557.05	9931.31
557.413	9809.73
557.776	9879.56
558.139	9968.82
558.502	9990.51
558.865	9960.23
559.228	10127.01
559.59	10113.9
559.953	10119.78
560.316	10133.56
560.679	10179.89
561.041	10249.04
561.404	10241.58
561.767	10322.26
562.129	10318.42
562.492	10374.01
562.854	10367.45
563.217	10475.93
563.579	10401.58
563.941	10511.4
564.304	10516.6
564.666	10527.45
565.028	10679.99
565.39	10655.13
565.753	10678.18
566.115	10639.99
566.477	10772.41
566.839	10794.79
567.201	10855.12
567.563	10907.1
567.925	10903.03
568.287	11005.4
568.648	10988.91
569.01	11010.6
569.372	11090.6
569.734	11032.75
570.095	11138.28
570.457	11216.24
570.819	11261.89
571.18	11214.21
571.542	11398.39
571.903	11395.45
572.265	11463.02
572.626	11472.74
572.987	11561.09
573.349	11677.02
573.71	11763.35
574.071	11736.68
574.432	11865.95
574.794	11983.23
575.155	12066.84
575.516	12018.03
575.877	12132.6
576.238	12186.84
576.599	12263.9
576.96	12387.74
577.32	12462.99
577.681	12590.22
578.042	12731.01
578.403	12767.84
578.763	12843.32
579.124	13067.5
579.485	13207.15
579.845	13280.15
580.206	13420.71
580.566	13590.65
580.927	13690.08
581.287	13849.17
581.648	14018.88
582.008	14243.28
582.368	14339.78
582.728	14562.82
583.089	14721.46
583.449	14906.77
583.809	15104.28
584.169	15246.65
584.529	15526.64
584.889	15822.9
585.249	15917.59
585.609	16214.53
585.969	16462.43
586.329	16698.36
586.688	16996.43
587.048	17159.37
587.408	17442.07
587.768	17716.64
588.127	17970.19
588.487	18168.6
588.846	18716.16
589.206	18752.32
589.565	19084.29
589.925	19525.63
590.284	19708
590.643	19957.48
591.003	20371.26
591.362	20733.06
591.721	21027.96
592.08	21426.6
592.44	21606.71
592.799	22055.73
593.158	22250.3
593.517	22652.33
593.876	22990.4
594.235	23333.21
594.593	23675.58
594.952	24013.65
595.311	24302.23
595.67	24754.65
596.029	25100.17
596.387	25505.81
596.746	25806.82
597.104	26046.82
597.463	26322.29
597.822	26754.82
598.18	27037.98
598.538	27396.16
598.897	27820.55
599.255	27878.86
599.613	28591.38
599.972	28823.47
600.33	29144.36
600.688	29399.72
601.046	29708.64
601.404	30177.78
601.762	30441.95
602.12	30946.8
602.478	31078.32
602.836	31428.59
603.194	31481.02
603.552	32024.96
603.91	32106.99
604.268	32676.02
604.625	32755.57
604.983	33186.51
605.341	33224.48
605.698	33722.09
606.056	34068.07
606.413	34246.6
606.771	34535.41
607.128	34806.81
607.485	34968.61
607.843	35233.69
608.2	35647.24
608.557	36063.27
608.914	36073.22
609.272	36575.35
609.629	36717.5
609.986	37066.64
610.343	37180.08
610.7	37595.66
611.057	37638.15
611.414	37836.34
611.771	38088.31
612.127	38574.62
612.484	38629.54
612.841	38916.08
613.198	38945.01
613.554	39045.34
613.911	39531.66
614.267	39513.58
614.624	39690.75
614.98	39937.52
615.337	40361.92
615.693	40471.52
616.05	40530.05
616.406	40830.83
616.762	40878.06
617.118	40955.35
617.475	41135.68
617.831	41525.96
618.187	41579.74
618.543	41737.48
618.899	41960.52
619.255	42105.38
619.611	42247.29
619.967	42446.16
620.323	42631.01
620.678	42499.26
621.034	42575.19
621.39	42777.45
621.746	42847.05
622.101	43266.48
622.457	43021.96
622.812	43334.72
623.168	43326.59
623.523	43550.08
623.879	43616.75
624.234	43550.54
624.589	43790.98
624.945	43836.86
625.3	44009.28
625.655	43995.27
626.01	44044.08
626.365	44137.64
626.72	44122.72
627.075	44267.13
627.43	44266.68
627.785	44224.42
628.14	44541.92
628.495	44463.05
628.85	44351.42
629.205	44354.36
629.559	44744.63
629.914	44510.51
630.269	44682.03
630.623	44596.16
630.978	44568.59
631.332	44865.3
631.687	45095.13
632.041	44831.41
632.396	45004.28
632.75	44874.12
633.104	44942.36
633.459	44856.04
633.813	44671.86
634.167	44994.79
634.521	44927
634.875	44940.33
635.229	44939.43
635.583	44891.29
635.937	44876.38
636.291	44812.42
636.645	44921.57
636.999	44966.77
637.352	44992.08
637.706	44698.75
638.06	45011.97
638.413	44905.53
638.767	44791.18
639.121	44910.5
639.474	44738.53
639.828	44790.73
640.181	44842.71
640.534	44837.51
640.888	44750.5
641.241	44659.89
641.594	44683.16
641.947	44923.38
642.301	44763.84
642.654	44904.4
643.007	44842.71
643.36	44773.78
643.713	44693.56
644.066	44996.15
644.419	44658.53
644.771	44435.26
645.124	44151.2
645.477	44056.96
645.83	43625.79
646.182	43610.2
646.535	43422.18
646.888	43576.75
647.24	43433.48
647.593	43673.7
647.945	43499.24
648.298	43361.84
648.65	43312.12
649.002	43205.69
649.355	43453.82
649.707	43319.58
650.059	43498.33
650.411	43983.07
650.763	43991.65
651.115	44501.25
651.467	44381.7
651.819	44452.66
652.171	44224.19
652.523	44247.47
652.875	44264.64
653.227	43968.83
653.578	44459.21
653.93	44208.82
654.282	44103.29
654.633	44063.52
654.985	44101.26
655.337	44062.16
655.688	44152.55
656.039	44230.74
656.391	43902.84
656.742	44000.69
657.094	43994.82
657.445	44172.44
657.796	44187.36
658.147	43976.51
658.498	43949.85
658.849	44124.76
659.2	43872.11
659.551	43920.47
659.902	44007.7
660.253	43928.6
660.604	44011.77
660.955	43750.08
661.306	43851.09
661.656	43796.4
662.007	43885.44
662.358	43962.73
662.708	43869.4
663.059	43815.16
663.409	43605.45
663.76	44044.53
664.11	43951.88
664.461	43932.67
664.811	43874.37
665.161	43952.78
665.511	43794.82
665.862	43702.85
666.212	43904.88
666.562	43903.07
666.912	43750.98
667.262	43882.05
667.612	43856.74
667.962	43785.78
668.312	43738.78
668.662	44028.49
669.011	43769.29
669.361	43874.59
669.711	43672.57
670.06	43668.27
670.41	43672.57
670.76	43573.59
671.109	43765.67
671.459	43686.13
671.808	43640.48
672.157	43666.01
672.507	43559.12
672.856	43419.24
673.205	43577.88
673.554	43707.82
673.904	43416.08
674.253	43719.12
674.602	43509.86
674.951	42965.24
675.3	42790.78
675.649	43427.83
675.998	43408.39
676.346	43435.06
676.695	43478.67
677.044	43221.5
677.393	43319.58
677.741	43357.55
678.09	43237.55
678.438	43144.44
678.787	43189.87
679.135	43242.07
679.484	42977.22
679.832	43116.2
680.181	42853.38
680.529	42937.22
680.877	42821.29
681.225	42894.06
681.573	43071.23
681.922	42756.88
682.27	42640.96
682.618	42730.22
682.966	42710.11
683.314	42760.05
683.661	42485.25
684.009	42499.26
684.357	42328.87
684.705	42307.18
685.053	42355.09
685.4	42246.39
685.748	42060.41
686.095	42075.32
686.443	41842.33
686.79	41890.24
687.138	42096.79
687.485	41937.7
687.832	41719.85
688.18	41883.69
688.527	41623.81
688.874	41707.19
689.221	41474.66
689.568	41461.55
689.915	41357.82
690.262	41329.58
690.609	41203.93
690.956	40995.12
691.303	41071.73
691.65	40915.58
691.997	40972.75
692.344	40663.15
692.69	40711.51
693.037	40593.33
693.383	40410.05
693.73	40557.85
694.077	40451.18
694.423	40311.75
694.769	40088.48
695.116	40052.55
695.462	40047.12
695.808	39834.02
696.155	39939.78
696.501	39563.97
696.847	39673.35
697.193	39318.1
697.539	39491.66
697.885	39308.61
698.231	39323.98
698.577	39163.76
698.923	39105
699.269	38962.86
699.614	38750.21
699.96	38576.88
700.306	38704.11
700.651	38484.91
700.997	38404.23
701.342	38369.43
701.688	38303.67
702.033	38288.75
702.379	38240.84
702.724	38072.04
703.069	38069.1
703.415	37841.53
703.76	37814.19
704.105	37830.69
704.45	37718.82
704.795	37473.41
705.14	37484.48
705.485	37366.07
705.83	37327.65
706.175	37335.56
706.52	37232.96
706.865	37105.73
707.209	36949.35
707.554	36902.57
707.899	36906.19
708.243	36579.19
708.588	36619.87
708.932	36510.27
709.277	36489.25
709.621	36520.66
709.966	36081.35
710.31	36234.57
710.654	35878.2
710.998	36064.63
711.342	36075.48
711.687	35976.5
712.031	35882.04
712.375	35662.61
712.719	35677.07
713.063	35734.24
713.407	35773.11
713.75	35497.87
714.094	35576.96
714.438	35319.11
714.782	35499.22
715.125	35239.57
715.469	35253.8
715.812	35011.33
716.156	34929.75
716.499	34964.77
716.843	34875.74
717.186	34798.22
717.53	34943.08
717.873	34924.32
718.216	34606.14
718.559	34675.97
718.902	34388.52
719.246	34424.9
719.589	34503.32
719.932	34337.22
720.275	34299.71
720.617	34196.43
720.96	34137.45
721.303	34176.77
721.646	34139.03
721.989	33874.41
722.331	33957.34
722.674	33894.29
723.016	33997.79
723.359	33916.44
723.701	33901.07
724.044	33698.14
724.386	33671.25
724.729	33664.92
725.071	33590.35
725.413	33564.36
725.755	33438.03
726.097	33469.67
726.439	33333.86
726.782	33171.37
727.124	33346.74
727.465	33230.36
727.807	33112.62
728.149	33008.21
728.491	32962.57
728.833	33100.41
729.175	32885.73
729.516	32859.07
729.858	32796.47
730.199	32889.12
730.541	32726.19
730.882	32744.04
731.224	32844.15
731.565	32577.04
731.906	32573.65
732.248	32546.53
732.589	32322.81
732.93	32261.34
733.271	32277.39
733.612	32307.22
733.953	32362.81
734.294	32395.35
734.635	32257.5
734.976	32298.18
735.317	31909.94
735.658	32120.1
735.999	32145.19
736.339	32020.67
736.68	31998.98
737.021	31936.15
737.361	31857.28
737.702	31866.78
738.042	31779.32
738.383	31721.02
738.723	31756.95
739.063	31612.09
739.404	31642.37
739.744	31593.34
740.084	31375.04
740.424	31621.58
740.764	31423.85
741.104	31566.67
741.444	31322.16
741.784	31274.93
742.124	31387.92
742.464	31243.29
742.804	31214.81
743.143	30963.97
743.483	31172.56
743.823	31009.62
744.162	30922.85
744.502	30895.5
744.841	30816.41
745.181	30998.1
745.52	30946.35
745.86	30830.42
746.199	30776.86
746.538	30668.84
746.877	30829.74
747.216	30820.7
747.556	30579.13
747.895	30594.27
748.234	30477.66
748.573	30498.9
748.911	30480.14
749.25	30296.19
749.589	30182.3
749.928	30270.88
750.267	30239.47
750.605	30261.62
750.944	30218.91
751.283	30126.93
751.621	30071.34
751.96	29984.11
752.298	29973.49
752.636	29978.92
752.975	29738.02
753.313	29683.1
753.651	29821.63
753.989	29659.15
754.327	29652.6
754.666	29450.79
755.004	29574.86
755.342	29495.54
755.679	29481.53
756.017	29284.24
756.355	29487.18
756.693	29373.28
757.031	29189.78
757.368	29065.27
757.706	28977.36
758.044	29005.38
758.381	29016.45
758.719	28904.37
759.056	28779.62
759.394	28810.58
759.731	28615.79
