Data from hue_320_FLMS001491_99.txt Node
Date: Mon Feb 06 15:48:00 GMT 2017
User: dcchb
Spectrometer: FLMS00149
Trigger mode: 0
Integration Time (sec): 2.000000E-2
Scans to average: 10
Electric dark correction enabled: true
Nonlinearity correction enabled: false
Boxcar width: 0
XAxis mode: Wavelengths
Number of Pixels in Spectrum: 2048
>>>>>Begin Spectral Data<<<<<
341.393	-22.65
341.776	-22.65
342.16	-22.65
342.543	-49.77
342.927	-85.48
343.31	-79.6
343.693	-54.52
344.077	-81.18
344.46	-63.33
344.843	-60.17
345.226	-64.01
345.61	-40.51
345.993	-7.06
346.376	-13.39
346.759	14.86
347.142	46.72
347.525	48.3
347.908	66.38
348.291	78.13
348.674	91.47
349.057	117.91
349.44	124.46
349.823	139.6
350.206	153.84
350.588	170.56
350.971	223.44
351.354	222.54
351.737	214.63
352.119	225.93
352.502	253.5
352.884	274.96
353.267	268.41
353.65	293.95
354.032	271.12
354.414	277.45
354.797	301.63
355.179	307.28
355.562	329.65
355.944	315.87
356.326	317
356.709	311.35
357.091	328.97
357.473	314.29
357.855	320.84
358.238	338.92
358.62	332.59
359.002	326.94
359.384	326.71
359.766	322.42
360.148	320.84
360.53	323.1
360.912	343.89
361.294	303.21
361.676	326.94
362.057	313.61
362.439	318.13
362.821	324.68
363.203	312.48
363.584	335.08
363.966	303.66
364.348	285.13
364.729	312.7
365.111	314.51
365.493	318.35
365.874	301.63
366.256	290.33
366.637	302.53
367.019	301.4
367.4	304.57
367.781	289.88
368.163	328.07
368.544	304.12
368.925	291.24
369.306	340.27
369.688	304.34
370.069	290.11
370.45	319.71
370.831	318.81
371.212	300.27
371.593	289.65
371.974	297.34
372.355	301.4
372.736	304.57
373.117	302.76
373.498	295.3
373.879	287.39
374.26	315.87
374.641	308.18
375.021	301.63
375.402	303.21
375.783	309.99
376.163	312.48
376.544	319.26
376.925	338.69
377.305	313.38
377.686	326.94
378.066	314.51
378.447	334.85
378.827	319.48
379.208	316.55
379.588	294.63
379.968	296.88
380.349	340.73
380.729	302.31
381.109	346.38
381.489	342.31
381.87	324
382.25	321.97
382.63	326.49
383.01	327.17
383.39	346.15
383.77	319.26
384.15	334.17
384.53	344.57
384.91	346.15
385.29	329.88
385.67	326.49
386.049	345.92
386.429	343.44
386.809	328.52
387.189	343.89
387.568	350.67
387.948	349.09
388.328	332.36
388.707	338.92
389.087	346.83
389.466	352.02
389.846	375.98
390.225	365.36
390.605	355.87
390.984	358.58
391.363	361.29
391.743	349.31
392.122	359.03
392.501	366.04
392.881	357
393.26	368.3
393.639	341.63
394.018	361.74
394.397	359.26
394.776	374.4
395.155	342.99
395.534	365.13
395.913	363.55
396.292	375.07
396.671	375.53
397.05	380.72
397.429	369.43
397.808	382.76
398.186	355.41
398.565	373.94
398.944	386.37
399.323	386.37
399.701	404.23
400.08	372.36
400.458	399.71
400.837	402.64
401.215	411.91
401.594	402.19
401.972	372.59
402.351	395.41
402.729	388.41
403.107	404
403.486	434.28
403.864	411.01
404.242	406.94
404.62	414.62
404.999	409.2
405.377	410.1
405.755	431.12
406.133	417.79
406.511	419.59
406.889	431.8
407.267	415.53
407.645	451.46
408.023	430.89
408.401	453.04
408.779	436.09
409.156	452.36
409.534	468.63
409.912	467.73
410.29	459.14
410.667	467.73
411.045	489.42
411.422	473.6
411.8	472.93
412.178	487.39
412.555	489.87
412.933	488.97
413.31	492.81
413.687	505.92
414.065	535.07
414.442	539.82
414.819	539.82
415.197	547.27
415.574	529.87
415.951	556.77
416.328	564.22
416.705	549.76
417.082	557.89
417.46	546.37
417.837	578.46
418.214	575.97
418.591	583.66
418.967	589.53
419.344	606.26
419.721	601.74
420.098	621.4
420.475	625.92
420.852	621.62
421.228	630.44
421.605	632.92
421.982	644.9
422.358	657.33
422.735	652.81
423.111	633.83
423.488	655.97
423.864	680.83
424.241	684.22
424.617	677.44
424.994	707.04
425.37	691.9
425.746	689.64
426.123	691.45
426.499	729.19
426.875	718.12
427.251	727.16
427.627	727.38
428.003	739.59
428.379	749.3
428.756	761.96
429.132	769.41
429.507	776.19
429.883	767.83
430.259	813.93
430.635	785.01
431.011	806.93
431.387	832.92
431.763	819.13
432.138	853.03
432.514	842.41
432.89	841.96
433.265	863.42
433.641	881.5
434.016	886.47
434.392	886.25
434.767	889.86
435.143	899.58
435.518	905.91
435.894	923.08
436.269	956.75
436.644	940.71
437.02	939.58
437.395	972.35
437.77	969.41
438.145	958.79
438.52	970.77
438.895	1013.7
439.271	995.62
439.646	1005.79
440.021	994.27
440.395	1036.98
440.77	996.75
441.145	1029.07
441.52	1019.35
441.895	1038.11
442.27	1042.63
442.645	1040.37
443.019	1049.41
443.394	1060.48
443.769	1047.6
444.143	1036.3
444.518	1065.68
444.892	1057.77
445.267	1050.76
445.641	1085.11
446.016	1071.55
446.39	1097.32
446.764	1083.76
447.139	1071.33
447.513	1102.74
447.887	1083.76
448.262	1113.81
448.636	1078.79
449.01	1110.2
449.384	1111.1
449.758	1153.59
450.132	1132.12
450.506	1173.92
450.88	1137.99
451.254	1148.16
451.628	1149.29
452.002	1148.61
452.376	1169.86
452.75	1184.09
453.123	1166.01
453.497	1212.79
453.871	1182.96
454.244	1193.13
454.618	1220.48
454.992	1235.84
455.365	1236.52
455.739	1235.39
456.112	1236.3
456.486	1257.09
456.859	1253.02
457.232	1292.56
457.606	1282.4
457.979	1285.33
458.352	1293.92
458.725	1319
459.099	1319.23
459.472	1351.77
459.845	1333.24
460.218	1363.52
460.591	1337.99
460.964	1366.46
461.337	1393.81
461.71	1402.17
462.083	1434.93
462.456	1408.49
462.829	1425.22
463.201	1436.06
463.574	1437.87
463.947	1463.63
464.32	1472.67
464.692	1500.92
465.065	1494.82
465.438	1537.53
465.81	1526.46
466.183	1539.79
466.555	1582.5
466.928	1567.13
467.3	1556.29
467.672	1577.98
468.045	1599.45
468.417	1608.71
468.789	1603.07
469.161	1638.77
469.534	1655.27
469.906	1681.48
470.278	1689.39
470.65	1706.57
471.022	1732.55
471.394	1731.88
471.766	1744.76
472.138	1742.95
472.51	1791.31
472.882	1811.42
473.253	1808.03
473.625	1858.43
473.997	1837.18
474.369	1902.72
474.74	1880.12
475.112	1900.23
475.484	1923.96
475.855	1964.41
476.227	1989.5
476.598	1996.05
476.97	2013.9
477.341	2022.26
477.713	2053
478.084	2078.53
478.455	2107.68
478.827	2121.92
479.198	2182.26
479.569	2208.47
479.94	2222.26
480.311	2221.13
480.682	2261.58
481.053	2340.67
481.424	2340.9
481.795	2356.49
482.166	2383.84
482.537	2407.56
482.908	2408.69
483.279	2440.56
483.65	2456.6
484.021	2537.28
484.391	2567.56
484.762	2544.06
485.133	2549.03
485.503	2586.99
485.874	2653.21
486.244	2656.37
486.615	2691.62
486.985	2727.1
487.356	2757.84
487.726	2766.2
488.097	2850.26
488.467	2831.73
488.837	2878.96
489.207	2906.76
489.578	2941.56
489.948	2942.01
490.318	3021.33
490.688	3007.77
491.058	3039.86
491.428	3023.14
491.798	3094.1
492.168	3137.94
492.538	3134.55
492.908	3149.69
493.278	3191.05
493.648	3216.81
494.017	3188.11
494.387	3234.21
494.757	3271.72
495.126	3310.14
495.496	3294.77
495.866	3342.45
496.235	3313.75
496.605	3378.84
496.974	3380.19
497.344	3398.05
497.713	3436.46
498.082	3455.22
498.452	3475.11
498.821	3488.21
499.19	3466.07
499.559	3525.95
499.928	3518.27
500.298	3536.35
500.667	3605.27
501.036	3531.83
501.405	3605.27
501.774	3626.29
502.143	3655.21
502.512	3643.69
502.88	3687.53
503.249	3638.94
503.618	3667.87
503.987	3677.59
504.356	3765.04
504.724	3718.94
505.093	3714.65
505.462	3743.12
505.83	3743.57
506.199	3791.71
506.567	3821.76
506.936	3758.04
507.304	3838.26
507.672	3862.89
508.041	3845.72
508.409	3832.16
508.777	3907.19
509.145	3922.78
509.514	3899.05
509.882	3934.3
510.25	3927.3
510.618	3920.97
510.986	3933.4
511.354	3972.95
511.722	4001.19
512.09	4005.04
512.458	4028.54
512.826	4028.99
513.193	3986.05
513.561	4026.96
513.929	4078.93
514.297	4126.39
514.664	4090.01
515.032	4090.46
515.4	4103.11
515.767	4122.55
516.135	4083.68
516.502	4147.63
516.869	4174.97
517.237	4181.98
517.604	4150.57
517.972	4217.46
518.339	4222.88
518.706	4249.78
519.073	4206.61
519.44	4210.23
519.808	4283.22
520.175	4225.37
520.542	4327.29
520.909	4300.4
521.276	4296.55
521.643	4283.67
522.009	4337.46
522.376	4332.94
522.743	4352.37
523.11	4388.08
523.477	4472.59
523.843	4410
524.21	4444.35
524.577	4508.3
524.943	4494.06
525.31	4538.58
525.676	4568.41
526.043	4560.05
526.409	4599.6
526.776	4613.16
527.142	4621.52
527.508	4676.66
527.874	4664.45
528.241	4709.88
528.607	4719.59
528.973	4729.08
529.339	4705.81
529.705	4808.86
530.071	4829.87
530.437	4839.14
530.803	4869.19
531.169	4836.2
531.535	4858.8
531.901	4872.58
532.267	4900.15
532.632	4963.65
532.998	4941.51
533.364	4969.3
533.73	4997.1
534.095	4968.63
534.461	4974.5
534.826	5087.95
535.192	5123.65
535.557	5113.48
535.923	5098.57
536.288	5130.2
536.653	5162.97
537.019	5138.57
537.384	5183.31
537.749	5220.15
538.114	5218.56
538.479	5260.14
538.845	5215.17
539.21	5232.57
539.575	5272.57
539.94	5308.73
540.305	5382.85
540.67	5365.45
541.034	5390.99
541.399	5383.53
541.764	5443.64
542.129	5426.47
542.494	5435.73
542.858	5527.26
543.223	5509.63
543.587	5579.01
543.952	5562.74
544.316	5587.14
544.681	5580.36
545.045	5607.48
545.41	5674.37
545.774	5710.98
546.138	5677.31
546.503	5672.79
546.867	5741.49
547.231	5749.17
547.595	5786.46
547.959	5826.91
548.324	5815.38
548.688	5834.37
549.052	5851.77
549.416	5821.26
549.779	5875.72
550.143	5947.81
550.507	5939.67
550.871	5934.93
551.235	6000.92
551.599	5968.37
551.962	5997.98
552.326	5990.29
552.689	6038.43
553.053	6040.69
553.417	6046.56
553.78	6106.68
554.143	6107.81
554.507	6143.06
554.87	6123.17
555.234	6186.67
555.597	6197.29
555.96	6179.89
556.323	6192.78
556.686	6200.23
557.05	6230.51
557.413	6303.28
557.776	6276.84
558.139	6295.82
558.502	6316.84
558.865	6325.88
559.228	6425.54
559.59	6413.79
559.953	6391.64
560.316	6457.63
560.679	6436.61
561.041	6502.82
561.404	6463.5
561.767	6547.34
562.129	6487
562.492	6589.6
562.854	6627.11
563.217	6561.58
563.579	6662.59
563.941	6679.99
564.304	6691.74
564.666	6704.4
565.028	6712.76
565.39	6689.03
565.753	6793.44
566.115	6754.57
566.477	6766.09
566.839	6778.52
567.201	6850.16
567.563	6840.44
567.925	6876.6
568.287	6915.24
568.648	6919.08
569.01	6974.9
569.372	7013.77
569.734	6960.44
570.095	7082.92
570.457	7087.89
570.819	7120.21
571.18	7134.45
571.542	7179.87
571.903	7223.93
572.265	7267.78
572.626	7331.73
572.987	7302.8
573.349	7345.06
573.71	7382.12
574.071	7461.44
574.432	7566.75
574.794	7587.31
575.155	7608.78
575.516	7664.83
575.877	7716.12
576.238	7749.57
576.599	7830.02
576.96	7829.34
577.32	7990.47
577.681	8023.69
578.042	8085.38
578.403	8192.5
578.763	8312.95
579.124	8420.29
579.485	8478.36
579.845	8524.92
580.206	8603.79
580.566	8755.65
580.927	8810.11
581.287	9007.84
581.648	9123.32
582.008	9232.92
582.368	9351.56
582.728	9468.85
583.089	9658.67
583.449	9716.98
583.809	10026.12
584.169	10163.29
584.529	10246
584.889	10503.17
585.249	10629.49
585.609	10697.52
585.969	11029.26
586.329	11191.29
586.688	11416.82
587.048	11593.54
587.408	11771.39
587.768	12059.06
588.127	12267.87
588.487	12429.9
588.846	12804.8
589.206	12925.93
589.565	13197.34
589.925	13434.17
590.284	13667.38
590.643	13924.1
591.003	14196.41
591.362	14541.93
591.721	14697.18
592.08	14964.07
592.44	15279.99
592.799	15532.19
593.158	15850.37
593.517	16138.95
593.876	16516.35
594.235	16585.5
594.593	16958.59
594.952	17218.02
595.311	17467.96
595.67	17870.43
596.029	18228.84
596.387	18482.4
596.746	18740.92
597.104	18927.13
597.463	19289.61
597.822	19682.59
598.18	19804.62
598.538	20120.77
598.897	20507.43
599.255	20546.52
599.613	21068.32
599.972	21305.6
600.33	21698.13
600.688	21794.17
601.046	22165.46
601.404	22483.42
601.762	22672.34
602.12	22932.67
602.478	23302.38
602.836	23457.41
603.194	23533.34
603.552	24043.15
603.91	24106.88
604.268	24523.14
604.625	24688.33
604.983	25002
605.341	25190.92
605.698	25432.04
606.056	25770.57
606.413	25973.72
606.771	26123.32
607.128	26474.73
607.485	26525.35
607.843	26831.1
608.2	27157.87
608.557	27423.18
608.914	27610.52
609.272	27869.49
609.629	28234.91
609.986	28403.26
610.343	28425.18
610.7	28849.13
611.057	29046.64
611.414	29115.34
611.771	29248.67
612.127	29583.12
612.484	29712.61
612.841	29939.5
613.198	30026.27
613.554	30183.1
613.911	30513.49
614.267	30520.95
614.624	30616.99
614.98	30995.06
615.337	31182.4
615.693	31356.63
616.05	31484.77
616.406	31811.08
616.762	31682.27
617.118	31902.38
617.475	31949.16
617.831	32261.92
618.187	32296.5
618.543	32455.81
618.899	32847.44
619.255	32722.92
619.611	32904.62
619.967	33096.25
620.323	33531.72
620.678	33339.63
621.034	33315.23
621.39	33283.36
621.746	33593.86
622.101	34041.99
622.457	33734.42
622.812	33788.89
623.168	34069.56
623.523	34198.82
623.879	34415.76
624.234	34344.58
624.589	34346.61
624.945	34495.99
625.3	34552.26
625.655	34636.77
626.01	34767.62
626.365	34792.93
626.72	34803.55
627.075	34836.99
627.43	34995.41
627.785	34945.92
628.14	35167.83
628.495	35057.1
628.85	35245.12
629.205	35067.04
629.559	35412.8
629.914	35164.44
630.269	35454.15
630.623	35325.12
630.978	35257.1
631.332	35511.78
631.687	35698.21
632.041	35456.64
632.396	35540.03
632.75	35496.86
633.104	35585.9
633.459	35375.06
633.813	35541.38
634.167	35622.06
634.521	35567.6
634.875	35666.8
635.229	35587.03
635.583	35537.31
635.937	35610.53
636.291	35558.78
636.645	35505.68
636.999	35534.6
637.352	35691.89
637.706	35483.76
638.06	35729.63
638.413	35561.72
638.767	35507.48
639.121	35641.49
639.474	35347.26
639.828	35490.99
640.181	35679.91
640.534	35560.14
640.888	35384.55
641.241	35255.74
641.594	35494.15
641.947	35586.58
642.301	35495.73
642.654	35478.78
643.007	35503.64
643.36	35418
643.713	35368.05
644.066	35535.73
644.419	35303.65
644.771	35198.79
645.124	34827.5
645.477	34785.47
645.83	34606.49
646.182	34451.24
646.535	34453.73
646.888	34536.66
647.24	34286.05
647.593	34549.54
647.945	34332.83
648.298	34377.57
648.65	34287.86
649.002	34201.08
649.355	34303.45
649.707	34277.23
650.059	34495.08
650.411	34860.72
650.763	34797.67
651.115	35285.57
651.467	35181.17
651.819	35105.69
652.171	35034.73
652.523	34949.53
652.875	35095.74
653.227	34897.56
653.578	35183.65
653.93	35109.53
654.282	34890.55
654.633	34738.47
654.985	34965.8
655.337	34858.46
655.688	34897.33
656.039	35050.32
656.391	34654.17
656.742	34757.9
657.094	34887.84
657.445	35026.82
657.796	34845.13
658.147	34834.51
658.498	34708.18
658.849	34982.75
659.2	34961.51
659.551	34905.69
659.902	34962.87
660.253	34878.57
660.604	34869.76
660.955	34778.24
661.306	34942.98
661.656	34794.51
662.007	34754.74
662.358	34618.02
662.708	34735.98
663.059	34763.55
663.409	34481.3
663.76	34736.43
664.11	34750.44
664.461	34816.66
664.811	34699.6
665.161	34734.85
665.511	34626.6
665.862	34601.29
666.212	34756.32
666.562	34667.96
666.912	34632.03
667.262	34649.65
667.612	34765.81
667.962	34582.99
668.312	34610.56
668.662	34864.56
669.011	34599.26
669.361	34477.68
669.711	34512.71
670.06	34561.52
670.41	34534.18
670.76	34521.52
671.109	34505.25
671.459	34543.89
671.808	34500.05
672.157	34529.43
672.507	34385.93
672.856	34362.43
673.205	34507.51
673.554	34564.46
673.904	34387.29
674.253	34480.84
674.602	34419.6
674.951	33912.95
675.3	33789.34
675.649	34313.17
675.998	34273.39
676.346	34254.86
676.695	34273.17
677.044	34104.13
677.393	34095.77
677.741	34322.66
678.09	34265.94
678.438	34114.3
678.787	34173.96
679.135	34092.15
679.484	33924.02
679.832	34020.74
680.181	33845.83
680.529	33919.5
680.877	33844.48
681.225	33770.13
681.573	33985.26
681.922	33882.67
682.27	33760.86
682.618	33718.38
682.966	33649.45
683.314	33695.33
683.661	33577.82
684.009	33420.76
684.357	33362.68
684.705	33377.14
685.053	33473.19
685.4	33450.36
685.748	33070.03
686.095	33147.32
686.443	33132.41
686.79	33097.83
687.138	33052.41
687.485	33159.07
687.832	32895.12
688.18	33101.22
688.527	32853.99
688.874	32854.67
689.221	32802.24
689.568	32585.75
689.915	32595.7
690.262	32471.86
690.609	32441.8
690.956	32365.87
691.303	32302.15
691.65	32198.19
691.997	32249.27
692.344	31983.51
692.69	31942.83
693.037	32017.86
693.383	31695.38
693.73	31865.55
694.077	31579.23
694.423	31730.18
694.769	31541.94
695.116	31472.34
695.462	31523.63
695.808	31357.09
696.155	31327.26
696.501	31167.94
696.847	31200.48
697.193	30797.33
697.539	31111.67
697.885	30845.01
698.231	30855.63
698.577	30728.63
698.923	30617.9
699.269	30639.36
699.614	30379.48
699.96	30406.6
700.306	30416.54
700.651	30240.28
700.997	30235.08
701.342	30162.54
701.688	30131.13
702.033	30003.45
702.379	29995.76
702.724	29864.02
703.069	29866.95
703.415	29631.93
703.76	29661.31
704.105	29607.53
704.45	29671.48
704.795	29337.03
705.14	29393.07
705.485	29300.42
705.83	29171.38
706.175	29196.01
706.52	29174.77
706.865	29048.67
707.209	28969.13
707.554	28984.94
707.899	28951.27
708.243	28681.9
708.588	28741.79
708.932	28645.29
709.277	28500.44
709.621	28438.52
709.966	28425.18
710.31	28454.11
710.654	28263.38
710.998	28242.59
711.342	28305.64
711.687	28169.37
712.031	28045.76
712.375	28023.16
712.719	27991.52
713.063	27941.58
713.407	28014.57
713.75	27774.81
714.094	27812.32
714.438	27803.05
714.782	27772.55
715.125	27627.92
715.469	27705.88
715.812	27466.34
716.156	27356.74
716.499	27406.91
716.843	27351.09
717.186	27291.66
717.53	27277.19
717.873	27331.2
718.216	27271.09
718.559	27113.13
718.902	26952.91
719.246	26983.41
719.589	26962.85
719.932	26910.2
720.275	26808.73
720.617	26792.01
720.96	26821.61
721.303	26799.24
721.646	26695.96
721.989	26558.57
722.331	26619.58
722.674	26513.37
723.016	26653.48
723.359	26487.38
723.701	26561.28
724.044	26339.14
724.386	26303.21
724.729	26354.73
725.071	26272.93
725.413	26207.39
725.755	26214.85
726.097	26110.67
726.439	26000.39
726.782	25993.84
727.124	26213.04
727.465	25888.53
727.807	25888.08
728.149	25868.42
728.491	25854.86
728.833	25809.21
729.175	25644.92
729.516	25722.88
729.858	25677.91
730.199	25755.42
730.541	25601.76
730.882	25577.58
731.224	25604.92
731.565	25497.13
731.906	25522.44
732.248	25419.61
732.589	25331.71
732.93	25237.47
733.271	25291.93
733.612	25295.32
733.953	25361.76
734.294	25258.71
734.635	25119.73
734.976	25176.23
735.317	25108.21
735.658	25116.57
735.999	25061.43
736.339	24955.67
736.68	25094.88
737.021	25017.36
737.361	24864.37
737.702	24971.04
738.042	24776.02
738.383	24687.88
738.723	24881.78
739.063	24679.97
739.404	24746.19
739.744	24667.09
740.084	24555
740.424	24518.62
740.764	24612.63
741.104	24610.82
741.444	24468.23
741.784	24468
742.124	24419.64
742.464	24376.25
742.804	24339.42
743.143	24174.45
743.483	24338.51
743.823	24202.7
744.162	24164.05
744.502	24194.11
744.841	24010.39
745.181	24127.9
745.52	24043.38
745.86	24180.1
746.199	23967.67
746.538	24084.28
746.877	24006.32
747.216	23983.27
747.556	23872.31
747.895	23948.69
748.234	23844.29
748.573	23856.94
748.911	23875.47
749.25	23731.07
749.589	23672.32
749.928	23670.73
750.267	23637.74
750.605	23660.34
750.944	23583.05
751.283	23412.21
751.621	23470.74
751.96	23291.08
752.298	23440.68
752.636	23246.11
752.975	23203.4
753.313	23266.68
753.651	23239.11
753.989	23099.9
754.327	23057.42
754.666	22978.32
755.004	22955.05
755.342	23039.79
755.679	22874.37
756.017	22682.06
756.355	22781.04
756.693	22625.79
757.031	22703.98
757.368	22593.47
757.706	22536.75
758.044	22352.8
758.381	22547.37
758.719	22333.14
759.056	22439.58
759.394	22276.65
759.731	22191.22
760.068	22218.34
