Data from hue_10_FLMS001491_61.txt Node
Date: Mon Feb 06 15:32:19 GMT 2017
User: dcchb
Spectrometer: FLMS00149
Trigger mode: 0
Integration Time (sec): 2.000000E-2
Scans to average: 10
Electric dark correction enabled: true
Nonlinearity correction enabled: false
Boxcar width: 0
XAxis mode: Wavelengths
Number of Pixels in Spectrum: 2048
>>>>>Begin Spectral Data<<<<<
341.393	-7.91
341.776	-7.91
342.16	-7.91
342.543	-50.62
342.927	-65.31
343.31	-52.2
343.693	-80.68
344.077	-75.93
344.46	-55.37
344.843	-58.53
345.226	-45.2
345.61	-14.69
345.993	-23.5
346.376	-6.78
346.759	23.28
347.142	39.55
347.525	45.2
347.908	55.82
348.291	75.03
348.674	83.61
349.057	90.39
349.44	133.33
349.823	153.22
350.206	190.28
350.588	198.41
350.971	189.6
351.354	236.83
351.737	236.38
352.119	251.52
352.502	268.69
352.884	272.08
353.267	279.31
353.65	288.81
354.032	292.42
354.414	312.53
354.797	331.74
355.179	323.16
355.562	323.83
355.944	326.32
356.326	335.36
356.709	345.08
357.091	342.59
357.473	345.53
357.855	350.73
358.238	349.37
358.62	322.25
359.002	346.66
359.384	352.76
359.766	342.59
360.148	345.75
360.53	348.01
360.912	341.46
361.294	312.76
361.676	309.37
362.057	326.09
362.439	347.11
362.821	327.9
363.203	317.28
363.584	323.61
363.966	322.7
364.348	313.21
364.729	323.16
365.111	302.82
365.493	288.81
365.874	314.34
366.256	297.62
366.637	318.18
367.019	312.99
367.4	316.38
367.781	316.15
368.163	299.2
368.544	315.02
368.925	318.41
369.306	325.19
369.688	332.65
370.069	319.77
370.45	306.88
370.831	320.44
371.212	306.88
371.593	314.34
371.974	325.42
372.355	287.22
372.736	329.03
373.117	301.91
373.498	314.12
373.879	324.96
374.26	313.44
374.641	321.12
375.021	305.53
375.402	319.09
375.783	317.51
376.163	317.96
376.544	313.89
376.925	325.87
377.305	319.99
377.686	322.48
378.066	316.38
378.447	305.53
378.827	312.53
379.208	313.66
379.588	324.74
379.968	337.84
380.349	322.7
380.729	321.12
381.109	320.22
381.489	345.75
381.87	334.23
382.25	309.14
382.63	323.83
383.01	343.27
383.39	354.34
383.77	345.53
384.15	346.21
384.53	335.58
384.91	337.84
385.29	346.43
385.67	332.42
386.049	343.95
386.429	346.66
386.809	334.91
387.189	340.78
387.568	340.78
387.948	336.94
388.328	339.88
388.707	334.91
389.087	348.47
389.466	364.74
389.846	348.47
390.225	357.05
390.605	351.86
390.984	334.68
391.363	359.31
391.743	373.78
392.122	353.89
392.501	353.21
392.881	390.72
393.26	346.66
393.639	359.54
394.018	371.97
394.397	360.89
394.776	380.78
395.155	352.76
395.534	361.12
395.913	385.98
396.292	364.51
396.671	371.52
397.05	366.09
397.429	390.72
397.808	361.12
398.186	382.81
398.565	369.71
398.944	373.1
399.323	363.15
399.701	374.23
400.08	386.2
400.458	379.88
400.837	379.88
401.215	369.93
401.594	403.15
401.972	388.69
402.351	388.92
402.729	380.78
403.107	383.72
403.486	392.53
403.864	379.88
404.242	397.96
404.62	388.69
404.999	379.65
405.377	396.83
405.755	382.81
406.133	404.96
406.511	391.4
406.889	406.09
407.267	408.35
407.645	406.99
408.023	401.8
408.401	431.18
408.779	404.96
409.156	411.97
409.534	418.07
409.912	438.63
410.29	399.31
410.667	413.1
411.045	420.55
411.422	436.15
411.8	434.79
412.178	418.07
412.555	429.14
412.933	441.8
413.31	426.88
413.687	452.19
414.065	448.35
414.442	428.46
414.819	459.2
415.197	438.18
415.574	436.37
415.951	448.12
416.328	468.46
416.705	471.17
417.082	456.26
417.46	439.08
417.837	474.56
418.214	455.36
418.591	449.71
418.967	468.24
419.344	457.39
419.721	497.39
420.098	489.93
420.475	453.1
420.852	475.24
421.228	484.73
421.605	472.08
421.982	490.83
422.358	495.13
422.735	474.34
423.111	505.07
423.488	503.72
423.864	506.43
424.241	501.46
424.617	513.43
424.994	523.38
425.37	498.97
425.746	530.16
426.123	516.37
426.499	511.62
426.875	524.51
427.251	538.74
427.627	524.96
428.003	548.46
428.379	561.79
428.756	528.12
429.132	551.85
429.507	542.13
429.883	549.14
430.259	544.84
430.635	548.23
431.011	562.25
431.387	594.11
431.763	585.3
432.138	561.34
432.514	597.5
432.89	575.13
433.265	582.81
433.641	581.91
434.016	597.05
434.392	603.15
434.767	587.56
435.143	585.07
435.518	608.12
435.894	619.87
436.269	617.84
436.644	604.73
437.02	642.69
437.395	632.07
437.77	626.65
438.145	646.08
438.52	634.33
438.895	639.76
439.271	653.09
439.646	679.76
440.021	651.73
440.395	674.78
440.77	651.51
441.145	685.86
441.52	696.7
441.895	685.86
442.27	679.98
442.645	682.47
443.019	676.37
443.394	718.85
443.769	701
444.143	683.6
444.518	703.94
444.892	682.69
445.267	695.8
445.641	722.92
446.016	694.9
446.39	712.52
446.764	723.14
447.139	721.79
447.513	738.29
447.887	722.47
448.262	707.55
448.636	742.58
449.01	744.16
449.384	737.38
449.758	746.42
450.132	757.04
450.506	750.71
450.88	758.17
451.254	779.19
451.628	785.06
452.002	765.63
452.376	792.75
452.75	768.34
453.123	779.87
453.497	811.73
453.871	788.23
454.244	807.66
454.618	846.53
454.992	809.24
455.365	831.39
455.739	826.19
456.112	831.39
456.486	837.72
456.859	840.88
457.232	871.84
457.606	856.93
457.979	867.55
458.352	896.02
458.725	891.95
459.099	891.28
459.472	919.3
459.845	921.11
460.218	938.51
460.591	928.79
460.964	929.69
461.337	922.24
461.71	947.32
462.083	966.3
462.456	957.49
462.829	969.01
463.201	970.14
463.574	963.82
463.947	1008.34
464.32	1028.22
464.692	1019.63
465.065	1029.35
465.438	1051.5
465.81	1060.99
466.183	1082.91
466.555	1098.5
466.928	1080.42
467.3	1073.64
467.672	1125.62
468.045	1166.3
468.417	1139.18
468.789	1166.07
469.161	1168.78
469.534	1183.25
469.906	1185.96
470.278	1194.09
470.65	1239.29
471.022	1239.29
471.394	1225.05
471.766	1258.72
472.138	1278.61
472.51	1283.36
472.882	1311.38
473.253	1336.24
473.625	1362.9
473.997	1388.66
474.369	1413.52
474.74	1417.82
475.112	1447.19
475.484	1468.21
475.855	1454.43
476.227	1487.87
476.598	1516.34
476.97	1583.01
477.341	1584.37
477.713	1611.94
478.084	1620.3
478.455	1645.15
478.827	1708.88
479.198	1684.93
479.569	1723.12
479.94	1748.2
480.311	1785.72
480.682	1858.03
481.053	1877.69
481.424	1891.7
481.795	1908.2
482.166	1989.1
482.537	2003.11
482.908	2034.52
483.279	2076.1
483.65	2098.48
484.021	2142.77
484.391	2183.9
484.762	2191.81
485.133	2187.29
485.503	2232.48
485.874	2299.37
486.244	2334.63
486.615	2384.8
486.985	2411.46
487.356	2477.67
487.726	2488.75
488.097	2553.15
488.467	2610.55
488.837	2635.64
489.207	2646.94
489.578	2688.97
489.948	2730.32
490.318	2790.66
490.688	2794.73
491.058	2855.74
491.428	2849.42
491.798	2914.73
492.168	2958.34
492.538	2959.24
492.908	3024.78
493.278	3073.14
493.648	3079.92
494.017	3113.59
494.387	3182.29
494.757	3166.02
495.126	3199.46
495.496	3263.42
495.866	3256.86
496.235	3320.36
496.605	3289.41
496.974	3353.58
497.344	3383.64
497.713	3397.2
498.082	3402.17
498.452	3468.38
498.821	3495.5
499.19	3475.39
499.559	3539.34
499.928	3551.77
500.298	3588.15
500.667	3599.91
501.036	3573.92
501.405	3609.4
501.774	3650.07
502.143	3645.78
502.512	3742.05
502.88	3771.88
503.249	3720.58
503.618	3750.18
503.987	3774.82
504.356	3836.06
504.724	3820.24
505.093	3821.82
505.462	3870.18
505.83	3864.53
506.199	3906.56
506.567	3924.64
506.936	3943.17
507.304	4018.43
507.672	4023.85
508.041	4003.74
508.409	4050.74
508.777	4094.81
509.145	4059.55
509.514	4093.45
509.882	4147.69
510.25	4090.29
510.618	4165.54
510.986	4176.39
511.354	4185.88
511.722	4191.08
512.09	4242.37
512.458	4260
512.826	4275.14
513.193	4261.13
513.561	4285.76
513.929	4307.68
514.297	4351.75
514.664	4324.63
515.032	4395.82
515.4	4379.77
515.767	4387
516.135	4388.59
516.502	4403.27
516.869	4480.33
517.237	4499.09
517.604	4470.16
517.972	4520.56
518.339	4524.17
518.706	4535.25
519.073	4541.58
519.44	4562.82
519.808	4584.06
520.175	4636.71
520.542	4628.58
520.909	4654.34
521.276	4652.31
521.643	4658.41
522.009	4686.88
522.376	4700.22
522.743	4778.18
523.11	4759.65
523.477	4774.11
523.843	4847.78
524.21	4861.79
524.577	4853.66
524.943	4878.29
525.31	4898.63
525.676	4978.85
526.043	4950.83
526.409	5016.59
526.776	5008.68
527.142	5064.05
527.508	5088
527.874	5095.01
528.241	5124.16
528.607	5168.9
528.973	5161.22
529.339	5168
529.705	5218.85
530.071	5248.22
530.437	5237.83
530.803	5280.77
531.169	5405.06
531.535	5333.42
531.901	5359.41
532.267	5371.16
532.632	5424.49
532.998	5417.48
533.364	5431.95
533.73	5489.12
534.095	5512.85
534.461	5494.54
534.826	5491.38
535.192	5572.51
535.557	5650.47
535.923	5608.89
536.288	5638.72
536.653	5685.27
537.019	5674.2
537.384	5667.65
537.749	5765.5
538.114	5742.45
538.479	5835.55
538.845	5771.6
539.21	5772.05
539.575	5806.63
539.94	5879.62
540.305	5899.05
540.67	5915.1
541.034	5925.49
541.399	5963.91
541.764	5947.87
542.129	5973.63
542.494	5989.22
542.858	6041.88
543.223	6038.71
543.587	6083.91
543.952	6087.52
544.316	6143.79
544.681	6174.75
545.045	6119.39
545.41	6179.72
545.774	6268.99
546.138	6226.73
546.503	6246.39
546.867	6310.57
547.231	6332.71
547.595	6337.46
547.959	6335.65
548.324	6346.5
548.688	6383.11
549.052	6351.25
549.416	6432.15
549.779	6468.76
550.143	6471.47
550.507	6483.9
550.871	6548.08
551.235	6525.48
551.599	6609.32
551.962	6610
552.326	6583.56
552.689	6625.81
553.053	6654.97
553.417	6636.44
553.78	6699.26
554.143	6702.87
554.507	6678.92
554.87	6756.43
555.234	6778.35
555.597	6758.01
555.96	6795.98
556.323	6836.66
556.686	6800.73
557.05	6873.27
557.413	6931.57
557.776	6925.69
558.139	6912.36
558.502	6928.41
558.865	7019.25
559.228	7005.24
559.59	7090.66
559.953	7113.49
560.316	7113.71
560.679	7068.97
561.041	7184.67
561.404	7178.57
561.767	7219.02
562.129	7134.73
562.492	7284.33
562.854	7242.07
563.217	7258.57
563.579	7308.28
563.941	7263.76
564.304	7349.41
564.666	7427.38
565.028	7419.01
565.39	7384.66
565.753	7438.22
566.115	7463.53
566.477	7461.5
566.839	7519.8
567.201	7552.12
567.563	7586.69
567.925	7652.45
568.287	7620.59
568.648	7643.19
569.01	7714.37
569.372	7807.48
569.734	7782.39
570.095	7800.25
570.457	7840.7
570.819	7901.26
571.18	7876.86
571.542	7921.6
571.903	7994.37
572.265	8006.12
572.626	8036.17
572.987	8066.91
573.349	8086.12
573.71	8179.67
574.071	8242.72
574.432	8330.63
574.794	8414.02
575.155	8325.66
575.516	8304.41
575.877	8412.66
576.238	8517.97
576.599	8563.39
576.96	8581.92
577.32	8648.13
577.681	8704.86
578.042	8764.06
578.403	8834.8
578.763	8921.8
579.124	8986.2
579.485	9092.64
579.845	9270.72
580.206	9349.81
580.566	9383.03
580.927	9411.96
581.287	9640.42
581.648	9703.93
582.008	9884.03
582.368	10020.08
582.728	10093.97
583.089	10240.86
583.449	10364.47
583.809	10489.67
584.169	10669.78
584.529	10731.47
584.889	11010.11
585.249	11104.79
585.609	11258.91
585.969	11518.79
586.329	11698.22
586.688	11801.72
587.048	12057.76
587.408	12128.72
587.768	12400.13
588.127	12633.11
588.487	12878.53
588.846	13026.78
589.206	13201.91
589.565	13395.81
589.925	13773.88
590.284	13958.05
590.643	14148.33
591.003	14454.08
591.362	14642.33
591.721	14904.24
592.08	15164.35
592.44	15464.45
592.799	15748.96
593.158	15926.59
593.517	16281.15
593.876	16486.57
594.235	16807.24
594.593	17033.68
594.952	17307.79
595.311	17604.73
595.67	17932.64
596.029	18311.38
596.387	18565.84
596.746	18886.51
597.104	19000.86
597.463	19334.86
597.822	19593.61
598.18	19785.69
598.538	20115.63
598.897	20581.61
599.255	20647.59
599.613	21131.87
599.972	21200.12
600.33	21579.09
600.688	21822.25
601.046	22040.78
601.404	22428.79
601.762	22723.92
602.12	23112.84
602.478	23298.37
602.836	23537.91
603.194	23775.87
603.552	23998.92
603.91	24152.81
604.268	24543.76
604.625	24656.75
604.983	25106.01
605.341	25210.41
605.698	25520.46
606.056	25783.95
606.413	26132.87
606.771	26415.12
607.128	26612.63
607.485	26721.78
607.843	26978.5
608.2	27330.81
608.557	27575.55
608.914	27724.47
609.272	28073.84
609.629	28094.18
609.986	28539.81
610.343	28543.88
610.7	28989.52
611.057	29120.14
611.414	29199.23
611.771	29464.31
612.127	29795.83
612.484	29851.19
612.841	30121.24
613.198	30216.61
613.554	30255.02
613.911	30653.21
614.267	30782.02
614.624	30876.7
614.98	31144.72
615.337	31504.26
615.693	31575.89
616.05	31512.39
616.406	31803.01
616.762	31932.95
617.118	32148.76
617.475	32227.63
617.831	32505.36
618.187	32595.75
618.543	32787.39
618.899	33186.92
619.255	33033.26
619.611	33178.56
619.967	33313.93
620.323	33564.99
620.678	33507.59
621.034	33556.18
621.39	33691.09
621.746	33800.69
622.101	34294.24
622.457	34059.9
622.812	34228.93
623.168	34378.31
623.523	34439.77
623.879	34561.13
624.234	34544.63
624.589	34718.18
624.945	34960.44
625.3	34877.5
625.655	35094.9
626.01	34979.42
626.365	35197.49
626.72	35140.32
627.075	35272.74
627.43	35215.12
627.785	35215.8
628.14	35402.68
628.495	35517.71
628.85	35562.91
629.205	35447.66
629.559	35708.67
629.914	35626.18
630.269	35760.87
630.623	35649.46
630.978	35722.9
631.332	35793.64
631.687	36004.93
632.041	35699.85
632.396	35985.04
632.75	35791.38
633.104	35847.87
633.459	35802.22
633.813	35900.98
634.167	35919.96
634.521	35917.47
634.875	35976
635.229	36017.13
635.583	35859.4
635.937	35893.52
636.291	36015.1
636.645	35894.2
636.999	35851.94
637.352	36114.53
637.706	35861.2
638.06	35952.95
638.413	35950.69
638.767	35951.6
639.121	36026.85
639.474	35901.2
639.828	35935.78
640.181	35938.72
640.534	35931.94
640.888	35888.55
641.241	35737.59
641.594	35812.62
641.947	35973.07
642.301	35920.86
642.654	35918.6
643.007	35948.89
643.36	35904.37
643.713	35973.97
644.066	35987.53
644.419	35743.24
644.771	35609.91
645.124	35298.51
645.477	35170.15
645.83	34974.22
646.182	34962.92
646.535	34812.19
646.888	34803.38
647.24	34713.44
647.593	34925.64
647.945	34789.14
648.298	34588.02
648.65	34686.32
649.002	34443.39
649.355	34771.06
649.707	34653.1
650.059	34717.96
650.411	35197.04
650.763	35266.19
651.115	35586.63
651.467	35587.99
651.819	35444.27
652.171	35492.17
652.523	35360.2
652.875	35431.16
653.227	35166.53
653.578	35499.86
653.93	35450.14
654.282	35377.6
654.633	35252.41
654.985	35361.78
655.337	35336.02
655.688	35270.71
656.039	35499.86
656.391	35127.89
656.742	35233.42
657.094	35189.58
657.445	35357.49
657.796	35202.92
658.147	35264.38
658.498	35160.88
658.849	35299.86
659.2	35126.76
659.551	35133.99
659.902	35163.37
660.253	35227.55
660.604	35161.11
660.955	35130.15
661.306	35137.16
661.656	35115.46
662.007	35138.96
662.358	35203.82
662.708	35136.03
663.059	35047.21
663.409	34843.15
663.76	35132.41
664.11	35139.64
664.461	35217.83
664.811	35112.52
665.161	35162.47
665.511	35104.84
665.862	35072.3
666.212	35136.7
666.562	35136.03
666.912	35054.22
667.262	34912.75
667.612	34966.76
667.962	35058.06
668.312	34893.09
668.662	35194.33
669.011	35029.59
669.361	34884.05
669.711	34902.36
670.06	34876.15
670.41	34917.27
670.76	34889.03
671.109	34993.88
671.459	34843.83
671.808	34877.5
672.157	35104.61
672.507	34677.51
672.856	34664.17
673.205	34857.39
673.554	34918.4
673.904	34657.17
674.253	35024.62
674.602	34890.83
674.951	34151.19
675.3	34084.75
675.649	34763.61
675.998	34694.45
676.346	34631.18
676.695	34872.3
677.044	34506.66
677.393	34726.32
677.741	34596.83
678.09	34599.99
678.438	34472.54
678.787	34530.39
679.135	34496.04
679.484	34121.36
679.832	34478.64
680.181	34246.78
680.529	34341.7
680.877	34135.15
681.225	34239.55
681.573	34468.47
681.922	34164.98
682.27	34057.86
682.618	34088.82
682.966	34004.76
683.314	34164.75
683.661	33938.54
684.009	33952.1
684.357	33826.68
684.705	33705.1
685.053	33831.65
685.4	33678.44
685.748	33507.59
686.095	33493.13
686.443	33548.5
686.79	33316.64
687.138	33546.69
687.485	33479.12
687.832	33387.37
688.18	33408.61
688.527	33197.32
688.874	33166.59
689.221	33033.93
689.568	32938.79
689.915	32849.76
690.262	32941.96
690.609	32886.14
690.956	32837.33
691.303	32587.84
691.65	32588.75
691.997	32427.62
692.344	32261.98
692.69	32365.02
693.037	32348.53
693.383	32056.56
693.73	32212.94
694.077	31997.12
694.423	32065.82
694.769	31937.92
695.116	31833.51
695.462	31803.68
695.808	31774.31
696.155	31823.57
696.501	31525.27
696.847	31565.27
697.193	31210.03
697.539	31391.26
697.885	31142.01
698.231	31200.31
698.577	31064.27
698.923	31111.72
699.269	30810.94
699.614	30696.37
699.96	30723.71
700.306	30756.25
700.651	30594
700.997	30416.15
701.342	30483.49
701.688	30321.24
702.033	30312.2
702.379	30298.64
702.724	30180
703.069	30169.6
703.415	29902.49
703.76	30028.59
704.105	30040.79
704.45	29860.68
704.795	29708.82
705.14	29594.02
705.485	29480.58
705.83	29546.12
706.175	29482.84
706.52	29421.6
706.865	29412.79
707.209	29330.3
707.554	29116.75
707.899	29251.21
708.243	29057.54
708.588	29112.23
708.932	28931.89
709.277	28860.48
709.621	28765.8
709.966	28624.78
710.31	28823.87
710.654	28516.09
710.998	28541.4
711.342	28511.79
711.687	28367.62
712.031	28368.29
712.375	28221.4
712.719	28381.85
713.063	28272.25
713.407	28354.06
713.75	28294.85
714.094	28192.48
714.438	28063.89
714.782	28036.1
715.125	27886.95
715.469	27968.3
715.812	27784.81
716.156	27637.24
716.499	27557.92
716.843	27613.29
717.186	27456.23
717.53	27650.12
717.873	27673.4
718.216	27516.79
718.559	27324.71
718.902	27161.09
719.246	27326.97
719.589	27263.01
719.932	27088.78
720.275	27041.32
720.617	27078.38
720.96	27046.29
721.303	27083.81
721.646	27083.36
721.989	26872.06
722.331	26939.18
722.674	26875.23
723.016	26840.65
723.359	26803.81
723.701	26735.34
724.044	26537.61
724.386	26508.91
724.729	26643.14
725.071	26553.88
725.413	26467.1
725.755	26368.57
726.097	26443.15
726.439	26220.1
726.782	26286.77
727.124	26381.91
727.465	26313.88
727.807	26187.79
728.149	26146.43
728.491	25974.01
728.833	26213.1
729.175	26025.53
729.516	25932.2
729.858	25973.55
730.199	25930.39
730.541	25943.95
730.882	25858.53
731.224	25975.14
731.565	25652.88
731.906	25804.75
732.248	25744.86
732.589	25598.87
732.93	25579.67
733.271	25583.73
733.612	25504.41
733.953	25624.86
734.294	25411.76
734.635	25311.2
734.976	25426.9
735.317	25301.03
735.658	25242.27
735.999	25383.74
736.339	25208.83
736.68	25309.84
737.021	25123.18
737.361	25107.59
737.702	25347.81
738.042	25098.55
738.383	25023.75
738.723	25143.75
739.063	25038.89
739.404	25084.99
739.744	24964.54
740.084	24830.31
740.424	24940.81
740.764	24775.17
741.104	24838.67
741.444	24895.62
741.784	24685.23
742.124	24731.78
742.464	24761.83
742.804	24634.83
743.143	24608.39
743.483	24487.72
743.823	24496.08
744.162	24579.01
744.502	24558.68
744.841	24389.42
745.181	24509.64
745.52	24304.22
745.86	24373.37
746.199	24367.95
746.538	24334.73
746.877	24308.74
747.216	24347.61
747.556	24301.51
747.895	24207.73
748.234	24163.88
748.573	24085.02
748.911	24046.37
749.25	24062.19
749.589	23924.57
749.928	24009.76
750.267	23932.7
750.605	23917.11
750.944	23873.5
751.283	23689.32
751.621	23792.82
751.96	23574.07
752.298	23710.11
752.636	23643.9
752.975	23584.92
753.313	23502.88
753.651	23566.16
753.989	23453.17
754.327	23389.67
754.666	23211.59
755.004	23387.63
755.342	23332.04
755.679	23302.66
756.017	23117.58
756.355	23219.73
756.693	23123.01
757.031	23160.52
757.368	23021.32
757.706	22900.41
758.044	22823.58
758.381	22899.96
758.719	22906.29
759.056	22919.17
759.394	22744.03
759.731	22681.89
760.068	22628.33
760.405	22608.22
760.743	22528
761.08	22551.72
