Data from hue_100_FLMS001491_00053.txt Node
Date: Tue Feb 07 17:03:22 GMT 2017
User: dcchb
Spectrometer: FLMS00149
Trigger mode: 0
Integration Time (sec): 2.000000E-2
Scans to average: 10
Electric dark correction enabled: true
Nonlinearity correction enabled: false
Boxcar width: 0
XAxis mode: Wavelengths
Number of Pixels in Spectrum: 2048
>>>>>Begin Spectral Data<<<<<
341.393	-24.29
341.776	-24.29
342.16	-24.29
342.543	-44.41
342.927	-81.24
343.31	-69.72
343.693	-56.38
344.077	-60.68
344.46	-45.54
344.843	-53.44
345.226	-53.9
345.61	-25.2
345.993	-4.18
346.376	-3.73
346.759	1.02
347.142	13.45
347.525	31.07
347.908	49.38
348.291	75.37
348.674	85.99
349.057	116.49
349.44	129.6
349.823	131.18
350.206	163.72
350.588	194.91
350.971	208.24
351.354	197.85
351.737	229.71
352.119	229.49
352.502	248.92
352.884	301.8
353.267	280.56
353.65	268.58
354.032	267.68
354.414	307.45
354.797	322.82
355.179	314.68
355.562	299.31
355.944	325.53
356.326	344.51
356.709	348.13
357.091	339.77
357.473	337.05
357.855	343.15
358.238	355.81
358.62	327.56
359.002	328.01
359.384	341.57
359.766	321.23
360.148	350.84
360.53	335.02
360.912	334.57
361.294	332.53
361.676	314.23
362.057	334.34
362.439	336.15
362.821	326.21
363.203	327.34
363.584	333.66
363.966	342.7
364.348	349.93
364.729	317.39
365.111	335.92
365.493	310.84
365.874	304.96
366.256	319.65
366.637	339.77
367.019	299.31
367.4	315.36
367.781	308.13
368.163	312.42
368.544	310.84
368.925	322.59
369.306	319.88
369.688	305.87
370.069	310.61
370.45	309.94
370.831	322.36
371.212	338.86
371.593	330.27
371.974	313.55
372.355	313.55
372.736	304.29
373.117	318.3
373.498	314.68
373.879	312.65
374.26	319.43
374.641	311.07
375.021	328.69
375.402	327.11
375.783	318.97
376.163	337.73
376.544	333.66
376.925	341.35
377.305	330.5
377.686	313.1
378.066	338.18
378.447	333.89
378.827	327.34
379.208	355.58
379.588	327.56
379.968	351.74
380.349	346.54
380.729	344.96
381.109	340.22
381.489	341.12
381.87	340.22
382.25	347.45
382.63	346.54
383.01	343.15
383.39	322.14
383.77	363.49
384.15	339.77
384.53	356.71
384.91	361.01
385.29	350.61
385.67	355.36
386.049	364.17
386.429	365.3
386.809	348.8
387.189	369.59
387.568	376.37
387.948	349.93
388.328	383.83
388.707	360.78
389.087	376.37
389.466	365.53
389.846	345.87
390.225	372.76
390.605	400.1
390.984	360.78
391.363	372.31
391.743	360.78
392.122	390.39
392.501	379.99
392.881	392.19
393.26	383.15
393.639	393.32
394.018	365.75
394.397	382.93
394.776	413.89
395.155	405.75
395.534	381.12
395.913	382.25
396.292	401.23
396.671	413.89
397.05	402.59
397.429	391.29
397.808	401.23
398.186	389.71
398.565	404.17
398.944	425.19
399.323	388.8
399.701	387
400.08	404.17
400.458	417.5
400.837	417.73
401.215	423.83
401.594	424.06
401.972	413.89
402.351	415.24
402.729	411.18
403.107	421.57
403.486	431.97
403.864	422.25
404.242	442.59
404.62	419.99
404.999	429.71
405.377	442.14
405.755	436.71
406.133	416.37
406.511	435.13
406.889	433.77
407.267	448.46
407.645	448.01
408.023	431.74
408.401	439.65
408.779	459.08
409.156	440.78
409.534	449.14
409.912	462.25
410.29	461.34
410.667	493.21
411.045	485.3
411.422	476.48
411.8	493.21
412.178	477.16
412.555	495.69
412.933	509.25
413.31	506.54
413.687	490.95
414.065	491.85
414.442	486.65
414.819	496.15
415.197	513.32
415.574	519.87
415.951	527.78
416.328	508.8
416.705	535.92
417.082	521.46
417.46	550.61
417.837	526.65
418.214	530.27
418.591	512.42
418.967	542.25
419.344	561
419.721	561.68
420.098	542.47
420.475	558.29
420.852	545.41
421.228	561.68
421.605	572.3
421.982	556.71
422.358	570.27
422.735	564.62
423.111	587.89
423.488	557.61
423.864	585.18
424.241	601.23
424.617	604.84
424.994	603.26
425.37	607.55
425.746	608.68
426.123	609.59
426.499	586.99
426.875	632.64
427.251	624.96
427.627	632.41
428.003	645.97
428.379	636.25
428.756	628.35
429.132	638.74
429.507	651.62
429.883	652.3
430.259	665.41
430.635	654.11
431.011	669.02
431.387	659.53
431.763	700.66
432.138	692.3
432.514	697.27
432.89	697.27
433.265	715.57
433.641	706.54
434.016	723.03
434.392	721.45
434.767	748.34
435.143	725.52
435.518	726.42
435.894	747.89
436.269	756.93
436.644	766.19
437.02	770.71
437.395	771.17
437.77	775.69
438.145	788.34
438.52	793.31
438.895	827.44
439.271	817.27
439.646	820.43
440.021	813.2
440.395	808.91
440.77	820.2
441.145	823.82
441.52	830.15
441.895	819.3
442.27	848.45
442.645	890.94
443.019	859.53
443.394	875.34
443.769	886.42
444.143	862.46
444.518	862.69
444.892	895.46
445.267	869.92
445.641	906.98
446.016	909.92
446.39	892.29
446.764	874.21
447.139	914.67
447.513	916.25
447.887	923.93
448.262	942.69
448.636	927.32
449.01	935.91
449.384	928.22
449.758	946.08
450.132	968.22
450.506	975.68
450.88	939.98
451.254	963.25
451.628	993.31
452.002	1011.61
452.376	1002.8
452.75	1011.16
453.123	1037.83
453.497	1039.86
453.871	1037.83
454.244	1070.37
454.618	1086.41
454.992	1095.9
455.365	1092.74
455.739	1115.56
456.112	1101.1
456.486	1150.37
456.859	1128.9
457.232	1160.99
457.606	1155.34
457.979	1176.35
458.352	1201.21
458.725	1202.79
459.099	1220.19
459.472	1233.98
459.845	1236.24
460.218	1255.9
460.591	1264.94
460.964	1262.23
461.337	1324.82
461.71	1295.9
462.083	1342.45
462.456	1346.97
462.829	1351.49
463.201	1373.41
463.574	1373.41
463.947	1385.16
464.32	1438.04
464.692	1467.87
465.065	1470.58
465.438	1470.58
465.81	1509.68
466.183	1497.93
466.555	1543.58
466.928	1579.28
467.3	1577.02
467.672	1631.93
468.045	1644.36
468.417	1666.96
468.789	1706.51
469.161	1709.22
469.534	1726.4
469.906	1777.92
470.278	1810.91
470.65	1814.75
471.022	1859.5
471.394	1885.94
471.766	1900.85
472.138	1960.51
472.51	2013.62
472.882	2027.63
473.253	2092.26
473.625	2113.05
473.997	2193.28
474.369	2171.13
474.74	2248.87
475.112	2317.34
475.484	2387.39
475.855	2377.23
476.227	2460.16
476.598	2534.28
476.97	2554.17
477.341	2648.4
477.713	2717.56
478.084	2744
478.455	2881.85
478.827	2897.89
479.198	2995.51
479.569	3026.47
479.94	3159.58
480.311	3199.35
480.682	3328.61
481.053	3433.92
481.424	3488.16
481.795	3592.33
482.166	3678.43
482.537	3750.75
482.908	3881.37
483.279	4006.56
483.65	4088.37
484.021	4195.26
484.391	4327.23
484.762	4415.36
485.133	4503.72
485.503	4573.33
485.874	4760.44
486.244	4838.4
486.615	4984.16
486.985	5138.96
487.356	5281.56
487.726	5394.32
488.097	5511.83
488.467	5609.91
488.837	5767.42
489.207	5919.05
489.578	6069.11
489.948	6149.33
490.318	6368.31
490.688	6399.49
491.058	6550.22
491.428	6774.17
491.798	6855.53
492.168	7032.47
492.538	7139.59
492.908	7285.12
493.278	7403.08
493.648	7566.69
494.017	7713.13
494.387	7873.13
494.757	7941.15
495.126	8142.5
495.496	8206.68
495.866	8381.14
496.235	8454.13
496.605	8609.83
496.974	8784.29
497.344	8931.4
497.713	8983.38
498.082	9126.2
498.452	9238.74
498.821	9302.02
499.19	9436.25
499.559	9608
499.928	9708.78
500.298	9823.13
500.667	9974.31
501.036	10001.43
501.405	10115.55
501.774	10212.73
502.143	10290.01
502.512	10304.47
502.88	10587.18
503.249	10550.8
503.618	10678.25
503.987	10683.9
504.356	10840.28
504.724	10978.81
505.093	11035.76
505.462	11033.5
505.83	11170.21
506.199	11266.94
506.567	11414.95
506.936	11429.42
507.304	11579.02
507.672	11604.33
508.041	11695.17
508.409	11874.6
508.777	11883.42
509.145	12060.13
509.514	11996.63
509.882	12069.17
510.25	12130.19
510.618	12207.25
510.986	12203.41
511.354	12365.44
511.722	12412.44
512.09	12451.31
512.458	12553.68
512.826	12590.52
513.193	12673.45
513.561	12692.89
513.929	12835.26
514.297	12883.62
514.664	12902.82
515.032	12950.96
515.4	13051.75
515.767	13103.95
516.135	13129.71
516.502	13052.43
516.869	13266.43
517.237	13345.52
517.604	13193.44
517.972	13322.25
518.339	13316.37
518.706	13287.45
519.073	13383.72
519.44	13421.91
519.808	13475.92
520.175	13468.46
520.542	13632.07
520.909	13685.63
521.276	13696.25
521.643	13746.64
522.009	13773.08
522.376	13752.52
522.743	13896.92
523.11	13955.45
523.477	14057.14
523.843	14020.99
524.21	14148.67
524.577	14211.49
524.943	14220.08
525.31	14237.7
525.676	14376.68
526.043	14335.33
526.409	14267.53
526.776	14419.62
527.142	14346.4
527.508	14408.1
527.874	14503.23
528.241	14403.58
528.607	14554.76
528.973	14521.77
529.339	14467.98
529.705	14518.38
530.071	14635.43
530.437	14654.87
530.803	14653.06
531.169	14618.71
531.535	14689.44
531.901	14638.15
532.267	14641.76
532.632	14638.6
532.998	14636.34
533.364	14634.3
533.73	14663.46
534.095	14755.43
534.461	14631.59
534.826	14650.12
535.192	14629.11
535.557	14679.95
535.923	14555.21
536.288	14626.4
536.653	14656.22
537.019	14585.04
537.384	14555.89
537.749	14587.07
538.114	14561.76
538.479	14475.89
538.845	14463.46
539.21	14387.53
539.575	14380.07
539.94	14360.41
540.305	14412.84
540.67	14357.93
541.034	14279.51
541.399	14280.19
541.764	14299.4
542.129	14243.13
542.494	14221.66
542.858	14279.29
543.223	14213.75
543.587	14199.51
543.952	14079.29
544.316	14164.26
544.681	14111.61
545.045	14135.79
545.41	14066.64
545.774	14061.66
546.138	14025.28
546.503	14034.09
546.867	13971.95
547.231	13946.19
547.595	13904.83
547.959	13962.23
548.324	13809.47
548.688	13753.88
549.052	13826.19
549.416	13773.54
549.779	13789.81
550.143	13802.91
550.507	13766.76
550.871	13690.37
551.235	13593.43
551.599	13767.43
551.962	13618.06
552.326	13701.67
552.689	13689.47
553.053	13607.89
553.417	13533.77
553.78	13581.9
554.143	13512.75
554.507	13564.95
554.87	13615.8
555.234	13678.85
555.597	13531.51
555.96	13440.89
556.323	13503.71
556.686	13511.17
557.05	13669.81
557.413	13415.58
557.776	13535.35
558.139	13504.62
558.502	13491.28
558.865	13429.82
559.228	13570.6
559.59	13440.44
559.953	13423.94
560.316	13594.11
560.679	13522.24
561.041	13632.97
561.404	13594.56
561.767	13621
562.129	13464.84
562.492	13582.13
562.854	13588.46
563.217	13540.77
563.579	13442.02
563.941	13589.81
564.304	13593.65
564.666	13718.62
565.028	13649.25
565.39	13658.06
565.753	13738.73
566.115	13722.01
566.477	13712.07
566.839	13720.2
567.201	13768.79
567.563	13725.63
567.925	13907.09
568.287	13845.17
568.648	13900.31
569.01	13814.67
569.372	13884.49
569.734	13833.2
570.095	13879.97
570.457	13965.17
570.819	13985.73
571.18	13954.55
571.542	14035.9
571.903	13981.67
572.265	14071.61
572.626	14048.56
572.987	14001.33
573.349	13990.48
573.71	14049.69
574.071	14057.14
574.432	14075.9
574.794	14155.67
575.155	14189.8
575.516	13988.45
575.877	14133.3
576.238	14063.47
576.599	13990.48
576.96	14117.03
577.32	14035
577.681	14103.47
578.042	14174.88
578.403	14184.37
578.763	14089.01
579.124	14139.85
579.485	14210.13
579.845	14226.63
580.206	14158.38
580.566	14217.59
580.927	14113.41
581.287	14244.48
581.648	14128.78
582.008	14216.46
582.368	14110.93
582.728	14139.18
583.089	14163.58
583.449	14136.92
583.809	14211.94
584.169	14161.32
584.529	14052.85
584.889	14222.56
585.249	14073.87
585.609	14092.85
585.969	14144.83
586.329	14137.82
586.688	14120.87
587.048	14057.82
587.408	14027.31
587.768	14060.53
588.127	14045.39
588.487	14045.17
588.846	14131.04
589.206	13975.11
589.565	13983.25
589.925	14058.05
590.284	14094.43
590.643	14006.98
591.003	14006.98
591.362	14040.2
591.721	13981.21
592.08	14075.68
592.44	13994.77
592.799	14027.09
593.158	13916.36
593.517	14002.23
593.876	14007.43
594.235	13979.18
594.593	13870.48
594.952	13940.31
595.311	13877.49
595.67	13915.91
596.029	14011.72
596.387	14002.23
596.746	14018.73
597.104	13876.13
597.463	13891.73
597.822	13939.86
598.18	13848.79
598.538	13876.13
598.897	13912.97
599.255	13827.09
599.613	14004.26
599.972	13839.3
600.33	13952.06
600.688	13847.21
601.046	13945.28
601.404	13905.51
601.762	13900.54
602.12	13943.25
602.478	13925.85
602.836	13915.91
603.194	13838.85
603.552	13850.82
603.91	13856.02
604.268	13897.15
604.625	13759.98
604.983	13922.46
605.341	13822.35
605.698	13884.27
606.056	13990.48
606.413	13876.13
606.771	13894.21
607.128	13910.71
607.485	13833.2
607.843	13866.42
608.2	13995
608.557	13985.96
608.914	13864.83
609.272	13969.92
609.629	14021.89
609.986	13947.09
610.343	14044.94
610.7	14050.82
611.057	14100.99
611.414	14141.66
611.771	14107.54
612.127	14124.94
612.484	14069.8
612.841	14127.2
613.198	14089.46
613.554	14109.57
613.911	14225.5
614.267	14114.54
614.624	14129.91
614.98	14116.13
615.337	14246.97
615.693	14194.77
616.05	14203.36
616.406	14303.01
616.762	14153.64
617.118	14211.49
617.475	14180.31
617.831	14256.91
618.187	14383.92
618.543	14259.63
618.899	14402.67
619.255	14301.21
619.611	14315.89
619.967	14376.23
620.323	14410.58
620.678	14322.67
621.034	14268.44
621.39	14277.25
621.746	14282.45
622.101	14319.96
622.457	14215.78
622.812	14352.73
623.168	14406.97
623.523	14403.12
623.879	14394.31
624.234	14225.73
624.589	14385.27
624.945	14335.1
625.3	14364.26
625.655	14327.65
626.01	14329
626.365	14350.24
626.72	14377.36
627.075	14365.84
627.43	14239.51
627.785	14267.53
628.14	14245.16
628.495	14237.48
628.85	14311.83
629.205	14281.77
629.559	14333.3
629.914	14190.02
630.269	14295.78
630.623	14232.28
630.978	14216.91
631.332	14253.98
631.687	14278.61
632.041	14188.21
632.396	14185.28
632.75	14163.36
633.104	14199.29
633.459	14090.36
633.813	14153.64
634.167	14141.66
634.521	14072.96
634.875	14057.82
635.229	14054.43
635.583	13998.39
635.937	13988.45
636.291	14014.89
636.645	13966.75
636.999	13892.63
637.352	13934.66
637.706	13858.51
638.06	13956.36
638.413	13881.1
638.767	13829.13
639.121	13962.01
639.474	13738.28
639.828	13853.53
640.181	13842.91
640.534	13804.95
640.888	13792.07
641.241	13753.42
641.594	13779.86
641.947	13755.46
642.301	13745.97
642.654	13767.43
643.007	13830.26
643.36	13785.97
643.713	13717.49
644.066	13726.08
644.419	13656.25
644.771	13547.33
645.124	13453.09
645.477	13506.42
645.83	13479.53
646.182	13305.3
646.535	13329.03
646.888	13403.38
647.24	13246.77
647.593	13331.74
647.945	13315.24
648.298	13237.96
648.65	13230.5
649.002	13193.89
649.355	13308.92
649.707	13305.53
650.059	13300.33
650.411	13449.93
650.763	13494.67
651.115	13654.22
651.467	13563.37
651.819	13538.06
652.171	13536.93
652.523	13532.19
652.875	13540.1
653.227	13473.43
653.578	13591.17
653.93	13557.27
654.282	13521.79
654.633	13492.41
654.985	13501.9
655.337	13516.14
655.688	13575.35
656.039	13585.97
656.391	13483.6
656.742	13504.16
657.094	13471.85
657.445	13600.21
657.796	13462.58
658.147	13539.64
658.498	13461.23
658.849	13486.31
659.2	13569.47
659.551	13485.86
659.902	13547.1
660.253	13472.75
660.604	13458.97
660.955	13449.02
661.306	13538.97
661.656	13558.17
662.007	13551.85
662.358	13530.83
662.708	13596.82
663.059	13549.81
663.409	13455.35
663.76	13483.6
664.11	13635.91
664.461	13599.08
664.811	13619.42
665.161	13622.35
665.511	13509.81
665.862	13556.82
666.212	13621.22
666.562	13540.77
666.912	13511.17
667.262	13553.43
667.612	13527.67
667.962	13522.92
668.312	13494.22
668.662	13647.66
669.011	13572.86
669.361	13557.04
669.711	13563.82
670.06	13497.16
670.41	13522.24
670.76	13484.28
671.109	13508.46
671.459	13378.97
671.808	13464.39
672.157	13552.3
672.507	13376.71
672.856	13425.3
673.205	13453.54
673.554	13415.13
673.904	13439.53
674.253	13513.66
674.602	13423.49
674.951	13216.49
675.3	13146.89
675.649	13343.04
675.998	13395.47
676.346	13375.35
676.695	13425.07
677.044	13344.85
677.393	13399.76
677.741	13307.56
678.09	13324.06
678.438	13268.92
678.787	13266.2
679.135	13281.12
679.484	13197.05
679.832	13247.22
680.181	13185.75
680.529	13195.02
680.877	13094.68
681.225	13137.85
681.573	13200.44
681.922	13056.04
682.27	13118.19
682.618	13094.23
682.966	12980.34
683.314	13035.7
683.661	12946.21
684.009	12939.21
684.357	12869.15
684.705	12834.13
685.053	12926.78
685.4	12847.23
685.748	12771.3
686.095	12743.51
686.443	12740.79
686.79	12745.09
687.138	12669.16
687.485	12683.62
687.832	12623.06
688.18	12685.66
688.527	12588.48
688.874	12542.16
689.221	12518.2
689.568	12488.6
689.915	12442.5
690.262	12506.45
690.609	12475.94
690.956	12299.22
691.303	12307.36
691.65	12258.77
691.997	12254.03
692.344	12202.28
692.69	12152.34
693.037	12123.86
693.383	11999.35
693.73	12103.07
694.077	12016.29
694.423	12017.42
694.769	11904.66
695.116	11944.88
695.462	11961.38
695.808	11816.53
696.155	11846.36
696.501	11768.84
696.847	11719.35
697.193	11668.96
697.539	11642.52
697.885	11609.75
698.231	11547.83
698.577	11525.69
698.923	11487.95
699.269	11492.47
699.614	11407.72
699.96	11318.46
700.306	11381.73
700.651	11294.73
700.997	11285.24
701.342	11193.04
701.688	11145.58
702.033	11115.75
702.379	11112.59
702.724	11094.06
703.069	11109.43
703.415	10959.37
703.76	10932.25
704.105	10925.02
704.45	10851.35
704.795	10850.68
705.14	10753.5
705.485	10861.07
705.83	10773.16
706.175	10763.9
706.52	10723.67
706.865	10674.86
707.209	10603.68
707.554	10633.96
707.899	10673.28
708.243	10562.55
708.588	10556.9
708.932	10509.89
709.277	10448.2
709.621	10450.91
709.966	10375.89
710.31	10364.59
710.654	10276
710.998	10317.13
711.342	10336.56
711.687	10271.93
712.031	10205.95
712.375	10225.61
712.719	10183.57
713.063	10182.22
713.407	10178.6
713.75	10115.55
714.094	10123.24
714.438	10026.74
714.782	10084.59
715.125	10090.47
715.469	10061.54
715.812	9998.95
716.156	9996.01
716.499	9940.42
716.843	9951.94
717.186	9851.38
717.53	9914.65
717.873	9913.07
718.216	9918.5
718.559	9817.71
718.902	9825.84
719.246	9857.48
719.589	9770.25
719.932	9781.32
720.275	9703.13
720.617	9716.69
720.96	9698.84
721.303	9815.67
721.646	9711.27
721.989	9727.31
722.331	9739.74
722.674	9703.59
723.016	9694.77
723.359	9691.38
723.701	9740.87
724.044	9668.11
724.386	9638.73
724.729	9617.94
725.071	9600.76
725.413	9600.76
725.755	9593.31
726.097	9523.25
726.439	9524.38
726.782	9559.18
727.124	9584.49
727.465	9571.61
727.807	9494.33
728.149	9491.16
728.491	9522.8
728.833	9567.77
729.175	9520.31
729.516	9495
729.858	9486.42
730.199	9557.38
730.541	9469.69
730.882	9445.74
731.224	9484.38
731.565	9433.09
731.906	9496.13
732.248	9515.34
732.589	9371.17
732.93	9388.34
733.271	9453.2
733.612	9423.82
733.953	9479.64
734.294	9405.29
734.635	9431.05
734.976	9465.85
735.317	9379.98
735.658	9387.21
735.999	9434.89
736.339	9378.17
736.68	9504.72
737.021	9455.01
737.361	9460.2
737.702	9504.04
738.042	9414.1
738.383	9440.32
738.723	9500.2
739.063	9448.9
739.404	9573.42
739.744	9466.76
740.084	9496.36
740.424	9517.83
740.764	9539.52
741.104	9535
741.444	9519.41
741.784	9448.45
742.124	9631.95
742.464	9596.02
742.804	9518.05
743.143	9585.85
743.483	9665.17
743.823	9611.16
744.162	9617.94
744.502	9671.5
744.841	9684.6
745.181	9799.86
745.52	9756.01
745.86	9866.07
746.199	9875.79
746.538	9916.69
746.877	9967.08
747.216	10041.88
747.556	9942.45
747.895	10060.41
748.234	10096.12
748.573	10124.37
748.911	10221.09
749.25	10301.99
749.589	10339.05
749.928	10404.13
750.267	10539.95
750.605	10521.42
750.944	10594.18
751.283	10619.95
751.621	10762.77
751.96	10818.81
752.298	10875.53
752.636	11031.91
752.975	11081.4
753.313	11186.49
753.651	11300.15
753.989	11332.47
754.327	11439.59
754.666	11567.04
755.004	11691.56
755.342	11811.55
755.679	11960.93
756.017	11983.75
756.355	12306.91
756.693	12303.74
757.031	12516.85
757.368	12575.6
757.706	12767.46
