Data from hue_100_FLMS001491_00065.txt Node
Date: Tue Feb 07 17:03:30 GMT 2017
User: dcchb
Spectrometer: FLMS00149
Trigger mode: 0
Integration Time (sec): 2.000000E-2
Scans to average: 10
Electric dark correction enabled: true
Nonlinearity correction enabled: false
Boxcar width: 0
XAxis mode: Wavelengths
Number of Pixels in Spectrum: 2048
>>>>>Begin Spectral Data<<<<<
341.393	5.1
341.776	5.1
342.16	5.1
342.543	-62.02
342.927	-70.83
343.31	-57.72
343.693	-71.28
344.077	-78.51
344.46	-54.79
344.843	-50.27
345.226	-45.52
345.61	-25.41
345.993	-12.75
346.376	-15.92
346.759	16.85
347.142	15.95
347.525	32.67
347.908	45.32
348.291	71.54
348.674	100.46
349.057	129.39
349.44	118.77
349.823	132.1
350.206	160.57
350.588	215.26
350.971	218.65
351.354	220.69
351.737	250.29
352.119	240.8
352.502	263.17
352.884	267.46
353.267	272.89
353.65	300.23
354.032	293.45
354.414	309.72
354.797	333
355.179	307.24
355.562	321.7
355.944	323.96
356.326	326.9
356.709	334.13
357.091	332.77
357.473	337.75
357.855	344.3
358.238	353.56
358.62	349.95
359.002	334.36
359.384	338.88
359.766	337.75
360.148	328.03
360.53	349.95
360.912	340.01
361.294	336.84
361.676	335.94
362.057	353.11
362.439	342.04
362.821	329.84
363.203	328.93
363.584	337.07
363.966	329.84
364.348	325.54
364.729	347.01
365.111	324.41
365.493	315.37
365.874	322.38
366.256	326.67
366.637	332.32
367.019	303.4
367.4	300.68
367.781	311.31
368.163	309.72
368.544	313.34
368.925	312.66
369.306	304.75
369.688	310.85
370.069	295.26
370.45	326.45
370.831	306.79
371.212	327.12
371.593	319.44
371.974	304.3
372.355	322.83
372.736	319.44
373.117	321.93
373.498	313.34
373.879	338.42
374.26	337.52
374.641	314.7
375.021	306.33
375.402	322.83
375.783	322.6
376.163	308.59
376.544	327.8
376.925	337.29
377.305	321.93
377.686	312.89
378.066	338.88
378.447	346.11
378.827	331.87
379.208	319.67
379.588	331.64
379.968	332.55
380.349	361.47
380.729	339.78
381.109	353.56
381.489	342.27
381.87	326.9
382.25	315.15
382.63	347.46
383.01	342.27
383.39	357.18
383.77	340.23
384.15	374.13
384.53	340.46
384.91	353.11
385.29	358.76
385.67	352.89
386.049	334.58
386.429	350.63
386.809	362.83
387.189	355.37
387.568	370.51
387.948	359.89
388.328	369.61
388.707	351.53
389.087	353.56
389.466	347.91
389.846	384.52
390.225	356.05
390.605	391.08
390.984	354.24
391.363	385.65
391.743	386.56
392.122	392.43
392.501	409.38
392.881	392.89
393.26	387.24
393.639	381.59
394.018	403.96
394.397	377.97
394.776	382.94
395.155	381.13
395.534	386.11
395.913	392.89
396.292	403.96
396.671	411.64
397.05	416.84
397.429	397.4
397.808	402.83
398.186	389.27
398.565	403.51
398.944	405.77
399.323	405.99
399.701	402.6
400.08	419.55
400.458	416.61
400.837	419.33
401.215	402.38
401.594	414.81
401.972	423.84
402.351	428.36
402.729	422.49
403.107	444.86
403.486	428.36
403.864	440.34
404.242	421.36
404.62	434.69
404.999	450.96
405.377	445.31
405.755	442.83
406.133	443.28
406.511	444.41
406.889	430.62
407.267	457.29
407.645	451.19
408.023	458.87
408.401	465.43
408.779	455.03
409.156	462.04
409.534	486.44
409.912	478.76
410.29	447.57
410.667	490.74
411.045	479.66
411.422	484.86
411.8	502.71
412.178	472.66
412.555	500
412.933	498.65
413.31	516.5
413.687	514.92
414.065	493.22
414.442	507.68
414.819	506.78
415.197	523.05
415.574	522.6
415.951	534.35
416.328	526.44
416.705	553.33
417.082	548.14
417.46	534.35
417.837	539.55
418.214	542.71
418.591	531.19
418.967	565.31
419.344	574.12
419.721	548.14
420.098	555.82
420.475	573.45
420.852	565.31
421.228	570.51
421.605	585.42
421.982	576.38
422.358	604.86
422.735	596.04
423.111	575.93
423.488	600.34
423.864	598.53
424.241	622.48
424.617	628.13
424.994	623.39
425.37	631.3
425.746	601.02
426.123	646.66
426.499	615.25
426.875	634.23
427.251	650.96
427.627	666.55
428.003	660.67
428.379	675.36
428.756	666.1
429.132	685.31
429.507	669.71
429.883	673.33
430.259	668.36
430.635	697.51
431.011	700.9
431.387	698.41
431.763	718.3
432.138	723.05
432.514	713.33
432.89	739.32
433.265	732.31
433.641	730.73
434.016	751.75
434.392	770.5
434.767	775.47
435.143	769.6
435.518	767.79
435.894	764.63
436.269	777.28
436.644	805.08
437.02	790.16
437.395	804.85
437.77	831.52
438.145	809.15
438.52	838.3
438.895	855.47
439.271	856.6
439.646	859.09
440.021	874.23
440.395	860.67
440.77	867.9
441.145	898.86
441.52	873.1
441.895	888.47
442.27	905.64
442.645	895.24
443.019	900.44
443.394	919.65
443.769	931.63
444.143	917.17
444.518	961.01
444.892	941.8
445.267	944.96
445.641	943.38
446.016	927.33
446.39	989.93
446.764	978.63
447.139	996.71
447.513	984.96
447.887	957.39
448.262	976.15
448.636	1010.27
449.01	992.87
449.384	1002.36
449.758	1016.37
450.132	1021.34
450.506	1012.08
450.88	1043.26
451.254	1029.48
451.628	1071.29
452.002	1066.99
452.376	1068.57
452.75	1059.76
453.123	1087.78
453.497	1089.14
453.871	1077.61
454.244	1114.67
454.618	1152.41
454.992	1172.07
455.365	1158.29
455.739	1144.05
456.112	1174.33
456.486	1228.34
456.859	1202.81
457.232	1240.09
457.606	1246.65
457.979	1253.65
458.352	1269.7
458.725	1266.31
459.099	1287.55
459.472	1327.55
459.845	1348.79
460.218	1334.1
460.591	1349.02
460.964	1366.64
461.337	1394.89
461.71	1400.99
462.083	1458.85
462.456	1434.44
462.829	1449.58
463.201	1487.55
463.574	1486.42
463.947	1516.25
464.32	1552.63
464.692	1553.98
465.065	1571.61
465.438	1587.2
465.81	1647.32
466.183	1662.23
466.555	1709.69
466.928	1683.47
467.3	1717.14
467.672	1730.25
468.045	1787.42
468.417	1807.09
468.789	1806.41
469.161	1845.73
469.534	1878.72
469.906	1934.54
470.278	1975.22
470.65	1994.88
471.022	2059.06
471.394	2103.35
471.766	2091.37
472.138	2125.04
472.51	2194.42
472.882	2248.88
473.253	2295.43
473.625	2323.46
473.997	2396.67
474.369	2408.43
474.74	2442.55
475.112	2536.11
475.484	2591.47
475.855	2661.53
476.227	2706.5
476.598	2820.39
476.97	2831.01
477.341	2946.94
477.713	3025.36
478.084	3084.57
478.455	3184.45
478.827	3210.89
479.198	3315.07
479.569	3381.96
479.94	3515.29
480.311	3612.24
480.682	3697.88
481.053	3814.04
481.424	3901.49
481.795	4014.71
482.166	4117.98
482.537	4223.29
482.908	4322.95
483.279	4467.58
483.65	4540.57
484.021	4782.6
484.391	4869.15
484.762	4921.35
485.133	5046.77
485.503	5229.37
485.874	5338.07
486.244	5464.39
486.615	5645.85
486.985	5771.05
487.356	5914.55
487.726	6058.72
488.097	6237.48
488.467	6314.76
488.837	6496.68
489.207	6699.16
489.578	6801.76
489.948	7040.85
490.318	7197.45
490.688	7291.23
491.058	7489.65
491.428	7629.53
491.798	7828.17
492.168	8041.5
492.538	8166.01
492.908	8285.33
493.278	8507.7
493.648	8648.49
494.017	8790.86
494.387	9024.52
494.757	9122.83
495.126	9347.68
495.496	9409.6
495.866	9507.45
496.235	9709.7
496.605	9879.87
496.974	10029.24
497.344	10235.56
497.713	10288.44
498.082	10441.43
498.452	10595.78
498.821	10757.81
499.19	10833.29
499.559	11025.37
499.928	11077.35
500.298	11164.13
500.667	11354.4
501.036	11464.01
501.405	11581.07
501.774	11694.06
502.143	11724.79
502.512	11840.49
502.88	12067.83
503.249	12122.75
503.618	12251.1
503.987	12430.53
504.356	12463.53
504.724	12521.61
505.093	12672.11
505.462	12764.31
505.83	12868.94
506.199	13041.14
506.567	13229.16
506.936	13103.74
507.304	13308.25
507.672	13371.3
508.041	13486.78
508.409	13557.28
508.777	13738.07
509.145	13797.96
509.514	13804.74
509.882	13946.65
510.25	13966.31
510.618	14126.76
510.986	14133.09
511.354	14322.69
511.722	14380.54
512.09	14501.21
512.458	14443.59
512.826	14525.62
513.193	14650.82
513.561	14681.55
513.929	14730.36
514.297	14817.14
514.664	14914.76
515.032	14940.53
515.4	15064.59
515.767	15069.34
516.135	15150.24
516.502	15084.93
516.869	15313.85
517.237	15340.51
517.604	15239.73
517.972	15427.74
518.339	15467.97
518.706	15561.07
519.073	15501.41
519.44	15540.74
519.808	15623.45
520.175	15665.48
520.542	15770.33
520.909	15796.32
521.276	15900.73
521.643	15907.28
522.009	15964.91
522.376	16033.15
522.743	16116.31
523.11	16121.74
523.477	16175.3
523.843	16248.29
524.21	16454.38
524.577	16422.75
524.943	16413.71
525.31	16528.51
525.676	16560.37
526.043	16516.3
526.409	16556.98
526.776	16745.45
527.142	16751.78
527.508	16789.29
527.874	16810.98
528.241	16947.48
528.607	16804.21
528.973	16872.68
529.339	16817.54
529.705	16989.51
530.071	17018.44
530.437	16887.82
530.803	16969.85
531.169	17036.97
531.535	16916.07
531.901	16930.76
532.267	16952
532.632	16991.09
532.998	16964.65
533.364	16937.08
533.73	17000.58
534.095	17021.15
534.461	16964.2
534.826	17034.03
535.192	17025.67
535.557	17027.48
535.923	16907.71
536.288	16990.87
536.653	16957.42
537.019	16851.44
537.384	16897.08
537.749	16934.82
538.114	16872.68
538.479	16842.4
538.845	16850.98
539.21	16740.03
539.575	16721.72
539.94	16796.75
540.305	16815.5
540.67	16619.8
541.034	16726.92
541.399	16674.49
541.764	16597.66
542.129	16579.58
542.494	16591.78
542.858	16582.74
543.223	16573.25
543.587	16542.97
543.952	16405.35
544.316	16448.96
544.681	16389.3
545.045	16346.59
545.41	16434.27
545.774	16261.39
546.138	16204.45
546.503	16239.7
546.867	16147.27
547.231	16183.43
547.595	16149.76
547.959	16185.92
548.324	16069.31
548.688	16069.54
549.052	16046.03
549.416	15949.54
549.779	15953.15
550.143	15917
550.507	16041.74
550.871	15836.09
551.235	15828.86
551.599	15880.39
551.962	15779.83
552.326	15789.54
552.689	15797.23
553.053	15711.8
553.417	15576.44
553.78	15842.42
554.143	15655.53
554.507	15713.39
554.87	15616.21
555.234	15773.5
555.597	15567.63
555.96	15595.42
556.323	15585.03
556.686	15522.2
557.05	15564.69
557.413	15636.33
557.776	15485.14
558.139	15516.78
558.502	15583.45
558.865	15558.14
559.228	15623.67
559.59	15486.27
559.953	15579.6
560.316	15743.89
560.679	15665.7
561.041	15572.37
561.404	15647.85
561.767	15658.92
562.129	15602.65
562.492	15696.89
562.854	15517.23
563.217	15631.35
563.579	15602.65
563.941	15620.96
564.304	15632.71
564.666	15644.69
565.028	15657.12
565.39	15686.27
565.753	15759.26
566.115	15739.83
566.477	15717.68
566.839	15783.44
567.201	15848.07
567.563	15813.04
567.925	15807.4
568.287	15883.1
568.648	15881.74
569.01	15874.96
569.372	15940.27
569.734	15873.16
570.095	15924.68
570.457	15938.01
570.819	16002.19
571.18	15916.32
571.542	15973.27
571.903	15987.73
572.265	15994.73
572.626	16100.04
572.987	16090.55
573.349	16077.22
573.71	16067.28
574.071	16050.33
574.432	16105.24
574.794	16296.42
575.155	16179.81
575.516	16107.27
575.877	16272.24
576.238	16160.38
576.599	16258.68
576.96	16164
577.32	16221.85
577.681	16286.25
578.042	16209.42
578.403	16180.04
578.763	16214.16
579.124	16193.83
579.485	16205.35
579.845	16179.14
580.206	16171.23
580.566	16168.06
580.927	16202.86
581.287	16292.81
581.648	16134.62
582.008	16171
582.368	16125.35
582.728	16262.3
583.089	16082.19
583.449	16180.27
583.809	16258.91
584.169	16164.22
584.529	16093.72
584.889	16251.68
585.249	16101.85
585.609	15958.58
585.969	16109.76
586.329	16065.92
586.688	16154.05
587.048	16103.88
587.408	16066.6
587.768	16068.63
588.127	16070.21
588.487	15993.6
588.846	16143.66
589.206	15992.02
589.565	16051.68
589.925	16084.9
590.284	16056.43
590.643	16018.91
591.003	16055.98
591.362	16109.31
591.721	16025.24
592.08	16019.37
592.44	16012.59
592.799	15962.65
593.158	15885.36
593.517	15922.42
593.876	15889.43
594.235	15853.5
594.593	15919.03
594.952	15875.42
595.311	15862.99
595.67	15894.85
596.029	15954.28
596.387	15832.71
596.746	15926.04
597.104	15923.32
597.463	15879.71
597.822	15885.36
598.18	15861.18
598.538	15795.19
598.897	15900.73
599.255	15757.45
599.613	15920.16
599.972	15880.39
600.33	15889.43
600.688	15861.63
601.046	15887.84
601.404	15932.59
601.762	15829.77
602.12	15924
602.478	16026.6
602.836	15889.43
603.194	15833.84
603.552	15808.75
603.91	15804.68
604.268	15908.41
604.625	15823.44
604.983	15879.26
605.341	15790.45
605.698	15927.39
606.056	15980.95
606.413	15867.28
606.771	15910.22
607.128	15915.87
607.485	15833.61
607.843	15841.07
608.2	16022.3
608.557	16032.02
608.914	15913.16
609.272	15985.02
609.629	16069.99
609.986	16172.36
610.343	15928.75
610.7	16088.29
611.057	16055.52
611.414	16062.53
611.771	16061.4
612.127	16059.37
612.484	16096.2
612.841	16102.3
613.198	16122.19
613.554	16071.12
613.911	16124.45
614.267	16148.4
614.624	16052.13
614.98	16133.94
615.337	16243.09
615.693	16171
616.05	16164
616.406	16277.21
616.762	16170.32
617.118	16204.67
617.475	16161.96
617.831	16235.41
618.187	16282.86
618.543	16287.38
618.899	16438.34
619.255	16356.31
619.611	16348.85
619.967	16369.19
620.323	16367.38
620.678	16328.96
621.034	16396.53
621.39	16286.03
621.746	16233.82
622.101	16455.74
622.457	16349.98
622.812	16343.2
623.168	16451.45
623.523	16370.32
623.879	16391.79
624.234	16411.67
624.589	16446.93
624.945	16357.21
625.3	16427.72
625.655	16351.34
626.01	16340.94
626.365	16440.15
626.72	16346.36
627.075	16437.44
627.43	16338.68
627.785	16269.08
628.14	16334.84
628.495	16369.41
628.85	16362.41
629.205	16280.83
629.559	16308.17
629.914	16260.49
630.269	16369.64
630.623	16146.6
630.978	16189.31
631.332	16152.47
631.687	16328.96
632.041	16182.75
632.396	16209.19
632.75	16133.71
633.104	16175.3
633.459	16086.71
633.813	16071.12
634.167	16121.06
634.521	16153.83
634.875	16127.39
635.229	16113.83
635.583	16020.95
635.937	16004.68
636.291	16031.8
636.645	15959.71
636.999	15963.32
637.352	16012.14
637.706	15933.04
638.06	15965.13
638.413	15809.2
638.767	15895.08
639.121	15892.82
639.474	15786.6
639.828	15832.25
640.181	15768.98
640.534	15761.07
640.888	15741.86
641.241	15722.2
641.594	15718.81
641.947	15735.76
642.301	15682.2
642.654	15695.76
643.007	15693.27
643.36	15732.59
643.713	15714.74
644.066	15704.35
644.419	15594.07
644.771	15533.05
645.124	15411.93
645.477	15437.01
645.83	15249.44
646.182	15189.33
646.535	15206.05
646.888	15236.79
647.24	15109.79
647.593	15161.31
647.945	15091.71
648.298	15075.66
648.65	15041.99
649.002	15006.06
649.355	15092.84
649.707	15173.29
650.059	15130.35
650.411	15269.33
650.763	15334.87
651.115	15558.36
651.467	15418.93
651.819	15437.69
652.171	15438.14
652.523	15433.85
652.875	15479.04
653.227	15383
653.578	15494.18
653.93	15473.39
654.282	15375.54
654.633	15438.37
654.985	15400.85
655.337	15460.51
655.688	15398.14
656.039	15561.53
656.391	15423
656.742	15464.81
657.094	15400.85
657.445	15549.77
657.796	15477.23
658.147	15436.33
658.498	15402.89
658.849	15528.76
659.2	15366.95
659.551	15357.24
659.902	15443.34
660.253	15546.39
660.604	15520.4
660.955	15385.49
661.306	15538.02
661.656	15487.4
662.007	15529.44
662.358	15519.49
662.708	15506.84
663.059	15509.32
663.409	15441.08
663.76	15500.51
664.11	15497.12
664.461	15528.98
664.811	15527.63
665.161	15471.13
665.511	15521.3
665.862	15438.14
666.212	15530.57
666.562	15547.74
666.912	15526.27
667.262	15513.84
667.612	15496.22
667.962	15527.4
668.312	15479.04
668.662	15551.81
669.011	15576.44
669.361	15564.92
669.711	15466.61
670.06	15478.59
670.41	15468.19
670.76	15490.57
671.109	15491.02
671.459	15509.78
671.808	15413.51
672.157	15535.76
672.507	15308.65
672.856	15342.77
673.205	15314.53
673.554	15394.07
673.904	15318.82
674.253	15391.13
674.602	15333.51
674.951	15108.43
675.3	14982.33
675.649	15272.72
675.998	15316.33
676.346	15158.15
676.695	15279.5
677.044	15178.49
677.393	15238.37
677.741	15290.35
678.09	15153.63
678.438	15215.55
678.787	15188.2
679.135	15220.52
679.484	15025.49
679.832	15171.71
680.181	15074.98
680.529	15174.19
680.877	15009.22
681.225	15007.64
681.573	15083.12
681.922	14969.9
682.27	15020.75
682.618	14915.67
682.966	14852.39
683.314	14928.32
683.661	14811.04
684.009	14835.44
684.357	14705.73
684.705	14670.48
685.053	14776.91
685.4	14720.19
685.748	14607.65
686.095	14556.81
686.443	14579.63
686.79	14565.62
687.138	14536.92
687.485	14530.14
687.832	14507.77
688.18	14490.14
688.527	14458.73
688.874	14439.97
689.221	14273.88
689.568	14279.53
689.915	14254.67
690.262	14238.17
690.609	14180.09
690.956	14116.14
691.303	14049.7
691.65	14028.01
691.997	14003.6
692.344	13959.99
692.69	13983.26
693.037	13939.65
693.383	13769.71
693.73	13707.79
694.077	13670.28
694.423	13759.31
694.769	13699.65
695.116	13640.67
695.462	13606.1
695.808	13520.9
696.155	13558.64
696.501	13475.03
696.847	13357.74
697.193	13282.72
697.539	13285.65
697.885	13270.29
698.231	13151.87
698.577	13196.39
698.923	13156.84
699.269	13106
699.614	12991.88
699.96	12982.16
700.306	12948.94
700.651	12876.85
700.997	12814.71
701.342	12847.47
701.688	12759.57
702.033	12747.36
702.379	12661.04
702.724	12588.5
703.069	12644.77
703.415	12483.19
703.76	12524.32
704.105	12529.97
704.45	12409.74
704.795	12349.41
705.14	12340.59
705.485	12350.31
705.83	12234.16
706.175	12236.42
706.52	12228.05
706.865	12078.23
707.209	12187.6
707.554	12061.96
707.899	12109.41
708.243	12028.96
708.588	12050.66
708.932	11883.88
709.277	11932.69
709.621	11905.35
709.966	11789.42
710.31	11811.12
710.654	11747.61
710.998	11800.72
711.342	11687.05
711.687	11635.53
712.031	11566.6
712.375	11604.34
712.719	11623.32
713.063	11570.67
713.407	11642.76
713.75	11484.34
714.094	11516.89
714.438	11438.92
714.782	11462.88
715.125	11402.99
715.469	11419.04
715.812	11458.36
716.156	11339.94
716.499	11346.27
716.843	11284.35
717.186	11226.72
717.53	11324.58
717.873	11285.71
718.216	11305.59
718.559	11225.59
718.902	11109.67
719.246	11212.04
719.589	11137.46
719.932	11144.69
720.275	11126.16
720.617	11119.38
720.96	11091.81
721.303	11162.09
721.646	11111.25
721.989	11079.61
722.331	11101.98
722.674	11024.92
723.016	11089.55
723.359	11004.58
723.701	11045.49
724.044	10959.39
724.386	10944.47
724.729	11009.78
725.071	10927.3
725.413	10983.79
725.755	10984.47
726.097	10876.68
726.439	10932.5
726.782	10840.97
727.124	10911.03
727.465	10923.46
727.807	10871.71
728.149	10825.15
728.491	10799.39
728.833	10880.97
729.175	10815.21
729.516	10860.41
729.858	10812.95
730.199	10794.87
730.541	10768.66
730.882	10731.37
731.224	10791.03
731.565	10755.1
731.906	10839.62
732.248	10812.95
732.589	10750.58
732.93	10746.06
733.271	10737.47
733.612	10784.93
733.953	10819.5
734.294	10717.36
734.635	10746.96
734.976	10763.69
735.317	10733.4
735.658	10797.58
735.999	10763.01
736.339	10723.23
736.68	10751.93
737.021	10774.08
737.361	10802.78
737.702	10863.12
738.042	10760.52
738.383	10801.43
738.723	10868.77
739.063	10784.93
739.404	10877.81
739.744	10875.55
740.084	10859.95
740.424	10939.05
740.764	10864.47
741.104	10918.26
741.444	10910.8
741.784	10878.71
742.124	11002.78
742.464	10905.38
742.804	11034.19
743.143	10944.02
743.483	11029.67
743.823	11032.83
744.162	11053.85
744.502	11041.87
744.841	11174.07
745.181	11137.46
745.52	11161.42
745.86	11275.31
746.199	11285.93
746.538	11344.46
746.877	11448.87
747.216	11520.73
747.556	11493.16
747.895	11589.65
748.234	11610.9
748.573	11677.11
748.911	11752.81
749.25	11828.74
749.589	11783.77
749.928	11953.71
750.267	12006.59
750.605	12133.59
750.944	12192.8
751.283	12278.22
751.621	12386.69
751.96	12440.93
752.298	12553.24
752.636	12669.17
752.975	12719.11
753.313	12822.84
753.651	13033.68
753.989	13098.09
754.327	13215.6
754.666	13349.15
755.004	13497.63
755.342	13664.17
755.679	13821.91
756.017	13902.13
