Data from hue_220_FLMS001491_00012.txt Node
Date: Tue Feb 07 16:38:35 GMT 2017
User: dcchb
Spectrometer: FLMS00149
Trigger mode: 0
Integration Time (sec): 2.000000E-2
Scans to average: 10
Electric dark correction enabled: true
Nonlinearity correction enabled: false
Boxcar width: 0
XAxis mode: Wavelengths
Number of Pixels in Spectrum: 2048
>>>>>Begin Spectral Data<<<<<
341.393	-30.86
341.776	-30.86
342.16	-30.86
342.543	-62.27
342.927	-59.11
343.31	-74.25
343.693	-58.66
344.077	-53.23
344.46	-53.46
344.843	-62.5
345.226	-40.8
345.61	-36.74
345.993	-30.63
346.376	-25.44
346.759	-1.26
347.142	24.73
347.525	47.56
347.908	59.08
348.291	90.49
348.674	95.92
349.057	119.19
349.44	121.68
349.823	148.8
350.206	168.46
350.588	186.53
350.971	210.71
351.354	255.91
351.737	252.75
352.119	253.43
352.502	237.61
352.884	284.61
353.267	279.87
353.65	294.78
354.032	298.62
354.414	313.31
354.797	304.5
355.179	324.16
355.562	306.98
355.944	310.6
356.326	332.29
356.709	339.07
357.091	349.24
357.473	349.24
357.855	346.53
358.238	345.63
358.62	350.15
359.002	340.43
359.384	337.04
359.766	336.81
360.148	322.8
360.53	336.81
360.912	329.13
361.294	335.91
361.676	324.16
362.057	329.58
362.439	334.78
362.821	313.08
363.203	332.29
363.584	349.47
363.966	329.36
364.348	329.58
364.729	303.59
365.111	312.63
365.493	313.76
365.874	298.85
366.256	294.78
366.637	307.66
367.019	322.58
367.4	319.19
367.781	309.47
368.163	318.28
368.544	295.91
368.925	306.08
369.306	304.5
369.688	299.53
370.069	319.86
370.45	300.43
370.831	310.6
371.212	307.89
371.593	321.22
371.974	308.34
372.355	301.79
372.736	295.01
373.117	310.15
373.498	317.15
373.879	318.06
374.26	327.32
374.641	299.3
375.021	320.54
375.402	318.73
375.783	305.4
376.163	325.29
376.544	330.94
376.925	333.2
377.305	326.42
377.686	341.78
378.066	333.88
378.447	309.24
378.827	346.08
379.208	315.57
379.588	329.13
379.968	333.88
380.349	332.07
380.729	320.99
381.109	356.47
381.489	328.9
381.87	342.91
382.25	332.52
382.63	312.63
383.01	343.14
383.39	350.82
383.77	351.95
384.15	339.98
384.53	336.36
384.91	335.68
385.29	344.5
385.67	336.81
386.049	359.19
386.429	333.2
386.809	344.27
387.189	382.46
387.568	343.59
387.948	350.15
388.328	371.39
388.707	367.09
389.087	361.45
389.466	374.55
389.846	362.35
390.225	374.33
390.605	360.54
390.984	366.42
391.363	375.68
391.743	361.22
392.122	371.84
392.501	369.58
392.881	364.16
393.26	362.35
393.639	373.2
394.018	393.99
394.397	384.5
394.776	376.36
395.155	384.27
395.534	377.04
395.913	389.92
396.292	393.53
396.671	368.9
397.05	401.22
397.429	396.7
397.808	405.74
398.186	390.6
398.565	382.91
398.944	389.92
399.323	388.11
399.701	388.56
400.08	403.7
400.458	395.79
400.837	419.97
401.215	403.7
401.594	419.3
401.972	422.91
402.351	415.68
402.729	417.04
403.107	435.57
403.486	419.97
403.864	427.66
404.242	437.38
404.62	448
404.999	419.75
405.377	441.9
405.755	456.81
406.133	443.03
406.511	446.64
406.889	458.84
407.267	465.85
407.645	494.55
408.023	488.22
408.401	494.55
408.779	482.12
409.156	490.48
409.534	488
409.912	510.59
410.29	516.24
410.667	522.12
411.045	521.44
411.422	540.42
411.8	521.22
412.178	558.73
412.555	549.46
412.933	553.53
413.31	580.42
413.687	596.47
414.065	598.05
414.442	602.12
414.819	597.15
415.197	615.68
415.574	618.39
415.951	621.78
416.328	636.69
416.705	636.01
417.082	650.03
417.46	657.03
417.837	676.24
418.214	658.39
418.591	663.36
418.967	679.4
419.344	683.7
419.721	700.19
420.098	700.87
420.475	703.36
420.852	741.55
421.228	738.16
421.605	753.3
421.982	760.98
422.358	769.34
422.735	778.16
423.111	803.69
423.488	822.9
423.864	829.23
424.241	831.72
424.617	843.92
424.994	877.14
425.37	884.6
425.746	910.58
426.123	893.41
426.499	918.49
426.875	910.13
427.251	958.94
427.627	938.15
428.003	966.4
428.379	974.08
428.756	975.44
429.132	984.48
429.507	1010.69
429.883	1026.51
430.259	1033.07
430.635	1040.75
431.011	1051.14
431.387	1043.24
431.763	1091.14
432.138	1083.23
432.514	1110.8
432.89	1127.75
433.265	1171.82
433.641	1163.68
434.016	1175.21
434.392	1208.43
434.767	1237.81
435.143	1244.13
435.518	1253.63
435.894	1282.33
436.269	1280.97
436.644	1309.89
437.02	1337.92
437.395	1366.16
437.77	1397.35
438.145	1399.16
438.52	1417.01
438.895	1449.1
439.271	1466.28
439.646	1500.62
440.021	1500.62
440.395	1533.39
440.77	1526.39
441.145	1529.32
441.52	1598.47
441.895	1612.49
442.27	1595.76
442.645	1616.55
443.019	1625.14
443.394	1649.77
443.769	1692.94
444.143	1671.92
444.518	1696.78
444.892	1688.19
445.267	1735.42
445.641	1713.5
446.016	1721.64
446.39	1791.69
446.764	1784.91
447.139	1780.39
447.513	1811.12
447.887	1832.59
448.262	1847.06
448.636	1841.86
449.01	1875.98
449.384	1869.43
449.758	1877.34
450.132	1922.76
450.506	1947.84
450.88	1922.53
451.254	1939.71
451.628	1953.49
452.002	2021.51
452.376	2024
452.75	2012.02
453.123	2042.53
453.497	2084.56
453.871	2035.53
454.244	2120.5
454.618	2096.31
454.992	2141.74
455.365	2153.94
455.739	2220.83
456.112	2232.81
456.486	2215.63
456.859	2236.65
457.232	2289.08
457.606	2245.92
457.979	2318.68
458.352	2370.66
458.725	2392.35
459.099	2400.71
459.472	2423.09
459.845	2447.94
460.218	2450.43
460.591	2501.28
460.964	2495.85
461.337	2538.79
461.71	2585.12
462.083	2633.02
462.456	2616.53
462.829	2613.59
463.201	2695.4
463.574	2690.88
463.947	2745.79
464.32	2764.32
464.692	2782.4
465.065	2774.94
465.438	2856.07
465.81	2888.38
466.183	2953.24
466.555	2936.07
466.928	2987.82
467.3	2966.35
467.672	3043.41
468.045	3091.32
468.417	3107.59
468.789	3116.63
469.161	3188.04
469.534	3217.19
469.906	3257.87
470.278	3279.11
470.65	3332.21
471.022	3322.72
471.394	3410.4
471.766	3423.29
472.138	3481.14
472.51	3570.63
472.882	3585.09
473.253	3642.04
473.625	3693.79
473.997	3706.22
474.369	3726.1
474.74	3757.51
475.112	3826.21
475.484	3929.26
475.855	3936.72
476.227	3963.16
476.598	4112.99
476.97	4093.32
477.341	4200.44
477.713	4228.69
478.084	4231.4
478.455	4322.25
478.827	4357.95
479.198	4485.86
479.569	4475.91
479.94	4559.98
480.311	4618.73
480.682	4687.43
481.053	4804.72
481.424	4872.51
481.795	4905.28
482.166	4932.17
482.537	4985.5
482.908	5144.6
483.279	5144.37
483.65	5189.11
484.021	5289.9
484.391	5316.34
484.762	5361.31
485.133	5395.66
485.503	5457.36
485.874	5588.88
486.244	5613.06
486.615	5738.25
486.985	5757.46
487.356	5844.24
487.726	5879.04
488.097	5946.84
488.467	5994.29
488.837	6049.43
489.207	6146.83
489.578	6254.85
489.948	6249.65
490.318	6369.87
490.688	6342.76
491.058	6415.3
491.428	6462.3
491.798	6521.96
492.168	6679.7
492.538	6681.05
492.908	6739.13
493.278	6749.98
493.648	6801.05
494.017	6846.92
494.387	6890.99
494.757	6917.88
495.126	7007.6
495.496	7023.64
495.866	7067.03
496.235	7091.21
496.605	7131.44
496.974	7210.98
497.344	7279.46
497.713	7254.6
498.082	7264.31
498.452	7362.62
498.821	7392.45
499.19	7349.96
499.559	7469.73
499.928	7443.07
500.298	7459.11
500.667	7532.33
501.036	7511.77
501.405	7584.98
501.774	7558.32
502.143	7645.55
502.512	7668.37
502.88	7684.42
503.249	7655.04
503.618	7662.72
503.987	7756.96
504.356	7755.6
504.724	7797.41
505.093	7828.14
505.462	7800.57
505.83	7857.52
506.199	7904.75
506.567	7946.78
506.936	7944.52
507.304	8013.9
507.672	8055.25
508.041	7955.37
508.409	8072.2
508.777	8121.92
509.145	8112.65
509.514	8088.47
509.882	8154.91
510.25	8139.77
510.618	8142.71
510.986	8153.33
511.354	8243.72
511.722	8210.96
512.09	8263.84
512.458	8215.02
512.826	8272.65
513.193	8351.97
513.561	8339.77
513.929	8269.94
514.297	8383.61
514.664	8407.11
515.032	8380.44
515.4	8445.53
515.767	8404.17
516.135	8415.47
516.502	8334.57
516.869	8513.77
517.237	8460.67
517.604	8382.03
517.972	8460.67
518.339	8473.32
518.706	8399.2
519.073	8456.83
519.44	8472.42
519.808	8562.81
520.175	8488.01
520.542	8616.37
520.909	8522.81
521.276	8531.17
521.643	8634.67
522.009	8559.65
522.376	8607.1
522.743	8646.88
523.11	8588.8
523.477	8669.02
523.843	8660.66
524.21	8730.26
524.577	8738.85
524.943	8760.55
525.31	8793.77
525.676	8808.23
526.043	8779.53
526.409	8787.89
526.776	8803.71
527.142	8772.75
527.508	8832.63
527.874	8820.43
528.241	8765.74
528.607	8832.41
528.973	8873.54
529.339	8796.7
529.705	8762.35
530.071	8822.47
530.437	8807.32
530.803	8785.63
531.169	8888
531.535	8785.63
531.901	8808.91
532.267	8812.3
532.632	8855.46
532.998	8705.18
533.364	8798.06
533.73	8816.59
534.095	8800.09
534.461	8772.07
534.826	8751.73
535.192	8785.63
535.557	8774.33
535.923	8728.68
536.288	8720.77
536.653	8723.03
537.019	8647.1
537.384	8728.46
537.749	8754.9
538.114	8714.22
538.479	8671.96
538.845	8634.45
539.21	8569.14
539.575	8587.67
539.94	8549.03
540.305	8598.74
540.67	8475.36
541.034	8536.82
541.399	8495.24
541.764	8565.98
542.129	8528.01
542.494	8431.97
542.858	8436.04
543.223	8391.52
543.587	8470.61
543.952	8403.27
544.316	8375.47
544.681	8331.18
545.045	8364.17
545.41	8351.74
545.774	8315.81
546.138	8241.24
546.503	8275.36
546.867	8263.84
547.231	8279.88
547.595	8295.47
547.959	8231.97
548.324	8128.25
548.688	8194.69
549.052	8157.85
549.416	8100.45
549.779	8111.52
550.143	8118.3
550.507	8104.97
550.871	8075.37
551.235	8064.75
551.599	8074.46
551.962	8032.88
552.326	7967.8
552.689	8027.46
553.053	7982.71
553.417	8003.96
553.78	8062.03
554.143	7990.62
554.507	7975.71
554.87	7951.75
555.234	7956.95
555.597	7889.61
555.96	7986.78
556.323	8011.64
556.686	7928.7
557.05	7899.33
557.413	7871.53
557.776	7843.28
558.139	7918.99
558.502	7923.28
558.865	7908.82
559.228	7956.95
559.59	7965.54
559.953	7921.92
560.316	7956.5
560.679	7887.58
561.041	7931.87
561.404	7922.38
561.767	7977.74
562.129	7904.07
562.492	7947.46
562.854	7957.63
563.217	7964.64
563.579	7895.48
563.941	7980.45
564.304	7992.43
564.666	7988.14
565.028	7921.25
565.39	7963.96
565.753	8014.13
566.115	8047.34
566.477	8040.11
566.839	8064.75
567.201	8078.76
567.563	8019.32
567.925	8147.91
568.287	8133.9
568.648	8094.8
569.01	8139.77
569.372	8209.6
569.734	8135.03
570.095	8164.86
570.457	8160.79
570.819	8224.52
571.18	8195.82
571.542	8192.2
571.903	8214.57
572.265	8219.54
572.626	8251.86
572.987	8190.84
573.349	8306.55
573.71	8235.36
574.071	8333.21
574.432	8332.54
574.794	8378.41
575.155	8345.64
575.516	8340.9
575.877	8447.11
576.238	8327.79
576.599	8434.45
576.96	8404.62
577.32	8469.48
577.681	8417.28
578.042	8453.66
578.403	8430.39
578.763	8497.28
579.124	8488.46
579.485	8558.52
579.845	8510.84
580.206	8499.31
580.566	8544.28
580.927	8598.74
581.287	8607.33
581.648	8556.26
582.008	8577.27
582.368	8619.08
582.728	8662.02
583.089	8622.7
583.449	8687.78
583.809	8702.02
584.169	8728
584.529	8766.2
584.889	8792.41
585.249	8762.81
585.609	8757.61
585.969	8789.92
586.329	8783.14
586.688	8775.69
587.048	8810.94
587.408	8772.75
587.768	8759.42
588.127	8811.39
588.487	8813.43
588.846	8845.06
589.206	8839.87
589.565	8841
589.925	8883.48
590.284	8895.01
590.643	8967.77
591.003	8935.91
591.362	9009.35
591.721	8946.76
592.08	8959.64
592.44	9046.19
592.799	9053.65
593.158	8945.63
593.517	9024.72
593.876	8978.85
594.235	9026.53
594.593	8993.99
594.952	8996.02
595.311	9008
595.67	9097.94
596.029	9087.09
596.387	9144.04
596.746	9133.87
597.104	9096.13
597.463	9109.69
597.822	9185.17
598.18	9115.57
598.538	9013.65
598.897	9144.04
599.255	9091.16
599.613	9231.49
599.972	9116.24
600.33	9176.35
600.688	9152.85
601.046	9113.31
601.404	9193.98
601.762	9182.23
602.12	9220.87
602.478	9192.85
602.836	9197.82
603.194	9161.21
603.552	9243.92
603.91	9219.29
604.268	9219.52
604.625	9208.9
604.983	9202.34
605.341	9226.75
605.698	9260.87
606.056	9287.76
606.413	9226.07
606.771	9276.47
607.128	9248.44
607.485	9265.17
607.843	9235.11
608.2	9363.02
608.557	9313.53
608.914	9342.23
609.272	9342.9
609.629	9390.36
609.986	9417.93
610.343	9346.75
610.7	9403.69
611.057	9422
611.414	9391.72
611.771	9393.3
612.127	9450.92
612.484	9432.17
612.841	9476.01
613.198	9411.6
613.554	9434.65
613.911	9444.6
614.267	9435.33
614.624	9506.29
614.98	9489.79
615.337	9514.88
615.693	9509.45
616.05	9537.48
616.406	9556.23
616.762	9549.9
617.118	9487.31
617.475	9486.63
617.831	9493.63
618.187	9504.48
618.543	9537.02
618.899	9586.51
619.255	9491.37
619.611	9548.55
619.967	9648.43
620.323	9626.96
620.678	9573.86
621.034	9604.14
621.39	9584.48
621.746	9558.72
622.101	9671.26
622.457	9504.48
622.812	9577.47
623.168	9597.36
623.523	9644.82
623.879	9651.37
624.234	9562.79
624.589	9591.71
624.945	9645.27
625.3	9565.72
625.655	9604.82
626.01	9611.37
626.365	9576.34
626.72	9618.83
627.075	9609.56
627.43	9595.78
627.785	9522.79
628.14	9570.24
628.495	9655.66
628.85	9620.86
629.205	9497.93
629.559	9601.2
629.914	9528.89
630.269	9588.77
630.623	9512.62
630.978	9566.85
631.332	9623.8
631.687	9566.4
632.041	9526.63
632.396	9530.7
632.75	9472.39
633.104	9425.84
633.459	9376.35
633.813	9437.82
634.167	9424.94
634.521	9472.17
634.875	9501.54
635.229	9502.45
635.583	9325.05
635.937	9375.45
636.291	9417.25
636.645	9338.38
636.999	9312.17
637.352	9349.01
637.706	9357.59
638.06	9383.13
638.413	9387.2
638.767	9314.43
639.121	9328.67
639.474	9252.51
639.828	9270.14
640.181	9329.35
640.534	9274.21
640.888	9240.76
641.241	9205.73
641.594	9217.94
641.947	9279.63
642.301	9285.96
642.654	9222.23
643.007	9178.16
643.36	9230.14
643.713	9221.33
644.066	9193.53
644.419	9153.76
644.771	9130.03
645.124	9034.21
645.477	9048.9
645.83	8994.89
646.182	8929.13
646.535	8915.12
646.888	8939.98
647.24	8861.56
647.593	8881
647.945	8841
648.298	8815.91
648.65	8880.09
649.002	8851.39
649.355	8826.53
649.707	8886.87
650.059	8905.18
650.411	9051.61
650.763	9086.41
651.115	9057.04
651.467	9055.91
651.819	9092.97
652.171	9107.88
652.523	9003.48
652.875	9057.49
653.227	9005.74
653.578	9118.73
653.93	9066.98
654.282	9042.35
654.633	8957.15
654.985	9055.23
655.337	9054.78
655.688	9059.97
656.039	9148.56
656.391	9058.62
656.742	9029.69
657.094	9043.48
657.445	9059.97
657.796	9018.39
658.147	8990.82
658.498	9059.3
658.849	9079.86
659.2	9068.79
659.551	9102.68
659.902	9064.72
660.253	9124.6
660.604	9152.85
660.955	9067.21
661.306	9039.64
661.656	9131.84
662.007	9058.17
662.358	9065.62
662.708	9158.5
663.059	9123.02
663.409	9033.08
663.76	9119.41
664.11	9110.37
664.461	9112.85
664.811	9067.88
665.161	9083.02
665.511	9115.11
665.862	9127.09
666.212	9101.78
666.562	9189.69
666.912	9106.3
667.262	9123.25
667.612	9222.91
667.962	9123.02
668.312	9113.31
668.662	9146.07
669.011	9185.17
669.361	9133.42
669.711	9131.84
670.06	9082.8
670.41	9061.33
670.76	9026.3
671.109	9142.23
671.459	9054.78
671.808	9050.48
672.157	9083.25
672.507	8993.08
672.856	9036.25
673.205	9040.99
673.554	9045.96
673.904	9008.68
674.253	8987.66
674.602	8981.33
674.951	8866.76
675.3	8833.76
675.649	9038.28
675.998	9003.48
676.346	8900.88
676.695	9051.16
677.044	8899.3
677.393	8964.38
677.741	8962.58
678.09	8914.67
678.438	8868.57
678.787	8893.88
679.135	8914.67
679.484	8868.57
679.832	8821.11
680.181	8859.07
680.529	8865.4
680.877	8834.67
681.225	8783.37
681.573	8874.22
681.922	8808.23
682.27	8748.12
682.618	8795.12
682.966	8801.68
683.314	8770.26
683.661	8691.4
684.009	8639.42
684.357	8576.6
684.705	8699.08
685.053	8655.24
685.4	8654.56
685.748	8629.25
686.095	8527.56
686.443	8585.86
686.79	8548.35
687.138	8514.45
687.485	8527.11
687.832	8486.43
688.18	8541.57
688.527	8429.48
688.874	8412.99
689.221	8436.49
689.568	8396.71
689.915	8280.79
690.262	8339.09
690.609	8372.76
690.956	8255.02
691.303	8257.51
691.65	8269.03
691.997	8245.31
692.344	8221.58
692.69	8165.08
693.037	8209.15
693.383	8086.21
693.73	8092.54
694.077	8050.73
694.423	8042.15
694.769	8044.86
695.116	7974.8
695.462	7958.08
695.808	7905.2
696.155	7972.54
696.501	7820.46
696.847	7873.34
697.193	7791.98
697.539	7839.89
697.885	7785.66
698.231	7697.75
698.577	7701.82
698.923	7669.05
699.269	7666.79
699.614	7587.24
699.96	7566
700.306	7573.91
700.651	7535.49
700.997	7514.03
701.342	7484.65
701.688	7402.39
702.033	7468.38
702.379	7429.51
702.724	7353.8
703.069	7394.03
703.415	7278.33
703.76	7347.93
704.105	7332.34
704.45	7312.45
704.795	7209.4
705.14	7214.15
705.485	7190.64
705.83	7151.55
706.175	7131.21
706.52	7156.29
706.865	7124.43
707.209	7107.26
707.554	7089.86
707.899	7015.51
708.243	7020.48
708.588	7036.98
708.932	7007.82
709.277	6982.06
709.621	6996.3
709.966	6880.14
710.31	6905.68
710.654	6823.42
710.998	6886.7
711.342	6925.79
711.687	6882.18
712.031	6819.81
712.375	6811.67
712.719	6779.58
713.063	6760.6
713.407	6839.92
713.75	6755.18
714.094	6704.33
714.438	6723.31
714.782	6770.77
715.125	6687.61
715.469	6739.13
715.812	6651.45
716.156	6672.24
716.499	6674.05
716.843	6640.6
717.186	6609.87
717.53	6660.26
717.873	6655.52
718.216	6643.99
718.559	6605.12
718.902	6542.3
719.246	6512.24
719.589	6525.35
719.932	6545.92
720.275	6534.39
720.617	6534.39
720.96	6487.16
721.303	6493.26
721.646	6559.47
721.989	6476.54
722.331	6481.74
722.674	6428.18
723.016	6461.17
723.359	6464.34
723.701	6461.62
724.044	6484.67
724.386	6469.31
724.729	6423.21
725.071	6417.11
725.413	6440.83
725.755	6401.29
726.097	6413.26
726.439	6378.24
726.782	6400.83
727.124	6407.61
727.465	6406.03
727.807	6357.22
728.149	6375.75
728.491	6369.42
728.833	6371.68
729.175	6341.18
729.516	6365.13
729.858	6362.42
730.199	6352.93
730.541	6372.59
730.882	6369.2
731.224	6326.03
731.565	6319.25
731.906	6385.24
732.248	6391.57
732.589	6378.69
732.93	6356.32
733.271	6355.64
733.612	6388.63
733.953	6323.1
734.294	6414.17
734.635	6326.26
734.976	6404.9
735.317	6336.2
735.658	6386.37
735.999	6381.63
736.339	6387.95
736.68	6427.5
737.021	6361.06
737.361	6353.38
737.702	6415.98
738.042	6388.18
738.383	6356.32
738.723	6446.03
739.063	6391.12
739.404	6475.41
739.744	6452.58
740.084	6396.31
740.424	6399.25
740.764	6444.22
741.104	6474.73
741.444	6502.07
741.784	6461.4
742.124	6429.53
742.464	6491
742.804	6559.93
743.143	6567.38
743.483	6581.62
743.823	6566.71
744.162	6562.41
744.502	6641.28
744.841	6593.37
745.181	6678.34
745.52	6636.99
745.86	6744.78
746.199	6774.61
746.538	6778.23
746.877	6784.55
747.216	6879.92
747.556	6907.04
747.895	6958.11
748.234	6930.99
748.573	6971.22
748.911	7074.72
749.25	7159.01
749.589	7121.04
749.928	7218.89
750.267	7300.02
750.605	7281.49
750.944	7397.87
751.283	7492.11
751.621	7559.9
751.96	7637.19
752.298	7643.97
752.636	7786.56
752.975	7847.58
753.313	7974.8
753.651	8045.76
753.989	8125.99
754.327	8242.82
754.666	8331.41
755.004	8460.22
755.342	8606.2
755.679	8685.75
756.017	8757.16
756.355	8936.59
756.693	9060.65
757.031	9222
757.368	9323.02
757.706	9473.52
758.044	9533.63
758.381	9729.79
758.719	9864.47
759.056	10008.2
759.394	10116.44
759.731	10251.35
760.068	10365.48
760.405	10591.01
760.743	10766.14
761.08	10892.92
761.417	11059.02
761.754	11252.91
762.091	11364.09
762.428	11624.65
762.765	11670.98
763.102	11877.53
763.438	12113.9
763.775	12162.26
764.112	12369.94
764.449	12593.67
764.785	12675.25
765.122	12888.8
765.458	12927.22
765.795	13207.21
766.131	13318.84
766.467	13465.28
766.804	13583.92
767.14	13721.55
767.476	13905.72
767.812	14038.83
768.148	14182.55
768.485	14256.67
768.821	14378.48
769.157	14559.49
