Data from hue_350_FLMS001491_81.txt Node
Date: Mon Feb 06 15:38:38 GMT 2017
User: dcchb
Spectrometer: FLMS00149
Trigger mode: 0
Integration Time (sec): 2.000000E-2
Scans to average: 10
Electric dark correction enabled: true
Nonlinearity correction enabled: false
Boxcar width: 0
XAxis mode: Wavelengths
Number of Pixels in Spectrum: 2048
>>>>>Begin Spectral Data<<<<<
341.393	-15.93
341.776	-15.93
342.16	-15.93
342.543	-76.72
342.927	-54.8
343.31	-96.38
343.693	-61.58
344.077	-76.95
344.46	-54.12
344.843	-57.06
345.226	-46.21
345.61	-18.42
345.993	-18.19
346.376	-3.28
346.759	16.84
347.142	29.26
347.525	45.99
347.908	60
348.291	75.14
348.674	92.31
349.057	112.65
349.44	104.29
349.823	149.49
350.206	177.06
350.588	197.85
350.971	204.63
351.354	226.55
351.737	232.88
352.119	266.55
352.502	259.99
352.884	264.29
353.267	302.03
353.65	285.3
354.032	306.09
354.414	295.25
354.797	314.68
355.179	312.42
355.562	316.94
355.944	323.27
356.326	334.79
356.709	342.02
357.091	337.51
357.473	324.4
357.855	318.52
358.238	327.11
358.62	329.82
359.002	325.98
359.384	339.54
359.766	345.19
360.148	335.7
360.53	332.31
360.912	336.38
361.294	328.92
361.676	328.01
362.057	318.75
362.439	328.92
362.821	329.14
363.203	319.2
363.584	322.36
363.966	323.72
364.348	324.17
364.729	319.88
365.111	309.03
365.493	316.26
365.874	304.74
366.256	319.2
366.637	329.6
367.019	325.53
367.4	290.95
367.781	312.2
368.163	317.84
368.544	299.99
368.925	318.75
369.306	323.95
369.688	307.45
370.069	302.7
370.45	304.74
370.831	308.81
371.212	317.17
371.593	319.2
371.974	305.87
372.355	302.03
372.736	311.97
373.117	291.86
373.498	317.62
373.879	340.22
374.26	325.75
374.641	308.13
375.021	318.97
375.402	324.17
375.783	323.95
376.163	330.27
376.544	306.09
376.925	323.27
377.305	328.47
377.686	323.49
378.066	337.51
378.447	322.59
378.827	321.69
379.208	316.49
379.588	325.98
379.968	340.89
380.349	344.28
380.729	328.01
381.109	328.24
381.489	321.91
381.87	325.3
382.25	347.45
382.63	340.89
383.01	349.48
383.39	344.51
383.77	327.11
384.15	335.92
384.53	323.72
384.91	331.86
385.29	352.42
385.67	342.25
386.049	358.3
386.429	337.05
386.809	343.61
387.189	344.06
387.568	341.57
387.948	342.48
388.328	356.04
388.707	351.06
389.087	362.82
389.466	339.54
389.846	363.27
390.225	341.8
390.605	346.09
390.984	347.22
391.363	360.1
391.743	343.38
392.122	366.43
392.501	356.71
392.881	374.34
393.26	345.19
393.639	367.33
394.018	372.53
394.397	347
394.776	367.56
395.155	356.71
395.534	361.46
395.913	383.83
396.292	365.08
396.671	395.36
397.05	368.01
397.429	376.15
397.808	363.27
398.186	399.65
398.565	391.74
398.944	372.76
399.323	373.66
399.701	394.45
400.08	379.76
400.458	375.47
400.837	372.76
401.215	405.75
401.594	393.32
401.972	398.52
402.351	398.75
402.729	396.03
403.107	406.2
403.486	411.4
403.864	401.01
404.242	394.68
404.62	412.53
404.999	401.01
405.377	418.18
405.755	413.44
406.133	412.31
406.511	402.36
406.889	411.63
407.267	433.1
407.645	431.51
408.023	415.02
408.401	435.13
408.779	409.14
409.156	421.8
409.534	436.49
409.912	439.2
410.29	424.06
410.667	430.16
411.045	439.88
411.422	439.88
411.8	443.49
412.178	454.79
412.555	463.6
412.933	460.44
413.31	451.17
413.687	450.27
414.065	480.1
414.442	466.54
414.819	479.65
415.197	467.9
415.574	501.34
415.951	480.78
416.328	504.73
416.705	501.57
417.082	477.61
417.46	473.77
417.837	517.61
418.214	501.12
418.591	496.37
418.967	516.26
419.344	519.65
419.721	535.69
420.098	511.96
420.475	513.55
420.852	541.34
421.228	515.13
421.605	538.4
421.982	535.47
422.358	537.73
422.735	555.13
423.111	526.2
423.488	545.18
423.864	528.91
424.241	555.35
424.617	559.87
424.994	541.79
425.37	565.97
425.746	541.79
426.123	568.91
426.499	580.44
426.875	583.6
427.251	603.03
427.627	585.86
428.003	612.07
428.379	601
428.756	603.26
429.132	611.4
429.507	612.53
429.883	619.31
430.259	615.69
430.635	600.32
431.011	638.29
431.387	622.7
431.763	642.58
432.138	647.33
432.514	640.77
432.89	661.11
433.265	646.65
433.641	646.65
434.016	657.27
434.392	695.69
434.767	679.42
435.143	683.71
435.518	692.3
435.894	679.87
436.269	700.66
436.644	728.46
437.02	699.08
437.395	709.02
437.77	714.9
438.145	747.89
438.52	765.52
438.895	729.13
439.271	737.27
439.646	770.49
440.021	760.54
440.395	747.21
440.77	760.77
441.145	762.58
441.52	808.91
441.895	785.63
442.27	775.91
442.645	794.89
443.019	784.05
443.394	803.93
443.769	799.87
444.143	790.15
444.518	779.08
444.892	786.98
445.267	797.61
445.641	827.44
446.016	833.54
446.39	825.4
446.764	830.37
447.139	822.92
447.513	847.32
447.887	892.74
448.262	840.99
448.636	838.06
449.01	854.1
449.384	869.02
449.758	857.27
450.132	871.05
450.506	854.55
450.88	869.24
451.254	874.44
451.628	890.94
452.002	888.23
452.376	901.56
452.75	889.58
453.123	867.21
453.497	900.65
453.871	926.19
454.244	921.67
454.618	940.88
454.992	940.43
455.365	916.02
455.739	958.96
456.112	963.25
456.486	970.03
456.859	994.66
457.232	993.31
457.606	977.71
457.979	1005.96
458.352	1007.77
458.725	1031.05
459.099	1014.55
459.472	1082.34
459.845	1029.01
460.218	1049.58
460.591	1067.2
460.964	1068.56
461.337	1081.89
461.71	1089.35
462.083	1074.89
462.456	1121.67
462.829	1115.11
463.201	1156.47
463.574	1137.94
463.947	1171.61
464.32	1161.44
464.692	1162.79
465.065	1168.9
465.438	1203.47
465.81	1209.57
466.183	1194.21
466.555	1246.18
466.928	1257.93
467.3	1262
467.672	1289.12
468.045	1289.8
468.417	1290.25
468.789	1301.1
469.161	1313.75
469.534	1353.52
469.906	1373.18
470.278	1364.14
470.65	1382.68
471.022	1412.51
471.394	1447.53
471.766	1456.8
472.138	1463.58
472.51	1492.5
472.882	1490.24
473.253	1553.52
473.625	1536.8
473.997	1552.84
474.369	1570.24
474.74	1587.64
475.112	1652.05
475.484	1650.24
475.855	1671.93
476.227	1683.46
476.598	1746.28
476.97	1716
477.341	1777.24
477.713	1802.55
478.084	1840.29
478.455	1865.6
478.827	1867.41
479.198	1892.94
479.569	1951.47
479.94	1974.3
480.311	2004.58
480.682	2066.27
481.053	2086.39
481.424	2146.5
481.795	2136.1
482.166	2160.73
482.537	2208.87
482.908	2273.27
483.279	2277.34
483.65	2344.46
484.021	2357.34
484.391	2376.32
484.762	2445.02
485.133	2463.1
485.503	2466.26
485.874	2529.54
486.244	2566.83
486.615	2624
486.985	2612.7
487.356	2639.37
487.726	2696.54
488.097	2757.33
488.467	2746.71
488.837	2789.64
489.207	2886.82
489.578	2848.85
489.948	2941.28
490.318	2997.32
490.688	2973.59
491.058	3044.33
491.428	3054.95
491.798	3092.01
492.168	3153.48
492.538	3156.19
492.908	3147.83
493.278	3216.3
493.648	3233.02
494.017	3289.52
494.387	3328.16
494.757	3330.19
495.126	3372.68
495.496	3402.74
495.866	3439.8
496.235	3470.3
496.605	3519.34
496.974	3501.04
497.344	3519.79
497.713	3595.95
498.082	3598.89
498.452	3610.64
498.821	3657.87
499.19	3666.46
499.559	3730.86
499.928	3762.27
500.298	3749.84
500.667	3765.89
501.036	3757.98
501.405	3816.51
501.774	3806.57
502.143	3802.27
502.512	3862.84
502.88	3917.3
503.249	3885.21
503.618	3934.92
503.987	3909.84
504.356	3947.58
504.724	3971.53
505.093	3965.43
505.462	3957.75
505.83	3993.45
506.199	4058.54
506.567	4086.79
506.936	4070.51
507.304	4160.68
507.672	4143.73
508.041	4146.44
508.409	4162.04
508.777	4186.44
509.145	4221.7
509.514	4221.7
509.882	4282.94
510.25	4229.15
510.618	4297.18
510.986	4294.69
511.354	4312.54
511.722	4301.24
512.09	4334.24
512.458	4338.53
512.826	4411.3
513.193	4387.79
513.561	4436.38
513.929	4439.09
514.297	4504.4
514.664	4491.97
515.032	4524.51
515.4	4544.17
515.767	4496.27
516.135	4551.41
516.502	4508.02
516.869	4557.51
517.237	4581.01
517.604	4584.4
517.972	4598.64
518.339	4654.68
518.706	4665.75
519.073	4650.84
519.44	4661.91
519.808	4715.47
520.175	4713.89
520.542	4782.59
520.909	4745.52
521.276	4815.58
521.643	4810.16
522.009	4807.44
522.376	4872.75
522.743	4898.97
523.11	4931.51
523.477	4940.1
523.843	4947.1
524.21	4951.17
524.577	5004.73
524.943	5038.4
525.31	5003.6
525.676	5060.77
526.043	5168.34
526.409	5123.59
526.776	5176.02
527.142	5150.03
527.508	5228.9
527.874	5283.59
528.241	5221.9
528.607	5246.53
528.973	5302.35
529.339	5342.8
529.705	5306.64
530.071	5388.45
530.437	5389.12
530.803	5432.06
531.169	5476.35
531.535	5475.68
531.901	5532.4
532.267	5490.82
532.632	5534.43
532.998	5558.84
533.364	5619.85
533.73	5604.94
534.095	5679.29
534.461	5689.68
534.826	5714.31
535.192	5725.39
535.557	5762.22
535.923	5718.38
536.288	5813.29
536.653	5766.74
537.019	5841.09
537.384	5879.51
537.749	5868.43
538.114	5875.44
538.479	5883.12
538.845	5933.29
539.21	5922.9
539.575	5978.49
539.94	6046.06
540.305	6048.77
540.67	6011.25
541.034	6081.99
541.399	6102.33
541.764	6144.13
542.129	6132.16
542.494	6139.84
542.858	6202.89
543.223	6143.68
543.587	6223.9
543.952	6249.44
544.316	6258.71
544.681	6288.76
545.045	6317.46
545.41	6376.67
545.774	6357.46
546.138	6387.29
546.503	6434.75
546.867	6446.72
547.231	6458.25
547.595	6519.26
547.959	6540.73
548.324	6522.2
548.688	6601.75
549.052	6582.31
549.416	6588.64
549.779	6627.28
550.143	6632.25
550.507	6713.16
550.871	6695.53
551.235	6673.16
551.599	6755.64
551.962	6753.38
552.326	6806.94
552.689	6841.29
553.053	6811.46
553.417	6857.33
553.78	6905.24
554.143	6820.05
554.507	6941.17
554.87	6886.03
555.234	6979.82
555.597	6961.74
555.96	6941.4
556.323	7012.58
556.686	6998.57
557.05	7066.14
557.413	7066.14
557.776	7111.56
558.139	7083.09
558.502	7147.27
558.865	7182.3
559.228	7236.31
559.59	7228.85
559.953	7255.52
560.316	7338.23
560.679	7308.62
561.041	7333.03
561.404	7444.21
561.767	7442.86
562.129	7395.17
562.492	7471.78
562.854	7381.39
563.217	7466.81
563.579	7511.1
563.941	7525.11
564.304	7495.74
564.666	7649.4
565.028	7594.49
565.39	7625
565.753	7655.96
566.115	7657.99
566.477	7748.84
566.839	7747.93
567.201	7807.37
567.563	7778.21
567.925	7870.19
568.287	7864.54
568.648	7858.66
569.01	7973.46
569.372	7992.45
569.734	8015.27
570.095	8061.6
570.457	8056.4
570.819	8054.14
571.18	8110.86
571.542	8164.42
571.903	8229.05
572.265	8239.44
572.626	8313.57
572.987	8349.95
573.349	8382.27
573.71	8404.19
574.071	8453.9
574.432	8519.66
574.794	8582.26
575.155	8616.16
575.516	8587.46
575.877	8683.05
576.238	8750.84
576.599	8752.88
576.96	8894.57
577.32	8922.82
577.681	8994
578.042	9080.55
578.403	9154
578.763	9237.84
579.124	9310.15
579.485	9427.21
579.845	9494.1
580.206	9586.98
580.566	9737.71
580.927	9828.78
581.287	9942.45
581.648	10026.74
582.008	10164.82
582.368	10385.83
582.728	10407.97
583.089	10524.58
583.449	10652.04
583.809	10831.92
584.169	11025.36
584.529	11106.26
584.889	11347.61
585.249	11435.52
585.609	11585.57
585.969	11866.24
586.329	12027.59
586.688	12224.65
587.048	12421.93
587.408	12631.42
587.768	12867.12
588.127	13002.93
588.487	13203.83
588.846	13543.49
589.206	13610.83
589.565	13926.3
589.925	14193.41
590.284	14458.49
590.643	14677.02
591.003	14968.76
591.362	15249.88
591.721	15456.88
592.08	15706.82
592.44	16039.92
592.799	16362.62
593.158	16531.43
593.517	16832.89
593.876	17164.18
594.235	17417.96
594.593	17678.74
594.952	17883.71
595.311	18273.53
595.67	18504.71
596.029	18797.13
596.387	19187.18
596.746	19446.16
597.104	19649.31
597.463	20040.04
597.822	20258.11
598.18	20553.47
598.538	20842.95
598.897	21270.74
599.255	21378.08
599.613	21854.23
599.972	21991.4
600.33	22307.78
600.688	22613.3
601.046	22860.75
601.404	23335.32
601.762	23400.85
602.12	23831.12
602.478	24057.56
602.836	24363.31
603.194	24585.68
603.552	24790.2
603.91	25024.99
604.268	25314.48
604.625	25528.03
604.983	25941.8
605.341	25938.41
605.698	26461.11
606.056	26580.88
606.413	26896.35
606.771	27189.23
607.128	27377.7
607.485	27528.65
607.843	27755.99
608.2	28166.15
608.557	28428.07
608.914	28521.17
609.272	28941.95
609.629	29000.71
609.986	29398.21
610.343	29540.13
610.7	29892.89
611.057	29981.02
611.414	30110.51
611.771	30375.81
612.127	30692.41
612.484	30841.56
612.841	31128.56
613.198	31098.28
613.554	31239.29
613.911	31662.11
614.267	31884.7
614.624	31978.03
614.98	32131.7
615.337	32433.61
615.693	32450.79
616.05	32580.27
616.406	32955.63
616.762	32928.96
617.118	33060.26
617.475	33282.85
617.831	33546.58
618.187	33571.43
618.543	33755.16
618.899	34156.28
619.255	33954.93
619.611	34265.2
619.967	34329.15
620.323	34543.61
620.678	34640.78
621.034	34617.96
621.39	34786.99
621.746	34781.8
622.101	35302.24
622.457	35081
622.812	35358.28
623.168	35373.87
623.523	35462.68
623.879	35672.17
624.234	35591.49
624.589	35704.94
624.945	35817.02
625.3	36040.3
625.655	36154.87
626.01	36044.81
626.365	36222.89
626.72	36086.4
627.075	36254.75
627.43	36391.7
627.785	36346.5
628.14	36308.54
628.495	36596.66
628.85	36579.94
629.205	36500.62
629.559	36770.22
629.914	36634.63
630.269	36825.13
630.623	36757.34
630.978	36695.87
631.332	36967.05
631.687	37036.2
632.041	36920.95
632.396	37027.39
632.75	36866.71
633.104	37022.42
633.459	36845.47
633.813	36816.77
634.167	37010.67
634.521	37064.22
634.875	37165.92
635.229	37005.47
635.583	37001.85
635.937	36985.36
636.291	37102.64
636.645	37075.97
636.999	36944.68
637.352	37113.71
637.706	36786.04
638.06	37065.81
638.413	37129.31
638.767	36950.78
639.121	37022.87
639.474	36719.15
639.828	36875.98
640.181	37188.51
640.534	37073.04
640.888	36895.64
641.241	36804.34
641.594	36844.12
641.947	37010.67
642.301	36966.82
642.654	36790.78
643.007	36882.99
643.36	36977.22
643.713	36877.56
644.066	36935.64
644.419	36845.25
644.771	36576.78
645.124	36378.59
645.477	36156.68
645.83	36034.42
646.182	35919.85
646.535	35857.02
646.888	35963.91
647.24	35697.93
647.593	35883.24
647.945	35860.19
648.298	35687.31
648.65	35648.22
649.002	35593.3
649.355	35747.65
649.707	35645.5
650.059	35838.04
650.411	36277.58
650.763	36178.82
651.115	36761.18
651.467	36548.3
651.819	36697.68
652.171	36535.65
652.523	36489.78
652.875	36512.37
653.227	36362.32
653.578	36582.2
653.93	36467.4
654.282	36391.02
654.633	36240.52
654.985	36287.07
655.337	36307.41
655.688	36207.75
656.039	36403.9
656.391	36118.49
656.742	36178.37
657.094	36258.82
657.445	36546.04
657.796	36308.08
658.147	36346.05
658.498	36207.07
658.849	36380.4
659.2	36277.58
659.551	36189.44
659.902	36369.33
660.253	36324.81
660.604	36317.8
660.955	36211.82
661.306	36374.52
661.656	36302.21
662.007	36235.32
662.358	36010.92
662.708	36121.65
663.059	36155.55
663.409	35997.13
663.76	36163
664.11	36205.71
664.461	36349.44
664.811	36208.88
665.161	36193.96
665.511	36049.33
665.862	36076.9
666.212	36292.04
666.562	36317.8
666.912	36209.56
667.262	36147.41
667.612	36238.93
667.962	36138.15
668.312	36091.82
668.662	36167.98
669.011	36089.56
669.361	36036
669.711	35969.79
670.06	35987.64
670.41	36026.96
670.76	35937.47
671.109	36060.86
671.459	35945.61
671.808	35920.98
672.157	36021.54
672.507	35648.22
672.856	35808.89
673.205	35925.5
673.554	36014.99
673.904	35824.71
674.253	36005.95
674.602	35875.1
674.951	35408.45
675.3	35263.14
675.649	35906.97
675.998	35801.21
676.346	35824.26
676.695	35802.79
677.044	35679.85
677.393	35593.98
677.741	35921.2
678.09	35619.52
678.438	35625.16
678.787	35729.79
679.135	35698.61
679.484	35351.73
679.832	35588.78
680.181	35313.99
680.529	35483.02
680.877	35348.11
681.225	35286.19
681.573	35511.95
681.922	35229.47
682.27	35143.37
682.618	35209.58
682.966	35056.59
683.314	35103.6
683.661	34950.61
684.009	34794.45
684.357	34889.82
684.705	34804.85
685.053	34773.21
685.4	34772.08
685.748	34543.61
686.095	34715.58
686.443	34438.76
686.79	34409.15
687.138	34380.68
687.485	34438.08
687.832	34243.28
688.18	34347.46
688.527	34242.15
688.874	34198.31
689.221	34059.33
689.568	34035.6
689.915	34005.09
690.262	33933.23
690.609	33857.98
690.956	33687.36
691.303	33761.03
691.65	33487.14
691.997	33571.66
692.344	33452.11
692.69	33398.1
693.037	33369.86
693.383	33068.62
693.73	33310.2
694.077	33121.28
694.423	33155.63
694.769	33010.32
695.116	32851
695.462	32892.36
695.808	32731.23
696.155	32870.44
696.501	32512.03
696.847	32557.68
697.193	32346.38
697.539	32549.09
697.885	32217.12
698.231	32255.99
698.577	32242.88
698.923	32020.06
699.269	31916.34
699.614	31766.51
699.96	31658.26
700.306	31851.03
700.651	31454.88
700.997	31504.6
701.342	31486.52
701.688	31349.35
702.033	31250.59
702.379	31255.11
702.724	31225.51
703.069	31240.65
703.415	30908.45
703.76	30848.12
704.105	30852.41
704.45	30755.91
704.795	30667.56
705.14	30585.07
705.485	30525.64
705.83	30510.05
706.175	30408.58
706.52	30430.5
706.865	30197.06
707.209	30244.29
707.554	30094.01
707.899	30225.53
708.243	29983.73
708.588	30063.05
708.932	29762.27
709.277	29865.77
709.621	29828.03
709.966	29629.16
710.31	29675.72
710.654	29512.11
710.998	29570.86
711.342	29345.33
711.687	29360.7
712.031	29249.29
712.375	29150.76
712.719	29274.6
713.063	29088.84
713.407	29235.73
713.75	29054.04
714.094	29074.38
714.438	28894.95
714.782	28909.86
715.125	28702.41
715.469	28792.12
715.812	28675.29
716.156	28497.22
716.499	28562.07
716.843	28643.43
717.186	28365.47
717.53	28527.95
717.873	28445.24
718.216	28310.78
718.559	28273.72
718.902	28096.1
719.246	28214.96
719.589	28162.31
719.932	27866.27
720.275	27968.42
720.617	27979.04
720.96	27867.4
721.303	27775.65
721.646	27833.51
721.989	27543.8
722.331	27757.58
722.674	27617.47
723.016	27687.75
723.359	27625.15
723.701	27649.1
724.044	27441.2
724.386	27415.66
724.729	27500.63
725.071	27436
725.413	27419.73
725.755	27450.24
726.097	27257.02
726.439	27135.9
726.782	27155.56
727.124	27228.55
727.465	27044.6
727.807	27036.92
728.149	27061.77
728.491	26899.07
728.833	26998.95
729.175	26811.61
729.516	26768.67
729.858	26728
730.199	26728.9
730.541	26674.89
730.882	26674.21
731.224	26820.65
731.565	26601.22
731.906	26663.14
732.248	26596.25
732.589	26346.31
732.93	26327.56
733.271	26402.36
733.612	26344.73
733.953	26328.91
734.294	26244.85
734.635	26189.71
734.976	26282.36
735.317	26168.24
735.658	26222.25
735.999	26093.44
736.339	26047.79
736.68	26190.38
737.021	26058.86
737.361	25977.51
737.702	26107.45
738.042	25894.35
738.383	25833.56
738.723	25867.91
739.063	25830.39
739.404	25913.33
739.744	25764.63
740.084	25597.18
740.424	25656.61
740.764	25639.66
741.104	25782.71
741.444	25638.31
741.784	25425.21
742.124	25513.11
742.464	25382.95
742.804	25415.72
743.143	25338.66
743.483	25379.33
743.823	25378.65
744.162	25309.96
744.502	25331.65
744.841	25149.51
745.181	25261.14
745.52	25127.14
745.86	25280.13
746.199	25092.33
746.538	25031.55
746.877	24991.32
747.216	25159.45
747.556	24963.98
747.895	25033.58
748.234	24852.57
748.573	24914.94
748.911	24728.73
749.25	24773.92
749.589	24799.69
749.928	24739.35
750.267	24711.33
750.605	24556.3
750.944	24504.33
751.283	24515.17
751.621	24508.17
751.96	24439.92
752.298	24325.8
752.636	24361.51
752.975	24224.33
753.313	24150.44
753.651	24429.98
753.989	24109.54
754.327	24095.3
754.666	23966.26
755.004	24044.45
755.342	24018.24
755.679	23946.15
756.017	23799.04
756.355	23949.99
756.693	23813.72
757.031	23828.64
757.368	23669.32
757.706	23620.96
758.044	23527.86
758.381	23564.24
758.719	23495.09
759.056	23525.14
759.394	23404.02
759.731	23345.94
760.068	23195.66
760.405	23147.98
760.743	23061.2
761.08	23121.99
761.417	23045.38
