Data from hue_10_FLMS001491_30.txt Node
Date: Mon Feb 06 15:31:40 GMT 2017
User: dcchb
Spectrometer: FLMS00149
Trigger mode: 0
Integration Time (sec): 2.000000E-2
Scans to average: 10
Electric dark correction enabled: true
Nonlinearity correction enabled: false
Boxcar width: 0
XAxis mode: Wavelengths
Number of Pixels in Spectrum: 2048
>>>>>Begin Spectral Data<<<<<
341.393	-22.7
341.776	-22.7
342.16	-22.7
342.543	-45.97
342.927	-84.39
343.31	-75.13
343.693	-71.06
344.077	-65.41
344.46	-49.14
344.843	-45.07
345.226	-35.13
345.61	-31.96
345.993	-32.41
346.376	-9.36
346.759	18.21
347.142	22.05
347.525	42.84
347.908	57.75
348.291	67.7
348.674	102.72
349.057	103.4
349.44	114.93
349.823	148.6
350.206	177.07
350.588	201.93
350.971	219.78
351.354	205.09
351.737	250.06
352.119	246.9
352.502	257.52
352.884	272.66
353.267	272.21
353.65	325.32
354.032	303.17
354.414	319.89
354.797	295.94
355.179	320.34
355.562	338.2
355.944	313.79
356.326	320.12
356.709	346.11
357.091	345.88
357.473	352.43
357.855	363.06
358.238	359.89
358.62	359.21
359.002	339.1
359.384	372.55
359.766	348.37
360.148	328.71
360.53	343.39
360.912	353.34
361.294	356.05
361.676	340.23
362.057	344.3
362.439	331.42
362.821	346.33
363.203	336.16
363.584	305.43
363.966	314.7
364.348	346.33
364.729	311.98
365.111	337.29
365.493	303.62
365.874	323.28
366.256	313.79
366.637	320.8
367.019	311.76
367.4	317.63
367.781	300.91
368.163	325.32
368.544	317.63
368.925	291.64
369.306	340.23
369.688	299.33
370.069	354.69
370.45	326.67
370.831	312.44
371.212	331.87
371.593	315.83
371.974	318.31
372.355	320.34
372.736	314.7
373.117	291.19
373.498	317.18
373.879	316.95
374.26	325.77
374.641	322.15
375.021	328.93
375.402	320.57
375.783	327.8
376.163	326.67
376.544	334.81
376.925	337.97
377.305	329.61
377.686	354.69
378.066	305.66
378.447	340.91
378.827	351.08
379.208	342.94
379.588	308.37
379.968	337.07
380.349	331.64
380.729	322.83
381.109	339.1
381.489	342.04
381.87	324.41
382.25	329.84
382.63	326.9
383.01	326.67
383.39	354.47
383.77	344.07
384.15	341.81
384.53	361.47
384.91	330.51
385.29	336.84
385.67	348.59
386.049	334.36
386.429	336.84
386.809	355.6
387.189	358.31
387.568	363.96
387.948	351.08
388.328	361.02
388.707	367.35
389.087	352.43
389.466	375.26
389.846	344.75
390.225	372.55
390.605	367.12
390.984	363.06
391.363	357.41
391.743	369.83
392.122	369.61
392.501	379.78
392.881	360.8
393.26	368.7
393.639	378.2
394.018	397.86
394.397	396.05
394.776	351.53
395.155	391.08
395.534	365.09
395.913	383.17
396.292	382.72
396.671	374.58
397.05	400.57
397.429	374.13
397.808	397.4
398.186	393.11
398.565	383.39
398.944	386.78
399.323	374.81
399.701	393.34
400.08	404.41
400.458	382.94
400.837	380.68
401.215	405.77
401.594	412.09
401.972	383.39
402.351	400.34
402.729	389.72
403.107	396.73
403.486	408.93
403.864	405.99
404.242	424.75
404.62	401.47
404.999	397.18
405.377	394.69
405.755	403.05
406.133	400.57
406.511	412.77
406.889	426.33
407.267	433.11
407.645	415.03
408.023	420.23
408.401	440.57
408.779	426.56
409.156	423.39
409.534	439.66
409.912	444.86
410.29	447.8
410.667	442.38
411.045	472.43
411.422	462.94
411.8	450.51
412.178	448.25
412.555	462.71
412.933	478.31
413.31	456.16
413.687	457.06
414.065	474.69
414.442	471.98
414.819	476.72
415.197	452.54
415.574	484.41
415.951	486.22
416.328	490.96
416.705	486.44
417.082	490.06
417.46	481.24
417.837	498.42
418.214	501.81
418.591	503.84
418.967	493.45
419.344	492.54
419.721	503.62
420.098	496.16
420.475	509.04
420.852	507.68
421.228	521.7
421.605	497.29
421.982	514.01
422.358	502.03
422.735	524.18
423.111	506.78
423.488	506.1
423.864	524.86
424.241	532.77
424.617	548.59
424.994	540.68
425.37	536.61
425.746	540.68
426.123	560.11
426.499	553.11
426.875	558.08
427.251	546.78
427.627	559.21
428.003	578.64
428.379	568.47
428.756	584.52
429.132	581.13
429.507	567.8
429.883	590.17
430.259	594.24
430.635	604.86
431.011	607.12
431.387	613.22
431.763	612.31
432.138	582.71
432.514	597.63
432.89	626.33
433.265	630.84
433.641	639.66
434.016	629.26
434.392	638.08
434.767	641.47
435.143	656.38
435.518	660.9
435.894	664.06
436.269	642.82
436.644	663.84
437.02	675.14
437.395	679.43
437.77	689.83
438.145	707.91
438.52	699.09
438.895	702.26
439.271	680.79
439.646	703.61
440.021	713.78
440.395	706.78
440.77	724.18
441.145	740.22
441.52	744.51
441.895	721.24
442.27	726.89
442.645	742.93
443.019	736.15
443.394	729.83
443.769	764.85
444.143	726.66
444.518	764.17
444.892	733.67
445.267	754.91
445.641	744.29
446.016	775.7
446.39	782.93
446.764	776.6
447.139	769.37
447.513	770.95
447.887	798.52
448.262	808.24
448.636	797.85
449.01	793.33
449.384	819.09
449.758	797.39
450.132	835.36
450.506	810.95
450.88	836.26
451.254	811.63
451.628	812.31
452.002	835.81
452.376	854.57
452.75	839.65
453.123	865.87
453.497	854.79
453.871	867.67
454.244	871.29
454.618	884.4
454.992	912.19
455.365	878.97
455.739	932.98
456.112	934.34
456.486	924.62
456.859	897.28
457.232	955.58
457.606	913.78
457.979	938.63
458.352	973.89
458.725	980.67
459.099	977.95
459.472	989.93
459.845	991.97
460.218	999.2
460.591	1000.1
460.964	994
461.337	1034.68
461.71	1034.22
462.083	1053.43
462.456	1059.76
462.829	1061.79
463.201	1088.91
463.574	1074.22
463.947	1093.43
464.32	1112.64
464.692	1125.75
465.065	1132.98
465.438	1148.35
465.81	1146.99
466.183	1131.85
466.555	1200.1
466.928	1200.32
467.3	1205.75
467.672	1228.57
468.045	1259.98
468.417	1236.48
468.789	1250.72
469.161	1268.34
469.534	1304.5
469.906	1308.12
470.278	1309.92
470.65	1332.52
471.022	1357.61
471.394	1361.45
471.766	1375.68
472.138	1419.52
472.51	1431.95
472.882	1435.34
473.253	1492.52
473.625	1518.51
473.997	1551.5
474.369	1554.89
474.74	1559.41
475.112	1599.86
475.484	1606.41
475.855	1638.73
476.227	1668.56
476.598	1696.58
476.97	1749.91
477.341	1740.19
477.713	1765.05
478.084	1780.19
478.455	1853.41
478.827	1867.42
479.198	1902
479.569	1938.38
479.94	1970.24
480.311	2017.93
480.682	2044.14
481.053	2101.99
481.424	2123.01
481.795	2162.33
482.166	2202.78
482.537	2223.57
482.908	2281.65
483.279	2299.95
483.65	2354.19
484.021	2421.31
484.391	2413.85
484.762	2471.02
485.133	2474.41
485.503	2549.66
485.874	2628.31
486.244	2618.59
486.615	2646.39
486.985	2700.62
487.356	2738.13
487.726	2770.45
488.097	2855.65
488.467	2875.53
488.837	2914.17
489.207	2988.52
489.578	3010.67
489.948	3075.75
490.318	3104
490.688	3153.04
491.058	3147.84
491.428	3201.17
491.798	3245.92
492.168	3309.19
492.538	3394.16
492.908	3408.85
493.278	3458.12
493.648	3469.87
494.017	3503.09
494.387	3565.01
494.757	3571.33
495.126	3579.47
495.496	3632.12
495.866	3625.79
496.235	3732.68
496.605	3726.81
496.974	3772.46
497.344	3809.52
497.713	3828.05
498.082	3836.41
498.452	3914.6
498.821	3974.94
499.19	3941.72
499.559	3972.68
499.928	4024.43
500.298	4047.7
500.667	4090.19
501.036	4062.85
501.405	4075.5
501.774	4098.1
502.143	4178.55
502.512	4164.54
502.88	4205.67
503.249	4233.46
503.618	4268.04
503.987	4285.21
504.356	4251.99
504.724	4266.68
505.093	4320.01
505.462	4354.59
505.83	4439.56
506.199	4451.99
506.567	4437.07
506.936	4467.58
507.304	4484.3
507.672	4480.91
508.041	4509.39
508.409	4569.95
508.777	4544.41
509.145	4561.14
509.514	4623.73
509.882	4615.6
510.25	4646.11
510.618	4668.7
510.986	4692.21
511.354	4715.48
511.722	4760
512.09	4753.67
512.458	4794.35
512.826	4760.91
513.193	4807.46
513.561	4865.31
513.929	4889.94
514.297	4910.51
514.664	4891.75
515.032	4897.4
515.4	4923.84
515.767	4926.33
516.135	5011.07
516.502	4939.21
516.869	5009.26
517.237	5039.99
517.604	5016.27
517.972	5037.73
518.339	5065.08
518.706	5097.39
519.073	5053.1
519.44	5152.99
519.808	5174
520.175	5151.86
520.542	5195.92
520.909	5183.49
521.276	5230.5
521.643	5250.84
522.009	5287.22
522.376	5302.36
522.743	5359.53
523.11	5361.34
523.477	5403.83
523.843	5462.58
524.21	5467.55
524.577	5489.93
524.943	5497.38
525.31	5498.06
525.676	5576.93
526.043	5589.36
526.409	5592.3
526.776	5678.62
527.142	5677.49
527.508	5709.36
527.874	5775.79
528.241	5710.26
528.607	5786.87
528.973	5799.07
529.339	5804.95
529.705	5845.4
530.071	5920.88
530.437	5885.85
530.803	5930.37
531.169	6021.89
531.535	6026.64
531.901	6016.47
532.267	6035
532.632	6047.43
532.998	6063.92
533.364	6125.62
533.73	6101.66
534.095	6141.43
534.461	6193.86
534.826	6232.05
535.192	6187.31
535.557	6302.11
535.923	6297.59
536.288	6336.68
536.653	6315.44
537.019	6302.79
537.384	6353.41
537.749	6419.39
538.114	6427.08
538.479	6446.74
538.845	6485.15
539.21	6493.06
539.575	6515.66
539.94	6577.58
540.305	6562.89
540.67	6630.24
541.034	6625.72
541.399	6637.24
541.764	6724.24
542.129	6684.25
542.494	6740.97
542.858	6771.02
543.223	6770.12
543.587	6844.69
543.952	6783.9
544.316	6873.62
544.681	6877.23
545.045	6888.53
545.41	6933.05
545.774	6985.93
546.138	6929.89
546.503	7025.48
546.867	7006.95
547.231	7114.74
547.595	7024.12
547.959	7109.54
548.324	7147.96
548.688	7129.43
549.052	7178.7
549.416	7231.58
549.779	7211.91
550.143	7270.44
550.507	7290.78
550.871	7331.46
551.235	7358.8
551.599	7444.9
551.962	7413.72
552.326	7433.83
552.689	7444.68
553.053	7415.53
553.417	7443.1
553.78	7557.44
554.143	7559.7
554.507	7561.96
554.87	7505.01
555.234	7631.79
555.597	7583.43
555.96	7648.51
556.323	7650.55
556.686	7721.28
557.05	7747.95
557.413	7754.73
557.776	7832.24
558.139	7828.4
558.502	7854.61
558.865	7770.77
559.228	7909.98
559.59	7902.07
559.953	7922.4
560.316	8039.01
560.679	7960.14
561.041	8007.37
561.404	8105.68
561.767	8076.3
562.129	8076.07
562.492	8209.85
562.854	8179.57
563.217	8170.76
563.579	8222.28
563.941	8258.89
564.304	8225.9
564.666	8319.68
565.028	8318.78
565.39	8391.77
565.753	8343.41
566.115	8405.56
566.477	8423.18
566.839	8456.63
567.201	8497.98
567.563	8541.6
567.925	8539.11
568.287	8554.03
568.648	8638.54
569.01	8676.74
569.372	8720.35
569.734	8714.7
570.095	8770.29
570.457	8809.84
570.819	8789.5
571.18	8816.62
571.542	8940.46
571.903	8943.62
572.265	9000.34
572.626	9057.97
572.987	9076.5
573.349	9122.83
573.71	9153.78
574.071	9243.5
574.432	9333.67
574.794	9308.36
575.155	9382.48
575.516	9441.91
575.877	9558.75
576.238	9600.1
576.599	9695.69
576.96	9785.18
577.32	9808
577.681	9906.76
578.042	9922.35
578.403	10083.7
578.763	10188.79
579.124	10236.24
579.485	10397.82
579.845	10460.64
580.206	10581.09
580.566	10706.06
580.927	10796.45
581.287	10988.09
581.648	11051.81
582.008	11253.62
582.368	11347.63
582.728	11471.24
583.089	11598.92
583.449	11780.16
583.809	11990.55
584.169	12181.95
584.529	12398.45
584.889	12666.69
585.249	12712.79
585.609	12882.73
585.969	13249.5
586.329	13403.39
586.688	13694.91
587.048	13875.47
587.408	14065.07
587.768	14324.27
588.127	14540.99
588.487	14759.29
588.846	15169.67
589.206	15291.93
589.565	15604.01
589.925	15994.73
590.284	16158.8
590.643	16484.89
591.003	16811.21
591.362	17153.8
591.721	17440.35
592.08	17779.77
592.44	18131.85
592.799	18306.31
593.158	18638.28
593.517	18990.81
593.876	19350.58
594.235	19612.49
594.593	20039.15
594.952	20353.72
595.311	20693.59
595.67	20979.01
596.029	21525.44
596.387	21870.96
596.746	22159.09
597.104	22295.59
597.463	22744.16
597.822	23227.09
598.18	23371.94
598.538	23733.97
598.897	24180.28
599.255	24258.47
599.613	24998.57
599.972	25055.51
600.33	25541.83
600.688	25786.34
601.046	26238.53
601.404	26582.03
601.762	26974.33
602.12	27369.8
602.478	27531.15
602.836	27883.24
603.194	28014.53
603.552	28537.68
603.91	28750.56
604.268	29282.75
604.625	29363.2
604.983	29783.52
605.341	29910.53
605.698	30395.03
606.056	30543.5
606.413	30995.7
606.771	31308
607.128	31568.11
607.485	31713.87
607.843	32026.86
608.2	32512.27
608.557	32739.38
608.914	32903.67
609.272	33315.41
609.629	33619.13
609.986	33986.8
610.343	34054.6
610.7	34636.28
611.057	34724.64
611.414	34874.46
611.771	35127.57
612.127	35349.93
612.484	35492.98
612.841	35874.44
613.198	36036.02
613.554	36283.24
613.911	36579.05
614.267	36834.64
614.624	36968.87
614.98	37160.05
615.337	37550.1
615.693	37625.35
616.05	37815.86
616.406	38066.24
616.762	38162.51
617.118	38340.14
617.475	38547.36
617.831	38713.69
618.187	38782.38
618.543	39101.02
618.899	39385.31
619.255	39406.32
619.611	39582.59
619.967	39720.21
620.323	39928.12
620.678	40059.64
621.034	40090.6
621.39	40159.07
621.746	40288.56
622.101	40874.76
622.457	40630.7
622.812	40766.96
623.168	41013.06
623.523	41171.93
623.879	41331.24
624.234	41110.23
624.589	41460.28
624.945	41463.22
625.3	41824.11
625.655	41792.47
626.01	41724.68
626.365	41902.08
626.72	41901.62
627.075	41999.47
627.43	42087.16
627.785	41998.8
628.14	42299.13
628.495	42270.2
628.85	42398.56
629.205	42263.2
629.559	42511.55
629.914	42365.79
630.269	42479.46
630.623	42433.81
630.978	42368.96
631.332	42542.29
631.687	42676.97
632.041	42673.58
632.396	42777.53
632.75	42657.31
633.104	42856.85
633.459	42681.72
633.813	42782.28
634.167	42767.36
634.521	42744.31
634.875	42943.86
635.229	42841.49
635.583	42743.64
635.937	42813.24
636.291	42746.35
636.645	42916.96
636.999	42763.3
637.352	42876.06
637.706	42792.22
638.06	42861.82
638.413	42853.46
638.767	42628.38
639.121	42959.22
639.474	42624.77
639.828	42697.54
640.181	42837.87
640.534	42811.66
640.888	42665.67
641.241	42540.7
641.594	42802.62
641.947	42792
642.301	42702.28
642.654	42741.6
643.007	42842.16
643.36	42709.06
643.713	42693.92
644.066	42798.1
644.419	42506.13
644.771	42352.46
645.124	41996.99
645.477	41910.21
645.83	41741.18
646.182	41719.03
646.535	41451.69
646.888	41555.64
647.24	41319.94
647.593	41730.78
647.945	41510
648.298	41238.82
648.65	41286.73
649.002	41163.79
649.355	41324.46
649.707	41317.91
650.059	41430
650.411	42047.61
650.763	42140.26
651.115	42423.64
651.467	42387.71
651.819	42251.67
652.171	42170.09
652.523	42122.86
652.875	42037.89
653.227	41943.43
653.578	42319.01
653.93	42208.51
654.282	41981.4
654.633	41963.32
654.985	42014.62
655.337	41970.1
655.688	42038.57
656.039	42131.45
656.391	41838.58
656.742	42014.62
657.094	42066.82
657.445	42053.94
657.796	42074.28
658.147	41884
658.498	41904.11
658.849	41944.33
659.2	41887.84
659.551	41764.45
659.902	42035.86
660.253	41899.36
660.604	41910.66
660.955	41826.37
661.306	42057.55
661.656	41888.74
662.007	41902.98
662.358	41704.12
662.708	41943.66
663.059	41926.03
663.409	41620.73
663.76	41876.09
664.11	41900.72
664.461	41889.42
664.811	41838.8
665.161	41790.21
665.511	41786.37
665.862	41777.56
666.212	42007.61
666.562	41778.92
666.912	41835.41
667.262	41852.81
667.612	41734.62
667.962	41983.66
668.312	41768.07
668.662	41879.25
669.011	41773.72
669.361	41756.32
669.711	41657.79
670.06	41545.93
670.41	41600.84
670.76	41576.21
671.109	41644.68
671.459	41663.66
671.808	41582.54
672.157	41660.95
672.507	41385.25
672.856	41503.67
673.205	41429.32
673.554	41618.92
673.904	41407.17
674.253	41688.52
674.602	41557.68
674.951	40929.22
675.3	40881.09
675.649	41295.09
675.998	41298.93
676.346	41341.19
676.695	41433.16
677.044	41073.62
677.393	41307.74
677.741	41305.03
678.09	41200.17
678.438	41108.65
678.787	41197.69
679.135	41125.6
679.484	40927.19
679.832	41131.02
680.181	40950.69
680.529	41045.83
680.877	40864.59
681.225	40802.44
681.573	40983.91
681.922	40799.96
682.27	40632.28
682.618	40609.23
682.966	40490.36
683.314	40586.4
683.661	40567.42
684.009	40358.61
684.357	40315.9
684.705	40251.72
685.053	40368.56
685.4	40242.23
685.748	40040.88
686.095	40037.94
686.443	39863.94
686.79	40007.44
687.138	39877.95
687.485	39971.51
687.832	39813.09
688.18	39806.09
688.527	39649.25
688.874	39639.99
689.221	39586.2
689.568	39436.6
689.915	39386.21
690.262	39297.4
690.609	39235.03
690.956	39084.3
691.303	38982.6
691.65	38908.48
691.997	39008.37
692.344	38673.01
692.69	38639.79
693.037	38564.76
693.383	38312.34
693.73	38417.2
694.077	38175.62
694.423	38306.24
694.769	38165.68
695.116	38001.61
695.462	37969.52
695.808	37880.49
696.155	38019.69
696.501	37614.73
696.847	37564.34
697.193	37407.05
697.539	37511.46
697.885	37216.1
698.231	37101.75
698.577	37071.47
698.923	37127.74
699.269	36866.95
699.614	36702.21
699.96	36782.21
700.306	36802.78
700.651	36544.7
700.997	36416.57
701.342	36414.99
701.688	36319.85
702.033	36374.31
702.379	36223.36
702.724	36090.7
703.069	36196.01
703.415	35766.64
703.76	35965.96
704.105	35706.98
704.45	35720.32
704.795	35474
705.14	35516.93
705.485	35373.66
705.83	35208.24
706.175	35283.27
706.52	35187
706.865	34951.98
707.209	34966.21
707.554	34854.35
707.899	34904.29
708.243	34862.49
708.588	34776.84
708.932	34395.38
709.277	34556.05
709.621	34529.39
709.966	34220.02
710.31	34417.53
710.654	34021.83
710.998	34287.14
711.342	34190.64
711.687	34068.61
712.031	33896.19
712.375	33799.46
712.719	33991.1
713.063	33728.28
713.407	33758.56
713.75	33677.21
714.094	33557.44
714.438	33468.4
714.782	33529.64
715.125	33322.87
715.469	33416.65
715.812	33206.94
716.156	32980.5
716.499	33031.35
716.843	33032.7
717.186	32886.95
717.53	33041.74
717.873	32959.71
718.216	32931.01
718.559	32718.81
718.902	32593.85
719.246	32644.24
719.589	32364.25
719.932	32492.38
720.275	32392.5
720.617	32409.67
720.96	32303.46
721.303	32280.86
721.646	32295.55
721.989	32116.12
722.331	32131.71
722.674	32097.59
723.016	32073.41
723.359	32075.89
723.701	32044.48
724.044	31742.57
724.386	31722.68
724.729	31933.07
725.071	31764.94
725.413	31781.44
725.755	31645.4
726.097	31592.06
726.439	31297.84
726.782	31538.28
727.124	31495.34
727.465	31378.29
727.807	31389.81
728.149	31254.9
728.491	31236.59
728.833	31175.13
729.175	31089.48
729.516	31012.19
729.858	31087.45
730.199	31134.45
730.541	30948.92
730.882	30927.22
731.224	30986.88
731.565	30772.43
731.906	30846.77
732.248	30785.31
732.589	30684.52
732.93	30603.39
733.271	30590.96
733.612	30621.69
733.953	30584.41
734.294	30466.9
734.635	30564.52
734.976	30435.26
735.317	30300.35
735.658	30345.77
735.999	30297.64
736.339	30178.09
736.68	30234.13
737.021	30273.23
737.361	30048.83
737.702	30175.15
738.042	29950.3
738.383	29995.72
738.723	30114.14
739.063	29946.01
739.404	29978.32
739.744	29862.17
740.084	29786.91
740.424	29795.5
740.764	29684.54
741.104	29772.23
741.444	29648.39
741.784	29536.53
742.124	29695.17
742.464	29512.8
742.804	29467.83
743.143	29421.5
743.483	29440.71
743.823	29379.24
744.162	29369.98
744.502	29376.3
744.841	29163.43
745.181	29311.9
745.52	29229.19
745.86	29207.49
746.199	29134.5
746.538	29085.92
746.877	29143.77
747.216	29140.15
747.556	28947.84
747.895	28894.28
748.234	28853.83
748.573	28788.52
748.911	28753.27
749.25	28798.92
749.589	28670.56
749.928	28708.75
750.267	28732.25
750.605	28475.31
750.944	28537.23
751.283	28441.64
751.621	28595.76
751.96	28306.28
752.298	28354.18
752.636	28309.89
752.975	28266.5
753.313	28067.19
753.651	28073.97
753.989	28082.78
754.327	28066.51
754.666	27864.71
755.004	28084.81
755.342	28014.08
755.679	27820.41
756.017	27819.96
756.355	27736.12
756.693	27609.8
757.031	27757.36
757.368	27509.46
757.706	27515.34
758.044	27383.59
758.381	27566.41
758.719	27380.88
759.056	27298.84
759.394	27280.09
759.731	27167.32
760.068	27111.28
760.405	26961.45
760.743	26935.69
761.08	27012.98
