Data from hue_300_FLMS001491_00032.txt Node
Date: Tue Feb 07 15:50:38 GMT 2017
User: dcchb
Spectrometer: FLMS00149
Trigger mode: 0
Integration Time (sec): 2.000000E-2
Scans to average: 10
Electric dark correction enabled: true
Nonlinearity correction enabled: false
Boxcar width: 0
XAxis mode: Wavelengths
Number of Pixels in Spectrum: 2048
>>>>>Begin Spectral Data<<<<<
341.393	0.28
341.776	0.28
342.16	0.28
342.543	-70.68
342.927	-58.93
343.31	-60.05
343.693	-79.26
344.077	-72.48
344.46	-53.95
344.843	-51.92
345.226	-52.6
345.61	-21.64
345.993	-20.51
346.376	-0.4
346.759	21.52
347.142	20.62
347.525	54.97
347.908	55.42
348.291	69.89
348.674	85.48
349.057	104.91
349.44	99.26
349.823	138.13
350.206	157.79
350.588	194.18
350.971	208.19
351.354	226.04
351.737	243.21
352.119	264.23
352.502	269.65
352.884	274.85
353.267	280.73
353.65	292.7
354.032	288.86
354.414	309.65
354.797	301.52
355.179	309.65
355.562	327.96
355.944	308.3
356.326	314.85
356.709	326.15
357.091	321.4
357.473	335.41
357.855	358.24
358.238	358.92
358.62	340.61
359.002	326.6
359.384	330.67
359.766	341.06
360.148	337.22
360.53	329.31
360.912	323.21
361.294	316.21
361.676	325.47
362.057	329.77
362.439	350.1
362.821	294.06
363.203	325.02
363.584	295.87
363.966	306.94
364.348	326.15
364.729	316.43
365.111	319.82
365.493	308.52
365.874	315.98
366.256	304
366.637	289.09
367.019	306.49
367.4	308.07
367.781	315.53
368.163	299.03
368.544	297.45
368.925	309.88
369.306	331.8
369.688	306.49
370.069	311.01
370.45	311.91
370.831	318.01
371.212	308.3
371.593	325.92
371.974	297.68
372.355	306.49
372.736	308.3
373.117	306.49
373.498	301.97
373.879	305.36
374.26	300.84
374.641	316.21
375.021	308.07
375.402	313.95
375.783	326.6
376.163	323.21
376.544	319.14
376.925	347.62
377.305	322.31
377.686	297.9
378.066	311.69
378.447	327.73
378.827	337.9
379.208	313.72
379.588	333.38
379.968	318.01
380.349	319.82
380.729	336.09
381.109	322.99
381.489	344
381.87	332.48
382.25	344.45
382.63	318.69
383.01	347.62
383.39	327.05
383.77	345.13
384.15	350.1
384.53	338.58
384.91	339.48
385.29	329.99
385.67	343.32
386.049	335.64
386.429	347.62
386.809	349.65
387.189	349.43
387.568	356.21
387.948	340.39
388.328	351.91
388.707	345.36
389.087	349.65
389.466	351.91
389.846	358.92
390.225	353.27
390.605	345.81
390.984	369.99
391.363	355.3
391.743	372.93
392.122	355.3
392.501	374.74
392.881	375.64
393.26	369.31
393.639	371.12
394.018	367.96
394.397	357.11
394.776	352.82
395.155	379.03
395.534	377
395.913	377.67
396.292	398.69
396.671	369.76
397.05	372.25
397.429	385.13
397.808	395.75
398.186	395.3
398.565	376.77
398.944	397.33
399.323	397.33
399.701	386.94
400.08	390.78
400.458	405.02
400.837	420.61
401.215	386.26
401.594	386.26
401.972	421.51
402.351	424.68
402.729	401.18
403.107	417.22
403.486	422.19
403.864	396.2
404.242	415.19
404.62	446.6
404.999	421.97
405.377	453.6
405.755	444.11
406.133	434.85
406.511	448.18
406.889	437.56
407.267	475.07
407.645	485.92
408.023	484.56
408.401	472.81
408.779	458.12
409.156	481.4
409.534	498.35
409.912	494.96
410.29	506.94
410.667	504.22
411.045	530.89
411.422	517.11
411.8	514.85
412.178	536.31
412.555	536.09
412.933	537.22
413.31	565.69
413.687	556.65
414.065	563.21
414.442	601.17
414.819	588.29
415.197	588.52
415.574	605.01
415.951	594.84
416.328	623.54
416.705	632.13
417.082	643.2
417.46	652.92
417.837	656.31
418.214	665.35
418.591	662.64
418.967	665.12
419.344	671.68
419.721	697.89
420.098	674.84
420.475	698.12
420.852	722.07
421.228	729.08
421.605	731.11
421.982	724.56
422.358	719.59
422.735	747.61
423.111	732.92
423.488	766.82
423.864	764.33
424.241	815.4
424.617	772.92
424.994	795.74
425.37	797.55
425.746	803.43
426.123	830.77
426.499	841.84
426.875	868.28
427.251	858.34
427.627	853.59
428.003	888.39
428.379	884.1
428.756	894.04
429.132	905.8
429.507	919.13
429.883	930.88
430.259	932.46
430.635	942.18
431.011	973.14
431.387	957.77
431.763	982.18
432.138	974.72
432.514	1001.16
432.89	1026.47
433.265	1038.22
433.641	1041.84
434.016	1058.56
434.392	1046.81
434.767	1089.07
435.143	1066.24
435.518	1091.78
435.894	1095.85
436.269	1101.5
436.644	1114.38
437.02	1138.56
437.395	1137.2
437.77	1164.32
438.145	1171.1
438.52	1172.23
438.895	1183.53
439.271	1174.71
439.646	1232.79
440.021	1236.18
440.395	1230.31
440.77	1219.69
441.145	1218.33
441.52	1260.14
441.895	1228.72
442.27	1269.4
442.645	1238.67
443.019	1283.19
443.394	1268.05
443.769	1308.95
444.143	1293.36
444.518	1307.37
444.892	1288.84
445.267	1284.54
445.641	1309.17
446.016	1305.78
446.39	1331.32
446.764	1303.07
447.139	1335.61
447.513	1348.04
447.887	1349.4
448.262	1322.06
448.636	1339.46
449.01	1368.83
449.384	1373.58
449.758	1392.79
450.132	1368.83
450.506	1368.83
450.88	1393.47
451.254	1374.94
451.628	1398.66
452.002	1383.52
452.376	1398.89
452.75	1397.76
453.123	1430.53
453.497	1462.62
453.871	1426.23
454.244	1456.29
454.618	1445.89
454.992	1475.72
455.365	1464.65
455.739	1471.88
456.112	1495.61
456.486	1539.23
456.859	1523.86
457.232	1567.25
457.606	1530.19
457.979	1564.08
458.352	1563.18
458.725	1569.28
459.099	1578.77
459.472	1602.73
459.845	1627.36
460.218	1624.19
460.591	1626.45
460.964	1634.14
461.337	1662.61
461.71	1673.01
462.083	1682.95
462.456	1703.29
462.829	1705.55
463.201	1696.74
463.574	1688.6
463.947	1737.86
464.32	1765.66
464.692	1763.4
465.065	1753.91
465.438	1776.28
465.81	1799.11
466.183	1808.6
466.555	1868.71
466.928	1850.4
467.3	1849.05
467.672	1877.52
468.045	1877.52
468.417	1939.89
468.789	1905.09
469.161	1909.38
469.534	1920.68
469.906	1980.8
470.278	1969.04
470.65	1992.09
471.022	2001.13
471.394	2041.13
471.766	2058.31
472.138	2065.54
472.51	2128.36
472.882	2097.18
473.253	2121.58
473.625	2141.92
473.997	2191.86
474.369	2171.07
474.74	2207
475.112	2202.94
475.484	2261.24
475.855	2274.8
476.227	2259.66
476.598	2323.84
476.97	2341.01
477.341	2360.22
477.713	2380.56
478.084	2398.19
478.455	2470.73
478.827	2442.25
479.198	2547.11
479.569	2509.37
479.94	2540.1
480.311	2588.01
480.682	2616.71
481.053	2655.13
481.424	2650.61
481.795	2647.9
482.166	2750.72
482.537	2724.96
482.908	2793.43
483.279	2786.42
483.65	2766.54
484.021	2835.46
484.391	2890.83
484.762	2879.98
485.133	2904.84
485.503	2950.04
485.874	2963.14
486.244	2962.24
486.615	3020.09
486.985	3075.68
487.356	3096.47
487.726	3096.02
488.097	3160.2
488.467	3154.32
488.837	3219.41
489.207	3204.49
489.578	3275.45
489.948	3272.51
490.318	3331.49
490.688	3265.06
491.058	3316.35
491.428	3392.74
491.798	3398.61
492.168	3430.7
492.538	3442.45
492.908	3489
493.278	3488.78
493.648	3563.13
494.017	3508.44
494.387	3571.71
494.757	3558.61
495.126	3576.69
495.496	3578.95
495.866	3621.43
496.235	3671.15
496.605	3656.68
496.974	3678.38
497.344	3757.02
497.713	3651.71
498.082	3733.74
498.452	3715.89
498.821	3818.04
499.19	3755.21
499.559	3785.27
499.928	3815.55
500.298	3813.97
500.667	3851.03
501.036	3855.55
501.405	3890.58
501.774	3870.92
502.143	3909.78
502.512	3897.81
502.88	3955.88
503.249	3929.67
503.618	3938.26
503.987	3951.82
504.356	3971.7
504.724	4013.74
505.093	4019.61
505.462	3949.56
505.83	4038.59
506.199	4036.11
506.567	4030.01
506.936	4086.5
507.304	4081.31
507.672	4094.41
508.041	4137.35
508.409	4131.7
508.777	4157.24
509.145	4140.51
509.514	4173.05
509.882	4159.27
510.25	4181.42
510.618	4182.32
510.986	4222.09
511.354	4231.13
511.722	4263
512.09	4330.11
512.458	4285.37
512.826	4315.2
513.193	4302.99
513.561	4325.14
513.929	4340.51
514.297	4341.19
514.664	4335.99
515.032	4408.75
515.4	4413.27
515.767	4417.57
516.135	4394.97
516.502	4332.6
516.869	4463.89
517.237	4419.6
517.604	4474.97
517.972	4455.98
518.339	4437
518.706	4498.02
519.073	4463.89
519.44	4493.72
519.808	4509.77
520.175	4514.06
520.542	4527.62
520.909	4568.07
521.276	4569.2
521.643	4580.05
522.009	4650.56
522.376	4597.45
522.743	4629.77
523.11	4681.74
523.477	4724.9
523.843	4692.36
524.21	4782.76
524.577	4825.69
524.943	4761.51
525.31	4799.03
525.676	4833.15
526.043	4835.64
526.409	4843.77
526.776	4869.31
527.142	4886.71
527.508	4917.89
527.874	4955.18
528.241	5038.34
528.607	4929.87
528.973	5043.77
529.339	5008.96
529.705	5064.56
530.071	5071.56
530.437	5106.36
530.803	5137.32
531.169	5107.49
531.535	5177.55
531.901	5175.06
532.267	5201.28
532.632	5218.68
532.998	5260.71
533.364	5265.68
533.73	5249.64
534.095	5316.75
534.461	5275.17
534.826	5365.11
535.192	5363.76
535.557	5406.24
535.923	5408.95
536.288	5443.98
536.653	5477.43
537.019	5425.68
537.384	5460.03
537.749	5493.47
538.114	5508.16
538.479	5523.53
538.845	5572.11
539.21	5538.89
539.575	5589.51
539.94	5614.82
540.305	5624.77
540.67	5637.2
541.034	5691.66
541.399	5668.16
541.764	5736.4
542.129	5717.19
542.494	5758.32
542.858	5768.94
543.223	5795.84
543.587	5820.24
543.952	5795.84
544.316	5856.63
544.681	5901.82
545.045	5925.1
545.41	5971.42
545.774	5974.59
546.138	5954.25
546.503	5989.5
546.867	6015.94
547.231	6067.92
547.595	6062.04
547.959	6106.56
548.324	6100.46
548.688	6127.8
549.052	6150.18
549.416	6138.88
549.779	6196.05
550.143	6166.67
550.507	6266.56
550.871	6271.3
551.235	6262.26
551.599	6278.99
551.962	6281.02
552.326	6292.77
552.689	6344.3
553.053	6302.49
553.417	6314.69
553.78	6429.04
554.143	6397.63
554.507	6430.4
554.87	6447.8
555.234	6480.79
555.597	6464.97
555.96	6488.93
556.323	6484.18
556.686	6511.07
557.05	6573.89
557.413	6549.26
557.776	6502.71
558.139	6636.27
558.502	6594.69
558.865	6653.89
559.228	6688.69
559.59	6690.5
559.953	6723.5
560.316	6735.25
560.679	6749.26
561.041	6801.23
561.404	6831.52
561.767	6827.45
562.129	6841.46
562.492	6893.21
562.854	6886.2
563.217	6861.57
563.579	6910.61
563.941	6930.72
564.304	6963.94
564.666	6962.81
565.028	7020.21
565.39	7061.34
565.753	7045.75
566.115	7119.64
566.477	7132.98
566.839	7118.06
567.201	7146.31
567.563	7126.87
567.925	7194.22
568.287	7183.82
568.648	7225.4
569.01	7277.83
569.372	7317.15
569.734	7329.81
570.095	7401.67
570.457	7497.71
570.819	7429.69
571.18	7475.57
571.542	7490.03
571.903	7541.1
572.265	7598.5
572.626	7576.35
572.987	7634.88
573.349	7746.75
573.71	7767.54
574.071	7788.55
574.432	7838.95
574.794	7944.93
575.155	7990.58
575.516	7934.76
575.877	8037.81
576.238	8156.45
576.599	8236
576.96	8259.5
577.32	8366.16
577.681	8461.08
578.042	8525.26
578.403	8552.6
578.763	8721.86
579.124	8741.07
579.485	8892.25
579.845	9019.03
580.206	9076.2
580.566	9144.45
580.927	9297.44
581.287	9505.57
581.648	9532.69
582.008	9711.21
582.368	9812
582.728	9974.03
583.089	10130.19
583.449	10267.58
583.809	10443.62
584.169	10629.61
584.529	10766.78
584.889	11043.83
585.249	11169.71
585.609	11303.49
585.969	11541.67
586.329	11724.49
586.688	11990.93
587.048	12222.11
587.408	12430.92
587.768	12731.02
588.127	12942.99
588.487	13081.07
588.846	13415.07
589.206	13538.46
589.565	13795.17
589.925	14161.49
590.284	14312.22
590.643	14613.91
591.003	14933.22
591.362	15154.23
591.721	15440.78
592.08	15799.64
592.44	16059.75
592.799	16325.28
593.158	16607.3
593.517	16854.3
593.876	17054.98
594.235	17480.27
594.593	17734.05
594.952	18018.11
595.311	18319.35
595.67	18593.47
596.029	19027.58
596.387	19276.84
596.746	19590.05
597.104	19783.49
597.463	20185.06
597.822	20427.54
598.18	20630.25
598.538	20855.1
598.897	21388.42
599.255	21446.95
599.613	22022.08
599.972	22171.9
600.33	22470.88
600.688	22575.06
601.046	22933.01
601.404	23387.69
601.762	23606.67
602.12	23867.9
602.478	24163.49
602.836	24496.36
603.194	24561.67
603.552	24904.26
603.91	24955.33
604.268	25388.77
604.625	25524.13
604.983	25942.43
605.341	25938.36
605.698	26364.79
606.056	26614.95
606.413	26847.71
606.771	27121.83
607.128	27475.72
607.485	27414.7
607.843	27775.6
608.2	28026.89
608.557	28372.19
608.914	28395.02
609.272	28612.64
609.629	28877.04
609.986	29220.53
610.343	29285.61
610.7	29554.99
611.057	29728.31
611.414	29829.55
611.771	30254.63
612.127	30377.34
612.484	30529.42
612.841	30721.28
613.198	30860.94
613.554	30884.44
613.911	31382.51
614.267	31297.09
614.624	31530.3
614.98	31748.37
615.337	31912.89
615.693	31958.54
616.05	32231.53
616.406	32382.03
616.762	32548.81
617.118	32568.47
617.475	32649.37
617.831	32862.02
618.187	33078.28
618.543	33168.22
618.899	33501.1
619.255	33590.13
619.611	33590.81
619.967	33888.66
620.323	33986.06
620.678	34040.74
621.034	33986.73
621.39	34126.16
621.746	34239.38
622.101	34675.53
622.457	34529.54
622.812	34699.26
623.168	34807.73
623.523	34872.36
623.879	35025.8
624.234	34876.2
624.589	35196.65
624.945	35241.16
625.3	35398.9
625.655	35348.51
626.01	35366.58
626.365	35460.14
626.72	35513.47
627.075	35562.51
627.43	35583.53
627.785	35586.47
628.14	35790.98
628.495	35625.33
628.85	35837.08
629.205	35697.42
629.559	36091.76
629.914	35950.52
630.269	36075.49
630.623	35999.11
630.978	35990.52
631.332	36131.54
631.687	36106.23
632.041	36093.12
632.396	36173.12
632.75	35954.82
633.104	36197.07
633.459	35996.17
633.813	35929.06
634.167	35964.31
634.521	36044.98
634.875	36197.07
635.229	36214.02
635.583	36155.49
635.937	36032.1
636.291	35999.56
636.645	36031.65
636.999	36135.83
637.352	36206.34
637.706	35934.7
638.06	36305.99
638.413	36162.04
638.767	36132.44
639.121	36221.7
639.474	35981.71
639.828	35992.56
640.181	36139.9
640.534	36209.05
640.888	35985.78
641.241	35974.7
641.594	36044.53
641.947	36152.1
642.301	36050.41
642.654	36054.02
643.007	36112.55
643.36	36122.04
643.713	36098.77
644.066	36277.97
644.419	35944.65
644.771	35754.14
645.124	35477.54
645.477	35416.98
645.83	35218.11
646.182	35105.8
646.535	35118.68
646.888	35016.54
647.24	34893.83
647.593	35176.98
647.945	35137.44
648.298	34955.3
648.65	34771.8
649.002	34731.8
649.355	35029.42
649.707	34877.11
650.059	34969.53
650.411	35511.21
650.763	35480.25
651.115	35896.51
651.467	35805.44
651.819	35644.54
652.171	35733.81
652.523	35547.14
652.875	35719.12
653.227	35584.66
653.578	35739.91
653.93	35665.11
654.282	35601.15
654.633	35503.98
654.985	35428.96
655.337	35543.75
655.688	35696.75
656.039	35752.11
656.391	35478.45
656.742	35546.24
657.094	35503.08
657.445	35695.62
657.796	35586.24
658.147	35496.75
658.498	35529.97
658.849	35564.55
659.2	35530.2
659.551	35430.09
659.902	35472.8
660.253	35566.13
660.604	35579.91
660.955	35448.39
661.306	35573.36
661.656	35449.97
662.007	35402.06
662.358	35461.95
662.708	35504.21
663.059	35406.81
663.409	35293.14
663.76	35578.56
664.11	35450.42
664.461	35462.4
664.811	35492.23
665.161	35399.8
665.511	35380.82
665.862	35387.37
666.212	35507.37
666.562	35587.6
666.912	35482.74
667.262	35458.33
667.612	35416.75
667.962	35543.08
668.312	35383.98
668.662	35428.05
669.011	35344.44
669.361	35358.22
669.711	35226.7
670.06	35347.38
670.41	35277.55
670.76	35262.86
671.109	35413.81
671.459	35215.4
671.808	35206.81
672.157	35198.23
672.507	35065.12
672.856	35048.4
673.205	35198.68
673.554	35400.93
673.904	35005.46
674.253	35378.11
674.602	35132.01
674.951	34581.29
675.3	34550.33
675.649	35012.47
675.998	34913.94
676.346	35174.95
676.695	35233.48
677.044	34797.56
677.393	34959.59
677.741	35120.04
678.09	35071.22
678.438	34875.75
678.787	34938.57
679.135	34904
679.484	34704
679.832	34785.81
680.181	34592.59
680.529	34633.72
680.877	34619.03
681.225	34609.99
681.573	34672.82
681.922	34398.02
682.27	34450.9
682.618	34409.1
682.966	34357.57
683.314	34426.72
683.661	34267.86
684.009	34172.94
684.357	34062.21
684.705	34122.1
685.053	34130.23
685.4	34030.12
685.748	33883.91
686.095	33986.96
686.443	33701.32
686.79	33749.9
687.138	33810.92
687.485	33790.13
687.832	33701.54
688.18	33591.49
688.527	33468.78
688.874	33356.02
689.221	33328.9
689.568	33310.14
689.915	33269.01
690.262	33202.8
690.609	33143.59
690.956	33007.1
691.303	33063.59
691.65	32871.06
691.997	32743.6
692.344	32650.05
692.69	32691.17
693.037	32724.85
693.383	32370.5
693.73	32618.18
694.077	32303.39
694.423	32484.63
694.769	32326.89
695.116	32189.49
695.462	32097.07
695.808	32037.63
696.155	32156.73
696.501	31941.82
696.847	32004.86
697.193	31691.65
697.539	31745.21
697.885	31584.54
698.231	31484.88
698.577	31358.33
698.923	31474.26
699.269	31228.84
699.614	31175.51
699.96	31067.94
700.306	30987.49
700.651	30881.05
700.997	30859.81
701.342	30791.56
701.688	30780.26
702.033	30582.3
702.379	30622.53
702.724	30493.94
703.069	30614.39
703.415	30275.19
703.76	30285.36
704.105	30286.27
704.45	30117.23
704.795	30067.29
705.14	29883.79
705.485	29855.77
705.83	29661.2
706.175	29880.17
706.52	29725.6
706.865	29591.59
707.209	29547.75
707.554	29520.41
707.899	29566.06
708.243	29321.77
708.588	29320.42
708.932	29166.75
709.277	29151.15
709.621	29172.85
709.966	29009.24
710.31	29136.01
710.654	28774.67
710.998	28937.15
711.342	28761.33
711.687	28720.88
712.031	28642.02
712.375	28559.31
712.719	28624.84
713.063	28513.21
713.407	28609.93
713.75	28493.54
714.094	28391.4
714.438	28190.73
714.782	28284.51
715.125	28155.02
715.469	28186.43
715.812	28017.62
716.156	27923.84
716.499	28023.27
716.843	27988.47
717.186	27851.98
717.53	27999.32
717.873	27842.49
718.216	27741.47
718.559	27629.16
718.902	27479.79
719.246	27602.72
719.589	27500.12
719.932	27483.4
720.275	27442.5
720.617	27377.64
720.96	27416.96
721.303	27310.98
721.646	27408.6
721.989	27181.71
722.331	27141.04
722.674	26991.66
723.016	27184.43
723.359	27135.16
723.701	27110.3
724.044	26935.17
724.386	26803.42
724.729	26897.2
725.071	26732.69
725.413	26694.27
725.755	26786.7
726.097	26662.18
726.439	26571.11
726.782	26516.65
727.124	26632.12
727.465	26591.67
727.807	26520.49
728.149	26391.45
728.491	26405.46
728.833	26478.68
729.175	26285.02
729.516	26295.86
729.858	26243.21
730.199	26287.73
730.541	26135.19
730.882	26205.24
731.224	26281.4
731.565	26106.49
731.906	26061.97
732.248	26017
732.589	25937.68
732.93	25844.8
733.271	25885.48
733.612	25930.45
733.953	25889.09
734.294	25860.62
734.635	25718.25
734.976	25845.7
735.317	25608.87
735.658	25644.58
735.999	25579.27
736.339	25582.66
736.68	25641.87
737.021	25534.75
737.361	25466.73
737.702	25671.92
738.042	25455.66
738.383	25404.81
738.723	25496.11
739.063	25383.34
739.404	25373.63
739.744	25329.79
740.084	25121.2
740.424	25166.4
740.764	25178.38
741.104	25300.86
741.444	25140.86
741.784	25061.32
742.124	25057.02
742.464	25025.16
742.804	25072.17
743.143	24926.18
743.483	24977.48
743.823	24809.57
744.162	24877.82
744.502	24920.08
744.841	24804.38
745.181	24949.01
745.52	24798.27
745.86	24848.89
746.199	24821.78
746.538	24720.54
746.877	24817.26
747.216	24842.12
747.556	24648.67
747.895	24632.18
748.234	24463.37
748.573	24549.02
748.911	24595.57
749.25	24629.69
749.589	24501.56
749.928	24510.37
750.267	24506.76
750.605	24402.13
750.944	24387.66
751.283	24171.4
751.621	24353.09
751.96	24278.06
752.298	24290.94
752.636	24243.49
752.975	24163.94
753.313	24001.69
753.651	24302.24
753.989	23999.2
754.327	24088.69
754.666	23887.11
755.004	23996.49
755.342	23952.87
755.679	23949.48
756.017	23810.5
756.355	23965.3
756.693	23689.15
757.031	23748.36
757.368	23593.11
757.706	23651.19
758.044	23589.27
758.381	23518.53
758.719	23489.83
759.056	23581.81
759.394	23455.26
759.731	23365.77
760.068	23310.63
