Data from hue_160_FLMS001491_00087.txt Node
Date: Tue Feb 07 16:51:49 GMT 2017
User: dcchb
Spectrometer: FLMS00149
Trigger mode: 0
Integration Time (sec): 2.000000E-2
Scans to average: 10
Electric dark correction enabled: true
Nonlinearity correction enabled: false
Boxcar width: 0
XAxis mode: Wavelengths
Number of Pixels in Spectrum: 2048
>>>>>Begin Spectral Data<<<<<
341.393	1.81
341.776	1.81
342.16	1.81
342.543	-55.14
342.927	-65.31
343.31	-63.73
343.693	-86.78
344.077	-61.02
344.46	-58.53
344.843	-57.63
345.226	-34.58
345.61	-34.8
345.993	-20.34
346.376	0
346.759	10.62
347.142	29.15
347.525	40.9
347.908	49.49
348.291	84.29
348.674	92.88
349.057	110.05
349.44	135.14
349.823	131.52
350.206	155.7
350.588	182.82
350.971	207.23
351.354	198.41
351.737	211.97
352.119	244.74
352.502	246.32
352.884	277.51
353.267	274.8
353.65	280.22
354.032	307.34
354.414	288.81
354.797	298.3
355.179	319.54
355.562	312.31
355.944	340.78
356.326	314.79
356.709	333.78
357.091	337.39
357.473	343.27
357.855	328.58
358.238	345.75
358.62	329.71
359.002	357.96
359.384	351.63
359.766	337.17
360.148	332.65
360.53	356.83
360.912	334.68
361.294	321.57
361.676	337.62
362.057	306.66
362.439	318.41
362.821	336.04
363.203	311.63
363.584	334.68
363.966	337.84
364.348	326.09
364.729	320.9
365.111	346.66
365.493	322.7
365.874	327
366.256	307.34
366.637	311.86
367.019	307.56
367.4	308.92
367.781	294.91
368.163	300.11
368.544	313.44
368.925	295.59
369.306	324.51
369.688	315.92
370.069	327.22
370.45	321.57
370.831	310.73
371.212	317.28
371.593	335.13
371.974	301.69
372.355	316.15
372.736	312.08
373.117	335.36
373.498	313.21
373.879	316.38
374.26	299.65
374.641	295.81
375.021	334.68
375.402	303.04
375.783	338.52
376.163	322.7
376.544	324.51
376.925	319.31
377.305	329.48
377.686	344.17
378.066	315.92
378.447	330.61
378.827	310.95
379.208	330.39
379.588	324.29
379.968	344.62
380.349	330.61
380.729	313.66
381.109	323.83
381.489	332.65
381.87	338.07
382.25	340.78
382.63	326.55
383.01	356.6
383.39	348.47
383.77	349.37
384.15	354.79
384.53	343.04
384.91	369.71
385.29	339.43
385.67	356.83
386.049	334.45
386.429	368.35
386.809	362.93
387.189	349.37
387.568	347.79
387.948	341.46
388.328	361.12
388.707	357.05
389.087	343.04
389.466	343.27
389.846	378.75
390.225	367.67
390.605	362.93
390.984	363.83
391.363	350.5
391.743	363.15
392.122	373.78
392.501	369.93
392.881	388.92
393.26	381.68
393.639	368.58
394.018	377.39
394.397	387.56
394.776	391.63
395.155	395.92
395.534	376.26
395.913	374.68
396.292	386.43
396.671	388.01
397.05	378.3
397.429	384.62
397.808	398.18
398.186	394.79
398.565	369.26
398.944	410.84
399.323	383.94
399.701	406.09
400.08	413.55
400.458	388.46
400.837	398.86
401.215	420.1
401.594	416.71
401.972	429.14
402.351	420.33
402.729	422.36
403.107	403.38
403.486	414.68
403.864	410.61
404.242	420.78
404.62	420.1
404.999	421.91
405.377	443.15
405.755	438.18
406.133	445.19
406.511	446.54
406.889	422.36
407.267	441.34
407.645	442.25
408.023	446.99
408.401	444.96
408.779	433.66
409.156	440.89
409.534	439.31
409.912	456.94
410.29	458.07
410.667	489.48
411.045	467.33
411.422	464.85
411.8	456.94
412.178	485.18
412.555	503.49
412.933	488.35
413.31	490.16
413.687	478.18
414.065	486.54
414.442	503.49
414.819	511.62
415.197	499.2
415.574	498.52
415.951	517.05
416.328	524.28
416.705	531.29
417.082	529.93
417.46	519.76
417.837	523.83
418.214	526.99
418.591	531.74
418.967	528.57
419.344	558.4
419.721	541.68
420.098	544.39
420.475	545.97
420.852	549.59
421.228	568.12
421.605	585.52
421.982	567.89
422.358	599.98
422.735	578.06
423.111	569.25
423.488	605.86
423.864	576.93
424.241	598.18
424.617	588.91
424.994	590.27
425.37	609.25
425.746	598.18
426.123	616.48
426.499	627.78
426.875	634.11
427.251	640.89
427.627	621.45
428.003	612.64
428.379	643.37
428.756	653.54
429.132	646.31
429.507	661.23
429.883	660.32
430.259	672.98
430.635	674.33
431.011	678.4
431.387	688.12
431.763	684.05
432.138	685.18
432.514	689.47
432.89	706.87
433.265	728.57
433.641	715.46
434.016	718.63
434.392	755.91
434.767	764.05
435.143	751.17
435.518	764.95
435.894	768.57
436.269	759.3
436.644	792.75
437.02	791.17
437.395	766.53
437.77	818.51
438.145	799.75
438.52	833.2
438.895	837.27
439.271	809.24
439.646	836.14
440.021	841.56
440.395	840.43
440.77	849.02
441.145	861.45
441.52	862.58
441.895	874.55
442.27	882.46
442.645	892.18
443.019	898.06
443.394	892.86
443.769	922.24
444.143	883.37
444.518	938.05
444.892	940.54
445.267	936.25
445.641	939.86
446.016	928.11
446.39	938.51
446.764	966.75
447.139	952.29
447.513	937.6
447.887	969.92
448.262	972.18
448.636	992.74
449.01	1007.43
449.384	985.51
449.758	1002.69
450.132	1000.65
450.506	995.68
450.88	1019.18
451.254	1038.39
451.628	1027.54
452.002	1075.23
452.376	1067.54
452.75	1089.46
453.123	1073.42
453.497	1084.94
453.871	1086.3
454.244	1135.34
454.618	1141.89
454.992	1155.22
455.365	1149.8
455.739	1152.29
456.112	1169.91
456.486	1181.66
456.859	1190.25
457.232	1194.77
457.606	1217.6
457.979	1243.58
458.352	1282
458.725	1304.82
459.099	1293.07
459.472	1317.48
459.845	1320.64
460.218	1329.46
460.591	1342.79
460.964	1369.23
461.337	1387.31
461.71	1398.83
462.083	1422.56
462.456	1443.8
462.829	1451.94
463.201	1480.64
463.574	1472.73
463.947	1521.09
464.32	1528.1
464.692	1540.75
465.065	1592.95
465.438	1591.14
465.81	1607.64
466.183	1648.54
466.555	1693.29
466.928	1705.49
467.3	1691.71
467.672	1721.54
468.045	1780.97
468.417	1797.92
468.789	1818.48
469.161	1832.72
469.534	1868.2
469.906	1916.56
470.278	1943.23
470.65	1999.72
471.022	2035.2
471.394	2025.26
471.766	2111.81
472.138	2109.1
472.51	2204.01
472.882	2237.68
473.253	2259.6
473.625	2319.49
473.997	2339.15
474.369	2364.46
474.74	2434.51
475.112	2492.59
475.484	2571.23
475.855	2606.94
476.227	2645.58
476.598	2717.89
476.97	2826.59
477.341	2868.17
477.713	2935.52
478.084	2977.77
478.455	3065.23
478.827	3139.58
479.198	3250.99
479.569	3318.33
479.94	3375.96
480.311	3455.73
480.682	3567.82
481.053	3654.14
481.424	3742.05
481.795	3824.08
482.166	3909.95
482.537	4025.43
482.908	4137.74
483.279	4237.63
483.65	4318.08
484.021	4408.47
484.391	4567.56
484.762	4625.42
485.133	4699.76
485.503	4802.13
485.874	5012.75
486.244	5079.64
486.615	5224.04
486.985	5342.68
487.356	5498.61
487.726	5578.84
488.097	5700.87
488.467	5736.57
488.837	5960.75
489.207	6120.07
489.578	6171.14
489.948	6367.06
490.318	6437.57
490.688	6588.53
491.058	6698.81
491.428	6821.29
491.798	6958.91
492.168	7146.25
492.538	7205.01
492.908	7346.47
493.278	7470.54
493.648	7528.62
494.017	7726.12
494.387	7873.24
494.757	7950.53
495.126	8092.22
495.496	8113.46
495.866	8328.14
496.235	8409.27
496.605	8552.54
496.974	8568.14
497.344	8740.56
497.713	8839.99
498.082	8970.39
498.452	9047.45
498.821	9169.02
499.19	9195.92
499.559	9345.52
499.928	9424.84
500.298	9529.01
500.667	9675.9
501.036	9686.98
501.405	9706.41
501.774	9790.7
502.143	9946.18
502.512	10041.54
502.88	10130.36
503.249	10079.06
503.618	10205.83
503.987	10277.7
504.356	10391.14
504.724	10436.34
505.093	10517.92
505.462	10571.7
505.83	10676.56
506.199	10792.71
506.567	10860.96
506.936	10887.62
507.304	11003.78
507.672	11061.4
508.041	11065.7
508.409	11184.56
508.777	11230.67
509.145	11296.2
509.514	11296.88
509.882	11448.51
510.25	11486.25
510.618	11531.45
510.986	11532.8
511.354	11570.09
511.722	11655.29
512.09	11806.02
512.458	11760.14
512.826	11933.92
513.193	11884.89
513.561	11902.96
513.929	11968.05
514.297	12003.98
514.664	12066.35
515.032	12127.82
515.4	12166.23
515.767	12174.6
516.135	12184.76
516.502	12200.13
516.869	12345.44
517.237	12302.28
517.604	12330.07
517.972	12430.18
518.339	12415.94
518.706	12411.65
519.073	12441.25
519.44	12434.93
519.808	12585.21
520.175	12513.57
520.542	12629.27
520.909	12683.51
521.276	12624.3
521.643	12691.87
522.009	12749.5
522.376	12813.67
522.743	12852.09
523.11	12899.55
523.477	12956.72
523.843	12934.35
524.21	13007.34
524.577	13127.11
524.943	13085.98
525.31	13181.35
525.676	13158.52
526.043	13180.67
526.409	13264.28
526.776	13256.15
527.142	13309.48
527.508	13292.08
527.874	13258.63
528.241	13271.74
528.607	13322.36
528.973	13371.4
529.339	13329.59
529.705	13411.62
530.071	13353.55
530.437	13414.11
530.803	13415.24
531.169	13471.96
531.535	13419.31
531.901	13326.88
532.267	13317.16
532.632	13366.2
532.998	13279.2
533.364	13393.32
533.73	13326.66
534.095	13386.77
534.461	13413.88
534.826	13298.86
535.192	13383.83
535.557	13359.2
535.923	13285.53
536.288	13311.74
536.653	13324.62
537.019	13222.7
537.384	13239.2
537.749	13191.97
538.114	13190.61
538.479	13181.8
538.845	13165.98
539.21	13148.35
539.575	13084.85
539.94	13029.71
540.305	13083.05
540.67	13008.92
541.034	13011.64
541.399	12992.65
541.764	12975.03
542.129	12911.52
542.494	12848.93
542.858	12895.03
543.223	12887.34
543.587	12902.49
543.952	12706.56
544.316	12745.88
544.681	12797.4
545.045	12672.44
545.41	12684.86
545.774	12685.32
546.138	12625.43
546.503	12582.04
546.867	12609.39
547.231	12612.1
547.595	12533
547.959	12505.43
548.324	12430.41
548.688	12389.05
549.052	12405.32
549.416	12368.71
549.779	12389.96
550.143	12278.1
550.507	12350.64
550.871	12303.18
551.235	12255.95
551.599	12259.56
551.962	12243.07
552.326	12257.98
552.689	12218.44
553.053	12164.65
553.417	12148.16
553.78	12230.41
554.143	12135.05
554.507	12001.49
554.87	12105.22
555.234	12085.11
555.597	12059.8
555.96	12062.28
556.323	12121.94
556.686	11927.82
557.05	12012.34
557.413	12012.79
557.776	11968.27
558.139	12031.32
558.502	11932.57
558.865	11949.29
559.228	11947.03
559.59	11969.4
559.953	11972.79
560.316	12060.25
560.679	12027.03
561.041	11987.93
561.404	12040.14
561.767	12086.01
562.129	11947.26
562.492	12018.22
562.854	11993.13
563.217	12048.5
563.579	12064.54
563.941	12017.09
564.304	12123.98
564.666	12071.32
565.028	12047.14
565.39	12088.27
565.753	12109.06
566.115	12110.19
566.477	12159.68
566.839	12134.6
567.201	12106.35
567.563	12128.95
567.925	12244.88
568.287	12262.73
568.648	12164.65
569.01	12195.39
569.372	12283.97
569.734	12112.68
570.095	12248.94
570.457	12312.44
570.819	12334.59
571.18	12305.89
571.542	12232.9
571.903	12230.41
572.265	12291.43
572.626	12330.75
572.987	12271.32
573.349	12292.33
573.71	12340.47
574.071	12378.88
574.432	12358.77
574.794	12495.49
575.155	12412.78
575.516	12397.64
575.877	12386.34
576.238	12422.05
576.599	12446
576.96	12445.32
577.32	12397.19
577.681	12474.02
578.042	12500.91
578.403	12481.25
578.763	12460.46
579.124	12497.07
579.485	12464.98
579.845	12500.91
580.206	12487.58
580.566	12515.83
580.927	12411.88
581.287	12444.64
581.648	12368.49
582.008	12504.76
582.368	12422.05
582.728	12450.97
583.089	12488.03
583.449	12445.55
583.809	12470.63
584.169	12459.79
584.529	12418.88
584.889	12473.34
585.249	12402.61
585.609	12290.52
585.969	12488.49
586.329	12348.83
586.688	12326.23
587.048	12361.71
587.408	12319.45
587.768	12366.68
588.127	12351.54
588.487	12311.54
588.846	12419.33
589.206	12301.37
589.565	12317.64
589.925	12336.4
590.284	12268.83
590.643	12201.26
591.003	12260.69
591.362	12314.93
591.721	12303.41
592.08	12183.18
592.44	12235.38
592.799	12287.81
593.158	12213.46
593.517	12197.42
593.876	12268.6
594.235	12242.62
594.593	12234.48
594.952	12252.79
595.311	12149.51
595.67	12209.85
596.029	12274.03
596.387	12237.42
596.746	12208.94
597.104	12132.34
597.463	12170.98
597.822	12197.19
598.18	12208.27
598.538	12120.81
598.897	12180.92
599.255	12156.74
599.613	12253.01
599.972	12147.03
600.33	12228.15
600.688	12099.57
601.046	12158.1
601.404	12238.1
601.762	12226.57
602.12	12256.85
602.478	12246.23
602.836	12185.67
603.194	12146.35
603.552	12203.97
603.91	12124.65
604.268	12152.9
604.625	12134.14
604.983	12106.8
605.341	12135.95
605.698	12146.8
606.056	12194.71
606.413	12171.66
606.771	12170.75
607.128	12188.38
607.485	12127.59
607.843	12182.05
608.2	12214.14
608.557	12231.54
608.914	12198.55
609.272	12301.37
609.629	12255.72
609.986	12328.26
610.343	12240.81
610.7	12303.86
611.057	12317.42
611.414	12233.35
611.771	12356.06
612.127	12259.11
612.484	12409.17
612.841	12414.59
613.198	12290.75
613.554	12329.39
613.911	12413.23
614.267	12402.16
614.624	12366.91
614.98	12377.3
615.337	12423.63
615.693	12451.42
616.05	12447.81
616.406	12523.29
616.762	12450.29
617.118	12441.93
617.475	12514.93
617.831	12533.68
618.187	12676.5
618.543	12500.46
618.899	12613.68
619.255	12496.85
619.611	12519.9
619.967	12608.26
620.323	12601.48
620.678	12537.52
621.034	12478.09
621.39	12491.87
621.746	12518.31
622.101	12554.7
622.457	12507.47
622.812	12540.24
623.168	12566.9
623.523	12511.08
623.879	12631.76
624.234	12489.62
624.589	12576.84
624.945	12493.46
625.3	12505.43
625.655	12514.93
626.01	12521.03
626.365	12534.59
626.72	12519.67
627.075	12539.33
627.43	12531.42
627.785	12531.42
628.14	12516.73
628.495	12508.82
628.85	12470.41
629.205	12500.46
629.559	12500.46
629.914	12377.98
630.269	12452.55
630.623	12401.48
630.978	12435.15
631.332	12430.63
631.687	12490.07
632.041	12401.71
632.396	12404.65
632.75	12405.78
633.104	12376.4
633.459	12289.62
633.813	12342.05
634.167	12361.26
634.521	12251.43
634.875	12316.51
635.229	12316.29
635.583	12238.55
635.937	12210.98
636.291	12225.89
636.645	12222.73
636.999	12144.54
637.352	12170.53
637.706	12080.59
638.06	12266.12
638.413	12083.07
638.767	12098.21
639.121	12126.23
639.474	12049.17
639.828	12145.44
640.181	12089.17
640.534	12137.08
640.888	12107.03
641.241	11968.5
641.594	12013.92
641.947	12039.01
642.301	11976.18
642.654	12075.61
643.007	12004.2
643.36	12047.59
643.713	12020.02
644.066	11992.23
644.419	11989.52
644.771	11859.8
645.124	11799.46
645.477	11719.92
645.83	11674.95
646.182	11701.84
646.535	11642.86
646.888	11648.06
647.24	11588.62
647.593	11658.45
647.945	11543.43
648.298	11528.74
648.65	11564.67
649.002	11525.8
649.355	11623.65
649.707	11569.87
650.059	11599.02
650.411	11765.57
650.763	11784.77
651.115	11897.31
651.467	11842.17
651.819	11907.48
652.171	11857.32
652.523	11756.98
652.875	11727.6
653.227	11751.56
653.578	11817.77
653.93	11822.29
654.282	11755.62
654.633	11765.57
654.985	11754.72
655.337	11794.49
655.688	11804.89
656.039	11837.88
656.391	11623.2
656.742	11778.45
657.094	11760.82
657.445	11786.36
657.796	11867.48
658.147	11781.61
658.498	11798.56
658.849	11815.96
659.2	11785.9
659.551	11715.85
659.902	11827.49
660.253	11761.05
660.604	11815.96
660.955	11716.53
661.306	11793.59
661.656	11787.71
662.007	11858.9
662.358	11843.76
662.708	11841.04
663.059	11817.77
663.409	11803.76
663.76	11842.17
664.11	11877.88
664.461	11858.67
664.811	11874.49
665.161	11797.88
665.511	11845.34
665.862	11753.59
666.212	11904.09
666.562	11895.51
666.912	11840.59
667.262	11803.76
667.612	11782.74
667.962	11916.3
668.312	11800.82
668.662	11911.55
669.011	11875.17
669.361	11834.72
669.711	11802.4
670.06	11798.33
670.41	11804.21
670.76	11731.89
671.109	11746.58
671.459	11791.78
671.808	11829.52
672.157	11722.63
672.507	11770.09
672.856	11662.74
673.205	11752.91
673.554	11726.25
673.904	11749.07
674.253	11780.26
674.602	11710.88
674.951	11526.25
675.3	11507.95
675.649	11710.88
675.998	11679.24
676.346	11675.85
676.695	11661.39
677.044	11552.46
677.393	11622.29
677.741	11704.33
678.09	11555.85
678.438	11527.15
678.787	11576.19
679.135	11573.93
679.484	11517.21
679.832	11577.77
680.181	11505.01
680.529	11466.14
680.877	11398.8
681.225	11444.44
681.573	11465.69
681.922	11450.55
682.27	11394.28
682.618	11382.53
682.966	11322.19
683.314	11346.37
683.661	11291.45
684.009	11223.21
684.357	11179.82
684.705	11223.21
685.053	11262.98
685.4	11179.59
685.748	11187.95
686.095	11173.04
686.443	11123.78
686.79	11150.22
687.138	11183.66
687.485	11092.14
687.832	11035.19
688.18	11031.35
688.527	10983.89
688.874	10959.49
689.221	11002.87
689.568	10952.48
689.915	10866.83
690.262	10858.25
690.609	10866.83
690.956	10752.94
691.303	10787.51
691.65	10667.97
691.997	10713.39
692.344	10651.25
692.69	10660.74
693.037	10652.38
693.383	10523.34
693.73	10563.56
694.077	10479.27
694.423	10476.11
694.769	10411.48
695.116	10408.54
695.462	10387.52
695.808	10337.58
696.155	10246.51
696.501	10252.84
696.847	10266.17
697.193	10161.54
697.539	10134.2
697.885	10148.66
698.231	10085.16
698.577	10074.99
698.923	10046.74
699.269	9995.9
699.614	9895.78
699.96	9796.8
700.306	9867.99
700.651	9847.2
700.997	9822.79
701.342	9758.16
701.688	9755
702.033	9737.15
702.379	9692.85
702.724	9719.97
703.069	9635.23
703.415	9532.86
703.76	9610.59
704.105	9559.75
704.45	9577.83
704.795	9484.72
705.14	9386.87
705.485	9435.46
705.83	9398.4
706.175	9364.05
706.52	9327.21
706.865	9333.09
707.209	9268.46
707.554	9293.09
707.899	9335.57
708.243	9222.81
708.588	9235.92
708.932	9092.42
709.277	9074.34
709.621	9081.8
709.966	9015.36
710.31	9062.36
710.654	8984.17
710.998	8948.24
711.342	9035.47
711.687	8888.13
712.031	8854.91
712.375	8888.81
712.719	8917.28
713.063	8853.78
713.407	8861.91
713.75	8859.43
714.094	8844.06
714.438	8779.88
714.782	8862.59
715.125	8771.75
715.469	8754.12
715.812	8752.99
716.156	8679.09
716.499	8711.86
716.843	8661.92
717.186	8607.91
717.53	8635.25
717.873	8717.06
718.216	8635.03
718.559	8590.96
718.902	8573.33
719.246	8614.01
719.589	8548.02
719.932	8604.52
720.275	8451.3
720.617	8520.45
720.96	8494.69
721.303	8492.66
721.646	8507.35
721.989	8417.41
722.331	8517.97
722.674	8439.78
723.016	8523.39
723.359	8463.05
723.701	8486.78
724.044	8461.7
724.386	8425.54
724.729	8440.46
725.071	8409.72
725.413	8381.93
725.755	8360.23
726.097	8372.89
726.439	8358.88
726.782	8398.88
727.124	8352.55
727.465	8308.26
727.807	8347.13
728.149	8366.11
728.491	8341.25
728.833	8314.36
729.175	8359.33
729.516	8330.85
729.858	8278.88
730.199	8286.34
730.541	8317.97
730.882	8318.43
731.224	8291.08
731.565	8292.66
731.906	8344.87
732.248	8352.32
732.589	8235.94
732.93	8281.82
733.271	8234.36
733.612	8317.07
733.953	8284.3
734.294	8284.53
734.635	8283.4
734.976	8267.58
735.317	8223.96
735.658	8300.12
735.999	8249.5
736.339	8276.84
736.68	8261.25
737.021	8259.44
737.361	8277.75
737.702	8313
738.042	8344.64
738.383	8256.05
738.723	8310.29
739.063	8336.28
739.404	8369.05
739.744	8299.89
740.084	8349.16
740.424	8421.47
740.764	8353.9
741.104	8428.25
741.444	8414.24
741.784	8316.39
742.124	8412.43
742.464	8461.92
742.804	8448.82
743.143	8495.37
743.483	8478.65
743.823	8436.61
744.162	8472.32
744.502	8501.7
744.841	8561.81
745.181	8600.9
745.52	8621.69
745.86	8618.76
746.199	8656.72
746.538	8708.47
746.877	8724.52
747.216	8828.92
747.556	8851.74
747.895	8844.29
748.234	8885.19
748.573	8922.93
748.911	8986.66
749.25	9021.46
749.589	9094.22
749.928	9164.05
750.267	9227.55
750.605	9325.86
750.944	9372.18
751.283	9425.97
751.621	9560.2
751.96	9538.05
752.298	9675.9
752.636	9752.51
752.975	9739.86
753.313	9870.7
753.651	9991.15
753.989	10078.15
754.327	10133.29
754.666	10227.3
755.004	10348.43
755.342	10513.85
755.679	10637.91
756.017	10663.67
756.355	10855.99
756.693	10916.32
757.031	11194.06
757.368	11174.85
757.706	11331.45
758.044	11497.1
758.381	11596.98
758.719	11735.96
759.056	11933.7
