Data from hue_90_FLMS001491_73.txt Node
Date: Mon Feb 06 15:25:37 GMT 2017
User: dcchb
Spectrometer: FLMS00149
Trigger mode: 0
Integration Time (sec): 2.000000E-2
Scans to average: 10
Electric dark correction enabled: true
Nonlinearity correction enabled: false
Boxcar width: 0
XAxis mode: Wavelengths
Number of Pixels in Spectrum: 2048
>>>>>Begin Spectral Data<<<<<
341.393	-23.18
341.776	-23.18
342.16	-23.18
342.543	-69.28
342.927	-67.92
343.31	-51.65
343.693	-51.88
344.077	-60.46
344.46	-79.22
344.843	-58.66
345.226	-31.09
345.61	-28.15
345.993	-41.93
346.376	-7.13
346.759	30.38
347.142	30.83
347.525	24.73
347.908	44.62
348.291	85.07
348.674	83.49
349.057	111.06
349.44	121.23
349.823	133.65
350.206	174.78
350.588	204.84
350.971	212.52
351.354	220.21
351.737	246.65
352.119	249.81
352.502	257.04
352.884	285.29
353.267	272.63
353.65	285.74
354.032	282.58
354.414	291.62
354.797	323.25
355.179	333.88
355.562	315.12
355.944	321.67
356.326	335.23
356.709	336.36
357.091	339.52
357.473	325.06
357.855	335.46
358.238	328.23
358.62	332.29
359.002	338.62
359.384	334.78
359.766	322.58
360.148	343.82
360.53	355.12
360.912	325.74
361.294	333.42
361.676	319.86
362.057	332.07
362.439	337.27
362.821	316.02
363.203	325.06
363.584	342.46
363.966	327.32
364.348	328.9
364.729	328.68
365.111	326.87
365.493	318.96
365.874	318.06
366.256	309.24
366.637	312.86
367.019	301.11
367.4	309.24
367.781	316.7
368.163	311.28
368.544	328.45
368.925	297.94
369.306	316.02
369.688	304.27
370.069	308.34
370.45	292.97
370.831	312.63
371.212	311.73
371.593	299.53
371.974	323.48
372.355	327.32
372.736	329.36
373.117	319.41
373.498	311.05
373.879	297.94
374.26	303.59
374.641	321.9
375.021	311.73
375.402	309.47
375.783	298.4
376.163	310.37
376.544	303.59
376.925	334.78
377.305	313.99
377.686	336.14
378.066	318.96
378.447	310.15
378.827	328.23
379.208	317.15
379.588	337.04
379.968	342.46
380.349	314.67
380.729	334.78
381.109	349.02
381.489	321.45
381.87	331.84
382.25	305.4
382.63	346.3
383.01	359.41
383.39	341.11
383.77	354.89
384.15	348.11
384.53	351.28
384.91	339.52
385.29	347.43
385.67	340.43
386.049	363.48
386.429	332.29
386.809	347.43
387.189	353.76
387.568	368
387.948	366.42
388.328	339.75
388.707	351.05
389.087	352.63
389.466	343.82
389.846	347.21
390.225	373.2
390.605	381.78
390.984	363.93
391.363	353.54
391.743	368.45
392.122	377.04
392.501	376.13
392.881	368.68
393.26	358.96
393.639	373.65
394.018	349.47
394.397	378.85
394.776	385.85
395.155	372.29
395.534	362.8
395.913	392.86
396.292	373.42
396.671	389.24
397.05	382.69
397.429	385.4
397.808	388.79
398.186	381.33
398.565	380.43
398.944	368
399.323	377.94
399.701	398.05
400.08	408
400.458	413.2
400.837	398.73
401.215	388.11
401.594	390.6
401.972	400.77
402.351	424.72
402.729	406.87
403.107	396.47
403.486	428.34
403.864	422.01
404.242	418.84
404.62	409.81
404.999	415.23
405.377	408
405.755	398.05
406.133	405.06
406.511	427.21
406.889	414.55
407.267	428.56
407.645	436.47
408.023	435.79
408.401	440.54
408.779	437.6
409.156	450.03
409.534	453.87
409.912	436.25
410.29	432.4
410.667	451.16
411.045	426.75
411.422	464.95
411.8	455.68
412.178	456.36
412.555	465.4
412.933	479.63
413.31	477.37
413.687	462.91
414.065	472.85
414.442	475.34
414.819	475.79
415.197	484.83
415.574	508.56
415.951	517.83
416.328	489.13
416.705	511.5
417.082	517.37
417.46	501.55
417.837	504.72
418.214	504.49
418.591	528.9
418.967	523.02
419.344	515.79
419.721	512.63
420.098	522.57
420.475	536.36
420.852	532.51
421.228	527.99
421.605	521.44
421.982	532.74
422.358	533.87
422.735	567.54
423.111	554.89
423.488	564.38
423.864	553.53
424.241	581.78
424.617	555.79
424.994	565.73
425.37	557.82
425.746	568.45
426.123	566.86
426.499	583.36
426.875	581.1
427.251	595.56
427.627	581.33
428.003	579.07
428.379	601.21
428.756	624.94
429.132	617.48
429.507	619.29
429.883	645.96
430.259	624.94
430.635	639.63
431.011	626.07
431.387	622.46
431.763	660.65
432.138	646.86
432.514	640.76
432.89	648.22
433.265	664.94
433.641	692.96
434.016	682.57
434.392	686.41
434.767	700.42
435.143	692.51
435.518	690.48
435.894	703.13
436.269	735.22
436.644	736.12
437.02	716.24
437.395	728.67
437.77	725.5
438.145	750.14
438.52	735.22
438.895	738.61
439.271	751.27
439.646	764.6
440.021	766.41
440.395	754.88
440.77	778.16
441.145	768.67
441.52	777.93
441.895	773.19
442.27	791.94
442.645	784.49
443.019	808.89
443.394	787.42
443.769	814.99
444.143	788.33
444.518	817.48
444.892	829.91
445.267	844.37
445.641	837.36
446.016	832.85
446.39	843.01
446.764	828.33
447.139	841.21
447.513	856.35
447.887	877.82
448.262	864.48
448.636	852.96
449.01	888.21
449.384	883.69
449.758	871.04
450.132	898.61
450.506	891.15
450.88	913.75
451.254	910.36
451.628	927.98
452.002	937.25
452.376	920.07
452.75	940.41
453.123	966.85
453.497	947.87
453.871	965.05
454.244	987.87
454.618	979.06
454.992	1017.47
455.365	993.29
455.739	1022.67
456.112	1038.49
456.486	1042.56
456.859	1053.4
457.232	1091.14
457.606	1078.26
457.979	1059.51
458.352	1107.41
458.725	1113.52
459.099	1139.28
459.472	1139.96
459.845	1143.8
460.218	1159.39
460.591	1154.19
460.964	1180.86
461.337	1238.71
461.71	1211.59
462.083	1252.72
462.456	1235.09
462.829	1252.04
463.201	1271.93
463.574	1260.63
463.947	1303.79
464.32	1299.73
464.692	1344.24
465.065	1357.35
465.438	1399.61
465.81	1397.12
466.183	1398.71
466.555	1445.94
466.928	1452.26
467.3	1434.41
467.672	1489.33
468.045	1544.92
468.417	1541.53
468.789	1561.41
469.161	1594.18
469.534	1587.18
469.906	1644.35
470.278	1621.3
470.65	1664.69
471.022	1733.16
471.394	1760.73
471.766	1752.14
472.138	1793.27
472.51	1874.63
472.882	1893.83
473.253	1885.92
473.625	1937.22
473.997	1986.94
474.369	2013.38
474.74	2045.92
475.112	2104.45
475.484	2172.7
475.855	2207.5
476.227	2233.26
476.598	2306.48
476.97	2355.52
477.341	2425.35
477.713	2466.47
478.084	2483.42
478.455	2593.03
478.827	2669.63
479.198	2755.96
479.569	2789.4
479.94	2878.44
480.311	2949.63
480.682	2990.75
481.053	3115.27
481.424	3191.88
481.795	3243.18
482.166	3302.61
482.537	3447.69
482.908	3572.21
483.279	3570.17
483.65	3687.46
484.021	3792.32
484.391	3931.29
484.762	3947.11
485.133	4056.72
485.503	4135.58
485.874	4271.62
486.244	4353.88
486.615	4500.77
486.985	4607.21
487.356	4725.85
487.726	4783.93
488.097	4956.8
488.467	5044.26
488.837	5106.63
489.207	5240.64
489.578	5421.43
489.948	5562.66
490.318	5647.18
490.688	5742.77
491.058	5869.78
491.428	6036.1
491.798	6076.55
492.168	6293.72
492.538	6370.55
492.908	6506.82
493.278	6590.21
493.648	6723.99
494.017	6844.21
494.387	6985.45
494.757	7069.29
495.126	7211.89
495.496	7334.14
495.866	7403.52
496.235	7556.28
496.605	7640.35
496.974	7735.94
497.344	7867.91
497.713	7907.46
498.082	8063.62
498.452	8177.28
498.821	8282.37
499.19	8320.11
499.559	8475.58
499.928	8538.86
500.298	8582.92
500.667	8698.63
501.036	8794.44
501.405	8921.9
501.774	8906.98
502.143	9053.19
502.512	9146.3
502.88	9255
503.249	9334.77
503.618	9387.65
503.987	9474.43
504.356	9500.41
504.724	9631.26
505.093	9690.01
505.462	9740.63
505.83	9834.42
506.199	9849.33
506.567	10040.74
506.936	10013.17
507.304	10170.45
507.672	10133.17
508.041	10259.49
508.409	10381.52
508.777	10437.56
509.145	10486.83
509.514	10447.28
509.882	10610.89
510.25	10626.49
510.618	10691.12
510.986	10769.08
511.354	10776.31
511.722	10935.4
512.09	10969.08
512.458	10976.76
512.826	11051.11
513.193	11023.09
513.561	11121.84
513.929	11180.14
514.297	11236.19
514.664	11312.34
515.032	11352.34
515.4	11478.89
515.767	11428.27
516.135	11476.86
516.502	11361.61
516.869	11596.86
517.237	11564.99
517.604	11515.05
517.972	11671.43
518.339	11735.84
518.706	11698.55
519.073	11692.9
519.44	11785.33
519.808	11855.83
520.175	11857.19
520.542	11929.05
520.909	11970.86
521.276	11935.83
521.643	12106
522.009	12139.21
522.376	12150.06
522.743	12164.98
523.11	12265.09
523.477	12291.75
523.843	12310.51
524.21	12410.85
524.577	12418.53
524.943	12453.56
525.31	12484.29
525.676	12447.91
526.043	12524.52
526.409	12580.56
526.776	12639.77
527.142	12595.7
527.508	12674.79
527.874	12695.36
528.241	12716.83
528.607	12704.4
528.973	12757.5
529.339	12707.56
529.705	12804.06
530.071	12884.96
530.437	12853.09
530.803	12965.41
531.169	12790.95
531.535	12821.68
531.901	12873.43
532.267	12874.11
532.632	12955.01
532.998	12895.8
533.364	12856.94
533.73	12860.33
534.095	12917.27
534.461	12852.19
534.826	12852.87
535.192	12884.05
535.557	12894.45
535.923	12836.37
536.288	12850.83
536.653	12904.39
537.019	12834.79
537.384	12798.18
537.749	12818.52
538.114	12768.58
538.479	12774.45
538.845	12783.04
539.21	12741.01
539.575	12734
539.94	12673.44
540.305	12745.07
540.67	12595.47
541.034	12592.08
541.399	12694.45
541.764	12643.16
542.129	12594.34
542.494	12500.34
542.858	12591.63
543.223	12442.03
543.587	12570.39
543.952	12488.58
544.316	12508.92
544.681	12458.98
545.045	12477.74
545.41	12438.42
545.774	12396.16
546.138	12386.89
546.503	12429.38
546.867	12302.83
547.231	12359.55
547.595	12330.85
547.959	12273.9
548.324	12292.66
548.688	12237.29
549.052	12234.35
549.416	12192.32
549.779	12169.04
550.143	12112.32
550.507	12197.07
550.871	12157.07
551.235	12063.06
551.599	12088.82
551.962	12099.22
552.326	12056.73
552.689	12048.37
553.053	12000.24
553.417	11957.3
553.78	12017.86
554.143	11938.32
554.507	11988.94
554.87	12038.88
555.234	12046.11
555.597	11951.42
555.96	11927.47
556.323	11938.77
556.686	11939.67
557.05	11996.39
557.413	11894.93
557.776	11894.48
558.139	11930.63
558.502	11886.11
558.865	11872.1
559.228	11923.85
559.59	11937.64
559.953	11905.77
560.316	12024.19
560.679	11942.16
561.041	11969.5
561.404	11999.33
561.767	12024.42
562.129	12057.63
562.492	12071.19
562.854	12023.96
563.217	12048.37
563.579	11982.61
563.941	12057.41
564.304	12070.06
564.666	12069.84
565.028	12119.78
565.39	12054.92
565.753	12088.37
566.115	12154.13
566.477	12107.58
566.839	12080.46
567.201	12171.08
567.563	12156.16
567.925	12254.92
568.287	12308.02
568.648	12277.74
569.01	12232.09
569.372	12317.97
569.734	12209.95
570.095	12265.99
570.457	12434.12
570.819	12358.19
571.18	12376.04
571.542	12390.73
571.903	12428.7
572.265	12411.52
572.626	12485.19
572.987	12453.1
573.349	12418.08
573.71	12380.34
574.071	12454.46
574.432	12430.73
574.794	12572.2
575.155	12525.19
575.516	12458.75
575.877	12491.97
576.238	12530.39
576.599	12566.1
576.96	12503.95
577.32	12552.54
577.681	12559.32
578.042	12557.06
578.403	12538.07
578.763	12556.6
579.124	12522.48
579.485	12593.21
579.845	12664.17
580.206	12607.45
580.566	12499.66
580.927	12522.26
581.287	12571.75
581.648	12595.93
582.008	12649.26
582.368	12542.14
582.728	12611.52
583.089	12503.95
583.449	12546.21
583.809	12521.58
584.169	12549.6
584.529	12514.35
584.889	12601.58
585.249	12621.69
585.609	12449.49
585.969	12636.83
586.329	12532.2
586.688	12546.66
587.048	12470.05
587.408	12517.28
587.768	12444.52
588.127	12492.43
588.487	12392.54
588.846	12511.41
589.206	12397.96
589.565	12420.11
589.925	12478.41
590.284	12469.15
590.643	12515.25
591.003	12484.97
591.362	12500.11
591.721	12368.14
592.08	12483.84
592.44	12525.65
592.799	12434.57
593.158	12400.9
593.517	12430.73
593.876	12478.87
594.235	12433.67
594.593	12429.6
594.952	12352.77
595.311	12379.43
595.67	12374.01
596.029	12429.38
596.387	12386.67
596.746	12388.93
597.104	12385.76
597.463	12360.9
597.822	12364.97
598.18	12277.52
598.538	12308.7
598.897	12366.1
599.255	12312.32
599.613	12428.92
599.972	12274.35
600.33	12396.38
600.688	12317.52
601.046	12433.9
601.404	12436.83
601.762	12357.74
602.12	12428.02
602.478	12373.78
602.836	12393.45
603.194	12352.32
603.552	12358.64
603.91	12316.84
604.268	12340.57
604.625	12312.09
604.983	12351.64
605.341	12345.99
605.698	12352.77
606.056	12371.07
606.413	12323.16
606.771	12373.78
607.128	12357.74
607.485	12351.41
607.843	12338.76
608.2	12443.16
608.557	12436.16
608.914	12398.42
609.272	12449.26
609.629	12470.28
609.986	12453.1
610.343	12417.63
610.7	12548.47
611.057	12492.65
611.414	12475.93
611.771	12482.71
612.127	12511.86
612.484	12518.64
612.841	12643.38
613.198	12592.76
613.554	12513.22
613.911	12610.84
614.267	12587.56
614.624	12499.43
614.98	12593.89
615.337	12644.51
615.693	12669.37
616.05	12621.24
616.406	12619.2
616.762	12642.48
617.118	12664.4
617.475	12573.1
617.831	12581.46
618.187	12681.8
618.543	12653.78
618.899	12723.15
619.255	12736.04
619.611	12644.96
619.967	12780.1
620.323	12794.11
620.678	12717.28
621.034	12670.95
621.39	12610.39
621.746	12700.33
622.101	12779.65
622.457	12744.4
622.812	12816.71
623.168	12745.07
623.523	12735.58
623.879	12805.41
624.234	12678.18
624.589	12675.25
624.945	12725.41
625.3	12756.83
625.655	12720.67
626.01	12695.13
626.365	12782.81
626.72	12696.94
627.075	12670.05
627.43	12704.62
627.785	12712.53
628.14	12755.7
628.495	12711.63
628.85	12712.76
629.205	12646.77
629.559	12762.02
629.914	12615.59
630.269	12651.29
630.623	12613.33
630.978	12645.42
631.332	12653.1
631.687	12657.39
632.041	12574.68
632.396	12601.12
632.75	12555.25
633.104	12561.58
633.459	12486.78
633.813	12492.43
634.167	12525.19
634.521	12503.5
634.875	12484.06
635.229	12520
635.583	12365.2
635.937	12404.97
636.291	12400.9
636.645	12368.81
636.999	12397.96
637.352	12414.46
637.706	12350.51
638.06	12360.45
638.413	12397.51
638.767	12357.29
639.121	12374.46
639.474	12292.88
639.828	12273.45
640.181	12266.89
640.534	12312.54
640.888	12221.7
641.241	12143.96
641.594	12245.65
641.947	12299.66
642.301	12256.05
642.654	12161.81
643.007	12197.52
643.36	12337.4
643.713	12154.36
644.066	12266.22
644.419	12152.1
644.771	12007.69
645.124	12016.05
645.477	11937.19
645.83	11906.68
646.182	11808.38
646.535	11831.65
646.888	11772.44
647.24	11727.93
647.593	11806.12
647.945	11849.28
648.298	11716.17
648.65	11682.73
649.002	11718.21
649.355	11733.12
649.707	11718.89
650.059	11718.66
650.411	11907.36
650.763	11998.43
651.115	12100.57
651.467	12028.94
651.819	11974.47
652.171	12040.01
652.523	11961.59
652.875	11991.87
653.227	11950.75
653.578	12052.89
653.93	11994.13
654.282	11928.6
654.633	11977.64
654.985	11881.82
655.337	11971.54
655.688	11958.65
656.039	11962.27
656.391	11937.86
656.742	11975.38
657.094	11961.59
657.445	12032.32
657.796	11978.54
658.147	11951.2
658.498	11937.64
658.849	11999.78
659.2	12012.89
659.551	11900.35
659.902	11909.39
660.253	11943.29
660.604	11998.65
660.955	11959.33
661.306	12026
661.656	11983.51
662.007	12000.69
662.358	12000.01
662.708	12006.79
663.059	12030.52
663.409	11853.35
663.76	12030.52
664.11	11991.87
664.461	12049.95
664.811	12064.19
665.161	12089.27
665.511	12017.41
665.862	12040.91
666.212	12020.8
666.562	11955.49
666.912	11895.61
667.262	12042.49
667.612	11944.19
667.962	12024.64
668.312	11968.37
668.662	12034.36
669.011	12032.78
669.361	11997.75
669.711	11925.89
670.06	11920.01
670.41	11959.78
670.76	11904.87
671.109	12004.08
671.459	11937.19
671.808	11997.3
672.157	11906.68
672.507	11839.11
672.856	11792.11
673.205	11891.31
673.554	11940.35
673.904	11889.28
674.253	11944.19
674.602	11926.79
674.951	11697.87
675.3	11641.37
675.649	11804.76
675.998	11837.08
676.346	11807.47
676.695	11851.54
677.044	11790.07
677.393	11842.05
677.741	11837.75
678.09	11714.59
678.438	11709.85
678.787	11783.29
679.135	11729.96
679.484	11697.64
679.832	11710.75
680.181	11616.06
680.529	11685.22
680.877	11691.09
681.225	11644.99
681.573	11677.53
681.922	11660.36
682.27	11543.3
682.618	11523.64
682.966	11538.78
683.314	11565.44
683.661	11499.91
684.009	11436.41
684.357	11401.61
684.705	11476.86
685.053	11412.91
685.4	11421.49
685.748	11299.24
686.095	11278.67
686.443	11285
686.79	11359.35
687.138	11309.18
687.485	11234.83
687.832	11212.01
688.18	11205
688.527	11139.47
688.874	11188.05
689.221	11153.7
689.568	11060.6
689.915	10986.48
690.262	11042.29
690.609	10991.9
690.956	10942.64
691.303	10920.72
691.65	10874.62
691.997	10802.3
692.344	10759.59
692.69	10851.79
693.037	10792.13
693.383	10699.48
693.73	10744.22
694.077	10711.68
694.423	10587.39
694.769	10612.93
695.116	10592.81
695.462	10537.67
695.808	10496.32
696.155	10585.58
696.501	10517.79
696.847	10427.62
697.193	10379.26
697.539	10361.86
697.885	10274.4
698.231	10210
698.577	10203.22
698.923	10189.66
699.269	10119.83
699.614	10179.04
699.96	10103.56
700.306	10074.18
700.651	10062.43
700.997	9960.51
701.342	9951.93
701.688	9931.59
702.033	9871.93
702.379	9840.97
702.724	9800.07
703.069	9820.41
703.415	9743.12
703.76	9730.01
704.105	9731.82
704.45	9678.49
704.795	9574.31
705.14	9611.15
705.485	9566.4
705.83	9510.58
706.175	9567.3
706.52	9520.53
706.865	9443.69
707.209	9463.58
707.554	9379.51
707.899	9431.72
708.243	9359.4
708.588	9389.46
708.932	9218.16
709.277	9301.78
709.621	9272.62
709.966	9214.09
710.31	9213.42
710.654	9133.42
710.998	9141.33
711.342	9190.37
711.687	9090.93
712.031	9007.32
712.375	9054.55
712.719	9012.29
713.063	9014.1
713.407	9055.23
713.75	9021.78
714.094	8992.18
714.438	8928.23
714.782	8970.03
715.125	8886.19
715.469	8953.31
715.812	8866.53
716.156	8802.58
716.499	8877.83
716.843	8870.6
717.186	8853.88
717.53	8768.23
717.873	8858.4
718.216	8840.54
718.559	8747.44
718.902	8714.9
719.246	8741.56
719.589	8687.1
719.932	8640.1
720.275	8674.67
720.617	8726.2
720.96	8663.6
721.303	8646.2
721.646	8639.19
721.989	8613.66
722.331	8660.44
722.674	8664.05
723.016	8589.48
723.359	8596.03
723.701	8555.35
724.044	8516.49
724.386	8582.47
724.729	8508.58
725.071	8511.74
725.413	8443.72
725.755	8532.08
726.097	8474.9
726.439	8439.88
726.782	8427.45
727.124	8497.28
727.465	8469.25
727.807	8524.17
728.149	8434.45
728.491	8415.7
728.833	8490.72
729.175	8342.7
729.516	8449.37
729.858	8397.84
730.199	8439.2
730.541	8438.52
730.882	8443.04
731.224	8439.42
731.565	8382.93
731.906	8425.64
732.248	8357.17
732.589	8415.92
732.93	8389.48
733.271	8386.77
733.612	8368.92
733.953	8423.15
734.294	8355.81
734.635	8354.91
734.976	8385.87
735.317	8348.81
735.658	8349.26
735.999	8380.22
736.339	8311.74
736.68	8396.71
737.021	8334.57
737.361	8323.72
737.702	8438.52
738.042	8346.55
738.383	8434.23
738.723	8400.1
739.063	8423.38
739.404	8440.78
739.744	8410.27
740.084	8441.91
740.424	8402.59
740.764	8390.61
741.104	8482.14
741.444	8456.15
741.784	8466.54
742.124	8456.37
742.464	8446.2
742.804	8485.07
743.143	8498.63
743.483	8486.88
743.823	8509.25
744.162	8527.33
744.502	8522.36
744.841	8592.19
745.181	8605.75
745.52	8564.17
745.86	8665.41
746.199	8652.98
746.538	8644.39
746.877	8759.87
747.216	8828.57
747.556	8747.89
747.895	8872.86
748.234	8882.35
748.573	8899.75
748.911	8943.82
749.25	9043.93
749.589	8996.47
749.928	9149.69
750.267	9173.64
750.605	9279.18
750.944	9262.68
751.283	9283.7
751.621	9492.5
751.96	9516.46
752.298	9552.16
752.636	9630.81
752.975	9630.81
753.313	9744.02
753.651	9934.07
753.989	9905.15
754.327	10041.42
754.666	10024.92
755.004	10202.77
755.342	10385.36
755.679	10425.59
756.017	10479.82
756.355	10645.69
756.693	10797.33
757.031	10754.62
757.368	10917.1
757.706	10988.28
758.044	11146.7
758.381	11232.8
758.719	11403.41
759.056	11576.29
759.394	11634.82
759.731	11768.38
