Data from hue_50_FLMS001491_58.txt Node
Date: Mon Feb 06 15:10:32 GMT 2017
User: dcchb
Spectrometer: FLMS00149
Trigger mode: 0
Integration Time (sec): 2.000000E-2
Scans to average: 10
Electric dark correction enabled: true
Nonlinearity correction enabled: false
Boxcar width: 0
XAxis mode: Wavelengths
Number of Pixels in Spectrum: 2048
>>>>>Begin Spectral Data<<<<<
341.393	5.62
341.776	5.62
342.16	5.62
342.543	-56.07
342.927	-73.47
343.31	-47.94
343.693	-81.83
344.077	-57.65
344.46	-53.59
344.843	-41.16
345.226	-46.13
345.61	-33.7
345.993	-21.04
346.376	-9.29
346.759	-5.9
347.142	33.64
347.525	41.78
347.908	48.11
348.291	70.7
348.674	79.07
349.057	124.94
349.44	118.61
349.823	137.14
350.206	168.1
350.588	183.02
350.971	195.22
351.354	205.16
351.737	235.22
352.119	257.82
352.502	238.84
352.884	264.37
353.267	293.52
353.65	300.08
354.032	278.61
354.414	306.4
354.797	311.38
355.179	326.74
355.562	310.7
355.944	338.27
356.326	333.07
356.709	336.46
357.091	334.88
357.473	343.69
357.855	356.8
358.238	339.4
358.62	333.97
359.002	344.82
359.384	345.73
359.766	317.48
360.148	352.05
360.53	319.96
360.912	321.77
361.294	324.03
361.676	337.82
362.057	337.14
362.439	352.5
362.821	316.35
363.203	337.36
363.584	315.9
363.966	322.22
364.348	340.75
364.729	319.29
365.111	325.16
365.493	324.93
365.874	329.91
366.256	325.16
366.637	306.18
367.019	314.54
367.4	318.61
367.781	313.86
368.163	319.96
368.544	310.7
368.925	320.64
369.306	317.25
369.688	317.03
370.069	310.92
370.45	302.56
370.831	309.79
371.212	324.48
371.593	309.57
371.974	309.79
372.355	307.99
372.736	301.43
373.117	309.57
373.498	329.45
373.879	319.74
374.26	314.99
374.641	297.59
375.021	313.64
375.402	313.86
375.783	314.54
376.163	321.55
376.544	329.68
376.925	326.74
377.305	318.38
377.686	333.75
378.066	322
378.447	307.76
378.827	335.33
379.208	332.39
379.588	322.9
379.968	313.64
380.349	322.9
380.729	330.81
381.109	334.2
381.489	353.41
381.87	335.78
382.25	337.14
382.63	336.91
383.01	353.41
383.39	339.85
383.77	341.66
384.15	354.31
384.53	346.18
384.91	342.79
385.29	343.24
385.67	346.4
386.049	360.87
386.429	341.21
386.809	351.15
387.189	336.69
387.568	350.92
387.948	349.79
388.328	333.3
388.707	322.9
389.087	344.82
389.466	381.43
389.846	357.93
390.225	339.62
390.605	356.12
390.984	373.75
391.363	353.63
391.743	356.8
392.122	348.89
392.501	335.56
392.881	352.28
393.26	362.45
393.639	343.01
394.018	357.93
394.397	375.78
394.776	358.83
395.155	380.53
395.534	353.86
395.913	355.67
396.292	364.93
396.671	372.84
397.05	369
397.429	384.37
397.808	364.71
398.186	373.3
398.565	380.53
398.944	373.07
399.323	383.01
399.701	349.12
400.08	374.65
400.458	380.3
400.837	372.17
401.215	381.2
401.594	364.93
401.972	375.1
402.351	381.43
402.729	394.54
403.107	389.79
403.486	385.72
403.864	382.33
404.242	390.24
404.62	426.18
404.999	406.51
405.377	385.5
405.755	394.31
406.133	417.36
406.511	403.12
406.889	396.8
407.267	413.97
407.645	408.1
408.023	417.59
408.401	404.48
408.779	399.74
409.156	426.4
409.534	418.04
409.912	421.88
410.29	425.27
410.667	427.08
411.045	429.79
411.422	419.4
411.8	430.69
412.178	428.21
412.555	427.76
412.933	432.05
413.31	428.89
413.687	440.19
414.065	445.61
414.442	457.59
414.819	450.81
415.197	455.1
415.574	443.35
415.951	447.19
416.328	432.28
416.705	451.71
417.082	454.65
417.46	466.85
417.837	472.95
418.214	472.95
418.591	477.25
418.967	472.95
419.344	466.4
419.721	457.59
420.098	476.12
420.475	471.82
420.852	486.29
421.228	463.91
421.605	481.77
421.982	495.78
422.358	507.76
422.735	518.38
423.111	483.12
423.488	495.1
423.864	487.64
424.241	499.62
424.617	484.48
424.994	489.45
425.37	506.17
425.746	511.14
426.123	532.61
426.499	532.84
426.875	522.22
427.251	528.09
427.627	511.14
428.003	507.08
428.379	537.58
428.756	545.72
429.132	531.94
429.507	550.24
429.883	550.24
430.259	548.88
430.635	582.33
431.011	597.7
431.387	567.87
431.763	595.89
432.138	561.09
432.514	587.98
432.89	587.53
433.265	588.2
433.641	588.43
434.016	609
434.392	608.32
434.767	594.53
435.143	600.18
435.518	602.22
435.894	610.8
436.269	640.86
436.644	606.74
437.02	634.98
437.395	624.81
437.77	626.17
438.145	627.98
438.52	648.54
438.895	619.84
439.271	641.08
439.646	646.06
440.021	660.97
440.395	665.04
440.77	653.06
441.145	689.67
441.52	679.5
441.895	653.29
442.27	670.24
442.645	667.52
443.019	679.73
443.394	674.76
443.769	687.41
444.143	692.16
444.518	699.39
444.892	708.88
445.267	710.46
445.641	712.27
446.016	712.04
446.39	693.29
446.764	714.98
447.139	722.44
447.513	711.59
447.887	717.24
448.262	700.29
448.636	720.63
449.01	758.82
449.384	746.62
449.758	754.53
450.132	761.08
450.506	763.57
450.88	752.95
451.254	771.93
451.628	770.8
452.002	781.65
452.376	782.78
452.75	783.68
453.123	791.82
453.497	801.76
453.871	797.69
454.244	809.22
454.618	822.32
454.992	830.01
455.365	843.57
455.739	851.93
456.112	879.27
456.486	868.42
456.859	842.66
457.232	869.33
457.606	893.96
457.979	854.41
458.352	914.98
458.725	912.04
459.099	903.45
459.472	933.05
459.845	936.22
460.218	940.96
460.591	942.09
460.964	959.49
461.337	957.69
461.71	972.83
462.083	977.35
462.456	1003.79
462.829	1006.5
463.201	1009.66
463.574	1007.63
463.947	1027.29
464.32	1078.59
464.692	1089.43
465.065	1085.14
465.438	1108.42
465.81	1130.34
466.183	1142.31
466.555	1156.33
466.928	1173.5
467.3	1173.27
467.672	1197.45
468.045	1213.95
468.417	1223.22
468.789	1230
469.161	1259.6
469.534	1278.81
469.906	1335.3
470.278	1335.08
470.65	1328.98
471.022	1347.28
471.394	1402.42
471.766	1423.66
472.138	1432.93
472.51	1456.2
472.882	1476.77
473.253	1501.63
473.625	1543.21
473.997	1582.75
474.369	1614.39
474.74	1640.83
475.112	1693.03
475.484	1747.27
475.855	1814.39
476.227	1824.56
476.598	1861.17
476.97	1883.99
477.341	1937.32
477.713	1969.86
478.084	2025.91
478.455	2085.11
478.827	2147.49
479.198	2186.58
479.569	2242.85
479.94	2343.41
480.311	2390.42
480.682	2451.21
481.053	2538.21
481.424	2622.05
481.795	2666.57
482.166	2736.17
482.537	2831.54
482.908	2916.28
483.279	2969.61
483.65	3092.55
484.021	3181.58
484.391	3263.84
484.762	3330.28
485.133	3410.28
485.503	3451.63
485.874	3618.41
486.244	3713.55
486.615	3822.02
486.985	3926.42
487.356	4067.66
487.726	4100.43
488.097	4230.37
488.467	4312.85
488.837	4483.7
489.207	4607.08
489.578	4678.72
489.948	4763.24
490.318	4953.74
490.688	5020.86
491.058	5173.17
491.428	5300.17
491.798	5420.85
492.168	5579.71
492.538	5592.37
492.908	5758.24
493.278	5908.29
493.648	5965.46
494.017	6131.79
494.387	6282.07
494.757	6348.73
495.126	6515.51
495.496	6568.39
495.866	6693.36
496.235	6792.11
496.605	7026.68
496.974	7073.91
497.344	7237.75
497.713	7328.59
498.082	7387.8
498.452	7567.46
498.821	7709.37
499.19	7828.69
499.559	7904.85
499.928	8020.33
500.298	8210.83
500.667	8250.6
501.036	8362.24
501.405	8497.15
501.774	8597.26
502.143	8714.77
502.512	8813.98
502.88	8922
503.249	8990.7
503.618	9139.62
503.987	9251.71
504.356	9359.5
504.724	9358.14
505.093	9557.01
505.462	9539.38
505.83	9699.83
506.199	9727.17
506.567	10026.37
506.936	9962.2
507.304	10160.61
507.672	10264.56
508.041	10339.36
508.409	10476.53
508.777	10607.83
509.145	10713.36
509.514	10724.21
509.882	10897.99
510.25	10928.72
510.618	11088.72
510.986	11149.51
511.354	11244.87
511.722	11386.34
512.09	11446.45
512.458	11554.24
512.826	11722.15
513.193	11744.3
513.561	11775.71
513.929	11949.71
514.297	12103.61
514.664	12186.77
515.032	12146.55
515.4	12374.11
515.767	12403.04
516.135	12462.47
516.502	12467.21
516.869	12721.9
517.237	12739.52
517.604	12834.66
517.972	12983.36
518.339	13077.59
518.706	13121.43
519.073	13124.15
519.44	13260.19
519.808	13399.85
520.175	13485.49
520.542	13632.61
520.909	13677.58
521.276	13725.49
521.643	13892.71
522.009	14067.85
522.376	14150.33
522.743	14174.51
523.11	14368.41
523.477	14538.35
523.843	14530.21
524.21	14728.4
524.577	14775.85
524.943	14865.57
525.31	14969.75
525.676	15117.09
526.043	15243.86
526.409	15301.04
526.776	15467.14
527.142	15548.04
527.508	15639.56
527.874	15762.95
528.241	15855.83
528.607	15867.8
528.973	16064.18
529.339	16110.51
529.705	16266.21
530.071	16386.89
530.437	16425.98
530.803	16568.58
531.169	16620.33
531.535	16651.29
531.901	16581
532.267	16766.54
532.632	16922.92
532.998	16973.76
533.364	17089.47
533.73	17156.81
534.095	17233.19
534.461	17235
534.826	17453.07
535.192	17500.3
535.557	17608.77
535.923	17581.88
536.288	17703.69
536.653	17864.59
537.019	17786.62
537.384	17878.37
537.749	18060.97
538.114	18028.65
538.479	17932.38
538.845	18140.29
539.21	18140.06
539.575	18333.5
539.94	18292.82
540.305	18482.2
540.67	18400.17
541.034	18608.52
541.399	18625.02
541.764	18676.99
542.129	18778.01
542.494	18832.24
542.858	18846.48
543.223	18824.11
543.587	18944.78
543.952	19048.74
544.316	19079.92
544.681	19208.28
545.045	19314.49
545.41	19358.11
545.774	19405.56
546.138	19414.15
546.503	19394.26
546.867	19483.75
547.231	19715.61
547.595	19713.8
547.959	19808.26
548.324	19835.61
548.688	19857.98
549.052	19994.93
549.416	20014.59
549.779	20004.42
550.143	20018.65
550.507	20154.02
550.871	20320.57
551.235	20259.1
551.599	20432.2
551.962	20561.24
552.326	20652.76
552.689	20653.67
553.053	20591.29
553.417	20710.39
553.78	20942.7
554.143	20899.31
554.507	20958.29
554.87	21045.97
555.234	21214.1
555.597	21138.17
555.96	21310.82
556.323	21348.56
556.686	21411.61
557.05	21580.2
557.413	21577.03
557.776	21640.31
558.139	21741.32
558.502	21852.05
558.865	21911.26
559.228	22007.3
559.59	22069.9
559.953	22142.21
560.316	22425.37
560.679	22467.86
561.041	22607.29
561.404	22593.28
561.767	22760.05
562.129	22747.4
562.492	22989.2
562.854	22955.3
563.217	22909.65
563.579	23085.24
563.941	23077.11
564.304	23240.49
564.666	23459.92
565.028	23436.42
565.39	23494.95
565.753	23774.49
566.115	23760.25
566.477	23823.98
566.839	23960.47
567.201	24105.1
567.563	24107.13
567.925	24194.36
568.287	24282.95
568.648	24274.14
569.01	24432.1
569.372	24670.06
569.734	24587.8
570.095	24765.2
570.457	24941.46
570.819	24964.97
571.18	25020.1
571.542	25204.28
571.903	25124.73
572.265	25361.79
572.626	25332.86
572.987	25474.33
573.349	25503.71
573.71	25644.27
574.071	25668
574.432	25773.08
574.794	25895.34
575.155	25958.39
575.516	26002.9
575.877	26184.14
576.238	26249.68
576.599	26357.24
576.96	26289.68
577.32	26405.15
577.681	26616.9
578.042	26770.57
578.403	26747.74
578.763	26877.01
579.124	26806.72
579.485	27057.79
579.845	27194.74
580.206	27236.09
580.566	27324
580.927	27483.99
581.287	27581.85
581.648	27545.69
582.008	27785.91
582.368	27750.43
582.728	27845.12
583.089	27945.45
583.449	27990.2
583.809	28020.25
584.169	28225.67
584.529	28244.43
584.889	28523.06
585.249	28429.73
585.609	28509.96
585.969	28661.14
586.329	28765.09
586.688	28873.34
587.048	28954.46
587.408	28900.23
587.768	29166.44
588.127	29112.65
588.487	29177.74
588.846	29454.79
589.206	29383.83
589.565	29475.81
589.925	29763.93
590.284	29766.19
590.643	29819.3
591.003	30070.37
591.362	30101.33
591.721	30195.79
592.08	30230.82
592.44	30482.33
592.799	30579.51
593.158	30560.07
593.517	30711.03
593.876	30891.81
594.235	30909.67
594.593	30973.85
594.952	31077.8
595.311	31167.74
595.67	31110.11
596.029	31400.05
596.387	31481.4
596.746	31562.76
597.104	31612.47
597.463	31652.47
597.822	31876.87
598.18	31747.16
598.538	31909.42
598.897	32131.33
599.255	31836.87
599.613	32382.17
599.972	32245.68
600.33	32354.15
600.688	32311.66
601.046	32761.6
601.404	32863.06
601.762	32744.65
602.12	32876.4
602.478	32936.51
602.836	33040.46
603.194	32908.26
603.552	32999.78
603.91	33064.64
604.268	33176.27
604.625	33223.5
604.983	33359.77
605.341	33374.46
605.698	33447
606.056	33692.87
606.413	33598.18
606.771	33653.1
607.128	33858.52
607.485	33678.41
607.843	33741.23
608.2	33947.1
608.557	34086.99
608.914	34112.52
609.272	34312.97
609.629	34314.32
609.986	34509.12
610.343	34328.11
610.7	34540.53
611.057	34520.65
611.414	34722
611.771	34802.67
612.127	34840.41
612.484	34936.23
612.841	35117.92
613.198	34936
613.554	34950.01
613.911	35311.36
614.267	35241.76
614.624	35299.16
614.98	35333.28
615.337	35519.94
615.693	35577.12
616.05	35608.3
616.406	35731.24
616.762	35649.2
617.118	35671.35
617.475	35763.33
617.831	35877.45
618.187	35836.32
618.543	35912.25
618.899	36294.16
619.255	36109.3
619.611	36097.33
619.967	36369.64
620.323	36225.23
620.678	36252.13
621.034	36083.99
621.39	36328.96
621.746	36319.69
622.101	36638.56
622.457	36389.98
622.812	36380.94
623.168	36687.37
623.523	36699.35
623.879	36688.72
624.234	36453.25
624.589	36673.81
624.945	36620.48
625.3	36734.6
625.655	36701.15
626.01	36712.9
626.365	36916.97
626.72	36786.58
627.075	36884.65
627.43	36775.5
627.785	36669.06
628.14	36808.95
628.495	36869.51
628.85	36806.01
629.205	36838.78
629.559	36887.14
629.914	36796.52
630.269	36936.18
630.623	36894.37
630.978	36724.66
631.332	36946.34
631.687	36937.08
632.041	36930.75
632.396	36811.21
632.75	36798.33
633.104	36846.01
633.459	36566.69
633.813	36725.79
634.167	36634.04
634.521	36750.42
634.875	36810.98
635.229	36701.61
635.583	36631.55
635.937	36647.6
636.291	36479.69
636.645	36615.73
636.999	36471.1
637.352	36603.53
637.706	36492.35
638.06	36527.37
638.413	36486.92
638.767	36516.75
639.121	36498.45
639.474	36347.49
639.828	36321.5
640.181	36283.99
640.534	36450.76
640.888	36212.8
641.241	36042.64
641.594	36324.44
641.947	36341.39
642.301	36198.79
642.654	36202.41
643.007	36273.82
643.36	36136.2
643.713	36144.11
644.066	36268.17
644.419	36060.72
644.771	35802.87
645.124	35482.2
645.477	35431.13
645.83	35318.37
646.182	35150.01
646.535	35084.02
646.888	35060.07
647.24	34930.58
647.593	35021.65
647.945	34956.79
648.298	34879.96
648.65	34813.52
649.002	34677.7
649.355	34895.78
649.707	34886.29
650.059	34969.9
650.411	35458.25
650.763	35521.3
651.115	35758.58
651.467	35698.69
651.819	35561.07
652.171	35470.45
652.523	35466.84
652.875	35536.44
653.227	35394.52
653.578	35479.04
653.93	35625.02
654.282	35503.45
654.633	35340.96
654.985	35287.18
655.337	35393.62
655.688	35350.91
656.039	35415.31
656.391	35133.96
656.742	35137.58
657.094	35246.28
657.445	35446.95
657.796	35395.2
658.147	35295.77
658.498	35263.9
658.849	35234.07
659.2	35216.9
659.551	35096.22
659.902	35232.04
660.253	35255.32
660.604	35302.09
660.955	34984.14
661.306	35195.2
661.656	35091.7
662.007	35069.11
662.358	35087.86
662.708	35133.96
663.059	35171.25
663.409	34872.5
663.76	35171.48
664.11	35256.45
664.461	35051.93
664.811	35091.25
665.161	35082.89
665.511	34938.04
665.862	34997.47
666.212	35104.81
666.562	35205.37
666.912	35063
667.262	34968.32
667.612	35018.71
667.962	35048.32
668.312	34805.84
668.662	35086.96
669.011	34991.82
669.361	34978.04
669.711	34872.5
670.06	34786.85
670.41	34943.23
670.76	34878.83
671.109	35024.59
671.459	34807.87
671.808	34814.42
672.157	34825.95
672.507	34771.03
672.856	34605.39
673.205	34687.2
673.554	34872.28
673.904	34704.6
674.253	34836.57
674.602	34754.99
674.951	34308
675.3	34248.34
675.649	34609.68
675.998	34620.98
676.346	34601.32
676.695	34757.25
677.044	34485.17
677.393	34485.84
677.741	34608.33
678.09	34462.12
678.438	34418.73
678.787	34387.54
679.135	34513.87
679.484	34220.99
679.832	34396.81
680.181	34170.37
680.529	34269.35
680.877	34255.12
681.225	34071.17
681.573	34337.15
681.922	34155.01
682.27	34028
682.618	34007.67
682.966	33949.81
683.314	33962.02
683.661	33830.49
684.009	33865.52
684.357	33703.04
684.705	33694.45
685.053	33621.23
685.4	33562.03
685.748	33441.13
686.095	33452.2
686.443	33214.92
686.79	33428.7
687.138	33370.85
687.485	33275.48
687.832	33170.85
688.18	33260.79
688.527	33068.48
688.874	33085.2
689.221	32914.59
689.568	32968.6
689.915	32902.16
690.262	32916.85
690.609	32709.85
690.956	32742.84
691.303	32633.01
691.65	32507.59
691.997	32538.1
692.344	32372.23
692.69	32231.89
693.037	32350.53
693.383	32056.08
693.73	32275.96
694.077	32030.99
694.423	31993.71
694.769	31790.1
695.116	31719.14
695.462	31782.64
695.808	31606.37
696.155	31677.1
696.501	31522.76
696.847	31455.19
697.193	31244.57
697.539	31297.45
697.885	31166.84
698.231	31030.57
698.577	31128.64
698.923	30803.46
699.269	30843.91
699.614	30653.4
699.96	30621.77
700.306	30666.06
700.651	30538.6
700.997	30447.08
701.342	30374.77
701.688	30397.59
702.033	30188.78
702.379	30160.76
702.724	30014.32
703.069	30136.35
703.415	29839.64
703.76	29911.28
704.105	29804.16
704.45	29741.11
704.795	29685.29
705.14	29450.04
705.485	29499.08
705.83	29409.37
706.175	29431.97
706.52	29396.03
706.865	29292.08
707.209	29215.47
707.554	29077.85
707.899	29156.72
708.243	29007.8
708.588	28970.06
708.932	28769.84
709.277	28783.62
709.621	28820.91
709.966	28594.47
710.31	28599.67
710.654	28451.43
710.998	28556.51
711.342	28533.23
711.687	28413.91
712.031	28349.28
712.375	28156.29
712.719	28282.62
713.063	28327.81
713.407	28234.26
713.75	28089.85
714.094	28086.24
714.438	27921.95
714.782	27986.81
715.125	27892.8
715.469	27794.95
715.812	27775.96
716.156	27568.51
716.499	27558.34
716.843	27710.66
717.186	27504.56
717.53	27613.48
717.873	27516.31
718.216	27408.97
718.559	27448.97
718.902	27184.57
719.246	27283.1
719.589	27154.51
719.932	27035.87
720.275	27084.91
720.617	26955.65
720.96	27027.06
721.303	26909.09
721.646	26876.1
721.989	26800.4
722.331	26870.9
722.674	26736.22
723.016	26731.25
723.359	26725.6
723.701	26743.22
724.044	26505.04
724.386	26362.67
724.729	26554.3
725.071	26478.6
725.413	26435.66
725.755	26436.79
726.097	26464.59
726.439	26226.85
726.782	26130.36
727.124	26286.29
727.465	26146.4
727.807	26120.87
728.149	26173.52
728.491	26106.4
728.833	26103.92
729.175	25954.77
729.516	25837.48
729.858	25849.24
730.199	25909.8
730.541	25804.72
730.882	25829.35
731.224	25779.18
731.565	25682.91
731.906	25744.61
732.248	25731.95
732.589	25600.2
732.93	25439.3
733.271	25489.25
733.612	25562.92
733.953	25463.48
734.294	25448.12
734.635	25390.94
734.976	25413.77
735.317	25246.99
735.658	25286.99
735.999	25115.24
736.339	25163.15
736.68	25261.45
737.021	25202.7
737.361	25020.78
737.702	25157.73
738.042	25028.47
738.383	24992.99
738.723	25054
739.063	24903.72
739.404	25037.05
739.744	24905.53
740.084	24823.05
740.424	24760.45
740.764	24727.68
741.104	24836.83
741.444	24636.61
741.784	24586.22
742.124	24653.79
742.464	24588.03
742.804	24545.99
743.143	24470.97
743.483	24416.96
743.823	24252.44
744.162	24372.66
744.502	24389.84
744.841	24114.82
745.181	24360.01
745.52	24224.87
745.86	24359.56
746.199	24183.29
746.538	24080.92
746.877	24297.64
747.216	24265.1
747.556	24066.23
747.895	24114.37
748.234	24084.31
748.573	23950.53
748.911	23863.98
749.25	23959.34
749.589	23769.97
749.928	23841.6
750.267	23782.17
750.605	23706.47
750.944	23802.74
751.283	23551.89
751.621	23627.83
751.96	23512.8
752.298	23512.12
752.636	23570.65
752.975	23410.2
753.313	23239.59
753.651	23345.12
753.989	23181.74
754.327	23168.85
754.666	23053.15
755.004	23170.89
755.342	23194.39
755.679	23065.81
756.017	22928.41
756.355	22992.14
756.693	22889.77
757.031	22934.51
757.368	22703.56
757.706	22722.31
758.044	22631.24
