Data from hue_38_FLMS001491_00042.txt Node
Date: Tue Feb 07 17:31:32 GMT 2017
User: dcchb
Spectrometer: FLMS00149
Trigger mode: 0
Integration Time (sec): 2.000000E-2
Scans to average: 10
Electric dark correction enabled: true
Nonlinearity correction enabled: false
Boxcar width: 0
XAxis mode: Wavelengths
Number of Pixels in Spectrum: 2048
>>>>>Begin Spectral Data<<<<<
341.393	-2.15
341.776	-2.15
342.16	-2.15
342.543	-42.15
342.927	-76.72
343.31	-66.55
343.693	-58.87
344.077	-71.07
344.46	-65.42
344.843	-52.32
345.226	-25.88
345.61	-39.43
345.993	-13.45
346.376	-12.09
346.759	29.26
347.142	37.85
347.525	35.14
347.908	46.21
348.291	75.82
348.674	96.16
349.057	84.63
349.44	116.95
349.823	153.33
350.206	159.66
350.588	204.85
350.971	218.41
351.354	226.55
351.737	247.34
352.119	254.34
352.502	274.91
352.884	283.95
353.267	296.15
353.65	257.96
354.032	285.76
354.414	318.07
354.797	315.13
355.179	333.44
355.562	346.32
355.944	335.47
356.326	341.35
356.709	343.38
357.091	340.22
357.473	345.19
357.855	335.7
358.238	350.39
358.62	357.39
359.002	352.65
359.384	361.91
359.766	365.53
360.148	358.75
360.53	339.99
360.912	357.39
361.294	356.49
361.676	344.06
362.057	325.53
362.439	335.25
362.821	328.24
363.203	330.05
363.584	323.72
363.966	325.08
364.348	322.14
364.729	323.27
365.111	337.28
365.493	314.68
365.874	335.02
366.256	304.96
366.637	322.82
367.019	329.82
367.4	328.24
367.781	326.43
368.163	323.49
368.544	307
368.925	314.23
369.306	333.89
369.688	308.58
370.069	319.43
370.45	322.36
370.831	315.81
371.212	308.58
371.593	311.29
371.974	316.49
372.355	336.15
372.736	320.56
373.117	313.1
373.498	323.04
373.879	307
374.26	319.88
374.641	319.65
375.021	328.01
375.402	334.57
375.783	320.1
376.163	325.75
376.544	333.44
376.925	344.74
377.305	334.34
377.686	332.99
378.066	349.93
378.447	344.96
378.827	334.57
379.208	341.12
379.588	356.04
379.968	347.22
380.349	332.31
380.729	342.02
381.109	336.38
381.489	348.13
381.87	338.86
382.25	349.71
382.63	368.24
383.01	336.83
383.39	343.61
383.77	344.06
384.15	348.35
384.53	353.32
384.91	358.07
385.29	344.51
385.67	366.88
386.049	354.68
386.429	382.93
386.809	355.36
387.189	347.67
387.568	376.6
387.948	363.04
388.328	354.23
388.707	391.97
389.087	377.28
389.466	364.17
389.846	364.17
390.225	378.63
390.605	364.4
390.984	391.06
391.363	358.52
391.743	394.23
392.122	363.49
392.501	373.89
392.881	376.15
393.26	371.85
393.639	382.93
394.018	403.94
394.397	402.81
394.776	390.84
395.155	385.19
395.534	383.83
395.913	395.36
396.292	390.84
396.671	404.62
397.05	379.99
397.429	403.72
397.808	390.84
398.186	386.09
398.565	403.49
398.944	397.39
399.323	398.75
399.701	398.29
400.08	383.61
400.458	396.26
400.837	401.23
401.215	390.84
401.594	428.58
401.972	408.92
402.351	395.58
402.729	405.98
403.107	415.92
403.486	418.18
403.864	400.78
404.242	417.5
404.62	442.14
404.999	411.18
405.377	427.9
405.755	435.36
406.133	418.18
406.511	420.44
406.889	428.12
407.267	435.36
407.645	458.63
408.023	422.7
408.401	450.27
408.779	444.4
409.156	448.46
409.534	454.11
409.912	446.2
410.29	476.71
410.667	441.68
411.045	463.6
411.422	458.41
411.8	468.12
412.178	481
412.555	460.21
412.933	478.07
413.31	466.32
413.687	477.16
414.065	489.82
414.442	484.17
414.819	498.63
415.197	486.65
415.574	499.31
415.951	519.87
416.328	472.19
416.705	495.69
417.082	510.83
417.46	496.15
417.837	518.07
418.214	513.32
418.591	518.07
418.967	496.82
419.344	498.63
419.721	528.46
420.098	527.56
420.475	523.49
420.852	502.02
421.228	523.72
421.605	547.44
421.982	532.53
422.358	537.27
422.735	537.05
423.111	553.77
423.488	558.52
423.864	554.67
424.241	570.27
424.617	578.4
424.994	574.79
425.37	572.53
425.746	577.05
426.123	570.95
426.499	579.53
426.875	569.59
427.251	580.66
427.627	610.72
428.003	599.19
428.379	607.78
428.756	597.39
429.132	608.01
429.507	620.66
429.883	627.22
430.259	622.47
430.635	624.5
431.011	606.88
431.387	651.62
431.763	636.71
432.138	633.54
432.514	664.5
432.89	657.95
433.265	663.15
433.641	655.69
434.016	664.73
434.392	678.06
434.767	694.78
435.143	695.69
435.518	673.09
435.894	681.9
436.269	707.44
436.644	708.12
437.02	701.56
437.395	694.78
437.77	702.02
438.145	723.48
438.52	745.63
438.895	736.36
439.271	736.14
439.646	738.62
440.021	757.38
440.395	765.06
440.77	742.69
441.145	745.18
441.52	780.66
441.895	752.64
442.27	780.88
442.645	775.01
443.019	790.15
443.394	772.07
443.769	789.02
444.143	779.75
444.518	798.96
444.892	803.71
445.267	795.12
445.641	800.77
446.016	806.42
446.39	793.76
446.764	831.28
447.139	822.46
447.513	842.35
447.887	807.78
448.262	811.39
448.636	835.12
449.01	859.98
449.384	857.72
449.758	847.55
450.132	843.71
450.506	878.51
450.88	844.84
451.254	856.81
451.628	867.43
452.002	880.32
452.376	900.65
452.75	930.71
453.123	882.35
453.497	919.18
453.871	931.39
454.244	926.87
454.618	930.94
454.992	953.31
455.365	922.57
455.739	950.6
456.112	991.95
456.486	983.59
456.859	983.82
457.232	996.24
457.606	1026.98
457.979	1000.76
458.352	1015.45
458.725	1040.31
459.099	1052.06
459.472	1067.88
459.845	1085.73
460.218	1103.81
460.591	1090.03
460.964	1062.46
461.337	1111.04
461.71	1160.53
462.083	1149.01
462.456	1148.56
462.829	1168.67
463.201	1163.02
463.574	1215.9
463.947	1205.51
464.32	1229.01
464.692	1238.27
465.065	1271.49
465.438	1247.99
465.81	1302
466.183	1309.01
466.555	1337.48
466.928	1360.08
467.3	1333.86
467.672	1345.39
468.045	1409.34
468.417	1396.69
468.789	1393.75
469.161	1445.5
469.534	1448.89
469.906	1472.84
470.278	1478.94
470.65	1540.19
471.022	1562.78
471.394	1610.69
471.766	1619.73
472.138	1651.14
472.51	1661.31
472.882	1705.83
473.253	1744.47
473.625	1778.82
473.997	1811.36
474.369	1824.47
474.74	1865.6
475.112	1894.3
475.484	1930.68
475.855	2014.52
476.227	2013.85
476.598	2092.04
476.97	2098.81
477.341	2175.65
477.713	2238.25
478.084	2237.12
478.455	2316.66
478.827	2363.67
479.198	2475.3
479.569	2498.58
479.94	2574.28
480.311	2579.03
480.682	2705.8
481.053	2782.86
481.424	2840.72
481.795	2954.39
482.166	2976.31
482.537	3019.47
482.908	3144.21
483.279	3234.83
483.65	3303.3
484.021	3390.76
484.391	3469.85
484.762	3526.57
485.133	3614.93
485.503	3689.73
485.874	3815.15
486.244	3864.64
486.615	4004.3
486.985	4100.34
487.356	4235.26
487.726	4294.24
488.097	4436.83
488.467	4528.36
488.837	4585.76
489.207	4704.62
489.578	4811.06
489.948	4912.75
490.318	5037.49
490.688	5091.5
491.058	5190.71
491.428	5329.46
491.798	5411.72
492.168	5547.09
492.538	5624.15
492.908	5722.67
493.278	5900.3
493.648	5932.16
494.017	6039.73
494.387	6127.41
494.757	6280.4
495.126	6398.36
495.496	6455.31
495.866	6557.23
496.235	6645.81
496.605	6755.64
496.974	6868.86
497.344	6964.45
497.713	7094.62
498.082	7149.3
498.452	7295.74
498.821	7346.36
499.19	7414.83
499.559	7563.98
499.928	7603.98
500.298	7732.34
500.667	7849.62
501.036	7804.43
501.405	7986.34
501.774	8032.44
502.143	8190.18
502.512	8208.71
502.88	8380.01
503.249	8336.62
503.618	8503.84
503.987	8502.49
504.356	8651.18
504.724	8742.48
505.093	8844.63
505.462	8854.34
505.83	8937.51
506.199	9039.88
506.567	9175.24
506.936	9162.13
507.304	9364.84
507.672	9400.09
508.041	9384.5
508.409	9531.16
508.777	9579.75
509.145	9673.53
509.514	9737.94
509.882	9814.54
510.25	9823.58
510.618	9893.86
510.986	10008.66
511.354	10108.55
511.722	10180.41
512.09	10311.03
512.458	10342.21
512.826	10386.05
513.193	10480.06
513.561	10514.19
513.929	10632.6
514.297	10743.11
514.664	10693.84
515.032	10826.27
515.4	10983.1
515.767	10977.45
516.135	11107.39
516.502	10965.02
516.869	11223.77
517.237	11208.41
517.604	11269.42
517.972	11367.95
518.339	11489.75
518.706	11490.21
519.073	11528.85
519.44	11616.53
519.808	11736.53
520.175	11720.26
520.542	11964.32
520.909	11932.23
521.276	11934.04
521.643	12099.23
522.009	12159.79
522.376	12199.79
522.743	12351.88
523.11	12363.18
523.477	12527.02
523.843	12484.3
524.21	12717.74
524.577	12721.81
524.943	12835.26
525.31	12877.06
525.676	13008.58
526.043	12986.66
526.409	13182.14
526.776	13253.55
527.142	13322.02
527.508	13380.1
527.874	13485.63
528.241	13516.59
528.607	13618.29
528.973	13758.17
529.339	13711.16
529.705	13883.14
530.071	13931.05
530.437	13969.69
530.803	14083.13
531.169	14176.24
531.535	14150.02
531.901	14288.32
532.267	14344.14
532.632	14396.8
532.998	14490.13
533.364	14511.82
533.73	14546.17
534.095	14725.83
534.461	14747.07
534.826	14776
535.192	14926.05
535.557	15072.94
535.923	15064.58
536.288	15006.72
536.653	15072.94
537.019	15080.62
537.384	15258.02
537.749	15309.31
538.114	15419.37
538.479	15427.73
538.845	15495.3
539.21	15428.86
539.575	15602.64
539.94	15636.54
540.305	15754.28
540.67	15729.19
541.034	15784.1
541.399	15917.21
541.764	15924.67
542.129	15999.24
542.494	15992.46
542.858	16085.11
543.223	16116.07
543.587	16230.87
543.952	16230.19
544.316	16344.09
544.681	16367.82
545.045	16408.27
545.41	16479.91
545.774	16683.74
546.138	16610.75
546.503	16630.18
546.867	16708.37
547.231	16851.42
547.595	16878.09
547.959	17015.71
548.324	16953.57
548.688	17054.81
549.052	17107.46
549.416	17025.2
549.779	17212.77
550.143	17268.13
550.507	17334.8
550.871	17419.99
551.235	17493.44
551.599	17470.39
551.962	17521.69
552.326	17589.71
552.689	17702.47
553.053	17738.63
553.417	17676.94
553.78	17915.8
554.143	17807.33
554.507	17964.39
554.87	17990.6
555.234	18178.17
555.597	18064.72
555.96	18169.8
556.323	18295.45
556.686	18312.63
557.05	18380.87
557.413	18490.93
557.776	18508.1
558.139	18681.66
558.502	18663.8
558.865	18742.22
559.228	18876
559.59	18904.25
559.953	18850.92
560.316	19176.33
560.679	19054.53
561.041	19163.22
561.404	19280.28
561.767	19410
562.129	19338.14
562.492	19554.18
562.854	19503.33
563.217	19458.13
563.579	19630.56
563.941	19707.17
564.304	19763.21
564.666	19991.9
565.028	19962.75
565.39	20028.06
565.753	20202.52
566.115	20170.88
566.477	20256.76
566.839	20322.06
567.201	20401.61
567.563	20454.94
567.925	20544.66
568.287	20666.24
568.648	20658.55
569.01	20838.21
569.372	20975.61
569.734	20818.55
570.095	20980.58
570.457	21168.14
570.819	21270.06
571.18	21335.15
571.542	21285.66
571.903	21536.95
572.265	21573.56
572.626	21603.16
572.987	21629.37
573.349	21776.94
573.71	21949.59
574.071	22162.24
574.432	22116.37
574.794	22278.85
575.155	22237.72
575.516	22257.61
575.877	22440.65
576.238	22652.62
576.599	22768.78
576.96	22810.36
577.32	22881.77
577.681	23119.73
578.042	23189.33
578.403	23344.81
578.763	23488.08
579.124	23641.53
579.485	23636.78
579.845	24000.39
580.206	24085.81
580.566	24161.29
580.927	24345.69
581.287	24452.13
581.648	24563.08
582.008	24847.6
582.368	24898.67
582.728	25096.4
583.089	25149.06
583.449	25441.7
583.809	25598.76
584.169	25771.41
584.529	25882.14
584.889	26368.46
585.249	26316.48
585.609	26386.31
585.969	26742.91
586.329	26988.33
586.688	27176.57
587.048	27345.38
587.408	27437.36
587.768	27544.7
588.127	27772.26
588.487	27941.53
588.846	28488.18
589.206	28286.83
589.565	28634.16
589.925	28962.97
590.284	29112.79
590.643	29234.82
591.003	29518.66
591.362	29779.67
591.721	29991.19
592.08	30165.87
592.44	30467.11
592.799	30589.37
593.158	30865.97
593.517	30915.46
593.876	31104.38
594.235	31310.48
594.593	31507.08
594.952	31809.67
595.311	31945.04
595.67	32194.07
596.029	32465.25
596.387	32647.39
596.746	32989.98
597.104	32879.7
597.463	33137.77
597.822	33346.58
598.18	33550.42
598.538	33668.15
598.897	34076.96
599.255	33996.96
599.613	34630.61
599.972	34470.85
600.33	34875.81
600.688	34781.57
601.046	35206.64
601.404	35355.34
601.762	35443.7
602.12	35702.23
602.478	35777.93
602.836	35994.19
603.194	35962.78
603.552	36116.45
603.91	36130.24
604.268	36548.08
604.625	36578.81
604.983	36707.62
605.341	36672.82
605.698	37002.3
606.056	37256.76
606.413	37351
606.771	37506.7
607.128	37658.56
607.485	37618.56
607.843	37765.9
608.2	38121.6
608.557	38212.22
608.914	38285.43
609.272	38448.14
609.629	38630.74
609.986	38866.44
610.343	38731.52
610.7	39031.63
611.057	39058.52
611.414	39132.42
611.771	39256.71
612.127	39604.72
612.484	39710.48
612.841	39798.39
613.198	39795.9
613.554	39895.79
613.911	40027.76
614.267	40161.32
614.624	40280.86
614.98	40386.17
615.337	40644.24
615.693	40668.42
616.05	40585.71
616.406	41046.72
616.762	40872.71
617.118	41050.79
617.475	41043.33
617.831	41255.98
618.187	41394.5
618.543	41392.24
618.899	41549.53
619.255	41552.24
619.611	41572.58
619.967	41648.74
620.323	41892.57
620.678	41819.58
621.034	41859.58
621.39	41784.1
621.746	41979.12
622.101	42280.58
622.457	42023.64
622.812	42238.32
623.168	42283.75
623.523	42377.3
623.879	42663.4
624.234	42262.5
624.589	42509.5
624.945	42501.82
625.3	42583.4
625.655	42634.7
626.01	42620.01
626.365	42909.49
626.72	42726.22
627.075	42728.26
627.43	42914.46
627.785	42708.59
628.14	42843.51
628.495	42826.11
628.85	42768.25
629.205	42757.63
629.559	42890.51
629.914	42786.78
630.269	42722.38
630.623	42885.77
630.978	42813.22
631.332	43060.68
631.687	42998.76
632.041	42949.27
632.396	43010.51
632.75	42875.82
633.104	43128.24
633.459	42777.52
633.813	42861.81
634.167	42879.89
634.521	42743.4
634.875	43018.19
635.229	42984.97
635.583	42812.32
635.937	42797.86
636.291	42798.99
636.645	42928.48
636.999	42760.34
637.352	42804.86
637.706	42537.98
638.06	42866.56
638.413	42720.8
638.767	42765.54
639.121	42741.14
639.474	42402.84
639.828	42531.65
640.181	42575.94
640.534	42660.91
640.888	42415.49
641.241	42305.44
641.594	42604.42
641.947	42560.35
642.301	42460.01
642.654	42539.79
643.007	42372.33
643.36	42495.72
643.713	42415.72
644.066	42492.56
644.419	42324.65
644.771	42042.62
645.124	41677.44
645.477	41574.84
645.83	41469.53
646.182	41241.29
646.535	41319.7
646.888	41289.42
647.24	41262.76
647.593	41348.63
647.945	41298.46
648.298	41111.12
648.65	40997.68
649.002	40940.05
649.355	41048.3
649.707	40940.96
650.059	41206.49
650.411	41688.73
650.763	41580.71
651.115	42025.9
651.467	41857.09
651.819	41905.68
652.171	41877.43
652.523	41801.05
652.875	41734.16
653.227	41526.93
653.578	41912.46
653.93	41749.75
654.282	41637.89
654.633	41597.21
654.985	41617.55
655.337	41641.73
655.688	41707.72
656.039	41909.07
656.391	41619.81
656.742	41611.9
657.094	41658.9
657.445	41705.23
657.796	41603.54
658.147	41606.93
658.498	41621.62
658.849	41574.84
659.2	41654.16
659.551	41399.93
659.902	41594.95
660.253	41468.63
660.604	41669.07
660.955	41432.7
661.306	41542.98
661.656	41512.24
662.007	41512.69
662.358	41426.37
662.708	41363.55
663.059	41467.05
663.409	41316.99
663.76	41499.36
664.11	41523.99
664.461	41527.83
664.811	41458.91
665.161	41426.59
665.511	41356.77
665.862	41441.96
666.212	41541.85
666.562	41454.84
666.912	41401.51
667.262	41280.84
667.612	41431.79
667.962	41347.27
668.312	41351.34
668.662	41371.91
669.011	41441.74
669.361	41222.76
669.711	41380.95
670.06	41281.97
670.41	41201.52
670.76	41036.55
671.109	41331.23
671.459	41166.49
671.808	41154.06
672.157	41255.53
672.507	40991.58
672.856	41106.83
673.205	41103.66
673.554	41183.21
673.904	41099.82
674.253	41349.31
674.602	41156.54
674.951	40589.33
675.3	40380.75
675.649	40997.23
675.998	40948.41
676.346	40976.21
676.695	41166.26
677.044	40785.48
677.393	40990
677.741	41002.42
678.09	40877.46
678.438	40830.45
678.787	40757.23
679.135	40747.97
679.484	40649.67
679.832	40802.2
680.181	40388.43
680.529	40617.8
680.877	40507.3
681.225	40442.67
681.573	40568.99
681.922	40297.36
682.27	40235.21
682.618	40172.62
682.966	40136.68
683.314	40183.46
683.661	40097.14
684.009	40000.87
684.357	39781.44
684.705	39778.5
685.053	39932.62
685.4	39891.49
685.748	39732.85
686.095	39752.51
686.443	39501
686.79	39506.42
687.138	39534.67
687.485	39615.34
687.832	39309.36
688.18	39473.43
688.527	39189.14
688.874	39198.4
689.221	39155.47
689.568	39070.72
689.915	38868.92
690.262	38937.17
690.609	38795.48
690.956	38810.84
691.303	38740.11
691.65	38547.35
691.997	38564.97
692.344	38234.36
692.69	38375.38
693.037	38381.93
693.383	38035.05
693.73	38250.86
694.077	37946.01
694.423	37944.65
694.769	37919.79
695.116	37638.67
695.462	37704.66
695.808	37602.29
696.155	37555.06
696.501	37292.69
696.847	37393.48
697.193	37034.85
697.539	37262.18
697.885	37103.09
698.231	36774.06
698.577	36846.15
698.923	36888.41
699.269	36708.98
699.614	36507.85
699.96	36498.81
700.306	36486.84
700.651	36318.48
700.997	36070.8
701.342	36133.85
701.688	36034.87
702.033	35923.46
702.379	35981.09
702.724	35936.12
703.069	35863.35
703.415	35417.94
703.76	35475.56
704.105	35572.51
704.45	35423.59
704.795	35380.2
705.14	35151.73
705.485	35125.97
705.83	35104.5
706.175	35024.73
706.52	34937.27
706.865	34800.78
707.209	34815.47
707.554	34657.96
707.899	34761.23
708.243	34401.24
708.588	34476.72
708.932	34406.21
709.277	34210.74
709.621	34287.35
709.966	34042.38
710.31	34140.23
710.654	33807.36
710.998	33929.84
711.342	33886.45
711.687	33792.67
712.031	33700.92
712.375	33632.45
712.719	33603.07
713.063	33391.33
713.407	33675.39
713.75	33433.58
714.094	33333.47
714.438	33175.06
714.782	33269.52
715.125	33117.21
715.469	33218.22
715.812	32983.65
716.156	32842.41
716.499	32858.01
716.843	32929.87
717.186	32672.02
717.53	32920.6
717.873	32820.27
718.216	32675.64
718.559	32505.25
718.902	32359.04
719.246	32381.63
719.589	32288.08
719.932	32193.39
720.275	32267.29
720.617	32304.57
720.96	32078.14
721.303	32114.3
721.646	32019.84
721.989	31852.16
722.331	32006.73
722.674	31910.69
723.016	31973.51
723.359	31760.18
723.701	31911.36
724.044	31626.17
724.386	31472.05
724.729	31631.15
725.071	31556.8
725.413	31585.27
725.755	31323.81
726.097	31435.9
726.439	31183.47
726.782	31237.26
727.124	31343.92
727.465	31105.28
727.807	31183.7
728.149	31029.35
728.491	31049.47
728.833	31049.69
729.175	30884.95
729.516	30931.5
729.858	30764.28
730.199	30853.09
730.541	30677.27
730.882	30680.44
731.224	30910.94
731.565	30645.63
731.906	30704.39
732.248	30680.21
732.589	30456.71
732.93	30377.62
733.271	30390.5
733.612	30478.41
733.953	30409.93
734.294	30285.42
734.635	30264.63
734.976	30316.83
735.317	30064.86
735.658	30108.47
735.999	30146.21
736.339	30054.46
736.68	30025.09
737.021	30058.76
737.361	29715.94
737.702	30013.79
738.042	29918.42
738.383	29803.62
738.723	29800.69
739.063	29708.03
739.404	29835.49
739.744	29661.71
740.084	29430.53
740.424	29686.79
740.764	29533.57
741.104	29576.96
741.444	29405.44
741.784	29335.84
742.124	29410.64
742.464	29380.81
742.804	29325.67
743.143	29274.37
743.483	29226.01
743.823	29057.65
744.162	29113.02
744.502	29151.44
744.841	29028.28
745.181	29163.87
745.52	29038.9
745.86	28989.86
746.199	28961.16
746.538	28869.41
746.877	28964.78
747.216	28878
747.556	28757.1
747.895	28654.5
748.234	28550.77
748.573	28625.58
748.911	28565.24
749.25	28481.17
749.589	28428.52
749.928	28525.92
750.267	28392.13
750.605	28376.77
750.944	28333.83
751.283	28239.14
751.621	28281.18
751.96	28028.98
752.298	28086.83
752.636	28009.32
752.975	27885.71
753.313	27795.31
753.651	27970.45
753.989	27958.47
754.327	27708.76
754.666	27551.25
755.004	27667.63
755.342	27648.65
755.679	27607.3
756.017	27421.09
756.355	27469.67
756.693	27415.66
757.031	27508.32
