Data from hue_22_FLMS001491_00095.txt Node
Date: Tue Feb 07 17:10:57 GMT 2017
User: dcchb
Spectrometer: FLMS00149
Trigger mode: 0
Integration Time (sec): 2.000000E-2
Scans to average: 10
Electric dark correction enabled: true
Nonlinearity correction enabled: false
Boxcar width: 0
XAxis mode: Wavelengths
Number of Pixels in Spectrum: 2048
>>>>>Begin Spectral Data<<<<<
341.393	3.53
341.776	3.53
342.16	3.53
342.543	-54.09
342.927	-62
343.31	-76.47
343.693	-73.53
344.077	-50.93
344.46	-35.11
344.843	-62
345.226	-53.42
345.61	-43.25
345.993	-6.64
346.376	9.41
346.759	-14.77
347.142	17.54
347.525	38.33
347.908	59.12
348.291	65.9
348.674	97.54
349.057	128.27
349.44	143.87
349.823	145.22
350.206	150.19
350.588	201.94
350.971	219.8
351.354	232.68
351.737	241.26
352.119	246.69
352.502	269.51
352.884	274.03
353.267	292.11
353.65	312.45
354.032	286.46
354.414	323.3
354.797	324.43
355.179	310.87
355.562	318.32
355.944	316.74
356.326	338.21
356.709	338.89
357.091	339.34
357.473	358.32
357.855	349.06
358.238	323.75
358.62	329.62
359.002	346.35
359.384	351.09
359.766	340.02
360.148	335.27
360.53	351.32
360.912	327.82
361.294	341.38
361.676	331.88
362.057	327.59
362.439	345.89
362.821	324.88
363.203	317.42
363.584	340.25
363.966	328.49
364.348	311.77
364.729	316.97
365.111	320.58
365.493	329.4
365.874	344.99
366.256	319.68
366.637	312.45
367.019	324.2
367.4	345.67
367.781	327.36
368.163	313.58
368.544	320.58
368.925	307.93
369.306	308.61
369.688	295.73
370.069	308.61
370.45	317.87
370.831	298.66
371.212	302.51
371.593	301.6
371.974	321.94
372.355	333.01
372.736	316.97
373.117	316.07
373.498	335.5
373.879	322.62
374.26	316.29
374.641	301.38
375.021	320.58
375.402	328.95
375.783	315.61
376.163	331.66
376.544	335.05
376.925	329.17
377.305	331.66
377.686	319.91
378.066	325.33
378.447	336.4
378.827	329.62
379.208	320.13
379.588	343.18
379.968	325.78
380.349	312.9
380.729	341.83
381.109	341.6
381.489	344.76
381.87	333.69
382.25	350.87
382.63	342.28
383.01	343.18
383.39	327.82
383.77	335.73
384.15	350.87
384.53	346.35
384.91	354.93
385.29	339.79
385.67	347.48
386.049	359.45
386.429	348.61
386.809	351.32
387.189	349.51
387.568	353.58
387.948	370.98
388.328	358.55
388.707	356.97
389.087	363.3
389.466	371.88
389.846	359.45
390.225	365.1
390.605	347.7
390.984	354.48
391.363	364.2
391.743	372.79
392.122	364.88
392.501	352.45
392.881	377.76
393.26	371.66
393.639	375.27
394.018	358.55
394.397	363.75
394.776	387.02
395.155	376.63
395.534	383.63
395.913	375.05
396.292	393.8
396.671	356.06
397.05	352.22
397.429	373.24
397.808	389.74
398.186	379.34
398.565	388.15
398.944	373.92
399.323	394.93
399.701	389.96
400.08	402.84
400.458	386.35
400.837	401.71
401.215	381.37
401.594	395.84
401.972	384.76
402.351	420.02
402.729	386.12
403.107	403.97
403.486	389.51
403.864	403.52
404.242	413.69
404.62	401.26
404.999	404.42
405.377	410.53
405.755	406.91
406.133	416.4
406.511	410.75
406.889	413.92
407.267	427.93
407.645	422.28
408.023	435.61
408.401	420.7
408.779	433.35
409.156	421.6
409.534	438.1
409.912	436.97
410.29	423.18
410.667	432.67
411.045	446.23
411.422	448.94
411.8	445.78
412.178	461.15
412.555	448.04
412.933	469.06
413.31	450.98
413.687	483.97
414.065	470.19
414.442	458.43
414.819	506.79
415.197	483.74
415.574	482.39
415.951	461.6
416.328	487.59
416.705	487.13
417.082	466.57
417.46	507.02
417.837	510.41
418.214	501.6
418.591	480.58
418.967	489.85
419.344	477.42
419.721	484.87
420.098	488.49
420.475	490.3
420.852	520.13
421.228	510.41
421.605	522.16
421.982	511.77
422.358	509.96
422.735	503.18
423.111	533.01
423.488	523.74
423.864	513.35
424.241	529.17
424.617	541.14
424.994	548.38
425.37	535.49
425.746	530.52
426.123	550.64
426.499	547.02
426.875	551.09
427.251	563.74
427.627	570.52
428.003	568.71
428.379	552.22
428.756	561.93
429.132	589.28
429.507	573.69
429.883	590.86
430.259	588.15
430.635	591.09
431.011	581.14
431.387	605.1
431.763	603.06
432.138	593.57
432.514	598.54
432.89	610.29
433.265	639.22
433.641	626.79
434.016	629.28
434.392	648.03
434.767	630.18
435.143	640.12
435.518	679.67
435.894	651.65
436.269	654.36
436.644	659.56
437.02	664.3
437.395	674.47
437.77	685.77
438.145	662.5
438.52	676.73
438.895	683.06
439.271	704.3
439.646	664.53
440.021	710.63
440.395	720.12
440.77	718.77
441.145	710.41
441.52	735.72
441.895	706.56
442.27	735.72
442.645	740.46
443.019	741.36
443.394	737.52
443.769	743.4
444.143	755.38
444.518	759.44
444.892	753.57
445.267	754.25
445.641	756.73
446.016	746.56
446.39	768.26
446.764	751.53
447.139	776.84
447.513	756.28
447.887	777.75
448.262	787.69
448.636	780.46
449.01	788.6
449.384	809.16
449.758	801.93
450.132	823.4
450.506	799.44
450.88	808.71
451.254	788.6
451.628	819.78
452.002	825.43
452.376	827.01
452.75	847.12
453.123	871.98
453.497	867.46
453.871	858.65
454.244	880.57
454.618	869.5
454.992	906.33
455.365	894.36
455.739	907.69
456.112	902.04
456.486	926.9
456.859	937.07
457.232	938.2
457.606	954.24
457.979	926.22
458.352	939.55
458.725	993.11
459.099	979.78
459.472	979.78
459.845	1005.99
460.218	1010.06
460.591	1006.89
460.964	1025.65
461.337	1037.18
461.71	1053.67
462.083	1049.15
462.456	1058.42
462.829	1096.16
463.201	1091.19
463.574	1076.27
463.947	1088.93
464.32	1113.78
464.692	1129.83
465.065	1114.01
465.438	1166.89
465.81	1173.9
466.183	1183.61
466.555	1195.36
466.928	1191.75
467.3	1203.73
467.672	1234.69
468.045	1257.06
468.417	1264.51
468.789	1276.27
469.161	1278.75
469.534	1297.06
469.906	1324.4
470.278	1318.75
470.65	1339.09
471.022	1398.75
471.394	1408.69
471.766	1407.11
472.138	1443.04
472.51	1461.57
472.882	1430.61
473.253	1488.46
473.625	1520.1
473.997	1551.29
474.369	1545.64
474.74	1571.85
475.112	1601
475.484	1655.24
475.855	1675.8
476.227	1679.19
476.598	1707.21
476.97	1726.88
477.341	1790.15
477.713	1810.94
478.084	1812.97
478.455	1900.66
478.827	1910.37
479.198	1958.51
479.569	1980.43
479.94	2028.11
480.311	2026.53
480.682	2096.13
481.053	2132.74
481.424	2180.42
481.795	2202.57
482.166	2210.93
482.537	2267.2
482.908	2330.93
483.279	2366.41
483.65	2421.32
484.021	2467.65
484.391	2492.51
484.762	2530.92
485.133	2516.46
485.503	2623.35
485.874	2644.59
486.244	2696.57
486.615	2729.56
486.985	2783.57
487.356	2846.85
487.726	2872.38
488.097	2932.49
488.467	2979.05
488.837	3016.79
489.207	3032.38
489.578	3125.48
489.948	3166.61
490.318	3217.46
490.688	3253.16
491.058	3315.99
491.428	3349.88
491.798	3362.09
492.168	3444.12
492.538	3480.05
492.908	3535.42
493.278	3552.82
493.648	3648.86
494.017	3650.67
494.387	3695.41
494.757	3731.79
495.126	3746.48
495.496	3808.4
495.866	3817.67
496.235	3903.32
496.605	3912.35
496.974	3956.65
497.344	3979.92
497.713	3998.45
498.082	4041.62
498.452	4137.89
498.821	4108.96
499.19	4166.81
499.559	4188.73
499.928	4213.14
500.298	4209.75
500.667	4291.78
501.036	4288.84
501.405	4303.3
501.774	4345.79
502.143	4379.46
502.512	4417.65
502.88	4448.39
503.249	4423.3
503.618	4477.99
503.987	4539.91
504.356	4535.39
504.724	4561.15
505.093	4588.95
505.462	4607.93
505.83	4664.43
506.199	4650.64
506.567	4696.06
506.936	4749.85
507.304	4720.7
507.672	4809.05
508.041	4799.56
508.409	4865.32
508.777	4838.21
509.145	4900.35
509.514	4936.73
509.882	4958.2
510.25	4909.84
510.618	4987.81
510.986	4971.99
511.354	5051.99
511.722	4990.29
512.09	5096.5
512.458	5056.05
512.826	5120.68
513.193	5106
513.561	5163.4
513.929	5237.52
514.297	5198.2
514.664	5225.99
515.032	5264.41
515.4	5291.98
515.767	5326.33
516.135	5313.22
516.502	5352.09
516.869	5403.39
517.237	5343.96
517.604	5360.68
517.972	5390.28
518.339	5456.04
518.706	5465.53
519.073	5475.7
519.44	5511.41
519.808	5527.23
520.175	5537.17
520.542	5566.77
520.909	5577.4
521.276	5622.37
521.643	5636.15
522.009	5694.45
522.376	5681.57
522.743	5727.9
523.11	5794.34
523.477	5826.43
523.843	5824.39
524.21	5886.31
524.577	5884.05
524.943	5908.23
525.31	5967.22
525.676	5982.58
526.043	5972.64
526.409	6024.62
526.776	6071.62
527.142	6145.29
527.508	6102.13
527.874	6173.09
528.241	6147.1
528.607	6190.71
528.973	6297.6
529.339	6273.42
529.705	6338.05
530.071	6335.12
530.437	6384.83
530.803	6359.97
531.169	6446.75
531.535	6410.82
531.901	6450.59
532.267	6529.24
532.632	6542.34
532.998	6625.96
533.364	6618.5
533.73	6651.94
534.095	6643.58
534.461	6729.23
534.826	6708.89
535.192	6786.18
535.557	6818.94
535.923	6780.98
536.288	6860.75
536.653	6899.62
537.019	6906.17
537.384	6869.57
537.749	6918.15
538.114	7009.9
538.479	7026.85
538.845	7006.96
539.21	6973.29
539.575	6987.98
539.94	7044.02
540.305	7090.12
540.67	7055.55
541.034	7084.93
541.399	7185.94
541.764	7134.42
542.129	7192.49
542.494	7211.03
542.858	7302.32
543.223	7257.8
543.587	7331.02
543.952	7404.24
544.316	7361.98
544.681	7419.61
545.045	7470.91
545.41	7462.54
545.774	7571.24
546.138	7582.77
546.503	7530.56
546.867	7594.97
547.231	7597
547.595	7638.58
547.959	7754.74
548.324	7693.05
548.688	7665.02
549.052	7724.68
549.416	7784.57
549.779	7808.75
550.143	7813.95
550.507	7894.17
550.871	7835.87
551.235	7866.6
551.599	7961.06
551.962	7991.34
552.326	8008.97
552.689	8011.91
553.053	8013.94
553.417	8022.08
553.78	8116.09
554.143	8073.15
554.507	8128.74
554.87	8200.15
555.234	8232.69
555.597	8211.68
555.96	8251.22
556.323	8272.47
556.686	8262.52
557.05	8349.3
557.413	8355.18
557.776	8335.06
558.139	8421.16
558.502	8455.96
558.865	8481.95
559.228	8504.32
559.59	8542.97
559.953	8509.97
560.316	8634.72
560.679	8668.39
561.041	8609.41
561.404	8693.47
561.767	8746.13
562.129	8717.88
562.492	8758.1
562.854	8724.66
563.217	8748.61
563.579	8873.13
563.941	8906.8
564.304	8875.61
564.666	8993.35
565.028	8916.74
565.39	8961.94
565.753	9043.52
566.115	9040.13
566.477	9162.61
566.839	9127.81
567.201	9172.1
567.563	9266.79
567.925	9327.13
568.287	9282.16
568.648	9316.51
569.01	9372.32
569.372	9431.08
569.734	9387.24
570.095	9393.57
570.457	9547.23
570.819	9561.47
571.18	9532.32
571.542	9649.15
571.903	9598.76
572.265	9660.23
572.626	9715.37
572.987	9783.61
573.349	9871.75
573.71	9934.12
574.071	9981.12
574.432	10006.88
574.794	10078.97
575.155	10108.58
575.516	10172.53
575.877	10230.61
576.238	10328.01
576.599	10413.2
576.96	10440.32
577.32	10516.47
577.681	10627.21
578.042	10765.73
578.403	10819.07
578.763	10919.18
579.124	11004.82
579.485	11052.51
579.845	11225.16
580.206	11377.7
580.566	11477.81
580.927	11536.79
581.287	11710.79
581.648	11817.46
582.008	12011.35
582.368	12141.97
582.728	12315.75
583.089	12484.56
583.449	12661.5
583.809	12765
584.169	13008.61
584.529	13158.21
584.889	13417.42
585.249	13533.12
585.609	13729.95
585.969	14062.82
586.329	14137.62
586.688	14475.92
587.048	14728.12
587.408	14831.39
587.768	15133.98
588.127	15475.21
588.487	15644.7
588.846	15964.02
589.206	16234.97
589.565	16519.48
589.925	16795.86
590.284	17068.84
590.643	17362.4
591.003	17805.1
591.362	18163.73
591.721	18396.72
592.08	18610.27
592.44	18966.2
592.799	19346.98
593.158	19557.59
593.517	19869.68
593.876	20280.06
594.235	20626.49
594.593	20898.12
594.952	21355.29
595.311	21572.68
595.67	22025.1
596.029	22460.34
596.387	22743.95
596.746	23211.28
597.104	23396.36
597.463	23803.36
597.822	24169.9
598.18	24465.71
598.538	24792.94
598.897	25258.91
599.255	25438.57
599.613	26026.12
599.972	26208.72
600.33	26701.36
600.688	26845.54
601.046	27306.32
601.404	27676.93
601.762	27909.01
602.12	28447.08
602.478	28704.92
602.836	29015.2
603.194	29183.1
603.552	29563.21
603.91	29747.38
604.268	30220.82
604.625	30397.08
604.983	30941.93
605.341	31098.31
605.698	31519.54
606.056	31850.38
606.413	32082.91
606.771	32488.33
607.128	32724.7
607.485	32834.53
607.843	33222.32
608.2	33527.17
608.557	34001.73
608.914	33992.92
609.272	34481.95
609.629	34736.63
609.986	34998.77
610.343	35065.89
610.7	35535.03
611.057	35757.85
611.414	35936.15
611.771	36204.61
612.127	36533.19
612.484	36634.43
612.841	37122.1
613.198	37131.37
613.554	37280.97
613.911	37826.72
614.267	37988.29
614.624	38127.95
614.98	38255.86
615.337	38664.21
615.693	38646.58
616.05	38906.69
616.406	39281.82
616.762	39219.67
617.118	39402.04
617.475	39603.39
617.831	39858.08
618.187	39913.44
618.543	40158.63
618.899	40549.58
619.255	40569.02
619.611	40604.27
619.967	40985.73
620.323	41230.92
620.678	41021.66
621.034	41304.37
621.39	41368.55
621.746	41410.8
622.101	41907.06
622.457	41745.26
622.812	41841.75
623.168	42032.93
623.523	42115.19
623.879	42470.21
624.234	42322.64
624.589	42391.12
624.945	42628.85
625.3	42675.63
625.655	42690.09
626.01	42816.64
626.365	42917.88
626.72	43026.58
627.075	42926.02
627.43	43181.15
627.785	43063.64
628.14	43200.81
628.495	43420.02
628.85	43171.21
629.205	43326.46
629.559	43555.83
629.914	43382.05
630.269	43459.34
630.623	43498.21
630.978	43419.11
631.332	43722.38
631.687	43718.31
632.041	43656.17
632.396	43843.51
632.75	43742.49
633.104	43850.97
633.459	43731.87
633.813	43682.16
634.167	43585.66
634.521	43953.34
634.875	43901.13
635.229	43854.36
635.583	43663.4
635.937	43825.2
636.291	43784.3
636.645	43962.15
636.999	43746.11
637.352	43938.87
637.706	43725.09
638.06	43860.91
638.413	43744.98
638.767	43680.57
639.121	43756.5
639.474	43544.08
639.828	43740.91
640.181	43606.45
640.534	43757.63
640.888	43753.79
641.241	43614.14
641.594	43663.63
641.947	43667.47
642.301	43626.34
642.654	43660.91
643.007	43621.14
643.36	43491.43
643.713	43557.64
644.066	43784.07
644.419	43462.73
644.771	43316.74
645.124	42843.99
645.477	42906.13
645.83	42674.5
646.182	42462.98
646.535	42571.68
646.888	42580.04
647.24	42428.86
647.593	42561.73
647.945	42459.82
648.298	42335.75
648.65	42415.75
649.002	42289.42
649.355	42357.67
649.707	42302.08
650.059	42495.52
650.411	42942.06
650.763	43046.24
651.115	43412.79
651.467	43252.79
651.819	43317.42
652.171	43018.67
652.523	43108.84
652.875	43168.05
653.227	43011.89
653.578	43294.6
653.93	43091.21
654.282	43079.01
654.633	42909.52
654.985	43084.21
655.337	42988.16
655.688	43075.84
656.039	43130.98
656.391	42753.59
656.742	42885.57
657.094	42984.32
657.445	43069.29
657.796	42978.22
658.147	42828.62
658.498	42903.87
658.849	42969.41
659.2	42828.39
659.551	42879.69
659.902	42988.16
660.253	42900.71
660.604	42969.41
660.955	42598.12
661.306	42884.66
661.656	42777.55
662.007	42844.66
662.358	42872.01
662.708	42775.51
663.059	42781.16
663.409	42481.06
663.76	42780.94
664.11	42861.16
664.461	42860.26
664.811	42834.27
665.161	42770.99
665.511	42630.66
665.862	42709.07
666.212	42763.54
666.562	42851.9
666.912	42666.59
667.262	42730.32
667.612	42866.81
667.962	42745.01
668.312	42548.18
668.662	42868.84
669.011	42577.1
669.361	42739.36
669.711	42590.66
670.06	42598.12
670.41	42532.81
670.76	42538.23
671.109	42669.53
671.459	42494.62
671.808	42476.09
672.157	42523.54
672.507	42185.92
672.856	42298.69
673.205	42345.47
673.554	42488.29
673.904	42349.76
674.253	42488.97
674.602	42476.09
674.951	41839.95
675.3	41665.71
675.649	42278.8
675.998	42296.2
676.346	42299.14
676.695	42294.62
677.044	42081.52
677.393	42164
677.741	42241.29
678.09	42174.63
678.438	41950.9
678.787	42069.32
679.135	42070
679.484	41823.22
679.832	41945.93
680.181	41754.3
680.529	41925.37
680.877	41768.31
681.225	41674.3
681.573	41893.95
681.922	41576.9
682.27	41519.28
682.618	41483.12
682.966	41364.93
683.314	41552.04
683.661	41448.09
684.009	41198.61
684.357	41258.94
684.705	41094.43
685.053	41089.91
685.4	41136.91
685.748	41015.79
686.095	40979.85
686.443	40794.1
686.79	40755.23
687.138	40848.78
687.485	40850.37
687.832	40742.57
688.18	40874.77
688.527	40552.07
688.874	40614.44
689.221	40473.2
689.568	40338.97
689.915	40328.35
690.262	40256.03
690.609	40133.55
690.956	40003.61
691.303	39969.71
691.65	39814.46
691.997	39819.66
692.344	39553.9
692.69	39585.54
693.037	39428.94
693.383	39173.12
693.73	39207.25
694.077	38951.43
694.423	39099.23
694.769	39068.27
695.116	38979
695.462	38774.49
695.808	38691.1
696.155	38774.94
696.501	38429.87
696.847	38512.12
697.193	38218.35
697.539	38327.5
697.885	38186.71
698.231	38163.21
698.577	38094.96
698.923	38097.67
699.269	37825.36
699.614	37743.56
699.96	37628.76
700.306	37596.89
700.651	37450.91
700.997	37363.23
701.342	37206.17
701.688	37277.35
702.033	37019.73
702.379	37063.57
702.724	36924.59
703.069	37015.21
703.415	36589.01
703.76	36679.85
704.105	36645.05
704.45	36541.33
704.795	36439.41
705.14	36353.99
705.485	36275.12
705.83	36085.29
706.175	36224.73
706.52	36177.95
706.865	35835.58
707.209	35913.32
707.554	35596.49
707.899	35790.84
708.243	35481.69
708.588	35615.93
708.932	35375.03
709.277	35245.99
709.621	35380.68
709.966	35276.95
710.31	35247.12
710.654	35038.99
710.998	35031.31
711.342	34975.94
711.687	34914.25
712.031	34752.67
712.375	34639
712.719	34587.48
713.063	34583.86
713.407	34632.9
713.75	34391.78
714.094	34400.82
714.438	34335.06
714.782	34191.11
715.125	34134.84
715.469	34292.35
715.812	34084.89
716.156	33828.63
716.499	33773.04
716.843	33901.17
717.186	33677
717.53	33911.79
717.873	33789.54
718.216	33795.18
718.559	33612.82
718.902	33369.89
719.246	33421.86
719.589	33258.02
719.932	33157.24
720.275	33281.3
720.617	33222.77
720.96	33190.23
721.303	33071.59
721.646	33120.4
721.989	32944.13
722.331	32989.78
722.674	32789.34
723.016	32940.29
723.359	32747.08
723.701	32909.56
724.044	32646.29
724.386	32484.26
724.729	32611.26
725.071	32559.96
725.413	32419.85
725.755	32444.49
726.097	32317.94
726.439	32232.06
726.782	32204.72
727.124	32310.93
727.465	32083.37
727.807	32104.38
728.149	32007.66
728.491	31976.48
728.833	32051.05
729.175	31998.4
729.516	31887.21
729.858	31881.11
730.199	31876.37
730.541	31773.77
730.882	31795.24
731.224	31844.05
731.565	31521.57
731.906	31616.49
732.248	31702.13
732.589	31269.15
732.93	31350.28
733.271	31368.13
733.612	31336.72
733.953	31493.1
734.294	31189.83
734.635	31137.85
734.976	31106.44
735.317	30954.13
735.658	30953.68
735.999	30981.47
736.339	31019.21
736.68	31088.14
737.021	30854.47
737.361	30757.07
737.702	30839.33
738.042	30813.12
738.383	30681.59
738.723	30646.57
739.063	30680.69
739.404	30647.02
739.744	30611.99
740.084	30534.48
740.424	30506.23
740.764	30395.95
741.104	30612.22
741.444	30237.31
741.784	30299.91
742.124	30316.41
742.464	30193.7
742.804	30232.57
743.143	30248.39
743.483	30218.1
743.823	29981.95
744.162	30010.2
744.502	30073.7
744.841	29846.81
745.181	30115.96
745.52	29982.18
745.86	29909.64
746.199	29772.01
746.538	29824.22
746.877	29858.34
747.216	29910.77
747.556	29800.04
747.895	29774.27
748.234	29474.39
748.573	29582.41
748.911	29560.27
749.25	29435.75
749.589	29364.34
749.928	29367.96
750.267	29421.97
750.605	29298.81
750.944	29317.56
751.283	29170
751.621	29250.22
751.96	28920.06
752.298	28988.98
752.636	29057.23
752.975	28779.95
753.313	28683.91
753.651	28931.13
753.989	28732.04
754.327	28831.47
754.666	28466.06
755.004	28621.76
755.342	28605.72
755.679	28452.27
756.017	28374.08
756.355	28466.29
756.693	28355.55
757.031	28379.06
757.368	28173.41
757.706	28085.73
758.044	28105.39
758.381	28114.66
758.719	27928.45
759.056	27984.04
759.394	27820.88
759.731	27649.58
760.068	27695.46
760.405	27490.27
760.743	27558.96
