Data from hue_260_FLMS001491_00016.txt Node
Date: Tue Feb 07 15:58:39 GMT 2017
User: dcchb
Spectrometer: FLMS00149
Trigger mode: 0
Integration Time (sec): 2.000000E-2
Scans to average: 10
Electric dark correction enabled: true
Nonlinearity correction enabled: false
Boxcar width: 0
XAxis mode: Wavelengths
Number of Pixels in Spectrum: 2048
>>>>>Begin Spectral Data<<<<<
341.393	-22.51
341.776	-22.51
342.16	-22.51
342.543	-53.47
342.927	-55.06
343.31	-83.98
343.693	-54.83
344.077	-60.48
344.46	-41.72
344.843	-52.8
345.226	-63.19
345.61	-14.83
345.993	-29.29
346.376	7.32
346.759	24.26
347.142	19.29
347.525	51.16
347.908	58.84
348.291	55
348.674	74.43
349.057	110.82
349.44	124.38
349.823	130.02
350.206	152.17
350.588	161.89
350.971	197.59
351.354	206.63
351.737	214.09
352.119	230.81
352.502	229.01
352.884	256.35
353.267	267.2
353.65	292.28
354.032	286.63
354.414	299.51
354.797	294.54
355.179	300.19
355.562	295.22
355.944	302.68
356.326	316.46
356.709	333.41
357.091	308.78
357.473	316.69
357.855	316.01
358.238	308.1
358.62	327.31
359.002	344.26
359.384	323.24
359.766	330.02
360.148	320.98
360.53	335.9
360.912	341.32
361.294	327.31
361.676	326.4
362.057	331.6
362.439	325.73
362.821	327.76
363.203	313.52
363.584	310.36
363.966	291.6
364.348	318.04
364.729	319.85
365.111	324.6
365.493	317.82
365.874	322.34
366.256	277.59
366.637	312.84
367.019	316.01
367.4	326.86
367.781	288.44
368.163	324.37
368.544	316.91
368.925	298.61
369.306	309.46
369.688	297.7
370.069	310.81
370.45	303.81
370.831	302
371.212	320.3
371.593	303.58
371.974	289.57
372.355	308.1
372.736	311.26
373.117	301.77
373.498	325.73
373.879	296.57
374.26	318.27
374.641	308.55
375.021	322.11
375.402	324.37
375.783	316.23
376.163	306.74
376.544	319.62
376.925	318.49
377.305	320.08
377.686	298.61
378.066	315.1
378.447	319.85
378.827	318.27
379.208	309.23
379.588	297.7
379.968	333.18
380.349	316.01
380.729	342.9
381.109	341.09
381.489	301.77
381.87	337.93
382.25	352.62
382.63	314.65
383.01	319.85
383.39	322.79
383.77	337.25
384.15	355.1
384.53	324.82
384.91	343.58
385.29	342.45
385.67	331.83
386.049	347.65
386.429	349.45
386.809	338.61
387.189	329.57
387.568	351.94
387.948	340.19
388.328	353.3
388.707	368.21
389.087	367.76
389.466	364.37
389.846	365.27
390.225	343.35
390.605	366.63
390.984	351.71
391.363	369.57
391.743	379.06
392.122	345.61
392.501	372.28
392.881	371.15
393.26	371.83
393.639	365.5
394.018	381.09
394.397	391.71
394.776	353.52
395.155	370.47
395.534	377.25
395.913	367.53
396.292	358.95
396.671	385.61
397.05	390.81
397.429	393.97
397.808	382
398.186	398.72
398.565	400.3
398.944	405.27
399.323	421.99
399.701	399.4
400.08	396.91
400.458	393.75
400.837	393.52
401.215	411.37
401.594	433.29
401.972	400.75
402.351	426.06
402.729	398.94
403.107	421.32
403.486	414.54
403.864	414.76
404.242	444.59
404.62	443.91
404.999	435.78
405.377	433.52
405.755	431.26
406.133	444.14
406.511	425.84
406.889	462.67
407.267	466.51
407.645	450.24
408.023	453.63
408.401	488.66
408.779	453.41
409.156	490.24
409.534	487.08
409.912	490.02
410.29	510.58
410.667	515.33
411.045	513.74
411.422	503.12
411.8	520.3
412.178	536.79
412.555	563.69
412.933	543.12
413.31	556.91
413.687	558.71
414.065	563.46
414.442	578.15
414.819	581.99
415.197	591.26
415.574	604.36
415.951	623.57
416.328	599.62
416.705	621.31
417.082	623.12
417.46	622.22
417.837	639.16
418.214	646.62
418.591	657.47
418.967	638.71
419.344	679.39
419.721	667.19
420.098	683.68
420.475	695.89
420.852	698.6
421.228	705.6
421.605	709.67
421.982	739.73
422.358	713.06
422.735	730.69
423.111	751.25
423.488	772.95
423.864	771.82
424.241	786.28
424.617	832.61
424.994	814.53
425.37	817.01
425.746	827.86
426.123	833.96
426.499	825.6
426.875	834.64
427.251	845.94
427.627	876.45
428.003	898.14
428.379	885.49
428.756	897.69
429.132	890.46
429.507	903.11
429.883	914.86
430.259	951.25
430.635	931.13
431.011	975.88
431.387	983.56
431.763	1014.3
432.138	1021.3
432.514	1029.66
432.89	1020.4
433.265	1079.38
433.641	1076.89
434.016	1082.99
434.392	1127.51
434.767	1132.03
435.143	1133.39
435.518	1137.68
435.894	1163.44
436.269	1151.24
436.644	1196.89
437.02	1240.96
437.395	1218.81
437.77	1257.23
438.145	1262.65
438.52	1272.37
438.895	1329.99
439.271	1340.84
439.646	1371.8
440.021	1343.55
440.395	1335.64
440.77	1373.83
441.145	1357.79
441.52	1435.98
441.895	1412.93
442.27	1435.98
442.645	1433.72
443.019	1456.09
443.394	1452.7
443.769	1493.38
444.143	1446.83
444.518	1521.85
444.892	1493.15
445.267	1547.16
445.641	1553.04
446.016	1567.5
446.39	1548.74
446.764	1588.29
447.139	1555.98
447.513	1572.7
447.887	1594.39
448.262	1588.97
448.636	1628.06
449.01	1610.89
449.384	1631.23
449.758	1644.11
450.132	1648.85
450.506	1695.63
450.88	1720.49
451.254	1697.67
451.628	1720.49
452.002	1723.2
452.376	1761.85
452.75	1780.15
453.123	1801.17
453.497	1767.04
453.871	1833.93
454.244	1851.34
454.618	1854.05
454.992	1859.7
455.365	1878
455.739	1917.55
456.112	1930.43
456.486	1939.69
456.859	1938.11
457.232	2011.33
457.606	1983.31
457.979	2018.11
458.352	2054.49
458.725	2103.98
459.099	2085.68
459.472	2106.47
459.845	2129.97
460.218	2145.79
460.591	2154.38
460.964	2173.36
461.337	2207.94
461.71	2249.07
462.083	2254.26
462.456	2302.17
462.829	2269.86
463.201	2342.85
463.574	2332.9
463.947	2353.92
464.32	2416.74
464.692	2428.5
465.065	2463.3
465.438	2480.25
465.81	2501.26
466.183	2529.96
466.555	2586.68
466.928	2590.98
467.3	2574.03
467.672	2610.41
468.045	2653.12
468.417	2680.01
468.789	2716.62
469.161	2748.71
469.534	2775.6
469.906	2806.34
470.278	2805.66
470.65	2889.5
471.022	2929.05
471.394	2967.92
471.766	2961.59
472.138	3029.84
472.51	3051.76
472.882	3117.29
473.253	3112.09
473.625	3195.48
473.997	3235.48
474.369	3231.19
474.74	3295.37
475.112	3334.69
475.484	3387.11
475.855	3414.23
476.227	3491.52
476.598	3543.04
476.97	3550.5
477.341	3622.14
477.713	3665.98
478.084	3661.46
478.455	3783.71
478.827	3814.9
479.198	3910.94
479.569	3933.77
479.94	3992.3
480.311	4026.87
480.682	4067.77
481.053	4170.37
481.424	4238.84
481.795	4237.49
482.166	4287.43
482.537	4349.35
482.908	4423.7
483.279	4470.93
483.65	4543.02
484.021	4628.89
484.391	4666.85
484.762	4700.3
485.133	4722.67
485.503	4787.53
485.874	4846.29
486.244	4883.12
486.615	4986.17
486.985	5007.86
487.356	5115.2
487.726	5123.34
488.097	5182.77
488.467	5158.37
488.837	5307.97
489.207	5361.98
489.578	5391.36
489.948	5440.85
490.318	5543.67
490.688	5553.39
491.058	5638.58
491.428	5690.56
491.798	5750.89
492.168	5846.03
492.538	5862.98
492.908	5908.4
493.278	5991.34
493.648	5937.78
494.017	6010.55
494.387	6120.38
494.757	6106.59
495.126	6200.15
495.496	6182.52
495.866	6192.92
496.235	6306.13
496.605	6323.53
496.974	6323.08
497.344	6427.03
497.713	6403.08
498.082	6434.04
498.452	6520.37
498.821	6538.22
499.19	6550.87
499.559	6560.14
499.928	6625.67
500.298	6633.81
500.667	6697.76
501.036	6720.81
501.405	6811.21
501.774	6688.72
502.143	6740.92
502.512	6765.56
502.88	6814.82
503.249	6815.27
503.618	6874.93
503.987	6873.35
504.356	6925.55
504.724	6947.47
505.093	6943.41
505.462	6978.43
505.83	7029.28
506.199	7016.4
506.567	7128.03
506.936	7077.19
507.304	7150.63
507.672	7105.66
508.041	7217.52
508.409	7213.45
508.777	7205.77
509.145	7275.83
509.514	7256.84
509.882	7340.23
510.25	7355.37
510.618	7337.07
510.986	7326.67
511.354	7402.38
511.722	7490.74
512.09	7491.87
512.458	7469.49
512.826	7498.64
513.193	7428.36
513.561	7513.33
513.929	7474.92
514.297	7571.41
514.664	7609.6
515.032	7568.93
515.4	7630.84
515.767	7641.92
516.135	7733.67
516.502	7624.07
516.869	7757.17
517.237	7761.91
517.604	7681.46
517.972	7805.08
518.339	7810.73
518.706	7773.44
519.073	7779.99
519.44	7790.39
519.808	7867.22
520.175	7782.93
520.542	7926.2
520.909	7839.43
521.276	7839.43
521.643	7921.91
522.009	7923.04
522.376	7966.43
522.743	7932.76
523.11	8038.07
523.477	8053.66
523.843	8084.39
524.21	8131.85
524.577	8149.25
524.943	8144.73
525.31	8150.83
525.676	8179.08
526.043	8200.77
526.409	8158.74
526.776	8252.98
527.142	8246.65
527.508	8304.73
527.874	8314.89
528.241	8366.87
528.607	8311.73
528.973	8365.97
529.339	8339.53
529.705	8403.03
530.071	8413.2
530.437	8450.71
530.803	8428.11
531.169	8418.85
531.535	8411.84
531.901	8434.67
532.267	8436.47
532.632	8469.47
532.998	8494.32
533.364	8484.16
533.73	8504.49
534.095	8514.89
534.461	8502.01
534.826	8495.68
535.192	8459.52
535.557	8498.62
535.923	8526.64
536.288	8513.53
536.653	8564.83
537.019	8478.28
537.384	8515.57
537.749	8490.03
538.114	8503.82
538.479	8482.8
538.845	8508.34
539.21	8453.65
539.575	8520.31
539.94	8481.22
540.305	8585.4
540.67	8508.79
541.034	8568.22
541.399	8478.51
541.764	8478.05
542.129	8455
542.494	8553.98
542.858	8527.77
543.223	8456.36
543.587	8483.48
543.952	8450.03
544.316	8489.81
544.681	8462.69
545.045	8483.25
545.41	8469.92
545.774	8527.77
546.138	8510.14
546.503	8441.9
546.867	8443.7
547.231	8476.47
547.595	8477.38
547.959	8464.27
548.324	8433.76
548.688	8406.19
549.052	8397.15
549.416	8473.99
549.779	8383.82
550.143	8442.8
550.507	8415.91
550.871	8451.16
551.235	8349.92
551.599	8452.52
551.962	8411.84
552.326	8402.35
552.689	8451.61
553.053	8386.3
553.417	8356.7
553.78	8418.62
554.143	8354.67
554.507	8396.02
554.87	8470.14
555.234	8468.56
555.597	8449.58
555.96	8444.61
556.323	8449.58
556.686	8415.68
557.05	8476.7
557.413	8490.03
557.776	8467.66
558.139	8478.28
558.502	8481.22
558.865	8494.55
559.228	8526.41
559.59	8507.21
559.953	8519.86
560.316	8603.47
560.679	8573.19
561.041	8583.36
561.404	8611.16
561.767	8575.45
562.129	8600.76
562.492	8677.6
562.854	8582.23
563.217	8665.39
563.579	8615.9
563.941	8729.8
564.304	8716.92
564.666	8781.1
565.028	8740.87
565.39	8693.19
565.753	8803.7
566.115	8788.55
566.477	8799.4
566.839	8787.65
567.201	8855.45
567.563	8786.75
567.925	8881.43
568.287	8975.67
568.648	8924.82
569.01	9021.32
569.372	9007.08
569.734	8960.08
570.095	9009.11
570.457	9104.25
570.819	9024.71
571.18	9077.59
571.542	9062.9
571.903	9089.56
572.265	9118.72
572.626	9134.76
572.987	9141.09
573.349	9232.84
573.71	9240.75
574.071	9174.08
574.432	9257.47
574.794	9361.65
575.155	9334.75
575.516	9298.6
575.877	9381.53
576.238	9381.76
576.599	9349.44
576.96	9402.32
577.32	9418.59
577.681	9467.18
578.042	9519.61
578.403	9449.55
578.763	9493.85
579.124	9527.52
579.485	9527.97
579.845	9568.19
580.206	9553.05
580.566	9576.56
580.927	9674.63
581.287	9622.43
581.648	9637.35
582.008	9696.33
582.368	9706.04
582.728	9680.73
583.089	9677.57
583.449	9700.85
583.809	9712.6
584.169	9825.59
584.529	9784.69
584.889	9856.32
585.249	9836.66
585.609	9750.79
585.969	9827.62
586.329	9817.68
586.688	9871.69
587.048	9888.19
587.408	9817.68
587.768	9845.25
588.127	9863.78
588.487	9842.54
588.846	9924.34
589.206	9928.41
589.565	9890.45
589.925	9958.02
590.284	9985.58
590.643	9993.72
591.003	9956.89
591.362	10012.48
591.721	10005.25
592.08	9990.78
592.44	10065.36
592.799	10071.91
593.158	10035.08
593.517	10042.53
593.876	10042.31
594.235	10099.03
594.593	10070.78
594.952	10087.73
595.311	10031.69
595.67	10083.89
596.029	10181.29
596.387	10145.58
596.746	10165.02
597.104	10156.43
597.463	10221.96
597.822	10201.4
598.18	10144
598.538	10176.54
598.897	10238.46
599.255	10197.78
599.613	10316.2
599.972	10271.68
600.33	10272.13
600.688	10180.61
601.046	10277.1
601.404	10240.27
601.762	10384.9
602.12	10270.55
602.478	10310.77
602.836	10260.61
603.194	10277.55
603.552	10259.02
603.91	10348.51
604.268	10269.42
604.625	10261.06
604.983	10293.83
605.341	10353.48
605.698	10335.18
606.056	10387.61
606.413	10387.61
606.771	10306.03
607.128	10365.24
607.485	10339.02
607.843	10375.86
608.2	10388.96
608.557	10395.52
608.914	10393.71
609.272	10475.29
609.629	10433.93
609.986	10482.07
610.343	10400.49
610.7	10499.92
611.057	10423.77
611.414	10535.85
611.771	10502.86
612.127	10564.1
612.484	10483.42
612.841	10584.89
613.198	10485.01
613.554	10566.36
613.911	10618.11
614.267	10544.89
614.624	10560.71
614.98	10538.56
615.337	10613.59
615.693	10656.98
616.05	10663.31
616.406	10685.23
616.762	10651.1
617.118	10579.47
617.475	10673.48
617.831	10704.44
618.187	10683.65
618.543	10679.35
618.899	10749.41
619.255	10642.52
619.611	10621.27
619.967	10668.73
620.323	10694.72
620.678	10689.52
621.034	10645.91
621.39	10653.36
621.746	10636.64
622.101	10763.19
622.457	10659.24
622.812	10712.8
623.168	10745.79
623.523	10704.66
623.879	10713.25
624.234	10738.79
624.589	10717.32
624.945	10662.86
625.3	10740.37
625.655	10757.99
626.01	10764.55
626.365	10766.58
626.72	10717.09
627.075	10777.43
627.43	10640.26
627.785	10690.43
628.14	10693.59
628.495	10721.84
628.85	10652.91
629.205	10654.27
629.559	10691.1
629.914	10564.78
630.269	10651.33
630.623	10650.65
630.978	10606.81
631.332	10674.15
631.687	10650.88
632.041	10594.16
632.396	10548.28
632.75	10553.03
633.104	10589.64
633.459	10475.97
633.813	10508.51
634.167	10418.57
634.521	10495.63
634.875	10472.13
635.229	10486.14
635.583	10447.04
635.937	10473.48
636.291	10430.54
636.645	10367.5
636.999	10451.56
637.352	10484.55
637.706	10362.98
638.06	10337.89
638.413	10448.17
638.767	10339.02
639.121	10281.4
639.474	10306.25
639.828	10325.46
640.181	10250.21
640.534	10256.54
640.888	10291.11
641.241	10239.14
641.594	10168.86
641.947	10306.25
642.301	10226.26
642.654	10235.75
643.007	10281.85
643.36	10208.63
643.713	10265.8
644.066	10297.89
644.419	10117.56
644.771	10139.03
645.124	9975.87
645.477	10017.22
645.83	9948.3
646.182	9899.94
646.535	9839.6
646.888	9889.77
647.24	9829.66
647.593	9863.1
647.945	9854.51
648.298	9820.17
648.65	9811.13
649.002	9776.55
649.355	9780.39
649.707	9838.47
650.059	9918.02
650.411	10051.12
650.763	10010.89
651.115	10141.06
651.467	10047.73
651.819	10125.47
652.171	10114.17
652.523	10123.21
652.875	10043.21
653.227	10022.19
653.578	10029.88
653.93	10036.21
654.282	9975.19
654.633	10011.12
654.985	10036.88
655.337	10017.67
655.688	9997.34
656.039	10064.68
656.391	9885.7
656.742	10010.22
657.094	10046.15
657.445	10048.18
657.796	9976.09
658.147	10028.52
658.498	10064
658.849	9982.2
659.2	10014.28
659.551	9988.52
659.902	10034.17
660.253	10019.03
660.604	10012.25
660.955	9933.38
661.306	10018.35
661.656	10018.8
662.007	10028.07
662.358	10084.79
662.708	10090.21
663.059	10047.05
663.409	9955.08
663.76	10102.87
664.11	10054.28
664.461	10009.31
664.811	10050.67
665.161	10084.34
665.511	10033.27
665.862	10051.57
666.212	10029.88
666.562	10108.75
666.912	10042.76
667.262	10018.13
667.612	10022.19
667.962	10055.41
668.312	9989.88
668.662	10024.45
669.011	10015.64
669.361	10022.42
669.711	10005.25
670.06	10006.38
670.41	9983.78
670.76	9885.7
671.109	10025.81
671.459	9981.52
671.808	10001.4
672.157	9991.01
672.507	9855.64
672.856	9949.2
673.205	9858.13
673.554	9973.83
673.904	9929.32
674.253	9932.7
674.602	9925.7
674.951	9755.99
675.3	9675.76
675.649	9869.43
675.998	9775.65
676.346	9900.16
676.695	9853.16
677.044	9769.55
677.393	9826.27
677.741	9834.85
678.09	9784.23
678.438	9783.33
678.787	9872.14
679.135	9800.28
679.484	9751.92
679.832	9760.05
680.181	9684.8
680.529	9752.14
680.877	9694.07
681.225	9676.21
681.573	9749.66
681.922	9658.36
682.27	9610.23
682.618	9595.76
682.966	9613.84
683.314	9643.67
683.661	9598.02
684.009	9520.29
684.357	9442.32
684.705	9548.31
685.053	9475.09
685.4	9465.6
685.748	9375.66
686.095	9423.79
686.443	9393.74
686.79	9367.52
687.138	9409.1
687.485	9372.72
687.832	9321.87
688.18	9364.81
688.527	9316.22
688.874	9280.52
689.221	9274.87
689.568	9235.32
689.915	9233.97
690.262	9159.17
690.609	9196.23
690.956	9125.95
691.303	9042.78
691.65	9031.49
691.997	9039.85
692.344	8958.27
692.69	8999.4
693.037	8968.44
693.383	8939.28
693.73	8927.76
694.077	8899.96
694.423	8881.89
694.769	8775.45
695.116	8741.1
695.462	8772.51
695.808	8725.96
696.155	8702.91
696.501	8615
696.847	8620.2
697.193	8548.33
697.539	8603.47
697.885	8534.78
698.231	8527.77
698.577	8542.91
698.923	8516.47
699.269	8459.07
699.614	8381.33
699.96	8342.24
700.306	8392.41
700.651	8299.75
700.997	8294.78
701.342	8288.23
701.688	8284.16
702.033	8246.87
702.379	8215.69
702.724	8178.85
703.069	8181.34
703.415	8074
703.76	8061.79
704.105	8119.65
704.45	8074.67
704.795	8005.98
705.14	7955.13
705.485	8010.5
705.83	7901.8
706.175	7948.12
706.52	7900.89
706.865	7865.41
707.209	7880.56
707.554	7840.78
707.899	7830.39
708.243	7781.12
708.588	7752.88
708.932	7703.39
709.277	7649.6
709.621	7683.27
709.966	7638.75
710.31	7681.92
710.654	7596.95
710.998	7617.06
711.342	7649.83
711.687	7576.83
712.031	7515.82
712.375	7507.23
712.719	7504.29
713.063	7550.39
713.407	7515.82
713.75	7470.62
714.094	7446.22
714.438	7420.45
714.782	7436.27
715.125	7430.17
715.469	7437.63
715.812	7397.18
716.156	7296.16
716.499	7390.4
716.843	7379.55
717.186	7328.48
717.53	7317.18
717.873	7348.59
718.216	7267.46
718.559	7313.11
718.902	7212.32
719.246	7261.36
719.589	7239.44
719.932	7180.01
720.275	7209.84
720.617	7239.22
720.96	7210.97
721.303	7206.67
721.646	7204.87
721.989	7155.38
722.331	7205.09
722.674	7209.39
723.016	7191.53
723.359	7140.24
723.701	7129.84
724.044	7114.93
724.386	7122.84
724.729	7161.93
725.071	7093.46
725.413	7104.08
725.755	7079.45
726.097	7049.16
726.439	6957.64
726.782	7033.57
727.124	7004.42
727.465	7063.85
727.807	7057.3
728.149	7049.39
728.491	6970.75
728.833	7046
729.175	7058.66
729.516	7066.34
729.858	7013.23
730.199	7029.73
730.541	7007.13
730.882	7037.19
731.224	6995.38
731.565	6996.06
731.906	6971.65
732.248	7026.57
732.589	6977.08
732.93	6972.56
733.271	7004.65
733.612	6960.58
733.953	6994.03
734.294	6949.96
734.635	6958.32
734.976	6956.51
735.317	6916.97
735.658	6993.8
735.999	6921.26
736.339	6948.83
736.68	6972.1
737.021	7027.24
737.361	6949.05
737.702	6959.68
738.042	7007.58
738.383	7005.78
738.723	6974.14
739.063	6899.79
739.404	7047.36
739.744	6975.49
740.084	6982.27
740.424	7000.35
740.764	7012.33
741.104	7055.27
741.444	7036.28
741.784	7014.82
742.124	7025.66
742.464	7080.8
742.804	7034.7
743.143	7020.47
743.483	7069.5
743.823	7071.54
744.162	7103.4
744.502	7142.95
744.841	7075.15
745.181	7171.42
745.52	7239.22
745.86	7177.3
746.199	7249.39
746.538	7264.98
746.877	7365.54
747.216	7333.45
747.556	7283.51
747.895	7363.28
748.234	7424.97
748.573	7443.05
748.911	7454.35
749.25	7598.08
749.589	7531.19
749.928	7662.71
750.267	7680.11
750.605	7732.31
750.944	7773.67
751.283	7845.3
751.621	7945.64
751.96	7902.7
752.298	8040.33
752.636	8168.46
752.975	8085.52
753.313	8198.51
753.651	8324.84
753.989	8365.74
754.327	8485.74
754.666	8515.79
755.004	8645.51
755.342	8730.93
755.679	8792.17
756.017	8945.16
756.355	8989.23
756.693	9135.44
757.031	9196.91
757.368	9352.83
757.706	9450.23
758.044	9489.33
758.381	9653.62
758.719	9753.95
759.056	9965.7
759.394	9968.64
759.731	10099.25
760.068	10245.01
760.405	10336.99
760.743	10412.24
761.08	10556.87
761.417	10659.47
761.754	10827.82
762.091	10961.15
762.428	11044.99
762.765	11153.24
763.102	11246.34
763.438	11397.53
763.775	11522.95
764.112	11682.94
764.449	11770.4
764.785	11911.18
765.122	11974.46
