Data from hue_320_FLMS001491_43.txt Node
Date: Mon Feb 06 15:47:15 GMT 2017
User: dcchb
Spectrometer: FLMS00149
Trigger mode: 0
Integration Time (sec): 2.000000E-2
Scans to average: 10
Electric dark correction enabled: true
Nonlinearity correction enabled: false
Boxcar width: 0
XAxis mode: Wavelengths
Number of Pixels in Spectrum: 2048
>>>>>Begin Spectral Data<<<<<
341.393	2.88
341.776	2.88
342.16	2.88
342.543	-69.66
342.927	-70.56
343.31	-71.92
343.693	-61.07
344.077	-56.1
344.46	-67.63
344.843	-52.26
345.226	-45.71
345.61	-46.16
345.993	-24.24
346.376	-3.22
346.759	19.6
347.142	34.74
347.525	22.32
347.908	84.91
348.291	88.3
348.674	67.96
349.057	110.45
349.44	126.27
349.823	136.66
350.206	160.39
350.588	179.15
350.971	211.69
351.354	212.82
351.737	224.8
352.119	255.3
352.502	248.98
352.884	266.38
353.267	262.31
353.65	276.09
354.032	290.33
354.414	292.37
354.797	285.59
355.179	312.93
355.562	313.83
355.944	328.75
356.326	340.05
356.709	328.3
357.091	351.57
357.473	340.5
357.855	333.49
358.238	328.52
358.62	335.53
359.002	351.12
359.384	329.88
359.766	348.41
360.148	338.01
360.53	323.78
360.912	333.04
361.294	325.36
361.676	329.65
362.057	338.01
362.439	330.78
362.821	314.74
363.203	315.42
363.584	324.45
363.966	302.99
364.348	305.25
364.729	317.68
365.111	305.47
365.493	313.83
365.874	312.25
366.256	307.05
366.637	286.49
367.019	300.05
367.4	308.64
367.781	308.64
368.163	293.04
368.544	302.76
368.925	321.52
369.306	316.77
369.688	313.16
370.069	282.87
370.45	287.85
370.831	329.43
371.212	277
371.593	309.54
371.974	301.86
372.355	321.74
372.736	307.05
373.117	313.61
373.498	297.56
373.879	295.53
374.26	308.18
374.641	304.34
375.021	321.07
375.402	342.53
375.783	305.25
376.163	299.14
376.544	314.74
376.925	295.53
377.305	307.96
377.686	315.19
378.066	321.74
378.447	315.19
378.827	316.77
379.208	332.14
379.588	298.24
379.968	335.75
380.349	317.68
380.729	324.91
381.109	309.31
381.489	344.34
381.87	326.49
382.25	320.16
382.63	325.36
383.01	322.19
383.39	329.65
383.77	320.39
384.15	333.04
384.53	335.53
384.91	334.62
385.29	345.02
385.67	337.79
386.049	343.44
386.429	334.85
386.809	337.56
387.189	331.91
387.568	342.08
387.948	326.49
388.328	334.85
388.707	339.37
389.087	336.66
389.466	352.25
389.846	354.28
390.225	350.89
390.605	337.11
390.984	340.73
391.363	350.89
391.743	347.5
392.122	356.54
392.501	361.97
392.881	334.85
393.26	365.36
393.639	364
394.018	349.31
394.397	370.33
394.776	371.69
395.155	352.25
395.534	349.54
395.913	375.07
396.292	373.49
396.671	341.4
397.05	357.9
397.429	369.88
397.808	387.05
398.186	367.84
398.565	373.04
398.944	378.46
399.323	380.5
399.701	384.57
400.08	384.57
400.458	389.09
400.837	379.82
401.215	405.36
401.594	388.41
401.972	383.89
402.351	397.67
402.729	406.71
403.107	385.47
403.486	382.53
403.864	385.47
404.242	414.62
404.62	425.24
404.999	414.4
405.377	417.56
405.755	411.23
406.133	400.38
406.511	421.63
406.889	410.78
407.267	426.6
407.645	414.4
408.023	452.59
408.401	458.91
408.779	437.9
409.156	451.23
409.534	450.1
409.912	459.37
410.29	449.65
410.667	457.78
411.045	459.82
411.422	455.3
411.8	479.7
412.178	464.56
412.555	481.06
412.933	526.71
413.31	504.79
413.687	505.92
414.065	486.26
414.442	518.8
414.819	527.39
415.197	523.32
415.574	508.4
415.951	540.04
416.328	514.51
416.705	544.34
417.082	552.7
417.46	558.57
417.837	553.38
418.214	546.6
418.591	561.06
418.967	584.79
419.344	576.2
419.721	617.55
420.098	600.83
420.475	602.19
420.852	610.1
421.228	621.4
421.605	623.2
421.982	638.57
422.358	635.63
422.735	639.02
423.111	651.9
423.488	659.36
423.864	673.82
424.241	675.63
424.617	712.92
424.994	671.79
425.37	695.07
425.746	702.52
426.123	703.65
426.499	717.89
426.875	705.24
427.251	730.55
427.627	736.42
428.003	728.96
428.379	712.47
428.756	754.5
429.132	752.69
429.507	751.34
429.883	782.97
430.259	773.71
430.635	793.37
431.011	810.77
431.387	821.39
431.763	812.8
432.138	805.8
432.514	815.06
432.89	803.76
433.265	852.58
433.641	876.3
434.016	878.11
434.392	873.37
434.767	876.08
435.143	879.92
435.518	925.34
435.894	910.2
436.269	915.4
436.644	939.58
437.02	936.87
437.395	930.77
437.77	949.07
438.145	942.74
438.52	964.66
438.895	983.87
439.271	996.75
439.646	990.88
440.021	981.16
440.395	975.74
440.77	993.36
441.145	991.56
441.52	1005.34
441.895	1034.27
442.27	1048.73
442.645	1022.29
443.019	1002.63
443.394	1015.06
443.769	1029.52
444.143	1051.44
444.518	1026.13
444.892	1054.15
445.267	1060.71
445.641	1056.64
446.016	1050.76
446.39	1056.19
446.764	1075.62
447.139	1083.76
447.513	1074.49
447.887	1066.13
448.262	1065.68
448.636	1093.47
449.01	1086.24
449.384	1110.42
449.758	1128.73
450.132	1113.81
450.506	1123.3
450.88	1118.78
451.254	1116.75
451.628	1126.02
452.002	1160.59
452.376	1138.44
452.75	1149.97
453.123	1148.61
453.497	1152.23
453.871	1161.27
454.244	1163.53
454.618	1160.14
454.992	1199.91
455.365	1204.43
455.739	1213.7
456.112	1216.18
456.486	1257.31
456.859	1229.74
457.232	1245.33
457.606	1264.54
457.979	1259.57
458.352	1285.33
458.725	1264.77
459.099	1261.83
459.472	1299.57
459.845	1321.04
460.218	1301.38
460.591	1322.85
460.964	1314.26
461.337	1353.81
461.71	1364.65
462.083	1352.68
462.456	1385.22
462.829	1362.39
463.201	1383.18
463.574	1399.45
463.947	1386.8
464.32	1424.09
464.692	1424.09
465.065	1443.75
465.438	1449.62
465.81	1477.87
466.183	1476.06
466.555	1488.04
466.928	1496.63
467.3	1487.81
467.672	1482.62
468.045	1528.26
468.417	1531.88
468.789	1519.68
469.161	1530.75
469.534	1581.37
469.906	1584.31
470.278	1605.33
470.65	1605.55
471.022	1635.15
471.394	1648.94
471.766	1684.19
472.138	1674.93
472.51	1684.19
472.882	1735.27
473.253	1723.29
473.625	1739.33
473.997	1774.81
474.369	1773.23
474.74	1801.03
475.112	1818.88
475.484	1827.24
475.855	1884.64
476.227	1865.66
476.598	1917.86
476.97	1914.02
477.341	1940.91
477.713	1968.48
478.084	1947.91
478.455	2012.55
478.827	2011.87
479.198	2063.84
479.569	2081.47
479.94	2111.98
480.311	2118.31
480.682	2158.08
481.053	2208.25
481.424	2229.94
481.795	2205.08
482.166	2203.05
482.537	2265.42
482.908	2315.14
483.279	2330.5
483.65	2326.44
484.021	2367.79
484.391	2381.12
484.762	2373.89
485.133	2401.69
485.503	2447.11
485.874	2458.18
486.244	2526.88
486.615	2518.97
486.985	2568.92
487.356	2594.45
487.726	2601.23
488.097	2645.98
488.467	2652.3
488.837	2687.1
489.207	2702.25
489.578	2776.37
489.948	2741.11
490.318	2756.71
490.688	2783.83
491.058	2827.21
491.428	2836.93
491.798	2896.59
492.168	2913.09
492.538	2922.35
492.908	2938.62
493.278	2970.26
493.648	2962.58
494.017	3007.1
494.387	3039.86
494.757	2988.79
495.126	3050.71
495.496	3044.16
495.866	3063.37
496.235	3135
496.605	3137.04
496.974	3125.29
497.344	3126.87
497.713	3168
498.082	3211.38
498.452	3212.74
498.821	3206.86
499.19	3239.86
499.559	3282.34
499.928	3224.49
500.298	3277.15
500.667	3275.34
501.036	3309.24
501.405	3309.91
501.774	3294.32
502.143	3357.82
502.512	3362.57
502.88	3383.81
503.249	3356.47
503.618	3390.81
503.987	3424.94
504.356	3430.59
504.724	3455.9
505.093	3431.27
505.462	3460.64
505.83	3445.05
506.199	3446.86
506.567	3501.32
506.936	3507.2
507.304	3556.01
507.672	3569.12
508.041	3559.17
508.409	3554.43
508.777	3592.84
509.145	3579.28
509.514	3559.85
509.882	3607.53
510.25	3602.79
510.618	3622.22
510.986	3602.56
511.354	3613.86
511.722	3645.72
512.09	3676.68
512.458	3640.98
512.826	3657.25
513.193	3726.85
513.561	3710.81
513.929	3711.48
514.297	3720.75
514.664	3740.41
515.032	3715.33
515.4	3799.84
515.767	3787.87
516.135	3766.62
516.502	3740.64
516.869	3819.28
517.237	3797.13
517.604	3828.09
517.972	3818.83
518.339	3863.8
518.706	3841.2
519.073	3826.28
519.44	3813.4
519.808	3844.36
520.175	3868.32
520.542	3899.95
520.909	3914.19
521.276	3897.24
521.643	3892.95
522.009	3922.55
522.376	3936.34
522.743	3919.61
523.11	3980.63
523.477	4004.36
523.843	3980.4
524.21	4047.07
524.577	4031.93
524.943	4034.87
525.31	4102.21
525.676	4100.4
526.043	4129.1
526.409	4137.46
526.776	4197.35
527.142	4162.32
527.508	4201.64
527.874	4218.14
528.241	4225.37
528.607	4228.76
528.973	4258.59
529.339	4255.2
529.705	4279.38
530.071	4311.02
530.437	4344.01
530.803	4358.7
531.169	4375.2
531.535	4372.03
531.901	4436.21
532.267	4435.53
532.632	4425.59
532.998	4463.78
533.364	4455.87
533.73	4491.8
534.095	4509.88
534.461	4562.54
534.826	4580.39
535.192	4540.16
535.557	4577
535.923	4590.56
536.288	4617.45
536.653	4616.77
537.019	4642.76
537.384	4632.59
537.749	4704
538.114	4702.19
538.479	4687.96
538.845	4698.35
539.21	4751.46
539.575	4726.6
539.94	4779.7
540.305	4767.95
540.67	4871
541.034	4839.59
541.399	4876.65
541.764	4858.8
542.129	4905.58
542.494	4930.89
542.858	4967.95
543.223	4919.59
543.587	5026.7
543.952	4994.84
544.316	5028.51
544.681	5021.28
545.045	5081.62
545.41	5088.85
545.774	5088.62
546.138	5115.97
546.503	5165.23
546.867	5162.07
547.231	5183.08
547.595	5170.2
547.959	5203.87
548.324	5220.82
548.688	5221.73
549.052	5264.21
549.416	5266.47
549.779	5258.56
550.143	5248.17
550.507	5329.52
550.871	5339.69
551.235	5312.8
551.599	5372.91
551.962	5370.88
552.326	5400.03
552.689	5429.86
553.053	5422.17
553.417	5379.46
553.78	5493.58
554.143	5462.4
554.507	5507.6
554.87	5518.67
555.234	5525.45
555.597	5560.02
555.96	5564.77
556.323	5594.15
556.686	5666.24
557.05	5626.24
557.413	5596.63
557.776	5653.35
558.139	5661.04
558.502	5700.36
558.865	5628.04
559.228	5719.57
559.59	5666.69
559.953	5738.55
560.316	5783.29
560.679	5810.41
561.041	5828.26
561.404	5813.8
561.767	5854.7
562.129	5894.03
562.492	5886.12
562.854	5912.78
563.217	5908.71
563.579	5904.42
563.941	5936.96
564.304	5980.8
564.666	5937.41
565.028	5997.98
565.39	6012.67
565.753	6089.05
566.115	6043.63
566.477	6098.99
566.839	6079.33
567.201	6138.77
567.563	6098.09
567.925	6171.76
568.287	6124.08
568.648	6155.71
569.01	6236.39
569.372	6250.4
569.734	6265.09
570.095	6287.46
570.457	6329.27
570.819	6378.31
571.18	6352.09
571.542	6360.68
571.903	6418.08
572.265	6495.37
572.626	6479.77
572.987	6574.69
573.349	6541.47
573.71	6633.67
574.071	6620.79
574.432	6722.03
574.794	6817.17
575.155	6839.31
575.516	6807
575.877	6931.96
576.238	6988.01
576.599	6979.42
576.96	7101.68
577.32	7110.49
577.681	7212.41
578.042	7279.3
578.403	7397.94
578.763	7378.51
579.124	7531.04
579.485	7557.03
579.845	7711.38
580.206	7765.62
580.566	7902.79
580.927	7998.15
581.287	8156.11
581.648	8256.22
582.008	8344.58
582.368	8514.3
582.728	8664.57
583.089	8829.32
583.449	8919.93
583.809	9115.64
584.169	9260.26
584.529	9392.01
584.889	9623.42
585.249	9723.08
585.609	9874.26
585.969	10158.32
586.329	10387.92
586.688	10503.85
587.048	10728.7
587.408	10921.24
587.768	11161.01
588.127	11361.9
588.487	11504.27
588.846	11862
589.206	12044.37
589.565	12280.75
589.925	12608.2
590.284	12781.3
590.643	13009.54
591.003	13380.61
591.362	13653.14
591.721	13941.72
592.08	14150.76
592.44	14440.47
592.799	14780.35
593.158	15014.69
593.517	15270.5
593.876	15605.18
594.235	15761.34
594.593	16130.59
594.952	16407.2
595.311	16612.84
595.67	17038.14
596.029	17356.32
596.387	17729.19
596.746	17953.37
597.104	18107.94
597.463	18409.85
597.822	18848.71
598.18	19038.31
598.538	19297.29
598.897	19733.21
599.255	19810.5
599.613	20487.31
599.972	20573.87
600.33	20884.82
600.688	21005.27
601.046	21442.32
601.404	21810.22
601.762	21936.09
602.12	22368.62
602.478	22653.36
602.836	22911.21
603.194	23052.44
603.552	23421.7
603.91	23504.41
604.268	23972.19
604.625	24018.3
604.983	24388
605.341	24552.97
605.698	24924.49
606.056	25226.62
606.413	25427.75
606.771	25718.14
607.128	26011.69
607.485	26132.14
607.843	26308.86
608.2	26585.91
608.557	26954.26
608.914	27063.86
609.272	27371.65
609.629	27519.9
609.986	27841.25
610.343	27941.58
610.7	28334.79
611.057	28466.54
611.414	28622.92
611.771	28817.94
612.127	29165.73
612.484	29288.66
612.841	29574.76
613.198	29581.54
613.554	29746.96
613.911	30130
614.267	30210.9
614.624	30310.11
614.98	30510.33
615.337	30828.74
615.693	30948.28
616.05	30923.65
616.406	31312.57
616.762	31298.33
617.118	31482.73
617.475	31625.55
617.831	31921.36
618.187	32107.12
618.543	32230.51
618.899	32425.08
619.255	32495.13
619.611	32464.17
619.967	32771.51
620.323	32885.86
620.678	32818.74
621.034	32935.12
621.39	33058.51
621.746	33035.23
622.101	33701.43
622.457	33487.88
622.812	33611.49
623.168	33744.14
623.523	33812.84
623.879	34011.03
624.234	33791.37
624.589	34019.16
624.945	34145.94
625.3	34299.38
625.655	34287.63
626.01	34408.76
626.365	34475.65
626.72	34518.13
627.075	34507.74
627.43	34604.23
627.785	34557.45
628.14	34685.81
628.495	34887.39
628.85	34960.38
629.205	34836.54
629.559	35048.97
629.914	34900.95
630.269	35022.3
630.623	34997.44
630.978	34979.14
631.332	35122.18
631.687	35266.81
632.041	35187.94
632.396	35305.46
632.75	35196.53
633.104	35265.91
633.459	35138.91
633.813	35290.99
634.167	35363.08
634.521	35403.31
634.875	35363.53
635.229	35354.27
635.583	35263.65
635.937	35241.5
636.291	35340.71
636.645	35374.61
636.999	35292.35
637.352	35451.89
637.706	35295.06
638.06	35438.11
638.413	35222.07
638.767	35236.53
639.121	35363.08
639.474	35065.69
639.828	35335.06
640.181	35429.29
640.534	35331.67
640.888	35205.12
641.241	35242.63
641.594	35206.7
641.947	35355.4
642.301	35399.69
642.654	35382.29
643.007	35347.04
643.36	35295.29
643.713	35253.25
644.066	35321.5
644.419	35221.84
644.771	35043.77
645.124	34569.88
645.477	34591.58
645.83	34439.04
646.182	34339.61
646.535	34147.07
646.888	34349.32
647.24	34109.33
647.593	34373.28
647.945	34192.26
648.298	34107.3
648.65	34124.02
649.002	34112.94
649.355	34155.2
649.707	34113.62
650.059	34327.85
650.411	34690.78
650.763	34754.51
651.115	35084.67
651.467	34910.44
651.819	34867.05
652.171	34870.67
652.523	34787.96
652.875	34915.18
653.227	34660.05
653.578	34933.71
653.93	34785.7
654.282	34687.62
654.633	34665.47
654.985	34756.77
655.337	34650.11
655.688	34641.07
656.039	34771.68
656.391	34585.47
656.742	34594.97
657.094	34643.55
657.445	34657.56
657.796	34611.24
658.147	34637.68
658.498	34588.86
658.849	34648.3
659.2	34529.66
659.551	34490.34
659.902	34666.83
660.253	34665.25
660.604	34649.65
660.955	34557.68
661.306	34613.5
661.656	34494.63
662.007	34588.86
662.358	34541.18
662.708	34584.8
663.059	34460.05
663.409	34366.05
663.76	34546.83
664.11	34605.59
664.461	34620.95
664.811	34492.37
665.161	34615.76
665.511	34455.53
665.862	34450.56
666.212	34631.8
666.562	34679.71
666.912	34535.53
667.262	34516.55
667.612	34543.67
667.962	34641.74
668.312	34302.09
668.662	34576.44
669.011	34472.03
669.361	34496.66
669.711	34436.1
670.06	34295.99
670.41	34336.44
670.76	34366.5
671.109	34487.4
671.459	34377.8
671.808	34253.05
672.157	34389.1
672.507	34130.8
672.856	34251.47
673.205	34178.48
673.554	34225.26
673.904	34176.9
674.253	34333.05
674.602	34281.53
674.951	33695.78
675.3	33632.05
675.649	34133.74
675.998	34105.49
676.346	34116.79
676.695	34199.04
677.044	33904.81
677.393	34072.95
677.741	34035.43
678.09	34006.06
678.438	34004.47
678.787	33956.79
679.135	33992.04
679.484	33730.13
679.832	33865.04
680.181	33675.22
680.529	33705.95
680.877	33788.89
681.225	33691.26
681.573	33892.39
681.922	33569.23
682.27	33654.88
682.618	33641.32
682.966	33516.35
683.314	33521.32
683.661	33464.15
684.009	33346.64
684.357	33253.08
684.705	33242.91
685.053	33336.02
685.4	33073.42
685.748	33025.52
686.095	33042.01
686.443	32887.21
686.79	32799.99
687.138	32990.26
687.485	32968.12
687.832	32896.71
688.18	32891.06
688.527	32643.83
688.874	32665.53
689.221	32598.63
689.568	32506.66
689.915	32396.61
690.262	32494.68
690.609	32374.69
690.956	32217.63
691.303	32157.74
691.65	32050.85
691.997	32141.25
692.344	31879.56
692.69	31900.8
693.037	31806.34
693.383	31608.6
693.73	31618.32
694.077	31708.94
694.423	31582.39
694.769	31560.92
695.116	31352.34
695.462	31397.54
695.808	31147.37
696.155	31293.81
696.501	31155.51
696.847	31080.26
697.193	30800.26
697.539	30958.23
697.885	30773.37
698.231	30589.42
698.577	30709.19
698.923	30553.49
699.269	30511.01
699.614	30347.62
699.96	30333.38
700.306	30335.87
700.651	30046.61
700.997	30073.05
701.342	29998.7
701.688	30127.29
702.033	29751.03
702.379	29835.09
702.724	29769.1
703.069	29797.13
703.415	29479.39
703.76	29508.55
704.105	29589.45
704.45	29474.65
704.795	29285.5
705.14	29321.88
705.485	29144.04
705.83	28992.4
706.175	29137.71
706.52	29049.35
706.865	28955.79
707.209	28849.81
707.554	28802.8
707.899	28834.67
708.243	28699.75
708.588	28673.54
708.932	28370.72
709.277	28429.7
709.621	28411.63
709.966	28317.39
710.31	28209.6
710.654	28099.54
710.998	28205.76
711.342	28187.45
711.687	28052.31
712.031	27897.29
712.375	27875.59
712.719	27960.79
713.063	27872.88
713.407	27864.75
713.75	27711.08
714.094	27754.92
714.438	27553.12
714.782	27632.21
715.125	27487.81
715.469	27493.01
715.812	27380.47
716.156	27265.67
716.499	27187.25
716.843	27316.06
717.186	27053.47
717.53	27254.37
717.873	27228.61
718.216	27061.6
718.559	26982.74
718.902	26865.68
719.246	26900.71
719.589	26784.1
719.932	26705.23
720.275	26678.34
720.617	26712.01
720.96	26649.19
721.303	26595.63
721.646	26724.21
721.989	26521.05
722.331	26550.88
722.674	26492.81
723.016	26455.75
723.359	26394.28
723.701	26454.16
724.044	26227.73
724.386	26117.9
724.729	26182.98
725.071	26172.14
725.413	26064.57
725.755	26119.03
726.097	26001.07
726.439	25807.63
726.782	25892.6
727.124	25971.92
727.465	25816.67
727.807	25765.14
728.149	25709.78
728.491	25572.15
728.833	25738.93
729.175	25568.54
729.516	25695.31
729.858	25528.31
730.199	25551.81
730.541	25503.68
730.882	25502.78
731.224	25616.22
731.565	25384.81
731.906	25446.28
732.248	25394.08
732.589	25295.55
732.93	25243.12
733.271	25154.76
733.612	25244.7
733.953	25338.71
734.294	25122.45
734.635	24918.38
734.976	25143.69
735.317	24890.59
735.658	24956.12
735.999	24970.59
736.339	24907.76
736.68	24971.72
737.021	24772.85
737.361	24804.72
737.702	24937.14
738.042	24755.45
738.383	24771.04
738.723	24799.07
739.063	24586.42
739.404	24646.53
739.744	24552.74
740.084	24522.46
740.424	24555
740.764	24443.37
741.104	24440.2
741.444	24389.13
741.784	24304.62
742.124	24421.45
742.464	24246.76
742.804	24193.66
743.143	24274.33
743.483	24214.45
743.823	24079.31
744.162	24151.85
744.502	24159.53
744.841	23934.23
745.181	24089.48
745.52	23954.34
745.86	24054.23
746.199	23864.4
746.538	23894
746.877	23995.92
747.216	23888.13
747.556	23783.05
747.895	23827.34
748.234	23697.4
748.573	23591.64
748.911	23743.95
749.25	23631.41
749.589	23511.42
749.928	23519.78
750.267	23474.81
750.605	23468.93
750.944	23455.82
751.283	23347.58
751.621	23402.27
751.96	23197.75
752.298	23300.57
752.636	23327.24
752.975	23103.06
753.313	23029.62
753.651	23145.55
753.989	23012.9
754.327	22889.29
754.666	22814.94
755.004	22852
755.342	22784.88
755.679	22810.19
756.017	22715.5
756.355	22674.38
756.693	22685.9
757.031	22557.77
757.368	22469.86
757.706	22433.93
758.044	22414.72
758.381	22432.12
758.719	22309.64
759.056	22321.39
759.394	22235.29
759.731	22161.62
760.068	22077.1
760.405	22018.57
760.743	21903.32
