Data from hue_60_FLMS001491_57.txt Node
Date: Mon Feb 06 15:17:36 GMT 2017
User: dcchb
Spectrometer: FLMS00149
Trigger mode: 0
Integration Time (sec): 2.000000E-2
Scans to average: 10
Electric dark correction enabled: true
Nonlinearity correction enabled: false
Boxcar width: 0
XAxis mode: Wavelengths
Number of Pixels in Spectrum: 2048
>>>>>Begin Spectral Data<<<<<
341.393	-16.98
341.776	-16.98
342.16	-16.98
342.543	-45.68
342.927	-71.89
343.31	-54.72
343.693	-84.77
344.077	-88.16
344.46	-70.08
344.843	-60.14
345.226	-54.72
345.61	-14.94
345.993	-1.38
346.376	4.04
346.759	11.95
347.142	36.58
347.525	19.86
347.908	56.24
348.291	95.11
348.674	93.53
349.057	111.61
349.44	117.26
349.823	136.92
350.206	138.95
350.588	203.58
350.971	208.55
351.354	212.62
351.737	241.32
352.119	254.65
352.502	250.36
352.884	291.04
353.267	290.36
353.65	311.83
354.032	283.35
354.414	290.59
354.797	313.18
355.179	319.74
355.562	306.86
355.944	339.85
356.326	323.13
356.709	356.8
357.091	327.65
357.473	346.4
357.855	324.03
358.238	349.34
358.62	340.98
359.002	359.74
359.384	343.24
359.766	335.33
360.148	326.97
360.53	343.92
360.912	349.12
361.294	329.45
361.676	331.71
362.057	335.78
362.439	321.32
362.821	324.71
363.203	333.07
363.584	322.45
363.966	320.87
364.348	339.4
364.729	342.34
365.111	322.45
365.493	308.21
365.874	328.32
366.256	327.42
366.637	314.99
367.019	299.17
367.4	309.57
367.781	324.26
368.163	334.2
368.544	335.1
368.925	317.93
369.306	318.38
369.688	306.18
370.069	329
370.45	317.48
370.831	324.03
371.212	314.31
371.593	314.54
371.974	322
372.355	313.41
372.736	319.06
373.117	313.64
373.498	328.32
373.879	325.84
374.26	323.58
374.641	313.64
375.021	331.71
375.402	298.95
375.783	317.48
376.163	315.22
376.544	314.31
376.925	317.93
377.305	304.6
377.686	327.65
378.066	319.06
378.447	324.71
378.827	325.39
379.208	330.58
379.588	321.55
379.968	317.48
380.349	358.15
380.729	335.33
381.109	325.84
381.489	345.95
381.87	327.65
382.25	327.19
382.63	349.79
383.01	343.69
383.39	334.43
383.77	354.54
384.15	361.32
384.53	354.09
384.91	356.57
385.29	343.92
385.67	324.26
386.049	333.3
386.429	339.17
386.809	351.37
387.189	354.76
387.568	358.61
387.948	347.08
388.328	339.62
388.707	356.57
389.087	362.22
389.466	367.65
389.846	355.22
390.225	362.9
390.605	329.91
390.984	362.22
391.363	350.92
391.743	365.61
392.122	365.39
392.501	349.34
392.881	373.07
393.26	375.78
393.639	367.65
394.018	382.33
394.397	348.66
394.776	370.81
395.155	381.88
395.534	379.4
395.913	381.88
396.292	359.51
396.671	369
397.05	369.91
397.429	367.65
397.808	364.71
398.186	381.88
398.565	369
398.944	371.26
399.323	384.37
399.701	383.46
400.08	364.71
400.458	380.98
400.837	415.1
401.215	387.08
401.594	384.59
401.972	390.7
402.351	403.8
402.729	376.91
403.107	386.4
403.486	411.26
403.864	401.77
404.242	395.22
404.62	403.8
404.999	397.25
405.377	411.49
405.755	394.99
406.133	422.33
406.511	407.42
406.889	409.45
407.267	412.39
407.645	415.55
408.023	422.56
408.401	405.61
408.779	408.32
409.156	430.24
409.534	416.01
409.912	422.56
410.29	424.82
410.667	443.35
411.045	438.83
411.422	451.26
411.8	440.41
412.178	437.47
412.555	457.13
412.933	468.43
413.31	453.29
413.687	458.26
414.065	459.85
414.442	434.54
414.819	460.52
415.197	466.85
415.574	476.8
415.951	475.89
416.328	448.32
416.705	460.52
417.082	481.77
417.46	502.11
417.837	460.52
418.214	473.86
418.591	480.41
418.967	472.05
419.344	491.26
419.721	486.06
420.098	479.28
420.475	505.72
420.852	501.2
421.228	517.02
421.605	481.32
421.982	514.08
422.358	512.05
422.735	542.56
423.111	513.4
423.488	521.77
423.864	503.24
424.241	518.83
424.617	528.32
424.994	514.76
425.37	537.81
425.746	534.65
426.123	556.34
426.499	544.36
426.875	530.58
427.251	565.15
427.627	536.68
428.003	543.46
428.379	570.8
428.756	554.99
429.132	558.38
429.507	579.62
429.883	550.47
430.259	580.52
430.635	569
431.011	577.81
431.387	576
431.763	581.43
432.138	596.57
432.514	619.62
432.89	596.79
433.265	612.61
433.641	620.07
434.016	636.79
434.392	634.08
434.767	649.67
435.143	655.32
435.518	633.85
435.894	630.46
436.269	651.48
436.644	648.77
437.02	641.54
437.395	647.64
437.77	662.33
438.145	656.68
438.52	669.78
438.895	705.72
439.271	685.38
439.646	690.58
440.021	689.9
440.395	698.03
440.77	687.19
441.145	706.85
441.52	728.31
441.895	714.08
442.27	731.03
442.645	723.79
443.019	736.9
443.394	734.87
443.769	702.1
444.143	716.56
444.518	741.42
444.892	746.62
445.267	755.88
445.641	746.84
446.016	721.76
446.39	742.33
446.764	755.66
447.139	804.47
447.513	767.18
447.887	781.42
448.262	802.66
448.636	760.18
449.01	761.76
449.384	785.26
449.758	791.36
450.132	791.59
450.506	817.35
450.88	803.11
451.254	813.28
451.628	809.67
452.002	833.85
452.376	842.89
452.75	842.66
453.123	808.76
453.497	862.32
453.871	867.29
454.244	864.13
454.618	868.65
454.992	882.43
455.365	843.79
455.739	879.5
456.112	896.67
456.486	914.3
456.859	915.88
457.232	950.68
457.606	926.73
457.979	943.22
458.352	974.86
458.725	985.26
459.099	978.48
459.472	979.83
459.845	995.2
460.218	986.16
460.591	1012.15
460.964	1017.8
461.337	1027.97
461.71	1039.94
462.083	1062.77
462.456	1063.67
462.829	1074.29
463.201	1069.1
463.574	1113.61
463.947	1157
464.32	1149.09
464.692	1146.16
465.065	1159.49
465.438	1169.43
465.81	1192.03
466.183	1211.47
466.555	1197.91
466.928	1258.92
467.3	1253.27
467.672	1270.9
468.045	1281.29
468.417	1313.84
468.789	1306.38
469.161	1352.7
469.534	1387.73
469.906	1402.65
470.278	1428.41
470.65	1443.1
471.022	1456.66
471.394	1513.6
471.766	1506.6
472.138	1526.71
472.51	1612.13
472.882	1596.77
473.253	1646.26
473.625	1702.07
473.997	1721.73
474.369	1720.15
474.74	1803.77
475.112	1829.08
475.484	1868.62
475.855	1938.23
476.227	1948.62
476.598	2018.45
476.97	2042.18
477.341	2129.18
477.713	2165.56
478.084	2205.11
478.455	2259.57
478.827	2375.28
479.198	2420.02
479.569	2455.73
479.94	2570.98
480.311	2616.85
480.682	2698.21
481.053	2827.24
481.424	2857.98
481.795	2961.25
482.166	3023.85
482.537	3081.25
482.908	3191.3
483.279	3313.56
483.65	3408.92
484.021	3505.19
484.391	3623.61
484.762	3642.14
485.133	3788.35
485.503	3888.46
485.874	4015.91
486.244	4159.64
486.615	4250.48
486.985	4297.26
487.356	4491.83
487.726	4597.82
488.097	4764.14
488.467	4831.71
488.837	4974.08
489.207	5133.4
489.578	5268.76
489.948	5384.24
490.318	5558.7
490.688	5640.95
491.058	5796.88
491.428	5918.91
491.798	6072.58
492.168	6307.38
492.538	6397.09
492.908	6553.02
493.278	6677.99
493.648	6773.58
494.017	6960.69
494.387	7180.57
494.757	7304.64
495.126	7464.86
495.496	7583.05
495.866	7640.67
496.235	7878.63
496.605	8055.35
496.974	8142.36
497.344	8337.83
497.713	8458.96
498.082	8570.37
498.452	8740.98
498.821	8954.99
499.19	9035.67
499.559	9211.03
499.928	9300.52
500.298	9487.41
500.667	9654.86
501.036	9672.03
501.405	9921.07
501.774	10016.43
502.143	10147.5
502.512	10248.74
502.88	10429.53
503.249	10561.28
503.618	10719.92
503.987	10830.2
504.356	10992
504.724	11102.96
505.093	11212.78
505.462	11315.83
505.83	11526.9
506.199	11589.72
506.567	11836.04
506.936	11883.28
507.304	12059.09
507.672	12196.26
508.041	12330.72
508.409	12509.7
508.777	12595.8
509.145	12883.25
509.514	12883.47
509.882	13042.34
510.25	13081.66
510.618	13274.65
510.986	13353.29
511.354	13528.43
511.722	13691.59
512.09	13858.36
512.458	13915.99
512.826	14147.62
513.193	14192.82
513.561	14294.96
513.929	14427.16
514.297	14616.99
514.664	14730.88
515.032	14795.74
515.4	15008.62
515.767	15027.83
516.135	15249.29
516.502	15131.78
516.869	15550.75
517.237	15601.14
517.604	15660.58
517.972	15852.21
518.339	16007.23
518.706	15989.38
519.073	16170.39
519.44	16422.82
519.808	16565.19
520.175	16461.23
520.542	16814.67
520.909	16832.07
521.276	16985.29
521.643	17129.24
522.009	17272.51
522.376	17473.18
522.743	17590.24
523.11	17771.48
523.477	17869.56
523.843	18021.19
524.21	18206.27
524.577	18363.1
524.943	18435.65
525.31	18544.34
525.676	18719.03
526.043	18888.51
526.409	18980.94
526.776	19259.8
527.142	19340.93
527.508	19411.21
527.874	19592.22
528.241	19673.8
528.607	19808.72
528.973	19939.56
529.339	19984.31
529.705	20239.89
530.071	20344.97
530.437	20445.31
530.803	20550.84
531.169	20803.04
531.535	20679.2
531.901	20777.5
532.267	21048.46
532.632	21090.94
532.998	21251.39
533.364	21303.37
533.73	21345.63
534.095	21532.06
534.461	21611.15
534.826	21671.49
535.192	21883.24
535.557	21938.38
535.923	21898.38
536.288	22109.9
536.653	22211.59
537.019	22191.7
537.384	22277.35
537.749	22424.24
538.114	22452.26
538.479	22593.28
538.845	22630.79
539.21	22672.6
539.575	22743.1
539.94	22919.37
540.305	23061.06
540.67	22988.75
541.034	23136.76
541.399	23267.16
541.764	23209.53
542.129	23383.76
542.494	23384.22
542.858	23489.07
543.223	23535.62
543.587	23687.03
543.952	23687.03
544.316	23777.2
544.681	23683.64
545.045	23915.73
545.41	24013.13
545.774	24221.03
546.138	24095.84
546.503	24230.3
546.867	24162.95
547.231	24420.8
547.595	24437.52
547.959	24639.1
548.324	24618.76
548.688	24637.74
549.052	24738.76
549.416	24824.18
549.779	24802.71
550.143	24873.22
550.507	25127.9
550.871	25172.87
551.235	25164.96
551.599	25474.1
551.962	25545.06
552.326	25511.39
552.689	25676.81
553.053	25539.64
553.417	25575.34
553.78	26069.34
554.143	25953.87
554.507	26163.58
554.87	26064.6
555.234	26458.03
555.597	26219.62
555.96	26361.09
556.323	26607.18
556.686	26635.66
557.05	26949.55
557.413	26907.96
557.776	26914.07
558.139	27158.81
558.502	27073.16
558.865	27211.91
559.228	27399.7
559.59	27532.36
559.953	27566.48
560.316	27805.12
560.679	27928.5
561.041	28016.41
561.404	28180.7
561.767	28324.42
562.129	28139.12
562.492	28570.29
562.854	28620.46
563.217	28630.41
563.579	28853.45
563.941	28840.8
564.304	29001.24
564.666	29228.81
565.028	29230.39
565.39	29419.09
565.753	29636.25
566.115	29614.56
566.477	29848.45
566.839	29768.23
567.201	30073.31
567.563	29996.47
567.925	30332.51
568.287	30264.94
568.648	30404.82
569.01	30623.12
569.372	30745.83
569.734	30601.65
570.095	30919.16
570.457	30898.59
570.819	30977.69
571.18	31161.64
571.542	31264.46
571.903	31386.04
572.265	31508.52
572.626	31475.53
572.987	31577.45
573.349	31678.91
573.71	31787.38
574.071	31873.48
574.432	32046.13
574.794	32160.48
575.155	32128.39
575.516	32163.42
575.877	32277.32
576.238	32320.03
576.599	32427.82
576.96	32570.87
577.32	32537.42
577.681	32715.72
578.042	32668.49
578.403	32749.85
578.763	32841.59
579.124	32821.03
579.485	32931.76
579.845	33077.75
580.206	33019.44
580.566	33011.99
580.927	33095.82
581.287	33182.38
581.648	33073.9
582.008	33330.62
582.368	33244.52
582.728	33285.2
583.089	33283.62
583.449	33408.13
583.809	33376.04
584.169	33326.55
584.529	33419.66
584.889	33598.86
585.249	33362.71
585.609	33351.41
585.969	33569.26
586.329	33395.7
586.688	33553.21
587.048	33512.99
587.408	33481.35
587.768	33518.41
588.127	33548.02
588.487	33482.26
588.846	33816.94
589.206	33574.91
589.565	33614.46
589.925	33729.48
590.284	33611.07
590.643	33655.81
591.003	33783.94
591.362	33759.54
591.721	33745.53
592.08	33948.91
592.44	33842.02
592.799	33993.65
593.158	33851.74
593.517	33924.96
593.876	33863.71
594.235	33901.45
594.593	33853.32
594.952	33987.55
595.311	33988
595.67	34093.99
596.029	34183.71
596.387	34217.83
596.746	34338.73
597.104	34176.47
597.463	33989.36
597.822	34349.13
598.18	34195.68
598.538	34303.02
598.897	34438.16
599.255	34202.69
599.613	34618.5
599.972	34438.84
600.33	34472.06
600.688	34440.2
601.046	34600.64
601.404	34741.43
601.762	34554.77
602.12	34831.6
602.478	34906.85
602.836	34714.09
603.194	34672.73
603.552	34849.45
603.91	34649
604.268	34975.1
604.625	34883.35
604.983	34938.26
605.341	34805.16
605.698	35077.47
606.056	35189.78
606.413	35138.93
606.771	35215.32
607.128	35343
607.485	35206.28
607.843	35082.21
608.2	35411.02
608.557	35489.89
608.914	35398.81
609.272	35669.99
609.629	35634.52
609.986	35811.01
610.343	35612.14
610.7	36045.35
611.057	35933.26
611.414	35904.11
611.771	36034.28
612.127	36090.77
612.484	36237.21
612.841	36305.91
613.198	36147.72
613.554	36295.74
613.911	36387.94
614.267	36458.9
614.624	36483.53
614.98	36356.98
615.337	36653.47
615.693	36566.47
616.05	36584.09
616.406	36768.95
616.762	36748.61
617.118	36667.03
617.475	36686.92
617.831	36847.82
618.187	36933.24
618.543	37031.77
618.899	37115.15
619.255	36943.63
619.611	37037.87
619.967	37180.24
620.323	37252.78
620.678	37218.88
621.034	37086.45
621.39	37191.54
621.746	37197.86
622.101	37511.53
622.457	37244.87
622.812	37342.04
623.168	37439.67
623.523	37572.54
623.879	37554.01
624.234	37368.71
624.589	37485.54
624.945	37495.71
625.3	37563.5
625.655	37584.29
626.01	37626.1
626.365	37601.24
626.72	37631.3
627.075	37513.56
627.43	37677.85
627.785	37395.6
628.14	37572.77
628.495	37753.33
628.85	37624.07
629.205	37493
629.559	37733.44
629.914	37658.42
630.269	37789.71
630.623	37575.03
630.978	37596.72
631.332	37710.17
631.687	37741.8
632.041	37511.75
632.396	37777.28
632.75	37529.38
633.104	37498.65
633.459	37434.69
633.813	37295.49
634.167	37344.3
634.521	37335.49
634.875	37474.69
635.229	37426.56
635.583	37378.65
635.937	37401.02
636.291	37192.21
636.645	37357.86
636.999	37149.5
637.352	37238.31
637.706	37067.92
638.06	37128.71
638.413	37133.68
638.767	36960.13
639.121	37164.64
639.474	36862.73
639.828	37006.46
640.181	37011.2
640.534	36997.42
640.888	36771.89
641.241	36745.67
641.594	36853.92
641.947	37027.47
642.301	36846.69
642.654	36776.18
643.007	36860.02
643.36	36823.64
643.713	36723.07
644.066	36874.71
644.419	36639.91
644.771	36415.51
645.124	36085.8
645.477	35938.69
645.83	35947.95
646.182	35689.65
646.535	35531.01
646.888	35508.42
647.24	35395.43
647.593	35680.16
647.945	35568.98
648.298	35500.51
648.65	35383.45
649.002	35390.45
649.355	35390.91
649.707	35479.04
650.059	35492.15
650.411	35919.93
650.763	35967.61
651.115	36321.73
651.467	36358.56
651.819	36187.27
652.171	36057.55
652.523	36027.27
652.875	35974.85
653.227	35912.02
653.578	36133.03
653.93	36169.64
654.282	35850.78
654.633	35876.77
654.985	35839.48
655.337	35941.17
655.688	35927.16
656.039	36033.6
656.391	35645.81
656.742	35792.02
657.094	35896.2
657.445	35969.87
657.796	35812.36
658.147	35742.53
658.498	35773.04
658.849	35855.53
659.2	35791.8
659.551	35668.64
659.902	35912.93
660.253	35824.57
660.604	35868.86
660.955	35592.71
661.306	35702.08
661.656	35572.82
662.007	35668.41
662.358	35626.61
662.708	35559.04
663.059	35661.86
663.409	35409.44
663.76	35755.64
664.11	35512.48
664.461	35542.54
664.811	35604.46
665.161	35669.09
665.511	35507.74
665.862	35688.52
666.212	35655.31
666.562	35632.71
666.912	35622.09
667.262	35580.05
667.612	35472.94
667.962	35602.43
668.312	35446.72
668.662	35651.69
669.011	35514.07
669.361	35433.62
669.711	35419.38
670.06	35296.67
670.41	35338.93
670.76	35223.68
671.109	35371.47
671.459	35352.71
671.808	35333.05
672.157	35439.27
672.507	35191.59
672.856	35150.91
673.205	35207.63
673.554	35316.56
673.904	35307.74
674.253	35405.37
674.602	35282.66
674.951	34795.67
675.3	34701.66
675.649	35112.04
675.998	35105.04
676.346	35209.22
676.695	35225.03
677.044	34988.43
677.393	35113.62
677.741	35139.84
678.09	35007.19
678.438	35038.15
678.787	35031.59
679.135	34911.82
679.484	34672.51
679.832	34888.55
680.181	34593.19
680.529	34893.97
680.877	34596.35
681.225	34637.48
681.573	34916.12
681.922	34580.98
682.27	34460.53
682.618	34582.11
682.966	34471.83
683.314	34426.86
683.661	34443.13
684.009	34261.67
684.357	34199.3
684.705	34141.45
685.053	34282.69
685.4	34162.01
685.748	33901.68
686.095	33977.84
686.443	33837.5
686.79	33757.28
687.138	33924.5
687.485	33853.32
687.832	33734.23
688.18	33745.98
688.527	33496.27
688.874	33550.73
689.221	33386.66
689.568	33372.2
689.915	33375.59
690.262	33205.43
690.609	33222.38
690.956	33027.58
691.303	32979.67
691.65	32868.71
691.997	32906.9
692.344	32744.65
692.69	32649.73
693.037	32681.82
693.383	32378.1
693.73	32581.49
694.077	32400.93
694.423	32386.69
694.769	32212.01
695.116	32136.98
695.462	32112.12
695.808	32034.84
696.155	32061.5
696.501	31838.23
696.847	31901.05
697.193	31521.18
697.539	31778.35
697.885	31439.15
698.231	31381.52
698.577	31442.76
698.923	31497.22
699.269	31146.5
699.614	31172.03
699.96	31067.18
700.306	31028.53
700.651	30936.11
700.997	30836.22
701.342	30746.73
701.688	30646.62
702.033	30632.84
702.379	30618.6
702.724	30490.92
703.069	30572.95
703.415	30231.04
703.76	30254.54
704.105	30266.29
704.45	30133.87
704.795	30012.06
705.14	29885.06
705.485	29866.76
705.83	29760.55
706.175	29828.57
706.52	29681.68
706.865	29551.74
707.209	29648.46
707.554	29520.33
707.899	29533.66
708.243	29413.89
708.588	29301.8
708.932	29162.37
709.277	29159.21
709.621	29163.05
709.966	28895.71
710.31	29031.3
710.654	28845.09
710.998	28891.64
711.342	28887.35
711.687	28786.79
712.031	28590.86
712.375	28527.36
712.719	28521.48
713.063	28541.59
713.407	28659.78
713.75	28369.85
714.094	28276.97
714.438	28304.76
714.782	28275.16
715.125	28201.26
715.469	28152
715.812	28121.27
716.156	27956.07
716.499	27918.56
716.843	27898.67
717.186	27811.22
717.53	27985.22
717.873	27827.94
718.216	27818.68
718.559	27646.25
718.902	27351.34
719.246	27493.03
719.589	27443.54
719.932	27440.38
720.275	27421.17
720.617	27276.54
720.96	27227.28
721.303	27288.97
721.646	27229.31
721.989	27133.95
722.331	27300.72
722.674	27090.56
723.016	27170.33
723.359	27001.07
723.701	27097.79
724.044	26879.49
724.386	26718.14
724.729	26798.14
725.071	26832.49
725.413	26865.93
725.755	26715.43
726.097	26686.73
726.439	26567.18
726.782	26436.11
727.124	26590.23
727.465	26453.51
727.807	26374.42
728.149	26423.91
728.491	26300.52
728.833	26348.88
729.175	26322.22
729.516	26117.03
729.858	26239.73
730.199	26207.19
730.541	26207.87
730.882	26023.24
731.224	26110.02
731.565	25963.81
731.906	25912.96
732.248	25957.71
732.589	25965.39
732.93	25839.74
733.271	25836.58
733.612	25733.76
733.953	25860.08
734.294	25640.88
734.635	25618.51
734.976	25721.56
735.317	25529.02
735.658	25490.83
735.999	25512.75
736.339	25460.77
736.68	25533.31
737.021	25440.21
737.361	25289.93
737.702	25466.65
738.042	25249.03
738.383	25272.08
738.723	25311.85
739.063	25179.42
739.404	25228.23
739.744	25151.4
740.084	25042.25
740.424	25103.49
740.764	24929.94
741.104	25111.4
741.444	24929.03
741.784	24867.57
742.124	24916.38
742.464	24805.42
742.804	24747.57
743.143	24759.32
743.483	24705.76
743.823	24574.24
744.162	24589.16
744.502	24602.04
744.841	24641.58
745.181	24696.05
745.52	24502.38
745.86	24544.19
746.199	24552.32
746.538	24408.37
746.877	24514.13
747.216	24379.44
747.556	24354.81
747.895	24335.6
748.234	24198.66
748.573	24257.41
748.911	24140.81
749.25	24114.59
749.589	23997.31
749.928	24093.58
750.267	24000.92
750.605	24039.34
750.944	23920.02
751.283	23817.42
751.621	23929.96
751.96	23695.39
752.298	23725
752.636	23700.37
752.975	23593.25
753.313	23518.68
753.651	23684.77
753.989	23606.13
754.327	23577.43
754.666	23279.59
755.004	23330.21
755.342	23445.23
755.679	23334.5
756.017	23194.62
756.355	23209.76
756.693	23078.69
