Data from hue_70_FLMS001491_95.txt Node
Date: Mon Feb 06 15:21:46 GMT 2017
User: dcchb
Spectrometer: FLMS00149
Trigger mode: 0
Integration Time (sec): 2.000000E-2
Scans to average: 10
Electric dark correction enabled: true
Nonlinearity correction enabled: false
Boxcar width: 0
XAxis mode: Wavelengths
Number of Pixels in Spectrum: 2048
>>>>>Begin Spectral Data<<<<<
341.393	1.89
341.776	1.89
342.16	1.89
342.543	-81.5
342.927	-67.94
343.31	-71.33
343.693	-74.26
344.077	-79.69
344.46	-76.75
344.843	-32.23
345.226	-28.62
345.61	-22.74
345.993	-37.88
346.376	-0.37
346.759	23.59
347.142	29.24
347.525	38.95
347.908	42.12
348.291	78.27
348.674	92.51
349.057	119.18
349.44	105.62
349.823	143.36
350.206	161.44
350.588	173.19
350.971	222.45
351.354	224.94
351.737	248.44
352.119	250.7
352.502	270.13
352.884	254.77
353.267	300.42
353.65	294.54
354.032	285.27
354.414	296.57
354.797	329.57
355.179	315.1
355.562	334.99
355.944	333.86
356.326	341.54
356.709	324.6
357.091	336.8
357.473	339.51
357.855	357.59
358.238	330.92
358.62	355.78
359.002	352.17
359.384	342.9
359.766	324.14
360.148	338.15
360.53	329.12
360.912	327.99
361.294	337.93
361.676	339.28
362.057	352.84
362.439	329.12
362.821	319.62
363.203	329.57
363.584	317.59
363.966	319.4
364.348	319.17
364.729	306.07
365.111	307.2
365.493	323.69
365.874	313.3
366.256	311.71
366.637	326.18
367.019	300.42
367.4	304.03
367.781	304.71
368.163	313.97
368.544	305.84
368.925	314.65
369.306	319.17
369.688	309.68
370.069	315.56
370.45	310.36
370.831	311.49
371.212	334.54
371.593	314.65
371.974	310.59
372.355	297.93
372.736	321.21
373.117	306.97
373.498	313.97
373.879	331.6
374.26	319.4
374.641	308.55
375.021	307.87
375.402	348.55
375.783	333.41
376.163	323.69
376.544	324.37
376.925	343.8
377.305	342.9
377.686	332.73
378.066	314.65
378.447	326.63
378.827	328.66
379.208	323.92
379.588	323.01
379.968	338.61
380.349	329.79
380.729	328.44
381.109	331.83
381.489	332.96
381.87	321.43
382.25	335.22
382.63	341.32
383.01	342.45
383.39	331.83
383.77	326.86
384.15	343.35
384.53	334.31
384.91	318.27
385.29	326.18
385.67	340.87
386.049	348.1
386.429	360.75
386.809	347.87
387.189	321.66
387.568	352.17
387.948	364.14
388.328	354.65
388.707	369.11
389.087	356.01
389.466	340.19
389.846	347.42
390.225	355.33
390.605	346.74
390.984	370.7
391.363	360.3
391.743	371.15
392.122	362.79
392.501	385.39
392.881	368.44
393.26	362.79
393.639	367.76
394.018	384.26
394.397	375.44
394.776	358.49
395.155	362.11
395.534	373.41
395.913	381.32
396.292	374.99
396.671	379.06
397.05	368.89
397.429	377.7
397.808	398.04
398.186	361.88
398.565	386.06
398.944	369.79
399.323	380.64
399.701	402.11
400.08	391.71
400.458	395.55
400.837	386.97
401.215	411.6
401.594	390.36
401.972	387.19
402.351	370.47
402.729	397.14
403.107	405.5
403.486	384.48
403.864	412.28
404.242	400.07
404.62	417.7
404.999	391.03
405.377	421.32
405.755	391.26
406.133	418.38
406.511	419.06
406.889	418.15
407.267	396.46
407.645	429.45
408.023	424.03
408.401	416.34
408.779	425.16
409.156	407.76
409.534	445.04
409.912	444.82
410.29	435.33
410.667	401.66
411.045	444.14
411.422	467.42
411.8	426.06
412.178	469.68
412.555	462.22
412.933	445.27
413.31	446.4
413.687	462.67
414.065	447.98
414.442	475.55
414.819	456.34
415.197	455.21
415.574	463.8
415.951	463.58
416.328	483.01
416.705	494.31
417.082	461.54
417.46	498.38
417.837	486.85
418.214	485.04
418.591	487.08
418.967	488.89
419.344	480.07
419.721	493.86
420.098	485.27
420.475	487.76
420.852	482.33
421.228	493.18
421.605	501.31
421.982	513.74
422.358	520.52
422.735	530.24
423.111	501.99
423.488	534.99
423.864	506.06
424.241	535.44
424.617	526.17
424.994	539.28
425.37	543.8
425.746	535.44
426.123	569.11
426.499	538.6
426.875	557.13
427.251	545.61
427.627	549.45
428.003	560.75
428.379	575.66
428.756	575.21
429.132	570.47
429.507	579.05
429.883	566.62
430.259	574.08
430.635	579.05
431.011	605.04
431.387	575.21
431.763	593.29
432.138	603.46
432.514	603.23
432.89	631.03
433.265	610.24
433.641	626.06
434.016	637.36
434.392	621.76
434.767	638.71
435.143	638.94
435.518	642.55
435.894	656.56
436.269	659.73
436.644	660.41
437.02	652.5
437.395	664.02
437.77	683
438.145	688.2
438.52	676.9
438.895	677.81
439.271	673.29
439.646	686.62
440.021	695.21
440.395	712.83
440.77	707.64
441.145	707.41
441.52	744.7
441.895	719.16
442.27	740.18
442.645	728.2
443.019	740.63
443.394	734.53
443.769	738.37
444.143	726.39
444.518	760.52
444.892	735.43
445.267	774.53
445.641	769.78
446.016	766.84
446.39	747.41
446.764	766.17
447.139	750.8
447.513	764.13
447.887	802.78
448.262	788.76
448.636	774.3
449.01	784.7
449.384	792.61
449.758	810.46
450.132	801.42
450.506	824.02
450.88	820.4
451.254	817.24
451.628	829.44
452.002	857.01
452.376	840.29
452.75	861.53
453.123	852.94
453.497	861.08
453.871	893.62
454.244	883.23
454.618	892.04
454.992	905.15
455.365	908.99
455.739	930.91
456.112	900.17
456.486	931.81
456.859	946.5
457.232	967.06
457.606	937.46
457.979	969.78
458.352	991.47
458.725	987.63
459.099	978.36
459.472	1010.45
459.845	1013.17
460.218	1026.72
460.591	1033.96
460.964	1050.68
461.337	1080.96
461.71	1070.57
462.083	1120.73
462.456	1088.19
462.829	1090.68
463.201	1130.9
463.574	1122.54
463.947	1140.62
464.32	1174.07
464.692	1154.4
465.065	1186.04
465.438	1221.52
465.81	1241.63
466.183	1251.13
466.555	1291.12
466.928	1268.98
467.3	1273.95
467.672	1324.12
468.045	1327.51
468.417	1320.95
468.789	1360.27
469.161	1381.07
469.534	1419.93
469.906	1455.19
470.278	1480.95
470.65	1479.14
471.022	1507.39
471.394	1542.19
471.766	1567.73
472.138	1608.18
472.51	1642.53
472.882	1670.55
473.253	1706.25
473.625	1736.31
473.997	1763.43
474.369	1812.24
474.74	1825.35
475.112	1889.3
475.484	1906.48
475.855	1991.22
476.227	2006.36
476.598	2057.21
476.97	2115.51
477.341	2183.98
477.713	2207.26
478.084	2270.08
478.455	2347.37
478.827	2397.08
479.198	2480.47
479.569	2522.5
479.94	2606.34
480.311	2691.77
480.682	2774.48
481.053	2827.58
481.424	2932.21
481.795	2972.66
482.166	3073.45
482.537	3138.99
482.908	3259.43
483.279	3397.06
483.65	3408.36
484.021	3573.1
484.391	3667.11
484.762	3708.01
485.133	3804.05
485.503	3908
485.874	4007.89
486.244	4093.76
486.615	4288.79
486.985	4353.19
487.356	4540.53
487.726	4609.68
488.097	4770.35
488.467	4852.39
488.837	5012.83
489.207	5102.32
489.578	5287.86
489.948	5420.06
490.318	5490.34
490.688	5651.46
491.058	5729.65
491.428	5948.63
491.798	6062.52
492.168	6210.77
492.538	6361.5
492.908	6486.47
493.278	6631.1
493.648	6769.4
494.017	6868.15
494.387	7062.72
494.757	7160.12
495.126	7321.25
495.496	7445.31
495.866	7563.05
496.235	7713.55
496.605	7932.76
496.974	8032.19
497.344	8182.47
497.713	8239.87
498.082	8426.76
498.452	8602.8
498.821	8740.65
499.19	8795.56
499.559	8965.05
499.928	9027.64
500.298	9172.27
500.667	9403.23
501.036	9392.61
501.405	9590.57
501.774	9664.92
502.143	9854.74
502.512	9911.91
502.88	10035.98
503.249	10150.33
503.618	10277.78
503.987	10401.62
504.356	10454.27
504.724	10549.41
505.093	10749.41
505.462	10830.08
505.83	10972
506.199	11135.39
506.567	11225.33
506.936	11320.24
507.304	11502.83
507.672	11580.35
508.041	11700.79
508.409	11842.94
508.777	11941.92
509.145	12026.89
509.514	12121.35
509.882	12306.88
510.25	12325.18
510.618	12362.92
510.986	12483.15
511.354	12640.88
511.722	12758.17
512.09	12931.04
512.458	12896.47
512.826	13056.69
513.193	13148.67
513.561	13211.94
513.929	13395.21
514.297	13518.6
514.664	13644.92
515.032	13696.9
515.4	13799.27
515.767	13837.01
516.135	13896.89
516.502	13910.23
516.869	14197.45
517.237	14237.9
517.604	14277
517.972	14368.52
518.339	14495.75
518.706	14519.48
519.073	14622.3
519.44	14653.26
519.808	14816.42
520.175	14919.24
520.542	15002.63
520.909	15172.12
521.276	15117.88
521.643	15318.33
522.009	15387.02
522.376	15526.91
522.743	15633.8
523.11	15702.27
523.477	15850.29
523.843	15832.21
524.21	16065.2
524.577	16102.71
524.943	16181.81
525.31	16287.57
525.676	16483.72
526.043	16517.16
526.409	16546.09
526.776	16703.83
527.142	16725.97
527.508	16799.64
527.874	16890.26
528.241	17091.39
528.607	17057.49
528.973	17183.14
529.339	17253.42
529.705	17345.62
530.071	17444.15
530.437	17585.84
530.803	17566.4
531.169	17575.67
531.535	17666.06
531.901	17596.23
532.267	17693.4
532.632	17846.85
532.998	17825.15
533.364	17938.82
533.73	17965.49
534.095	18067.63
534.461	18221.75
534.826	18182.88
535.192	18147.63
535.557	18395.31
535.923	18316.44
536.288	18323.67
536.653	18436.21
537.019	18288.19
537.384	18344.91
537.749	18515.3
538.114	18506.26
538.479	18517.11
538.845	18500.39
539.21	18529.99
539.575	18533.38
539.94	18641.63
540.305	18616.09
540.67	18615.41
541.034	18666.26
541.399	18718.91
541.764	18747.16
542.129	18835.75
542.494	18774.05
542.858	18788.07
543.223	18781.29
543.587	18880.72
543.952	18740.38
544.316	18963.65
544.681	18952.81
545.045	18977.21
545.41	18998.68
545.774	18959.81
546.138	18995.29
546.503	19025.8
546.867	18966.59
547.231	19215.4
547.595	19090.88
547.959	19119.13
548.324	19084.33
548.688	19110.54
549.052	19135.85
549.416	19106.48
549.779	19258.79
550.143	19146.93
550.507	19324.1
550.871	19390.31
551.235	19326.13
551.599	19479.57
551.962	19376.75
552.326	19476.18
552.689	19437.31
553.053	19321.38
553.417	19432.34
553.78	19641.6
554.143	19605.67
554.507	19577.65
554.87	19570.87
555.234	19752.11
555.597	19673.47
555.96	19723.41
556.323	19823.97
556.686	19779.9
557.05	19902.61
557.413	19889.51
557.776	19917.53
558.139	20044.3
558.502	20016.73
558.865	20040.91
559.228	20131.53
559.59	20129.5
559.953	20197.75
560.316	20442.71
560.679	20348.48
561.041	20375.14
561.404	20529.94
561.767	20621.24
562.129	20510.96
562.492	20702.82
562.854	20607
563.217	20736.94
563.579	20743.27
563.941	20832.98
564.304	20850.38
564.666	20963.6
565.028	20982.13
565.39	21036.59
565.753	21147.1
566.115	21111.85
566.477	21249.7
566.839	21265.74
567.201	21304.61
567.563	21330.15
567.925	21495.34
568.287	21456.7
568.648	21501.44
569.01	21545.73
569.372	21732.62
569.734	21717.48
570.095	21783.92
570.457	21861.66
570.819	21958.38
571.18	21785.95
571.542	21943.91
571.903	22025.04
572.265	22093.74
572.626	22158.15
572.987	22188.65
573.349	22165.15
573.71	22344.13
574.071	22367.18
574.432	22282.89
574.794	22488.53
575.155	22421.19
575.516	22302.1
575.877	22461.19
576.238	22433.39
576.599	22489.66
576.96	22523.33
577.32	22620.51
577.681	22602.65
578.042	22688.53
578.403	22752.03
578.763	22586.84
579.124	22788.19
579.485	22879.71
579.845	22882.65
580.206	22808.3
580.566	22815.53
580.927	22877.45
581.287	22913.15
581.648	22906.15
582.008	22927.62
582.368	22883.1
582.728	22876.32
583.089	22990.21
583.449	22901.63
583.809	22946.37
584.169	22962.87
584.529	22792.03
584.889	23011.91
585.249	22910.44
585.609	22829.99
585.969	23060.27
586.329	22927.17
586.688	22935.75
587.048	22937.33
587.408	22972.59
587.768	22876.77
588.127	22870.44
588.487	22893.72
588.846	22966.26
589.206	22995.41
589.565	22831.57
589.925	23090.33
590.284	23015.98
590.643	23001.29
591.003	22971.23
591.362	23097.56
591.721	23104.34
592.08	22972.59
592.44	22986.6
592.799	22891.91
593.158	22975.53
593.517	22895.53
593.876	23015.75
594.235	23017.11
594.593	22954.28
594.952	23034.28
595.311	23029.08
595.67	23021.85
596.029	23108.4
596.387	23122.64
596.746	23055.52
597.104	23067.5
597.463	23069.31
597.822	23178.23
598.18	23075.64
598.538	23020.95
598.897	23215.75
599.255	22955.87
599.613	23268.4
599.972	23164.9
600.33	23203.99
600.688	23083.09
601.046	23155.63
601.404	23327.83
601.762	23112.47
602.12	23422.07
602.478	23230.43
602.836	23323.54
603.194	23110.89
603.552	23227.04
603.91	23204.22
604.268	23315.86
604.625	23311.11
604.983	23271.79
605.341	23144.11
605.698	23247.84
606.056	23481.28
606.413	23314.5
606.771	23380.03
607.128	23426.59
607.485	23406.93
607.843	23392.46
608.2	23559.01
608.557	23572.12
608.914	23482.86
609.272	23582.52
609.629	23744.32
609.986	23767.14
610.343	23569.18
610.7	23794.49
611.057	23796.97
611.414	23750.42
611.771	23764.21
612.127	23902.73
612.484	23856.86
612.841	23995.39
613.198	23867.25
613.554	23932.34
613.911	24119.22
614.267	24090.07
614.624	24013.01
614.98	24065.21
615.337	24063.18
615.693	24096.63
616.05	24001.94
616.406	24279.22
616.762	24180.01
617.118	24220.24
617.475	24224.76
617.831	24287.58
618.187	24239
618.543	24203.52
618.899	24424.98
619.255	24414.13
619.611	24319.67
619.967	24365.32
620.323	24461.36
620.678	24288.71
621.034	24371.87
621.39	24343.63
621.746	24354.92
622.101	24636.05
622.457	24400.35
622.812	24509.72
623.168	24516.05
623.523	24450.29
623.879	24605.77
624.234	24468.82
624.589	24494.81
624.945	24673.56
625.3	24676.5
625.655	24540.68
626.01	24697.74
626.365	24648.25
626.72	24562.38
627.075	24600.12
627.43	24615.71
627.785	24522.15
628.14	24636.73
628.495	24696.38
628.85	24591.08
629.205	24452.78
629.559	24605.09
629.914	24571.19
630.269	24648.02
630.623	24480.8
630.978	24524.19
631.332	24531.42
631.687	24640.34
632.041	24571.19
632.396	24583.39
632.75	24446.67
633.104	24460.46
633.459	24413.45
633.813	24377.75
634.167	24389.5
634.521	24340.91
634.875	24387.01
635.229	24364.87
635.583	24233.8
635.937	24233.35
636.291	24263.4
636.645	24251.65
636.999	24133.46
637.352	24331.87
637.706	24182.73
638.06	24071.09
638.413	24105.89
638.767	24093.69
639.121	24145.21
639.474	23934.6
639.828	23944.99
640.181	24123.07
640.534	24038.77
640.888	23946.35
641.241	23935.05
641.594	23934.82
641.947	23959.45
642.301	23948.83
642.654	24015.72
643.007	23916.29
643.36	23884.43
643.713	23916.52
644.066	23932.56
644.419	23745
644.771	23610.99
645.124	23492.8
645.477	23401.96
645.83	23282.41
646.182	23215.07
646.535	23011.23
646.888	23256.2
647.24	23107.05
647.593	23149.98
647.945	23231.34
648.298	22969.42
648.65	23022.98
649.002	23004.9
649.355	23034.73
649.707	23021.17
650.059	23178.23
650.411	23333.48
650.763	23390.66
651.115	23632.91
651.467	23539.35
651.819	23542.74
652.171	23465.68
652.523	23497.55
652.875	23394.5
653.227	23331.22
653.578	23557.21
653.93	23439.02
654.282	23490.99
654.633	23374.61
654.985	23369.19
655.337	23463.65
655.688	23444.67
656.039	23537.54
656.391	23383.65
656.742	23375.52
657.094	23396.08
657.445	23475.85
657.796	23453.48
658.147	23380.94
658.498	23401.96
658.849	23343.88
659.2	23303.88
659.551	23340.94
659.902	23413.48
660.253	23416.42
660.604	23394.95
660.955	23306.14
661.306	23383.2
661.656	23360.37
662.007	23350.88
662.358	23295.97
662.708	23348.17
663.059	23383.42
663.409	23189.31
663.76	23351.79
664.11	23418
664.461	23403.09
664.811	23447.38
665.161	23400.83
665.511	23360.37
665.862	23463.87
666.212	23415.97
666.562	23383.42
666.912	23417.32
667.262	23326.7
667.612	23468.17
667.962	23366.02
668.312	23246.93
668.662	23311.11
669.011	23293.94
669.361	23250.09
669.711	23292.35
670.06	23411.67
670.41	23219.59
670.76	23221.85
671.109	23334.39
671.459	23293.71
671.808	23248.29
672.157	23270.21
672.507	23242.41
672.856	23075.41
673.205	23217.1
673.554	23220.27
673.904	23141.62
674.253	23274.73
674.602	23261.62
674.951	22820.73
675.3	22749.77
675.649	23131.23
675.998	23057.11
676.346	23030.44
676.695	23116.77
677.044	22806.49
677.393	22927.84
677.741	23023.66
678.09	22981.18
678.438	22886.04
678.787	22970.1
679.135	22894.17
679.484	22833.38
679.832	22888.75
680.181	22712.71
680.529	22808.98
680.877	22807.62
681.225	22743.67
681.573	22861.86
681.922	22709.54
682.27	22655.76
682.618	22637
682.966	22584.35
683.314	22503.45
683.661	22466.61
684.009	22443.11
684.357	22321.53
684.705	22313.62
685.053	22336.45
685.4	22202.21
685.748	22160.41
686.095	22227.75
686.443	21997.25
686.79	22141.88
687.138	22115.21
687.485	22052.61
687.832	21976.91
688.18	22053.06
688.527	21817.82
688.874	21866.63
689.221	21782.79
689.568	21659.85
689.915	21650.14
690.262	21654.66
690.609	21617.37
690.956	21507.54
691.303	21423.48
691.65	21312.97
691.997	21334.21
692.344	21180.54
692.69	21215.57
693.037	21216.02
693.383	21030.72
693.73	21156.14
694.077	20978.97
694.423	20928.12
694.769	20947.56
695.116	20751.18
695.462	20814.23
695.808	20716.83
696.155	20725.87
696.501	20547.57
696.847	20518.19
697.193	20372.88
697.539	20440.9
697.885	20333.11
698.231	20288.59
698.577	20269.38
698.923	20227.8
699.269	20057.41
699.614	19996.85
699.96	19982.84
700.306	19928.15
700.651	19876.62
700.997	19740.58
701.342	19736.51
701.688	19588.27
702.033	19607.93
702.379	19523.64
702.724	19467.37
703.069	19484.54
703.415	19396.18
703.76	19249.07
704.105	19288.39
704.45	19253.82
704.795	19224.21
705.14	19085.01
705.485	19054.5
705.83	18988.06
706.175	19065.8
706.52	18978.79
706.865	18820.38
707.209	18796.2
707.554	18761.4
707.899	18703.1
708.243	18671.01
708.588	18562.53
708.932	18447.28
709.277	18353.73
709.621	18466.94
709.966	18326.16
710.31	18508.07
710.654	18214.07
710.998	18246.61
711.342	18195.54
711.687	18164.35
712.031	18030.12
712.375	17972.72
712.719	18106.95
713.063	18054.98
713.407	18077.35
713.75	17893.85
714.094	17925.94
714.438	17828.54
714.782	17945.38
715.125	17791.03
715.469	17763.69
715.812	17692.95
716.156	17732.27
716.499	17718.71
716.843	17605.72
717.186	17594.2
717.53	17655.44
717.873	17748.32
718.216	17562.11
718.559	17441.21
718.902	17342.45
719.246	17367.99
719.589	17377.93
719.932	17355.79
720.275	17292.06
720.617	17357.59
720.96	17162.57
721.303	17185.17
721.646	17273.75
721.989	17111.5
722.331	17190.82
722.674	17094.32
723.016	17099.3
723.359	17138.17
723.701	17182.68
724.044	17040.54
724.386	16892.07
724.729	17021.11
725.071	16981.56
725.413	16920.32
725.755	16868.57
726.097	16810.26
726.439	16787.21
726.782	16750.38
727.124	16918.74
727.465	16841.22
727.807	16806.65
728.149	16742.02
728.491	16721
728.833	16849.81
729.175	16721.45
729.516	16632.19
729.858	16694.34
730.199	16629.93
730.541	16632.64
730.882	16637.84
731.224	16677.16
731.565	16521.46
731.906	16650.04
732.248	16541.12
732.589	16490.05
732.93	16504.96
733.271	16542.93
733.612	16566.65
733.953	16475.58
734.294	16410.5
734.635	16396.72
734.976	16428.58
735.317	16466.54
735.658	16428.81
735.999	16397.17
736.339	16461.12
736.68	16496.37
737.021	16329.15
737.361	16348.36
737.702	16423.16
738.042	16422.03
738.383	16383.16
738.723	16465.19
739.063	16393.55
739.404	16425.19
739.744	16374.12
740.084	16339.99
740.424	16411.63
740.764	16303.61
741.104	16491.85
741.444	16366.89
741.784	16307.23
742.124	16421.57
742.464	16324.4
742.804	16300
743.143	16383.61
743.483	16385.64
743.823	16417.96
744.162	16388.81
744.502	16368.47
744.841	16375.7
745.181	16511.52
745.52	16502.7
745.86	16588.35
746.199	16459.54
746.538	16548.58
746.877	16567.56
747.216	16638.74
747.556	16570.95
747.895	16663.38
748.234	16558.97
748.573	16610.04
748.911	16674.22
749.25	16682.81
749.589	16744.96
749.928	16739.76
750.267	16763.71
750.605	16784.5
750.944	16902.69
751.283	16842.35
751.621	17040.54
751.96	16957.15
752.298	17060.43
752.636	17156.24
752.975	17131.16
753.313	17101.1
753.651	17241.89
753.989	17263.81
754.327	17312.4
754.666	17296.35
755.004	17544.48
755.342	17521.66
755.679	17616.34
756.017	17537.7
756.355	17713.29
756.693	17679.85
757.031	17866.73
