Data from hue_22_FLMS001491_00004.txt Node
Date: Tue Feb 07 17:09:24 GMT 2017
User: dcchb
Spectrometer: FLMS00149
Trigger mode: 0
Integration Time (sec): 2.000000E-2
Scans to average: 10
Electric dark correction enabled: true
Nonlinearity correction enabled: false
Boxcar width: 0
XAxis mode: Wavelengths
Number of Pixels in Spectrum: 2048
>>>>>Begin Spectral Data<<<<<
341.393	0.78
341.776	0.78
342.16	0.78
342.543	-54.81
342.927	-71.76
343.31	-70.63
343.693	-76.06
344.077	-48.04
344.46	-72.22
344.843	-57.75
345.226	-37.64
345.61	-19.34
345.993	-12.78
346.376	-19.56
346.759	2.58
347.142	29.7
347.525	34.9
347.908	56.14
348.291	89.59
348.674	84.84
349.057	116.25
349.44	153.32
349.823	140.89
350.206	182.47
350.588	195.57
350.971	224.95
351.354	236.48
351.737	242.58
352.119	261.56
352.502	259.98
352.884	291.16
353.267	276.7
353.65	310.37
354.032	290.03
354.414	303.37
354.797	322.12
355.179	325.97
355.562	352.86
355.944	330.49
356.326	327.32
356.709	337.27
357.091	345.85
357.473	352.41
357.855	363.25
358.238	337.04
358.62	333.2
359.002	318.73
359.384	359.19
359.766	347.66
360.148	335.23
360.53	353.31
360.912	338.85
361.294	331.84
361.676	339.07
362.057	341.78
362.439	347.66
362.821	350.15
363.203	337.49
363.584	304.72
363.966	307.89
364.348	336.36
364.729	331.16
365.111	323.71
365.493	314.89
365.874	298.85
366.256	324.16
366.637	320.99
367.019	323.25
367.4	299.75
367.781	327.55
368.163	342.91
368.544	329.13
368.925	313.99
369.306	306.98
369.688	304.27
370.069	309.7
370.45	300.66
370.831	326.19
371.212	297.94
371.593	318.28
371.974	310.83
372.355	314.67
372.736	324.61
373.117	322.35
373.498	327.1
373.879	310.6
374.26	322.35
374.641	325.29
375.021	302.92
375.402	325.29
375.783	343.37
376.163	339.52
376.544	331.39
376.925	317.6
377.305	304.5
377.686	341.78
378.066	323.48
378.447	326.87
378.827	321.22
379.208	324.61
379.588	320.77
379.968	337.04
380.349	344.72
380.729	331.16
381.109	325.29
381.489	339.07
381.87	336.36
382.25	317.6
382.63	344.27
383.01	343.82
383.39	348.79
383.77	356.7
384.15	354.67
384.53	356.47
384.91	359.86
385.29	351.95
385.67	343.59
386.049	353.76
386.429	358.73
386.809	368.9
387.189	381.11
387.568	353.08
387.948	369.35
388.328	347.89
388.707	375.23
389.087	357.38
389.466	370.48
389.846	377.04
390.225	372.97
390.605	358.28
390.984	351.73
391.363	366.19
391.743	356.47
392.122	375.23
392.501	377.26
392.881	358.73
393.26	360.99
393.639	380.88
394.018	354.44
394.397	370.71
394.776	389.47
395.155	373.2
395.534	366.64
395.913	385.63
396.292	369.13
396.671	393.31
397.05	369.58
397.429	391.05
397.808	388.11
398.186	394.89
398.565	388.34
398.944	379.52
399.323	384.04
399.701	377.26
400.08	394.44
400.458	398.96
400.837	381.56
401.215	399.41
401.594	410.94
401.972	401.67
402.351	395.57
402.729	407.77
403.107	410.26
403.486	398.73
403.864	401.67
404.242	414.1
404.62	401.22
404.999	411.61
405.377	432.18
405.755	410.48
406.133	420.88
406.511	408.9
406.889	443.25
407.267	419.3
407.645	415.23
408.023	413.65
408.401	410.26
408.779	429.69
409.156	445.74
409.534	440.99
409.912	427.66
410.29	469.24
410.667	452.06
411.045	436.92
411.422	460.88
411.8	455.91
412.178	459.3
412.555	471.5
412.933	449.35
413.31	481.22
413.687	470.37
414.065	457.94
414.442	489.58
414.819	461.56
415.197	486.87
415.574	476.02
415.951	459.97
416.328	481.44
416.705	484.83
417.082	494.78
417.46	473.98
417.837	495.68
418.214	490.03
418.591	489.35
418.967	494.1
419.344	502.68
419.721	537.03
420.098	523.02
420.475	508.56
420.852	507.66
421.228	511.72
421.605	528.9
421.982	533.87
422.358	530.93
422.735	536.13
423.111	516.7
423.488	544.94
423.864	535.9
424.241	527.99
424.617	535
424.994	546.07
425.37	546.75
425.746	548.33
426.123	569.8
426.499	545.17
426.875	535.9
427.251	537.49
427.627	565.73
428.003	595.34
428.379	556.69
428.756	577.48
429.132	567.54
429.507	591.04
429.883	594.21
430.259	580.65
430.635	618.39
431.011	596.47
431.387	592.85
431.763	632.17
432.138	646.86
432.514	621.78
432.89	632.17
433.265	641.44
433.641	647.31
434.016	638.27
434.392	621.1
434.767	639.63
435.143	655.45
435.518	672.62
435.894	663.58
436.269	671.72
436.644	660.87
437.02	676.92
437.395	683.02
437.77	675.11
438.145	697.71
438.52	709.46
438.895	693.41
439.271	715.79
439.646	691.38
440.021	724.15
440.395	728.67
440.77	704.49
441.145	709.01
441.52	759.63
441.895	737.71
442.27	745.84
442.645	745.62
443.019	765.5
443.394	757.82
443.769	741.55
444.143	774.09
444.518	764.15
444.892	738.38
445.267	767.54
445.641	770.02
446.016	753.53
446.39	770.47
446.764	799.63
447.139	771.6
447.513	812.05
447.887	786.29
448.262	801.66
448.636	803.69
449.01	785.84
449.384	804.15
449.758	805.05
450.132	814.54
450.506	827.2
450.88	831.04
451.254	820.87
451.628	832.17
452.002	847.76
452.376	836.91
452.75	858.16
453.123	833.3
453.497	866.52
453.871	878.04
454.244	872.84
454.618	894.09
454.992	898.61
455.365	885.27
455.739	913.75
456.112	934.76
456.486	915.33
456.859	942.45
457.232	916.91
457.606	926.18
457.979	932.73
458.352	947.87
458.725	994.65
459.099	990.36
459.472	989.68
459.845	1011.37
460.218	1021.31
460.591	1014.31
460.964	1026.96
461.337	1024.93
461.71	1015.67
462.083	1061.09
462.456	1058.6
462.829	1085.04
463.201	1092.95
463.574	1104.25
463.947	1112.84
464.32	1127.98
464.692	1110.13
465.065	1133.63
465.438	1122.33
465.81	1161.88
466.183	1186.96
466.555	1208.2
466.928	1222.67
467.3	1213.63
467.672	1214.53
468.045	1258.6
468.417	1250.69
468.789	1283.68
469.161	1271.48
469.534	1311.02
469.906	1336.79
470.278	1347.86
470.65	1343.79
471.022	1382.66
471.394	1411.59
471.766	1413.17
472.138	1434.64
472.51	1448.2
472.882	1459.72
473.253	1482.32
473.625	1483.9
473.997	1554.41
474.369	1548.31
474.74	1574.07
475.112	1576.55
475.484	1605.25
475.855	1635.54
476.227	1663.78
476.598	1700.62
476.97	1729.54
477.341	1747.85
477.713	1797.11
478.084	1784.46
478.455	1837.11
478.827	1862.65
479.198	1906.94
479.569	1917.11
479.94	1983.32
480.311	1999.82
480.682	2043.66
481.053	2069.87
481.424	2135.64
481.795	2121.4
482.166	2158.23
482.537	2201.85
482.908	2271.68
483.279	2288.17
483.65	2317.55
484.021	2390.32
484.391	2407.95
484.762	2418.34
485.133	2471.22
485.503	2476.19
485.874	2576.3
486.244	2587.15
486.615	2643.65
486.985	2722.06
487.356	2723.42
487.726	2729.29
488.097	2793.47
488.467	2814.49
488.837	2942.62
489.207	2938.78
489.578	2945.11
489.948	3038.89
490.318	3037.76
490.688	3085.67
491.058	3146.68
491.428	3165.67
491.798	3236.4
492.168	3261.93
492.538	3314.59
492.908	3363.4
493.278	3392.33
493.648	3378.32
494.017	3427.81
494.387	3506.9
494.757	3516.39
495.126	3566.11
495.496	3555.26
495.866	3581.47
496.235	3650.85
496.605	3671.87
496.974	3732.2
497.344	3757.74
497.713	3771.98
498.082	3797.29
498.452	3853.33
498.821	3852.88
499.19	3857.62
499.559	3917.06
499.928	3964.29
500.298	4006.1
500.667	4015.81
501.036	4058.07
501.405	4084.06
501.774	4105.53
502.143	4118.41
502.512	4131.06
502.88	4201.57
503.249	4215.36
503.618	4246.54
503.987	4229.82
504.356	4261.23
504.724	4300.78
505.093	4341.23
505.462	4349.36
505.83	4388.23
506.199	4391.17
506.567	4419.87
506.936	4453.54
507.304	4488.57
507.672	4502.81
508.041	4479.53
508.409	4555.46
508.777	4567.66
509.145	4605.18
509.514	4600.66
509.882	4625.06
510.25	4661.22
510.618	4675
510.986	4705.51
511.354	4726.3
511.722	4736.7
512.09	4804.94
512.458	4818.96
512.826	4863.47
513.193	4857.37
513.561	4854.89
513.929	4893.98
514.297	4972.17
514.664	4952.96
515.032	4964.49
515.4	4990.25
515.767	5009.68
516.135	5039.51
516.502	5007.65
516.869	5128.55
517.237	5131.49
517.604	5097.59
517.972	5117.03
518.339	5137.82
518.706	5176.91
519.073	5198.38
519.44	5228.66
519.808	5292.62
520.175	5185.27
520.542	5324.93
520.909	5329.22
521.276	5309.56
521.643	5354.08
522.009	5386.62
522.376	5420.3
522.743	5414.42
523.11	5483.57
523.477	5564.02
523.843	5553.85
524.21	5648.99
524.577	5613.06
524.943	5631.82
525.31	5652.83
525.676	5677.92
526.043	5721.08
526.409	5742.55
526.776	5837.23
527.142	5848.76
527.508	5926.5
527.874	5891.7
528.241	5932.82
528.607	5970.79
528.973	5989.32
529.339	5987.06
529.705	6063.22
530.071	6072.93
530.437	6130.79
530.803	6143.21
531.169	6190.22
531.535	6185.47
531.901	6209.65
532.267	6228.41
532.632	6231.8
532.998	6322.19
533.364	6318.58
533.73	6342.08
534.095	6398.57
534.461	6421.17
534.826	6425.24
535.192	6401.74
535.557	6486.03
535.923	6511.57
536.288	6545.24
536.653	6584.56
537.019	6549.31
537.384	6576.42
537.749	6593.37
538.114	6658.68
538.479	6674.95
538.845	6694.84
539.21	6674.27
539.575	6716.08
539.94	6762.63
540.305	6788.62
540.67	6798.56
541.034	6834.04
541.399	6890.31
541.764	6863.87
542.129	6879.69
542.494	6906.81
542.858	6948.39
543.223	6992.23
543.587	7075.62
543.952	7013.47
544.316	7072
544.681	7102.51
545.045	7142.51
545.41	7165.33
545.774	7256.41
546.138	7202.4
546.503	7240.81
546.867	7250.53
547.231	7321.94
547.595	7337.99
547.959	7423.86
548.324	7328.95
548.688	7331.88
549.052	7462.28
549.416	7394.03
549.779	7480.58
550.143	7485.33
550.507	7542.05
550.871	7587.92
551.235	7547.7
551.599	7601.71
551.962	7620.46
552.326	7708.37
552.689	7622.05
553.053	7719.67
553.417	7758.99
553.78	7889.16
554.143	7801.48
554.507	7763.74
554.87	7852.32
555.234	7928.48
555.597	7885.32
555.96	7927.12
556.323	7936.61
556.686	7918.08
557.05	7980.68
557.413	8048.02
557.776	8058.87
558.139	8059.32
558.502	8086.21
558.865	8183.84
559.228	8169.15
559.59	8221.58
559.953	8245.08
560.316	8366.43
560.679	8289.37
561.041	8347.9
561.404	8378.41
561.767	8397.84
562.129	8372.99
562.492	8471.29
562.854	8408.01
563.217	8485.07
563.579	8514.9
563.941	8551.29
564.304	8583.6
564.666	8625.41
565.028	8668.35
565.39	8664.73
565.753	8696.82
566.115	8792.41
566.477	8769.13
566.839	8783.6
567.201	8936.59
567.563	8925.97
567.925	8925.51
568.287	8980.65
568.648	8965.51
569.01	9062.01
569.372	9145.62
569.734	9104.72
570.095	9116.7
570.457	9172.29
570.819	9236.47
571.18	9184.26
571.542	9291.15
571.903	9303.58
572.265	9363.24
572.626	9408.67
572.987	9484.37
573.349	9460.64
573.71	9563.01
574.071	9613.41
574.432	9617.7
574.794	9760.97
575.155	9761.88
575.516	9796.68
575.877	9825.6
576.238	9920.74
576.599	9966.39
576.96	10065.14
577.32	10091.36
577.681	10184.01
578.042	10253.16
578.403	10281.18
578.763	10449.09
579.124	10547.62
579.485	10629.2
579.845	10709.87
580.206	10833.03
580.566	10911.22
580.927	11028.28
581.287	11115.29
581.648	11185.79
582.008	11415.84
582.368	11479.12
582.728	11590.53
583.089	11764.31
583.449	11911.88
583.809	12009.5
584.169	12187.35
584.529	12330.62
584.889	12620.56
585.249	12690.84
585.609	12801.12
585.969	13083.37
586.329	13346.87
586.688	13457.37
587.048	13653.98
587.408	13878.83
587.768	14141.42
588.127	14284.92
588.487	14514.29
588.846	14854.4
589.206	15006.26
589.565	15240.83
589.925	15558.56
590.284	15723.75
590.643	16124.87
591.003	16370.06
591.362	16685.76
591.721	16884.4
592.08	17136.6
592.44	17473.99
592.799	17716.02
593.158	18004.82
593.517	18303.57
593.876	18577.46
594.235	18864.24
594.593	19254.51
594.952	19659.24
595.311	19875.06
595.67	20150.08
596.029	20596.85
596.387	20864.86
596.746	21235.7
597.104	21513.88
597.463	21746.87
597.822	22171.95
598.18	22446.97
598.538	22717.02
598.897	23097.8
599.255	23330.11
599.613	23914.95
599.972	23956.31
600.33	24527.14
600.688	24609.85
601.046	24940.69
601.404	25373.89
601.762	25551.29
602.12	25942.47
602.478	26366.19
602.836	26621.77
603.194	26857.7
603.552	27129.33
603.91	27382.88
604.268	27699.03
604.625	27943.09
604.983	28373.82
605.341	28553.47
605.698	28999.56
606.056	29339.89
606.413	29394.13
606.771	29829.37
607.128	30094
607.485	30288.12
607.843	30515.45
608.2	30957.03
608.557	31100.75
608.914	31401.99
609.272	31638.14
609.629	32047.84
609.986	32349.98
610.343	32298.01
610.7	32752.68
611.057	32998.33
611.414	33071.77
611.771	33400.12
612.127	33678.31
612.484	33913.78
612.841	34170.95
613.198	34193.55
613.554	34511.73
613.911	34866.98
614.267	34859.52
614.624	35121.66
614.98	35392.61
615.337	35617.02
615.693	35790.57
616.05	35839.61
616.406	36306.26
616.762	36263.55
617.118	36295.42
617.475	36555.07
617.831	36847.04
618.187	37090.88
618.543	37225.79
618.899	37513.69
619.255	37430.3
619.611	37643.85
619.967	38039.32
620.323	38119.55
620.678	38106.22
621.034	38122.71
621.39	38355.02
621.746	38327.9
622.101	38774.67
622.457	38549.59
622.812	38902.8
623.168	39028
623.523	39048.79
623.879	39297.82
624.234	39173.98
624.589	39480.64
624.945	39503.69
625.3	39583.24
625.655	39708.66
626.01	39819.84
626.365	39790.01
626.72	39864.59
627.075	39871.82
627.43	39884.93
627.785	40038.59
628.14	40126.73
628.495	40274.07
628.85	40322.65
629.205	40180.06
629.559	40505.7
629.914	40410.79
630.269	40493.5
630.623	40372.6
630.978	40524.68
631.332	40662.08
631.687	40831.34
632.041	40645.58
632.396	40779.14
632.75	40713.6
633.104	40859.14
633.459	40601.97
633.813	40699.59
634.167	40715.86
634.521	40768.52
634.875	40912.24
635.229	40874.73
635.583	40660.5
635.937	40699.37
636.291	40742.3
636.645	40716.32
636.999	40702.53
637.352	40902.53
637.706	40697.56
638.06	40821.17
638.413	40709.99
638.767	40702.08
639.121	40960.6
639.474	40520.84
639.828	40714.51
640.181	40690.33
640.534	40653.49
640.888	40647.62
641.241	40577.79
641.594	40615.3
641.947	40862.53
642.301	40670.67
642.654	40631.8
643.007	40798.12
643.36	40711.57
643.713	40691.23
644.066	40819.14
644.419	40583.44
644.771	40268.64
645.124	39913.63
645.477	40079.5
645.83	39812.84
646.182	39580.3
646.535	39556.35
646.888	39704.82
647.24	39427.76
647.593	39745.04
647.945	39620.07
648.298	39501.89
648.65	39430.25
649.002	39212.4
649.355	39533.97
649.707	39406.97
650.059	39592.28
650.411	39997.24
650.763	40083.11
651.115	40424.8
651.467	40318.59
651.819	40327.63
652.171	40236.33
652.523	40213.05
652.875	40217.35
653.227	40241.53
653.578	40249.89
653.93	40264.8
654.282	40035.2
654.633	40056.22
654.985	40168.99
655.337	40218.25
655.688	40154.52
656.039	40312.94
656.391	39965.6
656.742	40074.3
657.094	39984.36
657.445	40181.64
657.796	40098.93
658.147	39951.36
658.498	39976.22
658.849	40128.54
659.2	40030.01
659.551	39879.95
659.902	40096.45
660.253	39932.61
660.604	39962.66
660.955	39807.41
661.306	40065.94
661.656	39768.77
662.007	40008.99
662.358	39982.78
662.708	39940.97
663.059	39915.21
663.409	39756.34
663.76	40086.73
664.11	39998.37
664.461	39971.03
664.811	39990.69
665.161	39989.78
665.511	39792.05
665.862	39811.71
666.212	39985.04
666.562	39825.49
666.912	39914.3
667.262	39829.79
667.612	39855.55
667.962	39924.92
668.312	39835.66
668.662	39883.8
669.011	39819.39
669.361	39787.3
669.711	39689.68
670.06	39694.65
670.41	39820.75
670.76	39622.56
671.109	39987.97
671.459	39779.84
671.808	39728.55
672.157	39740.3
672.507	39553.41
672.856	39528.78
673.205	39586.18
673.554	39620.53
673.904	39510.02
674.253	39835.66
674.602	39543.69
674.951	39096.92
675.3	38835.24
675.649	39377.59
675.998	39357.93
676.346	39420.98
676.695	39521.32
677.044	39271.16
677.393	39375.79
677.741	39383.7
678.09	39205.17
678.438	39187.32
678.787	39247.2
679.135	39339.18
679.484	39112.74
679.832	39210.59
680.181	39036.13
680.529	39122.91
680.877	39011.73
681.225	38879.98
681.573	39302.12
681.922	38876.14
682.27	38948.45
682.618	38876.59
682.966	38766.09
683.314	38882.24
683.661	38655.35
684.009	38430.95
684.357	38367.68
684.705	38495.58
685.053	38403.38
685.4	38351.18
685.748	38326.1
686.095	38226.21
686.443	38195.03
686.79	37977.86
687.138	38070.74
687.485	38100.11
687.832	38160.45
688.18	38032.55
688.527	37808.6
688.874	37813.79
689.221	37724.76
689.568	37611.54
689.915	37568.38
690.262	37583.74
690.609	37539
690.956	37319.8
691.303	37372.68
691.65	37209.97
691.997	37249.29
692.344	37092
692.69	36915.06
693.037	36874.16
693.383	36555.75
693.73	36804.78
694.077	36532.92
694.423	36417.67
694.769	36396.66
695.116	36323.89
695.462	36261.97
695.808	36135.65
696.155	36172.48
696.501	35970
696.847	35909.89
697.193	35687.52
697.539	35827.18
697.885	35718.26
698.231	35436
698.577	35546.06
698.923	35475.1
699.269	35359.4
699.614	35085.96
699.96	35038.05
700.306	35094.77
700.651	34904.72
700.997	34871.95
701.342	34713.99
701.688	34697.27
702.033	34658.62
702.379	34543.6
702.724	34322.81
703.069	34492.3
703.415	34204.4
703.76	34086.21
704.105	34138.64
704.45	34125.3
704.795	33906.33
705.14	33782.94
705.485	33958.75
705.83	33580.23
706.175	33843.95
706.52	33621.14
706.865	33511.99
707.209	33592.66
707.554	33449.84
707.899	33392.22
708.243	33241.94
708.588	33221.82
708.932	32895.96
709.277	33013.69
709.621	33119.91
709.966	32825.68
710.31	32831.33
710.654	32574.38
710.998	32619.35
711.342	32598.11
711.687	32486.02
712.031	32406.25
712.375	32179.37
712.719	32438.34
713.063	32261.4
713.407	32429.98
713.75	32277.44
714.094	32126.03
714.438	32003.55
714.782	32116.99
715.125	31882.42
715.469	32027.51
715.812	31690.34
716.156	31679.27
716.499	31731.02
716.843	31732.82
717.186	31461.87
717.53	31738.93
717.873	31639.49
718.216	31399.73
718.559	31294.64
718.902	31145.72
719.246	31206.96
719.589	31153.63
719.932	31116.57
720.275	30971.04
720.617	31068.66
720.96	30977.36
721.303	30944.14
721.646	30991.37
721.989	30774.88
722.331	30833.41
722.674	30607.88
723.016	30704.6
723.359	30704.6
723.701	30737.82
724.044	30501.67
724.386	30296.48
724.729	30475.46
725.071	30372.63
725.413	30428.68
725.755	30374.89
726.097	30198.85
726.439	30074.34
726.782	30010.16
727.124	30261.68
727.465	30124.05
727.807	30142.36
728.149	29884.74
728.491	29875.25
728.833	29892.19
729.175	29757.73
729.516	29761.8
729.858	29657.4
730.199	29760.67
730.541	29688.36
730.882	29680.45
731.224	29780.11
731.565	29369.5
731.906	29559.32
732.248	29511.64
732.589	29307.8
732.93	29343.96
733.271	29272.1
733.612	29292.89
733.953	29317.52
734.294	29247.92
734.635	29072.55
734.976	29162.5
735.317	29006.34
735.658	28938.77
735.999	29088.15
736.339	29065.55
736.68	28961.82
737.021	28935.16
737.361	28820.58
737.702	28925.89
738.042	28816.06
738.383	28701.94
738.723	28663.98
739.063	28771.77
739.404	28729.06
739.744	28663.07
740.084	28497.43
740.424	28471.67
740.764	28546.47
741.104	28607.93
741.444	28301.28
741.784	28364.55
742.124	28334.72
742.464	28442.97
742.804	28219.92
743.143	28124.33
743.483	28171.11
743.823	27970.66
744.162	27976.09
744.502	28146.25
744.841	27976.54
745.181	28104.67
745.52	27868.74
745.86	27912.59
746.199	27767.96
746.538	27864
746.877	27882.08
747.216	27845.47
747.556	27800.72
747.895	27800.5
748.234	27672.82
748.573	27659.03
748.911	27543.1
749.25	27729.09
749.589	27568.64
749.928	27518.47
750.267	27562.99
750.605	27444.8
750.944	27382.43
751.283	27344.46
751.621	27429.21
751.96	27246.61
752.298	27252.04
752.636	27275.77
752.975	27128.2
753.313	26959.84
753.651	27092.04
753.989	26956.68
754.327	26929.11
754.666	26662.9
755.004	26705.61
755.342	26707.19
755.679	26721.88
756.017	26629.91
756.355	26633.52
756.693	26501.55
757.031	26482.34
757.368	26449.12
757.706	26418.84
758.044	26289.35
758.381	26307.43
758.719	26205.51
759.056	26238.51
759.394	26192.4
759.731	25892.75
760.068	25845.3
760.405	25772.3
760.743	25773.43
