Data from hue_50_FLMS001491_26.txt Node
Date: Mon Feb 06 15:09:49 GMT 2017
User: dcchb
Spectrometer: FLMS00149
Trigger mode: 0
Integration Time (sec): 2.000000E-2
Scans to average: 10
Electric dark correction enabled: true
Nonlinearity correction enabled: false
Boxcar width: 0
XAxis mode: Wavelengths
Number of Pixels in Spectrum: 2048
>>>>>Begin Spectral Data<<<<<
341.393	-10.16
341.776	-10.16
342.16	-10.16
342.543	-70.27
342.927	-74.11
343.31	-67.1
343.693	-68.46
344.077	-49.7
344.46	-73.88
344.843	-46.99
345.226	-41.79
345.61	-35.47
345.993	-14.9
346.376	6.57
346.759	-1.79
347.142	15.38
347.525	43.85
347.908	53.8
348.291	65.1
348.674	98.32
349.057	117.07
349.44	130.63
349.823	150.07
350.206	162.5
350.588	207.92
350.971	193.46
351.354	249.05
351.737	240.23
352.119	245.88
352.502	268.93
352.884	269.84
353.267	279.55
353.65	292.21
354.032	315.94
354.414	321.81
354.797	323.17
355.179	336.5
355.562	334.92
355.944	322.04
356.326	331.3
356.709	327.24
357.091	331.98
357.473	348.03
357.855	327.24
358.238	333.34
358.62	330.17
359.002	353
359.384	334.47
359.766	331.08
360.148	315.71
360.53	332.21
360.912	328.14
361.294	337.41
361.676	341.02
362.057	339.21
362.439	332.21
362.821	323.85
363.203	329.72
363.584	329.72
363.966	329.05
364.348	313
364.729	322.04
365.111	348.48
365.493	322.72
365.874	324.07
366.256	312.32
366.637	329.05
367.019	308.03
367.4	300.12
367.781	312.1
368.163	313.68
368.544	316.16
368.925	329.95
369.306	329.72
369.688	323.62
370.069	312.1
370.45	330.17
370.831	313.45
371.212	331.3
371.593	334.02
371.974	299.89
372.355	292.21
372.736	327.24
373.117	315.49
373.498	313.23
373.879	309.38
374.26	325.2
374.641	314.58
375.021	319.55
375.402	305.32
375.783	331.3
376.163	321.14
376.544	323.4
376.925	333.34
377.305	333.34
377.686	345.54
378.066	306.22
378.447	324.75
378.827	336.73
379.208	338.76
379.588	323.85
379.968	325.2
380.349	318.2
380.729	320.23
381.109	308.71
381.489	313.9
381.87	330.17
382.25	327.46
382.63	304.86
383.01	336.28
383.39	341.47
383.77	337.63
384.15	329.95
384.53	349.61
384.91	348.48
385.29	356.39
385.67	326.79
386.049	346.67
386.429	336.28
386.809	359.33
387.189	327.46
387.568	340.8
387.948	337.18
388.328	355.03
388.707	356.84
389.087	349.84
389.466	353.23
389.846	374.92
390.225	361.59
390.605	371.76
390.984	360.68
391.363	354.13
391.743	370.17
392.122	370.4
392.501	359.78
392.881	362.94
393.26	372.89
393.639	366.78
394.018	356.39
394.397	353.45
394.776	361.81
395.155	355.71
395.534	363.62
395.913	368.37
396.292	387.8
396.671	387.35
397.05	368.14
397.429	379.21
397.808	370.63
398.186	374.69
398.565	378.76
398.944	355.26
399.323	369.5
399.701	384.41
400.08	355.49
400.458	381.7
400.837	378.54
401.215	404.98
401.594	392.55
401.972	365.43
402.351	387.57
402.729	387.8
403.107	411.3
403.486	392.09
403.864	401.59
404.242	405.65
404.62	400
404.999	397.97
405.377	397.52
405.755	398.65
406.133	404.07
406.511	403.39
406.889	421.7
407.267	422.15
407.645	410.62
408.023	416.05
408.401	400.23
408.779	437.06
409.156	418.08
409.534	427.35
409.912	430.29
410.29	434.8
410.667	444.52
411.045	446.33
411.422	428.25
411.8	446.1
412.178	457.63
412.555	440
412.933	449.04
413.31	435.26
413.687	442.49
414.065	450.17
414.442	455.82
414.819	475.93
415.197	468.7
415.574	466.89
415.951	455.14
416.328	477.97
416.705	460.79
417.082	465.31
417.46	493.33
417.837	497.18
418.214	489.04
418.591	481.81
418.967	484.52
419.344	471.64
419.721	478.87
420.098	468.93
420.475	486.33
420.852	484.07
421.228	496.05
421.605	511.87
421.982	504.18
422.358	510.06
422.735	522.71
423.111	493.56
423.488	505.31
423.864	517.74
424.241	541.02
424.617	521.36
424.994	516.38
425.37	536.72
425.746	522.94
426.123	530.85
426.499	519.55
426.875	540.79
427.251	547.8
427.627	567
428.003	567.46
428.379	548.93
428.756	583.28
429.132	566.1
429.507	576.27
429.883	588.25
430.259	584.18
430.635	597.51
431.011	576.72
431.387	586.44
431.763	605.87
432.138	574.91
432.514	599.77
432.89	613.56
433.265	628.7
433.641	629.83
434.016	611.75
434.392	614.24
434.767	630.05
435.143	631.18
435.518	620.79
435.894	640.9
436.269	662.14
436.644	651.07
437.02	666.21
437.395	640.9
437.77	657.85
438.145	660.79
438.52	668.47
438.895	667.12
439.271	678.19
439.646	684.74
440.021	677.28
440.395	696.94
440.77	685.42
441.145	693.78
441.52	724.51
441.895	727.45
442.27	719.54
442.645	716.83
443.019	717.96
443.394	716.83
443.769	699.88
444.143	723.61
444.518	741.01
444.892	725.42
445.267	742.59
445.641	747.57
446.016	741.24
446.39	745.76
446.764	740.79
447.139	736.04
447.513	760.9
447.887	787.79
448.262	758.64
448.636	769.03
449.01	782.59
449.384	772.2
449.758	786.43
450.132	785.08
450.506	792.31
450.88	806.77
451.254	785.08
451.628	815.36
452.002	828.69
452.376	825.53
452.75	825.08
453.123	805.64
453.497	837.05
453.871	836.38
454.244	850.61
454.618	875.02
454.992	893.55
455.365	877.96
455.739	899.65
456.112	891.74
456.486	910.27
456.859	908.01
457.232	916.37
457.606	916.15
457.979	900.1
458.352	953.44
458.725	952.53
459.099	961.34
459.472	966.77
459.845	1005.19
460.218	990.04
460.591	997.28
460.964	1005.41
461.337	1021.46
461.71	1038.86
462.083	1057.61
462.456	1064.62
462.829	1060.33
463.201	1074.56
463.574	1110.27
463.947	1090.38
464.32	1119.08
464.692	1108.91
465.065	1145.97
465.438	1182.13
465.81	1185.52
466.183	1205.63
466.555	1214.45
466.928	1238.17
467.3	1221
467.672	1232.3
468.045	1272.52
468.417	1270.72
468.789	1303.71
469.161	1297.83
469.534	1327.21
469.906	1403.37
470.278	1404.95
470.65	1394.1
471.022	1430.71
471.394	1474.55
471.766	1454.44
472.138	1493.53
472.51	1537.83
472.882	1603.59
473.253	1613.98
473.625	1611.5
473.997	1696.01
474.369	1692.17
474.74	1746.18
475.112	1774.66
475.484	1829.12
475.855	1838.84
476.227	1891.94
476.598	1943.92
476.97	2001.77
477.341	1990.02
477.713	2094.87
478.084	2140.75
478.455	2171.71
478.827	2250.35
479.198	2315.21
479.569	2358.37
479.94	2412.83
480.311	2508.87
480.682	2589.78
481.053	2650.34
481.424	2771.24
481.795	2810.34
482.166	2891.01
482.537	2948.64
482.908	3034.06
483.279	3095.07
483.65	3231.12
484.021	3321.06
484.391	3397.21
484.762	3505.91
485.133	3554.5
485.503	3660.93
485.874	3773.93
486.244	3823.87
486.615	3984.09
486.985	4012.11
487.356	4239.9
487.726	4286.46
488.097	4393.8
488.467	4476.05
488.837	4634.02
489.207	4752.21
489.578	4890.06
489.948	5027.23
490.318	5177.51
490.688	5195.13
491.058	5357.61
491.428	5473.99
491.798	5556.03
492.168	5729.13
492.538	5829.69
492.908	5966.41
493.278	6057.48
493.648	6160.53
494.017	6368.66
494.387	6470.8
494.757	6615.89
495.126	6735.66
495.496	6822.21
495.866	6925.93
496.235	7063.11
496.605	7209.54
496.974	7311.01
497.344	7458.8
497.713	7541.51
498.082	7663.09
498.452	7841.62
498.821	7889.07
499.19	8030.54
499.559	8161.16
499.928	8299.23
500.298	8392.11
500.667	8525.89
501.036	8554.82
501.405	8720.91
501.774	8812.89
502.143	8960.68
502.512	8971.76
502.88	9194.12
503.249	9260.79
503.618	9387.56
503.987	9462.36
504.356	9601.34
504.724	9635.02
505.093	9785.52
505.462	9910.94
505.83	9998.17
506.199	10107.77
506.567	10224.38
506.936	10308.9
507.304	10491.94
507.672	10534.43
508.041	10652.16
508.409	10733.74
508.777	10876.11
509.145	10917.92
509.514	10949.56
509.882	11100.29
510.25	11131.92
510.618	11320.39
510.986	11415.99
511.354	11521.97
511.722	11691.01
512.09	11759.03
512.458	11795.18
512.826	11951.11
513.193	12008.29
513.561	12033.6
513.929	12235.85
514.297	12336.41
514.664	12399.01
515.032	12479.91
515.4	12621.6
515.767	12771.2
516.135	12741.6
516.502	12797.42
516.869	13041.48
517.237	13015.72
517.604	13107.69
517.972	13267.01
518.339	13331.87
518.706	13386.55
519.073	13446.21
519.44	13598.3
519.808	13734.79
520.175	13736.15
520.542	13989.48
520.909	14049.14
521.276	14061.34
521.643	14201
522.009	14310.15
522.376	14499.97
522.743	14421.56
523.11	14686.18
523.477	14726.41
523.843	14911.49
524.21	15017.92
524.577	15168.88
524.943	15172.95
525.31	15279.39
525.676	15501.3
526.043	15550.79
526.409	15673.05
526.776	15762.76
527.142	15818.13
527.508	15890.9
527.874	16082.53
528.241	16067.61
528.607	16200.49
528.973	16308.96
529.339	16511.44
529.705	16574.49
530.071	16608.62
530.437	16787.14
530.803	16841.61
531.169	16997.08
531.535	16923.41
531.901	16988.49
532.267	17139
532.632	17265.1
532.998	17311.88
533.364	17363.85
533.73	17445.66
534.095	17585.09
534.461	17621.7
534.826	17718.64
535.192	17762.48
535.557	17938.98
535.923	17992.54
536.288	17979.65
536.653	18182.59
537.019	18173.1
537.384	18234.11
537.749	18262.81
538.114	18317.27
538.479	18375.58
538.845	18551.39
539.21	18504.61
539.575	18613.54
539.94	18643.14
540.305	18760.65
540.67	18826.64
541.034	18841.33
541.399	19056.46
541.764	18949.35
542.129	19145.95
542.494	19205.16
542.858	19251.94
543.223	19291.48
543.587	19323.35
543.952	19457.13
544.316	19515.21
544.681	19406.96
545.045	19680.63
545.41	19680.85
545.774	19749.78
546.138	19699.84
546.503	19845.82
546.867	19819.83
547.231	20053.95
547.595	20069.32
547.959	20021.18
548.324	20029.09
548.688	20302.53
549.052	20294.4
549.416	20385.24
549.779	20417.78
550.143	20434.73
550.507	20620.49
550.871	20723.76
551.235	20582.07
551.599	20864.78
551.962	20830.65
552.326	21000.59
552.689	21064.32
553.053	21021.16
553.417	20978.67
553.78	21302.28
554.143	21381.82
554.507	21290.75
554.87	21468.83
555.234	21539.56
555.597	21450.98
555.96	21460.47
556.323	21643.29
556.686	21652.33
557.05	21940.91
557.413	21801.02
557.776	22067.68
558.139	22145.19
558.502	22198.53
558.865	22210.05
559.228	22360.56
559.59	22504.51
559.953	22544.28
560.316	22790.38
560.679	22770.26
561.041	22934.33
561.404	23047.32
561.767	23204.6
562.129	23120.31
562.492	23452.28
562.854	23298.16
563.217	23344.94
563.579	23512.39
563.941	23513.29
564.304	23754.19
564.666	23732.05
565.028	23868.31
565.39	23970.91
565.753	24095.2
566.115	24156.67
566.477	24292.03
566.839	24320.28
567.201	24523.44
567.563	24469.88
567.925	24720.49
568.287	24638.01
568.648	24619.48
569.01	24839.59
569.372	24989.87
569.734	24966.14
570.095	25152.12
570.457	25242.74
570.819	25334.04
571.18	25340.82
571.542	25546.01
571.903	25524.77
572.265	25734.25
572.626	25767.02
572.987	25793.91
573.349	25996.39
573.71	25898.32
574.071	26225.77
574.432	26327.68
574.794	26432.31
575.155	26464.63
575.516	26450.17
575.877	26539.2
576.238	26663.04
576.599	26833.21
576.96	26752.53
577.32	26980.77
577.681	27006.31
578.042	27083.82
578.403	27125.4
578.763	27262.57
579.124	27373.08
579.485	27498.95
579.845	27637.71
580.206	27569.23
580.566	27706.4
580.927	27864.37
581.287	27862.78
581.648	27994.08
582.008	28154.53
582.368	28156.11
582.728	28317.69
583.089	28275.65
583.449	28411.47
583.809	28525.14
584.169	28610.34
584.529	28623.67
584.889	28943.43
585.249	28869.31
585.609	28786.6
585.969	29120.15
586.329	29274.27
586.688	29311.33
587.048	29319.92
587.408	29499.58
587.768	29467.71
588.127	29696.86
588.487	29681.95
588.846	29937.53
589.206	29809.17
589.565	29966.01
589.925	30090.07
590.284	30139.33
590.643	30315.15
591.003	30597.18
591.362	30653.67
591.721	30583.62
592.08	30627.68
592.44	30897.05
592.799	30899.31
593.158	30994.91
593.517	31104.96
593.876	31332.98
594.235	31242.13
594.593	31417.49
594.952	31435.57
595.311	31543.37
595.67	31617.26
596.029	31954.43
596.387	31884.15
596.746	32003.01
597.104	32070.36
597.463	32080.3
597.822	32308.54
598.18	32258.83
598.538	32243.46
598.897	32585.82
599.255	32332.27
599.613	32792.37
599.972	32688.19
600.33	32894.29
600.688	32806.16
601.046	33111.69
601.404	33163.89
601.762	33099.03
602.12	33490.21
602.478	33432.58
602.836	33546.25
603.194	33317.33
603.552	33389.87
603.91	33504.67
604.268	33608.17
604.625	33551.9
604.983	33851.1
605.341	33662.86
605.698	34023.98
606.056	34110.76
606.413	34174.03
606.771	34198.66
607.128	34242.96
607.485	34237.98
607.843	34216.29
608.2	34514.59
608.557	34730.63
608.914	34460.12
609.272	34815.6
609.629	34912.09
609.986	34948.93
610.343	34778.08
610.7	35170.84
611.057	35185.76
611.414	35320.44
611.771	35192.31
612.127	35559.98
612.484	35426.65
612.841	35574.45
613.198	35432.3
613.554	35666.65
613.911	35841.56
614.267	35828.22
614.624	35759.75
614.98	35874.55
615.337	36123.58
615.693	36010.82
616.05	36131.95
616.406	36209.68
616.762	36172.4
617.118	36253.52
617.475	36246.97
617.831	36391.15
618.187	36418.04
618.543	36589.11
618.899	36650.35
619.255	36665.72
619.611	36553.4
619.967	36795.43
620.323	36821.64
620.678	36797.46
621.034	36693.51
621.39	36700.52
621.746	36871.36
622.101	37273.16
622.457	36885.37
622.812	36997.91
623.168	37088.08
623.523	37162.2
623.879	37199.71
624.234	37125.14
624.589	37221.41
624.945	37383.89
625.3	37275.64
625.655	37299.82
626.01	37263.67
626.365	37476.09
626.72	37394.51
627.075	37410.56
627.43	37389.77
627.785	37257.79
628.14	37399.71
628.495	37392.03
628.85	37461.4
629.205	37377.56
629.559	37624.56
629.914	37413.49
630.269	37408.75
630.623	37421.4
630.978	37390.44
631.332	37495.75
631.687	37537.78
632.041	37453.94
632.396	37426.83
632.75	37336.21
633.104	37383.89
633.459	37231.8
633.813	37369.43
634.167	37328.52
634.521	37368.3
634.875	37361.74
635.229	37311.58
635.583	37254.4
635.937	37251.46
636.291	37218.02
636.645	37148.64
636.999	37227.51
637.352	37261.63
637.706	37086.5
638.06	37120.39
638.413	37086.72
638.767	36942.77
639.121	37048.31
639.474	36801.98
639.828	36897.8
640.181	36940.29
640.534	36812.15
640.888	36850.57
641.241	36645.15
641.594	36766.28
641.947	36899.61
642.301	36760.63
642.654	36756.11
643.007	36890.12
643.36	36732.16
643.713	36694.64
644.066	36852.83
644.419	36536.45
644.771	36335.33
645.124	36176.46
645.477	36002.91
645.83	35870.71
646.182	35713.43
646.535	35577.84
646.888	35638.63
647.24	35422.81
647.593	35668.91
647.945	35640.21
648.298	35413.55
648.65	35329.48
649.002	35331.51
649.355	35473.66
649.707	35396.37
650.059	35491.74
650.411	35720.88
650.763	35943.02
651.115	36238.61
651.467	36185.28
651.819	36254.65
652.171	36067.77
652.523	35989.58
652.875	36008.78
653.227	36005.17
653.578	36128.78
653.93	36107.77
654.282	35816.7
654.633	35843.37
654.985	35839.98
655.337	35934.21
655.688	35809.92
656.039	35982.12
656.391	35631.62
656.742	35868.9
657.094	35763.59
657.445	35914.55
657.796	35754.33
658.147	35618.96
658.498	35867.77
658.849	35732.18
659.2	35738.51
659.551	35647.21
659.902	35731.05
660.253	35719.3
660.604	35676.36
660.955	35433.88
661.306	35666.87
661.656	35633.43
662.007	35637.04
662.358	35533.77
662.708	35578.51
663.059	35548.91
663.409	35355.02
663.76	35715.46
664.11	35643.14
664.461	35671.62
664.811	35551.85
665.161	35515.01
665.511	35457.84
665.862	35612.64
666.212	35726.76
666.562	35548.46
666.912	35610.15
667.262	35503.71
667.612	35577.61
667.962	35647.66
668.312	35598.85
668.662	35686.08
669.011	35608.57
669.361	35518.18
669.711	35530.15
670.06	35400.89
670.41	35312.31
670.76	35294
671.109	35454.68
671.459	35297.17
671.808	35335.81
672.157	35392.76
672.507	35137.17
672.856	35368.35
673.205	35288.58
673.554	35498.06
673.904	35283.38
674.253	35456.93
674.602	35287
674.951	34860.34
675.3	34577.41
675.649	35177.85
675.998	35165.42
676.346	35127.68
676.695	35237.73
677.044	34946.67
677.393	35188.69
677.741	35296.04
678.09	35092.2
678.438	35025.76
678.787	35027.34
679.135	34971.52
679.484	34664.19
679.832	34802.71
680.181	34706.45
680.529	34811.3
680.877	34755.03
681.225	34739.21
681.573	34902.6
681.922	34577.41
682.27	34590.29
682.618	34611.08
682.966	34505.77
683.314	34500.58
683.661	34496.73
684.009	34285.44
684.357	34182.39
684.705	34080.02
685.053	34307.81
685.4	34124.77
685.748	33889.29
686.095	33933.81
686.443	33932.91
686.79	33910.53
687.138	33882.51
687.485	33890.65
687.832	33666.25
688.18	33749.41
688.527	33597.55
688.874	33567.27
689.221	33590.54
689.568	33415.63
689.915	33471.9
690.262	33443.2
690.609	33297.9
690.956	33057.9
691.303	33132.7
691.65	32979.26
691.997	32966.38
692.344	32805.48
692.69	32794.86
693.037	32688.19
693.383	32499.5
693.73	32701.75
694.077	32564.36
694.423	32549.67
694.769	32431.48
695.116	32341.99
695.462	32253.4
695.808	32161.65
696.155	32144.93
696.501	31947.2
696.847	31821.78
697.193	31797.37
697.539	31773.19
697.885	31601.44
698.231	31490.94
698.577	31429.7
698.923	31426.53
699.269	31389.47
699.614	31096.82
699.96	31044.17
700.306	31032.42
700.651	30952.19
700.997	30911.74
701.342	30876.49
701.688	30868.81
702.033	30688.02
702.379	30649.6
702.724	30584.97
703.069	30650.28
703.415	30345.43
703.76	30308.82
704.105	30294.58
704.45	30333.23
704.795	30070.18
705.14	30015.5
705.485	29994.93
705.83	29945.89
706.175	29833.35
706.52	29830.64
706.865	29745.9
707.209	29648.73
707.554	29596.52
707.899	29603.3
708.243	29460.03
708.588	29383.2
708.932	29199.7
709.277	29167.38
709.621	29241.73
709.966	29067.72
710.31	29074.05
710.654	28948.18
710.998	29010.78
711.342	28999.93
711.687	28712.93
712.031	28707.96
712.375	28545.7
712.719	28703.21
713.063	28619.15
713.407	28660.05
713.75	28432.71
714.094	28424.35
714.438	28408.08
714.782	28357.01
715.125	28288.08
715.469	28340.74
715.812	28192.49
716.156	28106.85
716.499	27979.84
716.843	28205.6
717.186	27915.66
717.53	28110.01
717.873	27891.48
718.216	27990.92
718.559	27844.71
718.902	27627.76
719.246	27723.35
719.589	27479.52
719.932	27459.63
720.275	27396.58
720.617	27472.96
720.96	27327.66
721.303	27371.72
721.646	27377.37
721.989	27207.66
722.331	27198.62
722.674	27149.81
723.016	27104.39
723.359	27052.41
723.701	27088.12
724.044	26931.96
724.386	26827.78
724.729	26870.72
725.071	26861.23
725.413	26752.76
725.755	26834.79
726.097	26618.52
726.439	26607.45
726.782	26633.89
727.124	26618.52
727.465	26560.67
727.807	26425.53
728.149	26490.84
728.491	26310.73
728.833	26420.56
729.175	26248.59
729.516	26287.01
729.858	26154.81
730.199	26312.77
730.541	26252.66
730.882	26188.93
731.224	26202.94
731.565	26072.32
731.906	26063.51
732.248	26048.59
732.589	25890.63
732.93	25900.8
733.271	25871.2
733.612	25906.68
733.953	25980.57
734.294	25658.32
734.635	25693.35
734.976	25699
735.317	25614.26
735.658	25647.48
735.999	25605.22
736.339	25558.66
736.68	25557.76
737.021	25518.21
737.361	25339.91
737.702	25486.8
738.042	25411.32
738.383	25387.14
738.723	25409.52
739.063	25202.52
739.404	25274.15
739.744	25212.23
740.084	25159.13
740.424	25126.13
740.764	25099.24
741.104	25199.58
741.444	25059.02
741.784	25025.8
742.124	25005.01
742.464	24967.04
742.804	24794.62
743.143	24878.23
743.483	24837.55
743.823	24771.34
744.162	24775.18
744.502	24782.87
744.841	24594.62
745.181	24761.4
745.52	24598.46
745.86	24604.79
746.199	24658.8
746.538	24503.32
746.877	24626.26
747.216	24482.31
747.556	24534.51
747.895	24432.14
748.234	24266.04
748.573	24232.82
748.911	24253.61
749.25	24159.15
749.589	24161.86
749.928	24169.55
750.267	24091.36
750.605	24032.6
750.944	24074.64
751.283	23908.31
751.621	24017.46
751.96	23901.76
752.298	23770.69
752.636	23850.01
752.975	23744.02
753.313	23657.47
753.651	23689.33
753.989	23719.39
754.327	23585.61
754.666	23398.95
755.004	23535.21
755.342	23473.97
755.679	23417.48
756.017	23251.61
756.355	23406.4
756.693	23282.79
757.031	23276.24
