Data from hue_140_FLMS001491_00041.txt Node
Date: Tue Feb 07 16:55:58 GMT 2017
User: dcchb
Spectrometer: FLMS00149
Trigger mode: 0
Integration Time (sec): 2.000000E-2
Scans to average: 10
Electric dark correction enabled: true
Nonlinearity correction enabled: false
Boxcar width: 0
XAxis mode: Wavelengths
Number of Pixels in Spectrum: 2048
>>>>>Begin Spectral Data<<<<<
341.393	-7.7
341.776	-7.7
342.16	-7.7
342.543	-66.91
342.927	-86.79
343.31	-69.39
343.693	-57.64
344.077	-52.44
344.46	-64.87
344.843	-78.2
345.226	-41.82
345.61	-33.23
345.993	-15.83
346.376	-10.86
346.759	14.67
347.142	36.37
347.525	37.5
347.908	56.26
348.291	88.57
348.674	73.88
349.057	117.04
349.44	117.27
349.823	118.63
350.206	166.54
350.588	177.83
350.971	217.38
351.354	218.51
351.737	220.09
352.119	232.52
352.502	277.94
352.884	263.93
353.267	275.01
353.65	274.55
354.032	282.92
354.414	300.99
354.797	313.42
355.179	316.36
355.562	317.94
355.944	310.94
356.326	315.01
356.709	331.5
357.091	327.89
357.473	341.9
357.855	353.2
358.238	325.4
358.62	309.81
359.002	329.92
359.384	318.85
359.766	336.7
360.148	333.76
360.53	325.63
360.912	314.33
361.294	302.8
361.676	327.66
362.057	310.71
362.439	334.44
362.821	323.82
363.203	321.33
363.584	309.58
363.966	302.58
364.348	315.23
364.729	310.49
365.111	311.84
365.493	310.26
365.874	334.21
366.256	330.82
366.637	290.83
367.019	322.69
367.4	307.55
367.781	314.78
368.163	311.16
368.544	312.97
368.925	319.53
369.306	316.59
369.688	309.36
370.069	319.75
370.45	324.5
370.831	296.93
371.212	312.97
371.593	332.86
371.974	326.76
372.355	309.13
372.736	323.37
373.117	302.8
373.498	318.4
373.879	315.46
374.26	316.14
374.641	304.61
375.021	280.66
375.402	310.71
375.783	321.56
376.163	329.47
376.544	332.86
376.925	332.63
377.305	328.79
377.686	331.73
378.066	317.27
378.447	325.18
378.827	317.49
379.208	339.19
379.588	321.79
379.968	317.04
380.349	331.28
380.729	349.13
381.109	340.32
381.489	333.54
381.87	347.77
382.25	337.38
382.63	326.53
383.01	345.06
383.39	336.25
383.77	354.33
384.15	320.2
384.53	342.12
384.91	339.86
385.29	333.31
385.67	360.43
386.049	345.06
386.429	352.97
386.809	361.11
387.189	359.07
387.568	344.16
387.948	345.06
388.328	362.46
388.707	337.38
389.087	369.92
389.466	354.55
389.846	366.08
390.225	355.68
390.605	368.11
390.984	347.32
391.363	363.82
391.743	374.89
392.122	384.38
392.501	378.73
392.881	374.67
393.26	393.2
393.639	364.72
394.018	372.18
394.397	363.14
394.776	353.65
395.155	371.73
395.534	375.12
395.913	372.18
396.292	393.87
396.671	375.8
397.05	381.44
397.429	395.91
397.808	361.78
398.186	406.53
398.565	395.68
398.944	395.91
399.323	396.13
399.701	394.1
400.08	394.55
400.458	404.5
400.837	405.4
401.215	403.82
401.594	384.38
401.972	386.87
402.351	419.18
402.729	423.7
403.107	417.83
403.486	416.7
403.864	401.11
404.242	421.22
404.62	421.67
404.999	407.43
405.377	440.88
405.755	420.99
406.133	417.6
406.511	414.66
406.889	431.84
407.267	427.32
407.645	431.16
408.023	426.42
408.401	433.42
408.779	439.52
409.156	417.15
409.534	429.58
409.912	467.54
410.29	457.37
410.667	445.62
411.045	436.58
411.422	437.71
411.8	449.01
412.178	463.7
412.555	473.42
412.933	476.36
413.31	502.57
413.687	490.59
414.065	471.61
414.442	474.78
414.819	479.07
415.197	499.41
415.574	463.93
415.951	504.15
416.328	506.64
416.705	489.69
417.082	498.28
417.46	506.41
417.837	494.21
418.214	493.53
418.591	491.27
418.967	532.18
419.344	518.16
419.721	526.75
420.098	502.35
420.475	529.24
420.852	511.16
421.228	530.82
421.605	508
421.982	529.69
422.358	533.53
422.735	538.05
423.111	557.94
423.488	543.02
423.864	557.26
424.241	542.12
424.617	570.37
424.994	560.42
425.37	545.96
425.746	547.09
426.123	564.94
426.499	584.6
426.875	583.7
427.251	558.62
427.627	583.25
428.003	602.68
428.379	583.02
428.756	609.01
429.132	580.54
429.507	615.56
429.883	628.22
430.259	624.6
430.635	648.1
431.011	604.49
431.387	635.68
431.763	635.45
432.138	649.69
432.514	637.26
432.89	657.37
433.265	645.39
433.641	660.53
434.016	665.96
434.392	684.71
434.767	679.52
435.143	662.57
435.518	673.87
435.894	697.37
436.269	685.62
436.644	685.62
437.02	720.87
437.395	711.83
437.77	733.53
438.145	729.23
438.52	710.7
438.895	737.59
439.271	736.46
439.646	759.06
440.021	745.73
440.395	757.03
440.77	767.65
441.145	746.41
441.52	766.29
441.895	772.62
442.27	752.51
442.645	766.52
443.019	789.12
443.394	783.47
443.769	793.64
444.143	782.11
444.518	810.36
444.892	794.99
445.267	811.72
445.641	810.36
446.016	827.99
446.39	837.25
446.764	816.01
447.139	836.57
447.513	834.31
447.887	838.83
448.262	862.79
448.636	846.74
449.01	858.27
449.384	849
449.758	877.48
450.132	884.48
450.506	879.28
450.88	885.61
451.254	887.87
451.628	906.4
452.002	900.75
452.376	921.77
452.75	934.88
453.123	936.01
453.497	933.07
453.871	927.42
454.244	938.27
454.618	986.4
454.992	999.51
455.365	983.91
455.739	1017.13
456.112	1019.85
456.486	1011.03
456.859	1012.16
457.232	1015.1
457.606	1047.87
457.979	1047.64
458.352	1067.08
458.725	1079.73
459.099	1087.87
459.472	1098.94
459.845	1146.62
460.218	1104.36
460.591	1128.54
460.964	1158.83
461.337	1161.09
461.71	1194.98
462.083	1223.23
462.456	1200.41
462.829	1205.83
463.201	1226.39
463.574	1246.05
463.947	1293.51
464.32	1272.72
464.692	1327.41
465.065	1305.71
465.438	1328.99
465.81	1326.73
466.183	1339.39
466.555	1430.91
466.928	1423
467.3	1403.79
467.672	1412.6
468.045	1461.19
468.417	1493.96
468.789	1490.79
469.161	1536.67
469.534	1540.96
469.906	1593.16
470.278	1626.84
470.65	1624.8
471.022	1682.2
471.394	1702.99
471.766	1693.95
472.138	1753.61
472.51	1794.97
472.882	1813.27
473.253	1869.77
473.625	1872.7
473.997	1930.56
474.369	1970.78
474.74	1997
475.112	2043.77
475.484	2068.86
475.855	2140.72
476.227	2156.99
476.598	2228.4
476.97	2278.8
477.341	2371.9
477.713	2402.18
478.084	2434.5
478.455	2559.24
478.827	2621.16
479.198	2692.8
479.569	2699.35
479.94	2832
480.311	2862.28
480.682	2918.1
481.053	3059.79
481.424	3131.2
481.795	3206.23
482.166	3285.55
482.537	3387.24
482.908	3456.17
483.279	3626.78
483.65	3631.08
484.021	3740.45
484.391	3849.6
484.762	3942.93
485.133	4060.67
485.503	4128.92
485.874	4269.93
486.244	4383.83
486.615	4536.14
486.985	4619.3
487.356	4739.52
487.726	4791.72
488.097	4990.36
488.467	5019.06
488.837	5221.09
489.207	5317.36
489.578	5453.4
489.948	5556.68
490.318	5725.71
490.688	5762.77
491.058	5977.23
491.428	6111.46
491.798	6230.1
492.168	6363.66
492.538	6502.41
492.908	6623.99
493.278	6721.84
493.648	6837.77
494.017	6963.19
494.387	7083.19
494.757	7228.27
495.126	7291.09
495.496	7477.76
495.866	7512.33
496.235	7695.6
496.605	7843.17
496.974	7945.54
497.344	8075.93
497.713	8135.82
498.082	8276.15
498.452	8419.88
498.821	8512.08
499.19	8534.22
499.559	8710.49
499.928	8735.58
500.298	8871.17
500.667	8961.56
501.036	9052.18
501.405	9216.24
501.774	9202
502.143	9352.73
502.512	9405.61
502.88	9534.2
503.249	9640.18
503.618	9718.6
503.987	9751.82
504.356	9865.94
504.724	9932.61
505.093	9981.87
505.462	10023.9
505.83	10082.21
506.199	10167.18
506.567	10344.57
506.936	10300.51
507.304	10453.95
507.672	10513.61
508.041	10571.69
508.409	10652.59
508.777	10775.52
509.145	10808.52
509.514	10815.75
509.882	10933.48
510.25	10971.9
510.618	11001.73
510.986	11013.03
511.354	11182.97
511.722	11182.74
512.09	11342.74
512.458	11273.59
512.826	11288.5
513.193	11425.67
513.561	11357.65
513.929	11467.25
514.297	11538.21
514.664	11546.12
515.032	11644.88
515.4	11694.82
515.767	11659.34
516.135	11749.28
516.502	11683.07
516.869	11901.37
517.237	11808.94
517.604	11814.36
517.972	11916.28
518.339	11976.39
518.706	11983.63
519.073	11958.99
519.44	12034.47
519.808	12038.31
520.175	12067.69
520.542	12200.57
520.909	12266.33
521.276	12200.57
521.643	12290.74
522.009	12268.36
522.376	12343.16
522.743	12286.67
523.11	12426.33
523.477	12463.61
523.843	12380.45
524.21	12551.52
524.577	12616.15
524.943	12630.39
525.31	12579.09
525.676	12671.52
526.043	12709.26
526.409	12681.01
526.776	12735.7
527.142	12745.64
527.508	12707.67
527.874	12807.78
528.241	12746.09
528.607	12803.94
528.973	12874
529.339	12877.39
529.705	12849.14
530.071	12812.08
530.437	12855.02
530.803	12892.75
531.169	12895.69
531.535	12854.56
531.901	12811.63
532.267	12826.77
532.632	12818.86
532.998	12863.38
533.364	12818.18
533.73	12826.54
534.095	12909.7
534.461	12856.37
534.826	12864.73
535.192	12812.08
535.557	12863.83
535.923	12750.16
536.288	12784.73
536.653	12770.72
537.019	12664.74
537.384	12678.3
537.749	12684.4
538.114	12695.25
538.479	12554.91
538.845	12641.24
539.21	12548.36
539.575	12545.64
539.94	12464.52
540.305	12558.07
540.67	12446.66
541.034	12448.25
541.399	12414.57
541.764	12379.77
542.129	12396.27
542.494	12371.86
542.858	12333.45
543.223	12299.32
543.587	12319.89
543.952	12264.3
544.316	12272.43
544.681	12161.93
545.045	12154.24
545.41	12155.82
545.774	12114.47
546.138	12125.09
546.503	12105.88
546.867	11972.78
547.231	12073.34
547.595	11994.47
547.959	12011.87
548.324	11910.86
548.688	11880.8
549.052	11840.13
549.416	11886.9
549.779	11791.31
550.143	11786.79
550.507	11782.95
550.871	11768.04
551.235	11726.91
551.599	11751.54
551.962	11709.96
552.326	11685.78
552.689	11589.96
553.053	11638.78
553.417	11598.32
553.78	11713.12
554.143	11538.89
554.507	11549.29
554.87	11570.08
555.234	11707.93
555.597	11440.81
555.96	11445.33
556.323	11536.18
556.686	11427.71
557.05	11499.8
557.413	11443.75
557.776	11479.46
558.139	11474.03
558.502	11447.82
558.865	11489.63
559.228	11495.5
559.59	11476.07
559.953	11406.01
560.316	11529.17
560.679	11494.6
561.041	11481.04
561.404	11500.02
561.767	11495.95
562.129	11499.34
562.492	11595.84
562.854	11501.38
563.217	11389.06
563.579	11475.84
563.941	11460.02
564.304	11481.27
564.666	11548.16
565.028	11560.13
565.39	11586.8
565.753	11632
566.115	11567.59
566.477	11703.18
566.839	11614.82
567.201	11656.85
567.563	11669.06
567.925	11626.35
568.287	11699.34
568.648	11670.19
569.01	11737.98
569.372	11765.78
569.734	11648.04
570.095	11778.43
570.457	11764.2
570.819	11712.67
571.18	11726.23
571.542	11786.57
571.903	11813.69
572.265	11873.57
572.626	11779.11
572.987	11826.34
573.349	11887.81
573.71	11888.26
574.071	11887.81
574.432	11904.53
574.794	11938.66
575.155	11921.25
575.516	11866.57
575.877	11867.02
576.238	11891.65
576.599	11995.38
576.96	11961.71
577.32	11983.85
577.681	11973
578.042	11940.69
578.403	11969.61
578.763	11918.32
579.124	11924.42
579.485	12022.49
579.845	12017.07
580.206	11939.11
580.566	11994.47
580.927	11950.86
581.287	12036.96
581.648	11824.08
582.008	11996.05
582.368	11909.73
582.728	11934.81
583.089	11962.16
583.449	11953.12
583.809	12045.09
584.169	11976.39
584.529	11951.76
584.889	11958.32
585.249	11879
585.609	11883.74
585.969	11996.28
586.329	11857.98
586.688	11903.4
587.048	11913.8
587.408	11893.46
587.768	11863.4
588.127	11848.04
588.487	11773.24
588.846	11882.84
589.206	11772.11
589.565	11812.56
589.925	11805.78
590.284	11814.59
590.643	11846.45
591.003	11836.96
591.362	11772.78
591.721	11777.3
592.08	11815.95
592.44	11792.67
592.799	11843.74
593.158	11747.7
593.517	11779.34
593.876	11834.25
594.235	11756.74
594.593	11776.63
594.952	11676.29
595.311	11704.76
595.67	11727.36
596.029	11829.05
596.387	11733.91
596.746	11780.92
597.104	11681.94
597.463	11705.44
597.822	11750.86
598.18	11620.47
598.538	11712.67
598.897	11706.34
599.255	11633.35
599.613	11820.24
599.972	11693.92
600.33	11746.57
600.688	11702.73
601.046	11700.47
601.404	11773.46
601.762	11744.31
602.12	11739.79
602.478	11744.76
602.836	11692.56
603.194	11746.57
603.552	11829.73
603.91	11745.21
604.268	11784.31
604.625	11657.31
604.983	11791.54
605.341	11666.12
605.698	11787.47
606.056	11747.93
606.413	11772.33
606.771	11756.74
607.128	11786.12
607.485	11667.02
607.843	11802.39
608.2	11887.81
608.557	11848.71
608.914	11754.93
609.272	11911.76
609.629	11819.79
609.986	11889.84
610.343	11814.14
610.7	11957.41
611.057	11881.71
611.414	11802.61
611.771	11880.58
612.127	11899.11
612.484	11904.08
612.841	11963.74
613.198	11874.7
613.554	11884.42
613.911	11906.34
614.267	11907.02
614.624	11941.37
614.98	11940.24
615.337	12014.13
615.693	11963.51
616.05	11962.61
616.406	12113.57
616.762	12012.78
617.118	11942.27
617.475	11957.64
617.831	12045.54
618.187	11971.65
618.543	12087.13
618.899	12064.75
619.255	12089.39
619.611	12070.63
619.967	12156.28
620.323	12122.83
620.678	12116.73
621.034	12092.32
621.39	12114.24
621.746	12063.4
622.101	12243.05
622.457	12041.25
622.812	12118.09
623.168	12175.03
623.523	12120.35
623.879	12124.64
624.234	12145.2
624.589	12128.03
624.945	12115.83
625.3	12147.01
625.655	12105.66
626.01	12074.24
626.365	12155.37
626.72	12066.34
627.075	12132.77
627.43	12009.39
627.785	12012.55
628.14	12104.53
628.495	12103.62
628.85	12121.48
629.205	12103.62
629.559	12088.26
629.914	12028.82
630.269	11959.22
630.623	11948.6
630.978	11951.54
631.332	12022.72
631.687	12006.68
632.041	11925.55
632.396	11944.08
632.75	11968.26
633.104	11970.74
633.459	11938.43
633.813	11932.33
634.167	11879.67
634.521	11907.92
634.875	11863.85
635.229	11841.48
635.583	11806.68
635.937	11828.15
636.291	11847.13
636.645	11813.91
636.999	11848.26
637.352	11805.33
637.706	11687.81
638.06	11896.85
638.413	11754.71
638.767	11683.75
639.121	11769.39
639.474	11620.7
639.828	11749.96
640.181	11761.03
640.534	11783.18
640.888	11668.83
641.241	11590.42
641.594	11640.58
641.947	11673.13
642.301	11630.19
642.654	11663.18
643.007	11659.57
643.36	11640.81
643.713	11557.65
644.066	11634.71
644.419	11572.56
644.771	11511.32
645.124	11406.92
645.477	11409.4
645.83	11302.06
646.182	11256.19
646.535	11237.2
646.888	11251.67
647.24	11213.93
647.593	11233.81
647.945	11241.95
648.298	11166.47
648.65	11133.48
649.002	11172.8
649.355	11289.41
649.707	11268.62
650.059	11279.24
650.411	11365.56
650.763	11306.36
651.115	11528.95
651.467	11477.88
651.819	11450.53
652.171	11483.07
652.523	11386.58
652.875	11394.49
653.227	11361.95
653.578	11498.89
653.93	11452.57
654.282	11344.32
654.633	11391.1
654.985	11417.76
655.337	11430.87
655.688	11425.9
656.039	11481.27
656.391	11297.32
656.742	11448.27
657.094	11341.16
657.445	11478.1
657.796	11421.83
658.147	11331.89
658.498	11361.72
658.849	11409.18
659.2	11343.64
659.551	11348.39
659.902	11421.38
660.253	11438.33
660.604	11453.7
660.955	11427.03
661.306	11428.61
661.656	11409.18
662.007	11454.6
662.358	11428.61
662.708	11529.17
663.059	11435.39
663.409	11396.3
663.76	11461.15
664.11	11559.23
664.461	11543.41
664.811	11470.42
665.161	11444.66
665.511	11485.11
665.862	11537.54
666.212	11480.59
666.562	11463.64
666.912	11471.32
667.262	11430.42
667.612	11366.47
667.962	11450.31
668.312	11416.63
668.662	11453.02
669.011	11481.94
669.361	11376.18
669.711	11399.01
670.06	11431.55
670.41	11406.47
670.76	11405.11
671.109	11406.01
671.459	11416.86
671.808	11380.93
672.157	11512.68
672.507	11363.53
672.856	11331.44
673.205	11430.19
673.554	11448.05
673.904	11338.67
674.253	11359.01
674.602	11382.06
674.951	11192.46
675.3	11152.24
675.649	11302.97
675.998	11247.83
676.346	11281.27
676.695	11304.55
677.044	11160.14
677.393	11263.64
677.741	11288.05
678.09	11244.89
678.438	11202.18
678.787	11183.65
679.135	11254.38
679.484	11119.02
679.832	11213.7
680.181	11147.26
680.529	11100.03
680.877	11107.72
681.225	11062.75
681.573	11079.02
681.922	11041.28
682.27	11004.44
682.618	10945.91
682.966	10940.94
683.314	10934.39
683.661	10942.75
684.009	10888.51
684.357	10879.93
684.705	10818.68
685.053	10834.05
685.4	10886.25
685.748	10818.46
686.095	10837.67
686.443	10744.56
686.79	10763.54
687.138	10771.68
687.485	10777.33
687.832	10702.98
688.18	10680.83
688.527	10649.42
688.874	10617.56
689.221	10550.89
689.568	10571.01
689.915	10499.14
690.262	10498.01
690.609	10473.38
690.956	10471.57
691.303	10442.65
691.65	10425.93
691.997	10428.86
692.344	10308.64
692.69	10332.14
693.037	10268.64
693.383	10227.29
693.73	10237.46
694.077	10161.75
694.423	10168.08
694.769	10061.19
695.116	10024.81
695.462	10108.65
695.808	10059.38
696.155	10031.81
696.501	9975.32
696.847	9980.06
697.193	9792.5
697.539	9937.35
697.885	9814.87
698.231	9788.2
698.577	9832.95
698.923	9763.57
699.269	9736.68
699.614	9622.56
699.96	9611.26
700.306	9603.12
700.651	9632.5
700.997	9449.23
701.342	9519.51
701.688	9492.84
702.033	9451.04
702.379	9436.57
702.724	9343.92
703.069	9368.1
703.415	9287.43
703.76	9298.95
704.105	9247.65
704.45	9267.31
704.795	9222.12
705.14	9172.17
705.485	9173.3
705.83	9134.89
706.175	9117.94
706.52	9047.66
706.865	9030.71
707.209	9035.45
707.554	9027.55
707.899	9035.91
708.243	8948.9
708.588	8961.33
708.932	8875.23
709.277	8867.55
709.621	8861.67
709.966	8828.91
710.31	8828.45
710.654	8808.57
710.998	8772.64
711.342	8740.77
711.687	8775.12
712.031	8665.75
712.375	8636.59
712.719	8658.74
713.063	8601.79
713.407	8724.28
713.75	8612.19
714.094	8641.57
714.438	8589.82
714.782	8565.41
715.125	8491.74
715.469	8569.48
715.812	8450.61
716.156	8465.98
716.499	8492.64
716.843	8473.89
717.186	8384.17
717.53	8447.45
717.873	8432.98
718.216	8433.44
718.559	8424.4
718.902	8343.72
719.246	8364.06
719.589	8372.87
719.932	8359.31
720.275	8310.05
720.617	8350.73
720.96	8298.07
721.303	8317.96
721.646	8356.83
721.989	8219.2
722.331	8248.13
722.674	8250.84
723.016	8297.62
723.359	8252.42
723.701	8250.16
724.044	8141.24
724.386	8225.53
724.729	8201.35
725.071	8161.13
725.413	8160
725.755	8214.46
726.097	8218.53
726.439	8061.92
726.782	8122.94
727.124	8171.97
727.465	8067.34
727.807	8104.86
728.149	8081.13
728.491	8083.62
728.833	8069.15
729.175	8070.96
729.516	8108.93
729.858	8068.7
730.199	8124.74
730.541	8062.82
730.882	8124.29
731.224	8145.08
731.565	8074.35
731.906	8077.29
732.248	8083.84
732.589	8060.34
732.93	8100.56
733.271	8042.26
733.612	8096.04
733.953	8054.01
734.294	8060.56
734.635	8030.51
734.976	8029.15
735.317	8047.68
735.658	7998.42
735.999	8008.81
736.339	7985.76
736.68	8100.79
737.021	8058.53
737.361	8040.45
737.702	8096.95
738.042	8060.79
738.383	8068.02
738.723	8148.92
739.063	8095.37
739.404	8027.35
739.744	8104.86
740.084	8135.82
740.424	8129.26
740.764	8128.13
741.104	8155.25
741.444	8150.73
741.784	8174.46
742.124	8207.23
742.464	8143.5
742.804	8210.17
743.143	8212.65
743.483	8208.58
743.823	8264.18
744.162	8333.55
744.502	8308.47
744.841	8263.72
745.181	8355.25
745.52	8339.2
745.86	8472.08
746.199	8411.06
746.538	8434.34
746.877	8504.17
747.216	8571.29
747.556	8579.42
747.895	8697.84
748.234	8687.44
748.573	8666.88
748.911	8782.81
749.25	8738.97
749.589	8915.91
749.928	8942.58
750.267	8940.77
750.605	9068.22
750.944	9098.05
751.283	9182.34
751.621	9336.92
751.96	9338.5
752.298	9390.02
752.636	9468.66
752.975	9578.94
753.313	9634.08
753.651	9778.94
753.989	9864.36
754.327	9896.22
754.666	10009.89
755.004	10116.78
755.342	10270.22
755.679	10411.46
756.017	10468.19
756.355	10578.69
756.693	10622.98
757.031	10950.21
757.368	10923.77
757.706	11110.88
758.044	11248.05
758.381	11359.69
758.719	11467.93
759.056	11660.92
759.394	11765.1
759.731	11926.68
