Data from hue_24_FLMS001491_00087.txt Node
Date: Tue Feb 07 17:12:53 GMT 2017
User: dcchb
Spectrometer: FLMS00149
Trigger mode: 0
Integration Time (sec): 2.000000E-2
Scans to average: 10
Electric dark correction enabled: true
Nonlinearity correction enabled: false
Boxcar width: 0
XAxis mode: Wavelengths
Number of Pixels in Spectrum: 2048
>>>>>Begin Spectral Data<<<<<
341.393	-19.56
341.776	-19.56
342.16	-19.56
342.543	-47.81
342.927	-62.27
343.31	-99.11
343.693	-49.17
344.077	-70.63
344.46	-58.43
344.843	-63.4
345.226	-50.97
345.61	-24.76
345.993	-30.18
346.376	-2.16
346.759	32.87
347.142	23.6
347.525	28.35
347.908	67.44
348.291	80.1
348.674	102.24
349.057	114.22
349.44	145.41
349.823	141.56
350.206	148.57
350.588	208.23
350.971	206.42
351.354	222.92
351.737	257.04
352.119	261.33
352.502	260.66
352.884	276.25
353.267	297.27
353.65	279.19
354.032	295.46
354.414	304.95
354.797	307.44
355.179	313.54
355.562	341.33
355.944	320.32
356.326	330.71
356.709	330.94
357.091	328
357.473	354.67
357.855	346.08
358.238	327.32
358.62	341.33
359.002	337.27
359.384	362.35
359.766	326.64
360.148	332.75
360.53	332.52
360.912	324.38
361.294	336.59
361.676	322.12
362.057	324.61
362.439	321.22
362.821	331.39
363.203	320.77
363.584	322.8
363.966	321.22
364.348	321.22
364.729	302.92
365.111	325.51
365.493	332.29
365.874	331.39
366.256	328.9
366.637	309.47
367.019	293.65
367.4	310.83
367.781	306.76
368.163	304.95
368.544	334.1
368.925	318.73
369.306	334.1
369.688	318.51
370.069	311.96
370.45	314.44
370.831	322.35
371.212	323.48
371.593	307.21
371.974	305.4
372.355	302.69
372.736	319.64
373.117	324.16
373.498	328.45
373.879	325.74
374.26	317.83
374.641	322.58
375.021	318.51
375.402	311.73
375.783	334.55
376.163	341.78
376.544	325.06
376.925	323.03
377.305	328
377.686	321.22
378.066	334.33
378.447	325.06
378.827	337.49
379.208	353.76
379.588	321.22
379.968	327.32
380.349	337.04
380.729	337.72
381.109	356.02
381.489	363.71
381.87	337.72
382.25	347.89
382.63	328.68
383.01	317.38
383.39	359.41
383.77	356.02
384.15	338.85
384.53	366.42
384.91	337.04
385.29	328.9
385.67	346.53
386.049	367.32
386.429	338.62
386.809	367.77
387.189	365.29
387.568	370.71
387.948	383.14
388.328	338.4
388.707	378.39
389.087	356.47
389.466	366.87
389.846	351.28
390.225	352.18
390.605	370.71
390.984	365.51
391.363	363.03
391.743	369.58
392.122	368.22
392.501	379.07
392.881	373.2
393.26	388.34
393.639	392.86
394.018	398.73
394.397	387.89
394.776	371.39
395.155	395.12
395.534	374.55
395.913	397.38
396.292	395.57
396.671	377.26
397.05	356.7
397.429	385.17
397.808	379.75
398.186	396.92
398.565	389.02
398.944	403.03
399.323	394.44
399.701	381.11
400.08	406.64
400.458	400.09
400.837	406.64
401.215	424.04
401.594	419.75
401.972	402.57
402.351	426.53
402.729	405.96
403.107	404.83
403.486	416.36
403.864	398.51
404.242	416.59
404.62	425.85
404.999	426.3
405.377	430.82
405.755	436.7
406.133	427.88
406.511	435.79
406.889	427.43
407.267	448.67
407.645	426.08
408.023	440.54
408.401	431.73
408.779	438.28
409.156	454.1
409.534	432.86
409.912	456.36
410.29	458.39
410.667	449.13
411.045	468.11
411.422	456.13
411.8	459.07
412.178	458.17
412.555	476.92
412.933	475.11
413.31	471.72
413.687	494.32
414.065	483.7
414.442	498.84
414.819	498.16
415.197	497.94
415.574	513.53
415.951	483.02
416.328	511.72
416.705	491.61
417.082	497.71
417.46	513.98
417.837	497.03
418.214	509.92
418.591	537.71
418.967	532.06
419.344	532.97
419.721	531.61
420.098	528.45
420.475	510.82
420.852	528.45
421.228	554.43
421.605	550.14
421.982	534.55
422.358	533.42
422.735	573.64
423.111	540.88
423.488	568.45
423.864	546.3
424.241	581.55
424.617	574.77
424.994	558.5
425.37	569.35
425.746	588.56
426.123	592.63
426.499	580.87
426.875	578.39
427.251	589.24
427.627	607.99
428.003	605.96
428.379	598.05
428.756	618.84
429.132	616.13
429.507	632.62
429.883	621.1
430.259	623.13
430.635	610.03
431.011	637.82
431.387	660.42
431.763	662.91
432.138	668.78
432.514	672.17
432.89	664.94
433.265	690.7
433.641	691.61
434.016	674.66
434.392	677.82
434.767	706.29
435.143	692.74
435.518	718.5
435.894	709.23
436.269	710.59
436.644	727.09
437.02	722.79
437.395	717.14
437.77	740.19
438.145	754.43
438.52	752.85
438.895	758.95
439.271	767.54
439.646	784.03
440.021	782
440.395	751.49
440.77	776.58
441.145	778.61
441.52	807.08
441.895	810.47
442.27	803.47
442.645	805.73
443.019	817.48
443.394	818.16
443.769	826.29
444.143	815.67
444.518	846.4
444.892	840.75
445.267	835.78
445.641	840.08
446.016	837.59
446.39	867.42
446.764	860.19
447.139	868.1
447.513	862.45
447.887	861.55
448.262	873.75
448.636	864.48
449.01	889.79
449.384	883.47
449.758	909.91
450.132	872.84
450.506	906.74
450.88	874.2
451.254	906.52
451.628	911.94
452.002	930.02
452.376	932.5
452.75	946.74
453.123	941.54
453.497	969.79
453.871	971.82
454.244	983.12
454.618	970.02
454.992	990.13
455.365	1010.92
455.739	997.59
456.112	1026.06
456.486	1040.3
456.859	1065.16
457.232	1052.95
457.606	1043.46
457.979	1061.09
458.352	1090.47
458.725	1095.44
459.099	1114.19
459.472	1131.59
459.845	1127.07
460.218	1141.99
460.591	1161.42
460.964	1120.52
461.337	1178.15
461.71	1198.49
462.083	1198.03
462.456	1225.83
462.829	1223.8
463.201	1243.68
463.574	1255.43
463.947	1257.01
464.32	1274.42
464.692	1307.64
465.065	1313.28
465.438	1326.39
465.81	1311.25
466.183	1374.53
466.555	1380.85
466.928	1378.14
467.3	1408.65
467.672	1418.37
468.045	1429.21
468.417	1423.56
468.789	1459.95
469.161	1477.8
469.534	1491.59
469.906	1547.18
470.278	1522.54
470.65	1574.97
471.022	1565.26
471.394	1591.92
471.766	1606.16
472.138	1641.86
472.51	1671.92
472.882	1683.9
473.253	1733.16
473.625	1770.9
473.997	1742.43
474.369	1812.71
474.74	1829.88
475.112	1839.6
475.484	1889.54
475.855	1924.57
476.227	1954.4
476.598	1979.26
476.97	2024.9
477.341	2061.74
477.713	2089.31
478.084	2119.82
478.455	2174.05
478.827	2185.13
479.198	2250.89
479.569	2273.71
479.94	2350.32
480.311	2369.08
480.682	2417.21
481.053	2495.4
481.424	2494.04
481.795	2560.48
482.166	2562.97
482.537	2630.09
482.908	2685.45
483.279	2693.36
483.65	2750.76
484.021	2832.34
484.391	2876.86
484.762	2880.7
485.133	2946.01
485.503	2964.31
485.874	3053.8
486.244	3089.28
486.615	3188.49
486.985	3208.15
487.356	3222.16
487.726	3298.77
488.097	3372.89
488.467	3379.67
488.837	3477.3
489.207	3532.66
489.578	3613.34
489.948	3616.73
490.318	3666.67
490.688	3701.7
491.058	3782.37
491.428	3792.77
491.798	3870.28
492.168	3948.92
492.538	3974.23
492.908	3985.3
493.278	4102.82
493.648	4118.63
494.017	4175.36
494.387	4237.28
494.757	4255.35
495.126	4313.43
495.496	4273.88
495.866	4353.88
496.235	4417.84
496.605	4385.29
496.974	4457.83
497.344	4557.04
497.713	4552.3
498.082	4596.36
498.452	4652.86
498.821	4678.17
499.19	4679.98
499.559	4766.53
499.928	4697.83
500.298	4820.54
500.667	4860.76
501.036	4867.09
501.405	4920.87
501.774	4909.12
502.143	4927.65
502.512	4980.08
502.88	5018.5
503.249	5051.04
503.618	5083.36
503.987	5072.96
504.356	5146.63
504.724	5137.82
505.093	5204.03
505.462	5147.99
505.83	5220.53
506.199	5300.52
506.567	5388.88
506.936	5289.68
507.304	5412.84
507.672	5419.39
508.041	5457.36
508.409	5475.66
508.777	5524.7
509.145	5553.63
509.514	5618.48
509.882	5607.18
510.25	5609.89
510.618	5658.71
510.986	5664.13
511.354	5656
511.722	5733.51
512.09	5789.55
512.458	5774.18
512.826	5840.17
513.193	5855.76
513.561	5821.41
513.929	5922.66
514.297	5968.98
514.664	6005.36
515.032	6018.47
515.4	6016.44
515.767	6028.64
516.135	6085.36
516.502	6070
516.869	6118.36
517.237	6129.66
517.604	6172.14
517.972	6160.61
518.339	6282.65
518.706	6211.46
519.073	6261.63
519.44	6328.97
519.808	6311.57
520.175	6318.8
520.542	6425.01
520.909	6484.9
521.276	6414.62
521.643	6500.04
522.009	6506.82
522.376	6509.53
522.743	6571.68
523.11	6646.25
523.477	6662.52
523.843	6702.52
524.21	6770.54
524.577	6786.59
524.943	6807.83
525.31	6841.5
525.676	6899.8
526.043	6911.33
526.409	7021.61
526.776	7028.61
527.142	7069.07
527.508	7102.06
527.874	7121.04
528.241	7167.14
528.607	7185.22
528.973	7282.39
529.339	7278.1
529.705	7385.67
530.071	7395.38
530.437	7385.22
530.803	7450.98
531.169	7486.23
531.535	7498.88
531.901	7488.94
532.267	7561.93
532.632	7558.09
532.998	7647.36
533.364	7612.55
533.73	7687.35
534.095	7690.74
534.461	7764.64
534.826	7825.88
535.192	7836.28
535.557	7868.37
535.923	7860.01
536.288	7879.67
536.653	7935.26
537.019	7952.88
537.384	8015.48
537.749	8038.98
538.114	8088.93
538.479	8086.67
538.845	8127.12
539.21	8119.21
539.575	8212.99
539.94	8227.23
540.305	8257.28
540.67	8258.41
541.034	8214.8
541.399	8323.95
541.764	8430.61
542.129	8396.71
542.494	8373.89
542.858	8432.19
543.223	8437.84
543.587	8550.61
543.952	8523.04
544.316	8583.83
544.681	8596.03
545.045	8703.82
545.41	8658.63
545.774	8753.99
546.138	8718.97
546.503	8766.2
546.867	8793.99
547.231	8920.99
547.595	8887.77
547.959	8908.57
548.324	8885.51
548.688	8907.66
549.052	9028.34
549.416	8925.74
549.779	9014.1
550.143	9061.33
550.507	9128.67
550.871	9116.92
551.235	9200.76
551.599	9240.99
551.962	9211.61
552.326	9262.23
552.689	9382.68
553.053	9222.46
553.417	9320.31
553.78	9449.12
554.143	9318.5
554.507	9451.6
554.87	9416.12
555.234	9514.42
555.597	9511.26
555.96	9562.56
556.323	9594.65
556.686	9598.49
557.05	9669.45
557.413	9685.27
557.776	9704.48
558.139	9814.98
558.502	9790.12
558.865	9771.82
559.228	9905.15
559.59	9901.08
559.953	9922.32
560.316	9957.8
560.679	10000.06
561.041	10009.78
561.404	10134.75
561.767	10173.84
562.129	10091.36
562.492	10268.53
562.854	10191.02
563.217	10296.55
563.579	10271.92
563.941	10355.53
564.304	10358.92
564.666	10409.77
565.028	10450.67
565.39	10414.51
565.753	10487.28
566.115	10549.88
566.477	10630.78
566.839	10566.6
567.201	10699.25
567.563	10725.92
567.925	10755.07
568.287	10788.29
568.648	10777.22
569.01	10875.52
569.372	10892.69
569.734	10900.83
570.095	10999.36
570.457	11060.6
570.819	11024.44
571.18	11047.94
571.542	11231.22
571.903	11263.98
572.265	11197.54
572.626	11247.71
572.987	11305.79
573.349	11399.12
573.71	11504.2
574.071	11482.51
574.432	11550.76
574.794	11642.05
575.155	11645.67
575.516	11735.61
575.877	11763.86
576.238	11839.34
576.599	11971.99
576.96	12014.47
577.32	12103.74
577.681	12198.87
578.042	12248.82
578.403	12366.55
578.763	12469.15
579.124	12567.23
579.485	12638.64
579.845	12841.8
580.206	12856.71
580.566	12924.73
580.927	13080.66
581.287	13295.12
581.648	13415.11
582.008	13505.73
582.368	13684.03
582.728	13789.57
583.089	13857.36
583.449	13981.65
583.809	14249.44
584.169	14366.05
584.529	14515.88
584.889	14774.17
585.249	14956.99
585.609	15103.88
585.969	15355.85
586.329	15436.76
586.688	15751.1
587.048	15957.87
587.408	16143.86
587.768	16421.59
588.127	16613.67
588.487	16867.45
588.846	17217.05
589.206	17350.6
589.565	17620.88
589.925	17927.54
590.284	18149.9
590.643	18567.97
591.003	18701.08
591.362	19045.25
591.721	19164.57
592.08	19394.62
592.44	19882.97
592.799	20068.27
593.158	20273.69
593.517	20535.15
593.876	20947.34
594.235	21258.97
594.593	21536.26
594.952	21790.71
595.311	22174.21
595.67	22582.33
596.029	22941.87
596.387	23267.74
596.746	23608.07
597.104	23903.43
597.463	24084.89
597.822	24281.04
598.18	24659.56
598.538	24906.34
598.897	25384.06
599.255	25409.6
599.613	26106.53
599.972	26230.6
600.33	26602.11
600.688	26683.47
601.046	27157.8
601.404	27515.31
601.762	27806.37
602.12	28130.43
602.478	28561.61
602.836	28751.43
603.194	28935.38
603.552	29188.71
603.91	29371.98
604.268	29893.32
604.625	30015.35
604.983	30397.72
605.341	30510.48
605.698	30939.4
606.056	31253.06
606.413	31479.27
606.771	31785.7
607.128	31989.54
607.485	32229.99
607.843	32478.34
608.2	32733.48
608.557	33234.25
608.914	33296.17
609.272	33575.49
609.629	33889.6
609.986	34149.71
610.343	34222.93
610.7	34683.93
611.057	34845.28
611.414	35064.71
611.771	35317.59
612.127	35575.43
612.484	35677.8
612.841	35865.6
613.198	36060.39
613.554	36291.8
613.911	36448.63
614.267	36712.13
614.624	36763.65
614.98	37072.34
615.337	37342.85
615.693	37464.65
616.05	37676.85
616.406	37899.22
616.762	38028.7
617.118	38103.5
617.475	38261.24
617.831	38603.15
618.187	38693.54
618.543	38939.87
618.899	39230.25
619.255	39206.98
619.611	39308.9
619.967	39534.65
620.323	39686.96
620.678	39653.07
621.034	39802.89
621.39	39851.48
621.746	39914.98
622.101	40376.44
622.457	40274.29
622.812	40393.16
623.168	40588.18
623.523	40654.85
623.879	40855.75
624.234	40750.67
624.589	40997.89
624.945	41115.4
625.3	41125.8
625.655	41233.82
626.01	41238.11
626.365	41253.03
626.72	41388.16
627.075	41503.64
627.43	41582.06
627.785	41533.24
628.14	41627.48
628.495	41792.22
628.85	41793.58
629.205	41745.44
629.559	42002.38
629.914	41905.44
630.269	41866.79
630.623	41935.27
630.978	41809.85
631.332	42168.03
631.687	42190.4
632.041	42189.05
632.396	42284.18
632.75	42101.36
633.104	42184.3
633.459	42159.44
633.813	42062.5
634.167	42116.73
634.521	42177.75
634.875	42199.89
635.229	42342.49
635.583	41976.4
635.937	42175.71
636.291	42143.62
636.645	42200.57
636.999	42109.73
637.352	42300.46
637.706	42010.52
638.06	42358.99
638.413	42147.92
638.767	42147.47
639.121	42183.17
639.474	42036.28
639.828	42181.59
640.181	42171.65
640.534	42038.77
640.888	42090.52
641.241	41824.54
641.594	42009.84
641.947	42214.81
642.301	41996.96
642.654	42132.32
643.007	42040.8
643.36	42128.03
643.713	42099.56
644.066	42144.53
644.419	41914.03
644.771	41749.51
645.124	41293.48
645.477	41224.1
645.83	41095.74
646.182	41071.79
646.535	40969.87
646.888	41031.79
647.24	40828.86
647.593	40986.37
647.945	40931.68
648.298	40728.75
648.65	40682.64
649.002	40846.93
649.355	40929.19
649.707	40914.73
650.059	40989.53
650.411	41404.21
650.763	41427.71
651.115	41759.45
651.467	41680.58
651.819	41608.72
652.171	41624.54
652.523	41460.93
652.875	41610.76
653.227	41378.67
653.578	41708.61
653.93	41696.4
654.282	41490.31
654.633	41360.59
654.985	41449.63
655.337	41474.94
655.688	41501.15
656.039	41606.91
656.391	41330.54
656.742	41448.27
657.094	41521.94
657.445	41546.8
657.796	41577.08
658.147	41349.52
658.498	41283.99
658.849	41466.35
659.2	41314.94
659.551	41328.5
659.902	41455.05
660.253	41390.2
660.604	41459.57
660.955	41088.74
661.306	41446.69
661.656	41364.66
662.007	41314.72
662.358	41304.32
662.708	41359.01
663.059	41268.17
663.409	41058.45
663.76	41380.71
664.11	41298.67
664.461	41268.17
664.811	41291.22
665.161	41379.12
665.511	41261.39
665.862	41316.3
666.212	41504.32
666.562	41254.16
666.912	41343.42
667.262	41164.44
667.612	41233.82
667.962	41132.35
668.312	41156.53
668.662	41394.49
669.011	41218.9
669.361	41011.45
669.711	41118.11
670.06	41072.92
670.41	41076.76
670.76	40882.64
671.109	41180.49
671.459	41054.39
671.808	40915.86
672.157	41087.38
672.507	40815.75
672.856	40847.39
673.205	40908.85
673.554	40985.46
673.904	40971.22
674.253	41042.64
674.602	41027.27
674.951	40424.35
675.3	40293.28
675.649	40844.22
675.998	40746.82
676.346	40860.27
676.695	40962.41
677.044	40638.58
677.393	40811
677.741	40842.87
678.09	40686.71
678.438	40621.4
678.787	40641.74
679.135	40786.15
679.484	40388.42
679.832	40612.36
680.181	40444.23
680.529	40521.75
680.877	40315.87
681.225	40279.04
681.573	40541.41
681.922	40140.96
682.27	40154.75
682.618	40254.86
682.966	39935.32
683.314	40136.9
683.661	39952.27
684.009	39865.94
684.357	39834.76
684.705	39757.92
685.053	39788.43
685.4	39738.49
685.748	39430.25
686.095	39622.79
686.443	39365.84
686.79	39358.61
687.138	39362.91
687.485	39416.92
687.832	39226.86
688.18	39284.04
688.527	39179.18
688.874	39102.12
689.221	39041.56
689.568	38961.79
689.915	38910.26
690.262	38856.03
690.609	38672.08
690.956	38656.94
691.303	38604.06
691.65	38487.45
691.997	38497.39
692.344	38321.8
692.69	38229.83
693.037	38254.46
693.383	37831.42
693.73	38119.1
694.077	37848.37
694.423	37953.23
694.769	37748.26
695.116	37529.06
695.462	37457.42
695.808	37416.29
696.155	37451.77
696.501	37188.27
696.847	37115.28
697.193	36835.29
697.539	37096.75
697.885	36786.7
698.231	36629.64
698.577	36681.39
698.923	36633.49
699.269	36524.11
699.614	36353.49
699.96	36311.23
700.306	36379.71
700.651	36156.21
700.997	35990.11
701.342	35939.49
701.688	36050
702.033	35938.36
702.379	35846.16
702.724	35679.39
703.069	35670.57
703.415	35313.75
703.76	35502.89
704.105	35440.75
704.45	35341.09
704.795	35104.26
705.14	35010.03
705.485	34986.3
705.83	34928.45
706.175	34984.04
706.52	34846.19
706.865	34783.59
707.209	34751.95
707.554	34538.85
707.899	34583.37
708.243	34356.03
708.588	34416.14
708.932	34170.95
709.277	34244.62
709.621	34251.63
709.966	33966.44
710.31	34025.87
710.654	33667.69
710.998	33857.29
711.342	33828.14
711.687	33637.86
712.031	33617.97
712.375	33460.91
712.719	33492.1
713.063	33563.96
713.407	33493.46
713.75	33198.55
714.094	33290.52
714.438	33142.5
714.782	33296.17
715.125	33011.66
715.469	33083.52
715.812	32792.46
716.156	32691.89
716.499	32795.85
716.843	32743.87
717.186	32533.03
717.53	32795.85
717.873	32658.68
718.216	32584.1
718.559	32414.39
718.902	32284.22
719.246	32363.09
719.589	32180.27
719.932	32178.01
720.275	32216.88
720.617	32187.05
720.96	32079.26
721.303	31966.49
721.646	32044
721.989	31904.12
722.331	31913.84
722.674	31911.12
723.016	31809.66
723.359	31797.91
723.701	31678.14
724.044	31610.79
724.386	31399.27
724.729	31566.5
725.071	31446.96
725.413	31514.98
725.755	31363.79
726.097	31225.04
726.439	31022.33
726.782	31079.51
727.124	31107.53
727.465	31006.74
727.807	30887.2
728.149	31096.68
728.491	30896.69
728.833	30970.13
729.175	30737.6
729.516	30809.01
729.858	30661.67
730.199	30803.36
730.541	30714.77
730.882	30598.84
731.224	30715.9
731.565	30482.46
731.906	30641.55
732.248	30566.98
732.589	30312.75
732.93	30335.57
733.271	30399.98
733.612	30345.52
733.953	30202.69
734.294	30351.39
734.635	30193.66
734.976	30171.73
735.317	30105.75
735.658	29988.01
735.999	30042.92
736.339	29925.87
736.68	30000.44
737.021	30015.13
737.361	29700.33
737.702	29980.1
738.042	29685.87
738.383	29664.86
738.723	29715.7
739.063	29635.03
739.404	29637.06
739.744	29469.83
740.084	29538.98
740.424	29536.95
740.764	29388.93
741.104	29604.52
741.444	29255.83
741.784	29342.83
742.124	29289.72
742.464	29364.52
742.804	29295.83
743.143	29176.28
743.483	29276.62
743.823	29038.88
744.162	29070.29
744.502	29165.21
744.841	29058.32
745.181	29091.31
745.52	28909.85
745.86	29029.17
746.199	28942.16
746.538	28922.5
746.877	28899.45
747.216	28869.4
747.556	28893.12
747.895	28819
748.234	28614.49
748.573	28586.92
748.911	28596.41
749.25	28599.12
749.589	28616.97
749.928	28516.64
750.267	28604.54
750.605	28445.45
750.944	28413.59
751.283	28236.87
751.621	28282.52
751.96	28195.74
752.298	28199.13
752.636	28155.97
752.975	28025.12
753.313	27976.99
753.651	28111
753.989	27953.71
754.327	27918.01
754.666	27676.21
755.004	27740.39
755.342	27705.59
755.679	27591.69
756.017	27548.08
756.355	27583.33
756.693	27425.37
757.031	27565.7
757.368	27286.39
757.706	27291.13
758.044	27249.78
758.381	27242.32
758.719	27176.56
759.056	27276.9
759.394	27096.79
