Data from hue_150_FLMS001491_00007.txt Node
Date: Tue Feb 07 16:53:33 GMT 2017
User: dcchb
Spectrometer: FLMS00149
Trigger mode: 0
Integration Time (sec): 2.000000E-2
Scans to average: 10
Electric dark correction enabled: true
Nonlinearity correction enabled: false
Boxcar width: 0
XAxis mode: Wavelengths
Number of Pixels in Spectrum: 2048
>>>>>Begin Spectral Data<<<<<
341.393	-1.54
341.776	-1.54
342.16	-1.54
342.543	-64.81
342.927	-63.68
343.31	-63.46
343.693	-49.45
344.077	-56.68
344.46	-78.83
344.843	-35.89
345.226	-58.94
345.61	-47.87
345.993	-21.2
346.376	-7.19
346.759	11.34
347.142	19.7
347.525	38.23
347.908	52.7
348.291	72.13
348.674	99.25
349.057	126.14
349.44	136.99
349.823	125.46
350.206	169.76
350.588	201.62
350.971	214.05
351.354	224.22
351.737	243.43
352.119	280.94
352.502	252.69
352.884	275.06
353.267	273.71
353.65	282.29
354.032	305.57
354.414	297.89
354.797	304.22
355.179	327.04
355.562	330.88
355.944	310.99
356.326	328.17
356.709	336.98
357.091	347.38
357.473	321.39
357.855	353.48
358.238	342.86
358.62	332.24
359.002	336.98
359.384	332.91
359.766	342.63
360.148	328.62
360.53	345.57
360.912	333.82
361.294	330.66
361.676	352.35
362.057	332.24
362.439	331.33
362.821	342.18
363.203	331.79
363.584	325.46
363.966	334.27
364.348	308.96
364.729	301.05
365.111	314.61
365.493	333.14
365.874	310.32
366.256	303.76
366.637	324.33
367.019	316.64
367.4	321.84
367.781	307.6
368.163	313.03
368.544	325.46
368.925	316.19
369.306	313.71
369.688	308.28
370.069	316.19
370.45	306.02
370.831	310.09
371.212	315.51
371.593	307.15
371.974	320.26
372.355	309.64
372.736	326.36
373.117	322.52
373.498	312.35
373.879	310.99
374.26	322.75
374.641	314.38
375.021	318.23
375.402	318.45
375.783	323.88
376.163	332.46
376.544	342.41
376.925	334.27
377.305	324.33
377.686	341.73
378.066	321.16
378.447	333.37
378.827	322.52
379.208	334.27
379.588	336.3
379.968	339.47
380.349	338.11
380.729	325.23
381.109	342.18
381.489	343.76
381.87	331.11
382.25	336.53
382.63	340.37
383.01	349.41
383.39	354.61
383.77	348.51
384.15	352.35
384.53	330.88
384.91	364.55
385.29	374.95
385.67	355.06
386.049	354.38
386.429	341.5
386.809	370.88
387.189	345.8
387.568	342.86
387.948	345.34
388.328	357.55
388.707	351.67
389.087	361.61
389.466	369.52
389.846	358
390.225	357.77
390.605	372.91
390.984	369.3
391.363	373.37
391.743	351.9
392.122	372.69
392.501	366.13
392.881	388.73
393.26	384.67
393.639	382.18
394.018	372.46
394.397	398.68
394.776	383.99
395.155	382.63
395.534	364.1
395.913	390.77
396.292	379.24
396.671	381.73
397.05	395.06
397.429	396.19
397.808	413.59
398.186	398
398.565	396.42
398.944	396.42
399.323	392.12
399.701	397.32
400.08	418.11
400.458	409.98
400.837	407.49
401.215	408.17
401.594	401.39
401.972	403.2
402.351	416.53
402.729	433.25
403.107	417.88
403.486	419.92
403.864	423.53
404.242	418.79
404.62	421.27
404.999	423.76
405.377	424.44
405.755	429.41
406.133	450.65
406.511	440.71
406.889	466.02
407.267	457.66
407.645	469.86
408.023	475.28
408.401	444.55
408.779	459.24
409.156	472.35
409.534	445.45
409.912	464.89
410.29	459.69
410.667	437.09
411.045	486.81
411.422	476.87
411.8	468.28
412.178	489.07
412.555	489.75
412.933	471.22
413.31	514.38
413.687	495.85
414.065	511.44
414.442	511.22
414.819	515.06
415.197	491.1
415.574	507.6
415.951	527.49
416.328	513.02
416.705	512.8
417.082	505.34
417.46	505.79
417.837	527.71
418.214	517.54
418.591	535.85
418.967	561.84
419.344	546.47
419.721	554.83
420.098	537.2
420.475	554.38
420.852	569.52
421.228	558.67
421.605	573.36
421.982	566.36
422.358	583.3
422.735	570.2
423.111	569.97
423.488	576.07
423.864	588.28
424.241	591.67
424.617	579.46
424.994	613.81
425.37	617.65
425.746	607.71
426.123	605.45
426.499	610.87
426.875	630.53
427.251	633.25
427.627	619.01
428.003	624.88
428.379	623.3
428.756	638.22
429.132	647.71
429.507	649.97
429.883	670.53
430.259	664.21
430.635	656.3
431.011	696.75
431.387	691.32
431.763	682.74
432.138	698.1
432.514	704.88
432.89	720.02
433.265	697.88
433.641	730.87
434.016	705.11
434.392	750.31
434.767	729.29
435.143	716.41
435.518	748.5
435.894	746.92
436.269	760.25
436.644	786.69
437.02	770.64
437.395	786.46
437.77	776.29
438.145	803.64
438.52	785.56
438.895	804.77
439.271	816.52
439.646	835.05
440.021	837.53
440.395	861.26
440.77	840.47
441.145	828.04
441.52	852.9
441.895	857.87
442.27	862.62
442.645	871.21
443.019	866.91
443.394	887.93
443.769	896.97
444.143	883.41
444.518	908.72
444.892	919.79
445.267	911.66
445.641	925.44
446.016	919.57
446.39	943.07
446.764	926.35
447.139	926.35
447.513	931.09
447.887	944.2
448.262	946.46
448.636	956.18
449.01	946.68
449.384	948.04
449.758	983.52
450.132	997.53
450.506	1003.86
450.88	995.27
451.254	1017.64
451.628	1026.68
452.002	1025.78
452.376	1044.99
452.75	1058.77
453.123	1041.37
453.497	1073.91
453.871	1063.74
454.244	1072.1
454.618	1105.1
454.992	1103.06
455.365	1118.43
455.739	1145.32
456.112	1149.84
456.486	1202.27
456.859	1174.25
457.232	1171.09
457.606	1205.43
457.979	1198.65
458.352	1239.33
458.725	1235.72
459.099	1225.09
459.472	1295.38
459.845	1292.21
460.218	1322.95
460.591	1325.21
460.964	1329.5
461.337	1345.09
461.71	1366.11
462.083	1390.51
462.456	1407.69
462.829	1425.32
463.201	1428.03
463.574	1435.48
463.947	1484.07
464.32	1493.34
464.692	1493.34
465.065	1516.61
465.438	1533.34
465.81	1565.42
466.183	1562.26
466.555	1648.59
466.928	1634.58
467.3	1653.33
467.672	1685.2
468.045	1688.81
468.417	1708.92
468.789	1754.8
469.161	1787.11
469.534	1799.54
469.906	1822.82
470.278	1862.37
470.65	1889.26
471.022	1940.56
471.394	1947.79
471.766	2006.32
472.138	2025.98
472.51	2086.32
472.882	2143.04
473.253	2159.31
473.625	2208.8
473.997	2244.96
474.369	2295.8
474.74	2316.14
475.112	2404.27
475.484	2435.23
475.855	2486.53
476.227	2548.9
476.598	2613.53
476.97	2650.59
477.341	2754.77
477.713	2740.76
478.084	2824.83
478.455	2916.58
478.827	2965.84
479.198	3066.18
479.569	3134.65
479.94	3208.77
480.311	3298.26
480.682	3421.87
481.053	3472.49
481.424	3578.48
481.795	3666.16
482.166	3735.09
482.537	3821.18
482.908	3919.04
483.279	4043.78
483.65	4149.09
484.021	4268.63
484.391	4330.55
484.762	4471.79
485.133	4521.28
485.503	4617.32
485.874	4749.75
486.244	4839.24
486.615	4985.9
486.985	5120.59
487.356	5290.07
487.726	5430.41
488.097	5518.09
488.467	5593.57
488.837	5696.16
489.207	5909.94
489.578	6030.84
489.948	6069.94
490.318	6266.77
490.688	6322.36
491.058	6521.9
491.428	6607.1
491.798	6789.02
492.168	6952.63
492.538	7015
492.908	7173.87
493.278	7299.96
493.648	7444.82
494.017	7601.88
494.387	7673.96
494.757	7770.69
495.126	7966.84
495.496	7962.77
495.866	8084.35
496.235	8278.69
496.605	8416.54
496.974	8455.64
497.344	8660.83
497.713	8741.06
498.082	8798.23
498.452	8975.17
498.821	9034.16
499.19	9143.98
499.559	9298.55
499.928	9319.57
500.298	9459.45
500.667	9563.63
501.036	9601.15
501.405	9750.75
501.774	9812.44
502.143	9920.91
502.512	10008.37
502.88	10116.16
503.249	10197.74
503.618	10277.06
503.987	10361.13
504.356	10482.7
504.724	10515.7
505.093	10638.86
505.462	10684.06
505.83	10750.27
506.199	10875.46
506.567	10844.5
506.936	10909.59
507.304	11119.07
507.672	11233.19
508.041	11178.96
508.409	11274.1
508.777	11417.6
509.145	11465.28
509.514	11423.92
509.882	11581.66
510.25	11568.55
510.618	11646.97
510.986	11734.65
511.354	11783.69
511.722	11851.48
512.09	11955.21
512.458	11930.58
512.826	12107.97
513.193	12152.94
513.561	12160.63
513.929	12155.88
514.297	12336.89
514.664	12305.93
515.032	12361.75
515.4	12442.88
515.767	12466.83
516.135	12568.07
516.502	12484.46
516.869	12726.71
517.237	12695.75
517.604	12648.75
517.972	12724.45
518.339	12746.83
518.706	12764.45
519.073	12772.14
519.44	12840.16
519.808	13032.02
520.175	12889.87
520.542	13048.51
520.909	13108.4
521.276	12972.36
521.643	13154.27
522.009	13190.43
522.376	13167.83
522.743	13225.91
523.11	13343.42
523.477	13343.42
523.843	13430.42
524.21	13525.56
524.577	13530.76
524.943	13498.22
525.31	13459.58
525.676	13603.3
526.043	13626.12
526.409	13592.68
526.776	13606.69
527.142	13613.24
527.508	13757.42
527.874	13795.61
528.241	13770.53
528.607	13839.45
528.973	13845.78
529.339	13790.87
529.705	13821.37
530.071	13885.33
530.437	13913.35
530.803	13914.7
531.169	13907.93
531.535	13892.11
531.901	13820.24
532.267	13861.15
532.632	13917.42
532.998	13938.43
533.364	13900.02
533.73	13891.65
534.095	14027.02
534.461	13987.92
534.826	13955.83
535.192	13964.87
535.557	13898.89
535.923	13839.9
536.288	13816.4
536.653	13935.95
537.019	13817.76
537.384	13768.04
537.749	13787.48
538.114	13705.9
538.479	13696.18
538.845	13702.28
539.21	13668.61
539.575	13641.49
539.94	13632
540.305	13641.72
540.67	13566.92
541.034	13574.37
541.399	13608.5
541.764	13600.36
542.129	13565.56
542.494	13531.44
542.858	13481.04
543.223	13428.39
543.587	13406.02
543.952	13356.53
544.316	13402.18
544.681	13288.05
545.045	13410.09
545.41	13340.03
545.774	13341.61
546.138	13319.47
546.503	13262.74
546.867	13225.46
547.231	13270.2
547.595	13157.89
547.959	13206.93
548.324	13157.21
548.688	13071.56
549.052	13138.23
549.416	13025.69
549.779	13031.79
550.143	13038.34
550.507	12966.93
550.871	13004.67
551.235	12848.07
551.599	12934.39
551.962	12900.95
552.326	12877.22
552.689	12862.3
553.053	12776.66
553.417	12819.59
553.78	12905.92
554.143	12809.2
554.507	12881.74
554.87	12775.07
555.234	12825.69
555.597	12797.22
555.96	12741.63
556.323	12780.95
556.686	12783.21
557.05	12799.48
557.413	12774.62
557.776	12699.14
558.139	12775.98
558.502	12711.35
558.865	12756.54
559.228	12743.89
559.59	12704.57
559.953	12710.67
560.316	12790.67
560.679	12751.35
561.041	12750.22
561.404	12808.75
561.767	12851.68
562.129	12770.1
562.492	12825.92
562.854	12788.86
563.217	12839.93
563.579	12870.44
563.941	12908.4
564.304	12960.83
564.666	12905.24
565.028	12899.36
565.39	12923.32
565.753	12899.36
566.115	12924.22
566.477	12982.98
566.839	12996.08
567.201	13065.69
567.563	13012.36
567.925	13093.48
568.287	13031.56
568.648	13013.94
569.01	13061.85
569.372	13066.14
569.734	13141.62
570.095	13118.57
570.457	13109.98
570.819	13126.25
571.18	13163.54
571.542	13188.85
571.903	13206.47
572.265	13222.75
572.626	13253.25
572.987	13220.71
573.349	13239.24
573.71	13193.59
574.071	13304.33
574.432	13292.12
574.794	13370.76
575.155	13269.07
575.516	13193.59
575.877	13321.73
576.238	13373.25
576.599	13383.19
576.96	13397.88
577.32	13340.71
577.681	13370.09
578.042	13438.33
578.403	13366.24
578.763	13435.4
579.124	13344.32
579.485	13452.8
579.845	13471.33
580.206	13416.41
580.566	13372.35
580.927	13396.3
581.287	13477.65
581.648	13372.57
582.008	13523.08
582.368	13348.17
582.728	13517.2
583.089	13422.29
583.449	13447.6
583.809	13326.25
584.169	13369.18
584.529	13413.47
584.889	13435.62
585.249	13378
585.609	13334.61
585.969	13323.53
586.329	13371.44
586.688	13293.7
587.048	13404.66
587.408	13314.95
587.768	13264.78
588.127	13328.96
588.487	13242.41
588.846	13354.04
589.206	13207.38
589.565	13275.63
589.925	13304.55
590.284	13262.97
590.643	13248.28
591.003	13373.93
591.362	13265
591.721	13333.48
592.08	13271.56
592.44	13309.07
592.799	13330.99
593.158	13269.3
593.517	13277.89
593.876	13300.26
594.235	13170.77
594.593	13271.11
594.952	13235.4
595.311	13160.15
595.67	13208.96
596.029	13164.89
596.387	13251.22
596.746	13255.74
597.104	13207.6
597.463	13239.02
597.822	13294.16
598.18	13200.83
598.538	13233.59
598.897	13296.42
599.255	13154.5
599.613	13332.57
599.972	13225.01
600.33	13236.3
600.688	13200.6
601.046	13229.3
601.404	13245.12
601.762	13224.78
602.12	13341.39
602.478	13236.08
602.836	13255.29
603.194	13248.96
603.552	13220.49
603.91	13091
604.268	13214.61
604.625	13135.97
604.983	13252.12
605.341	13219.81
605.698	13210.77
606.056	13260.94
606.413	13280.37
606.771	13293.03
607.128	13359.69
607.485	13202.18
607.843	13198.57
608.2	13259.13
608.557	13378.45
608.914	13229.53
609.272	13421.61
609.629	13353.82
609.986	13356.3
610.343	13375.74
610.7	13482.17
611.057	13391.78
611.414	13428.39
611.771	13443.76
612.127	13369.86
612.484	13377.54
612.841	13486.24
613.198	13370.09
613.554	13435.17
613.911	13448.73
614.267	13419.58
614.624	13444.89
614.98	13471.78
615.337	13543.87
615.693	13521.72
616.05	13422.51
616.406	13594.49
616.762	13512.46
617.118	13540.03
617.475	13534.6
617.831	13563.53
618.187	13519.23
618.543	13600.81
618.899	13573.92
619.255	13567.14
619.611	13554.26
619.967	13657.99
620.323	13752.9
620.678	13619.35
621.034	13636.29
621.39	13589.74
621.746	13593.58
622.101	13719.91
622.457	13604.2
622.812	13603.53
623.168	13697.08
623.523	13683.52
623.879	13697.54
624.234	13627.93
624.589	13629.06
624.945	13684.88
625.3	13587.03
625.655	13581.83
626.01	13669.97
626.365	13718.55
626.72	13646.46
627.075	13595.39
627.43	13593.13
627.785	13619.35
628.14	13570.53
628.495	13552.45
628.85	13610.76
629.205	13580.02
629.559	13566.92
629.914	13579.57
630.269	13549.29
630.623	13517.2
630.978	13450.54
631.332	13554.94
631.687	13601.27
632.041	13475.62
632.396	13474.94
632.75	13452.57
633.104	13480.82
633.459	13413.47
633.813	13383.42
634.167	13375.28
634.521	13363.08
634.875	13334.16
635.229	13418.9
635.583	13214.84
635.937	13345
636.291	13332.8
636.645	13306.13
636.999	13275.4
637.352	13316.98
637.706	13232.91
638.06	13283.99
638.413	13236.08
638.767	13160.37
639.121	13184.78
639.474	13050.32
639.828	13164.44
640.181	13203.99
640.534	13144.33
640.888	13097.55
641.241	13022.75
641.594	13091.9
641.947	13152.69
642.301	13067.27
642.654	13056.65
643.007	13035.63
643.36	13070.21
643.713	13020.49
644.066	13062.75
644.419	12960.38
644.771	12866.37
645.124	12808.07
645.477	12787.28
645.83	12726.26
646.182	12691.46
646.535	12618.02
646.888	12659.6
647.24	12551.35
647.593	12704.57
647.945	12630.67
648.298	12556.32
648.65	12527.85
649.002	12481.75
649.355	12608.75
649.707	12567.17
650.059	12656.43
650.411	12790.44
650.763	12767.84
651.115	12910.89
651.467	12881.29
651.819	12855.52
652.171	12879.03
652.523	12846.94
652.875	12767.62
653.227	12780.5
653.578	12928.74
653.93	12844.22
654.282	12835.41
654.633	12776.2
654.985	12769.65
655.337	12815.07
655.688	12796.77
656.039	12829.31
656.391	12727.62
656.742	12757.22
657.094	12704.57
657.445	12846.94
657.796	12844
658.147	12740.72
658.498	12836.54
658.849	12811.23
659.2	12840.16
659.551	12738.92
659.902	12790.21
660.253	12826.15
660.604	12845.35
660.955	12771.01
661.306	12872.25
661.656	12847.61
662.007	12857.56
662.358	12944.79
662.708	12891.68
663.059	12850.55
663.409	12766.26
663.76	12945.92
664.11	12930.78
664.461	12895.07
664.811	12915.63
665.161	12851.91
665.511	12812.59
665.862	12884.45
666.212	12906.6
666.562	12897.33
666.912	12870.89
667.262	12857.78
667.612	12857.11
667.962	12831.57
668.312	12864.34
668.662	12878.8
669.011	12792.25
669.361	12864.56
669.711	12781.63
670.06	12817.78
670.41	12722.42
670.76	12726.49
671.109	12813.94
671.459	12804.45
671.808	12794.28
672.157	12774.62
672.507	12735.75
672.856	12779.82
673.205	12675.87
673.554	12749.31
673.904	12706.83
674.253	12712.02
674.602	12814.85
674.951	12557.23
675.3	12528.75
675.649	12645.81
675.998	12636.09
676.346	12633.61
676.695	12724
677.044	12600.39
677.393	12606.04
677.741	12633.38
678.09	12587.28
678.438	12550.9
678.787	12541.63
679.135	12495.98
679.484	12524.23
679.832	12505.25
680.181	12447.85
680.529	12459.15
680.877	12437.23
681.225	12461.41
681.573	12453.5
681.922	12359.27
682.27	12354.29
682.618	12396.33
682.966	12264.13
683.314	12389.55
683.661	12340.96
684.009	12281.08
684.357	12242.66
684.705	12234.07
685.053	12333.05
685.4	12232.94
685.748	12163.56
686.095	12059.61
686.443	12122.44
686.79	12083.57
687.138	12041.99
687.485	12099.16
687.832	12071.14
688.18	12012.16
688.527	11903.46
688.874	11949.33
689.221	11900.75
689.568	11842.89
689.915	11805.16
690.262	11805.83
690.609	11821.2
690.956	11734.2
691.303	11707.31
691.65	11627.31
691.997	11663.69
692.344	11550.47
692.69	11516.8
693.037	11475.9
693.383	11387.54
693.73	11500.08
694.077	11352.51
694.423	11362.68
694.769	11348.22
695.116	11315
695.462	11283.36
695.808	11268.22
696.155	11227.54
696.501	11154.1
696.847	11113.87
697.193	11065.74
697.539	11106.87
697.885	10959.53
698.231	10967.21
698.577	10992.97
698.923	10949.58
699.269	10924.27
699.614	10787.78
699.96	10780.55
700.306	10713.43
700.651	10775.35
700.997	10694.9
701.342	10612.42
701.688	10619.2
702.033	10551.86
702.379	10564.51
702.724	10489.94
703.069	10496.49
703.415	10416.72
703.76	10485.64
704.105	10357.96
704.45	10283.61
704.795	10306.44
705.14	10258.76
705.485	10282.26
705.83	10246.78
706.175	10202.03
706.52	10188.93
706.865	10126.1
707.209	10116.16
707.554	10032.09
707.899	10031.42
708.243	10007.91
708.588	9983.51
708.932	9912.55
709.277	9917.07
709.621	9916.62
709.966	9831.42
710.31	9847.24
710.654	9826.68
710.998	9860.35
711.342	9750.75
711.687	9727.7
712.031	9767.47
712.375	9729.05
712.719	9702.39
713.063	9707.13
713.407	9689.51
713.75	9611.09
714.094	9622.39
714.438	9601.82
714.782	9633.46
715.125	9519.57
715.469	9492.22
715.812	9559.57
716.156	9484.09
716.499	9468.04
716.843	9495.61
717.186	9472.11
717.53	9452.9
717.873	9467.36
718.216	9442.28
718.559	9390.76
718.902	9331.32
719.246	9359.12
719.589	9321.38
719.932	9317.54
720.275	9317.99
720.617	9242.74
720.96	9227.82
721.303	9250.65
721.646	9234.15
721.989	9220.36
722.331	9262.17
722.674	9172.23
723.016	9259.01
723.359	9195.28
723.701	9204.77
724.044	9144.66
724.386	9085
724.729	9152.34
725.071	9119.35
725.413	9109.41
725.755	9133.59
726.097	9186.69
726.439	9035.51
726.782	9043.19
727.124	9075.96
727.465	9092.68
727.807	9079.35
728.149	9018.79
728.491	9036.64
728.833	9058.56
729.175	9012.46
729.516	9037.54
729.858	8962.52
730.199	9055.4
730.541	9000.48
730.882	9046.36
731.224	9089.29
731.565	9034.16
731.906	8948.73
732.248	9059.01
732.589	8934.72
732.93	8889.07
733.271	8933.59
733.612	8972.24
733.953	8988.28
734.294	8943.76
734.635	8919.36
734.976	8926.36
735.317	8906.7
735.658	8914.61
735.999	8977.21
736.339	8979.92
736.68	9012.91
737.021	8954.16
737.361	8888.85
737.702	9027.38
738.042	8867.38
738.383	8899.7
738.723	8989.41
739.063	8948.51
739.404	8958.68
739.744	8966.81
740.084	8947.83
740.424	8998.9
740.764	8983.76
741.104	9066.7
741.444	8984.66
741.784	8979.69
742.124	9083.87
742.464	9062.63
742.804	9055.4
743.143	9046.13
743.483	9114.83
743.823	9136.75
744.162	9138.79
744.502	9129.97
744.841	9186.69
745.181	9216.75
745.52	9270.08
745.86	9233.92
746.199	9272.34
746.538	9304.66
746.877	9381.04
747.216	9433.24
747.556	9470.98
747.895	9535.84
748.234	9503.07
748.573	9502.39
748.911	9558.21
749.25	9640.24
749.589	9676.4
749.928	9779.67
750.267	9810.86
750.605	9906.67
750.944	9898.09
751.283	9992.32
751.621	10071.87
751.96	10077.07
752.298	10238.87
752.636	10375.81
752.975	10315.48
753.313	10375.81
753.651	10570.84
753.989	10626.2
754.327	10699.42
754.666	10708.24
755.004	10974.9
755.342	11129.69
755.679	11200.2
756.017	11294.21
756.355	11381.89
756.693	11523.36
757.031	11651.04
757.368	11735.1
757.706	11821.2
758.044	12030.46
758.381	12184.35
758.719	12343.67
