Data from hue_260_FLMS001491_00010.txt Node
Date: Tue Feb 07 15:58:30 GMT 2017
User: dcchb
Spectrometer: FLMS00149
Trigger mode: 0
Integration Time (sec): 2.000000E-2
Scans to average: 10
Electric dark correction enabled: true
Nonlinearity correction enabled: false
Boxcar width: 0
XAxis mode: Wavelengths
Number of Pixels in Spectrum: 2048
>>>>>Begin Spectral Data<<<<<
341.393	-22.46
341.776	-22.46
342.16	-22.46
342.543	-67.88
342.927	-86.18
343.31	-70.82
343.693	-54.77
344.077	-73.98
344.46	-65.62
344.843	-42.57
345.226	-40.76
345.61	-24.72
345.993	-24.49
346.376	0.37
346.759	13.47
347.142	24.32
347.525	51.44
347.908	45.79
348.291	62.29
348.674	82.4
349.057	117.65
349.44	123.08
349.823	151.55
350.206	166.24
350.588	193.36
350.971	192.9
351.354	226.12
351.737	223.86
352.119	258.21
352.502	261.83
352.884	267.93
353.267	269.06
353.65	270.64
354.032	263.41
354.414	294.37
354.797	315.61
355.179	301.83
355.562	316.07
355.944	318.78
356.326	313.58
356.709	300.25
357.091	314.94
357.473	320.58
357.855	330.75
358.238	331.88
358.62	346.12
359.002	332.56
359.384	345.22
359.766	317.65
360.148	325.78
360.53	294.6
360.912	310.19
361.294	305.9
361.676	330.53
362.057	350.64
362.439	318.32
362.821	316.97
363.203	314.03
363.584	295.27
363.966	316.07
364.348	302.05
364.729	334.6
365.111	298.89
365.493	312.68
365.874	313.13
366.256	332.56
366.637	296.4
367.019	307.25
367.4	307.48
367.781	304.54
368.163	300.7
368.544	300.7
368.925	305.22
369.306	304.09
369.688	316.97
370.069	299.57
370.45	299.57
370.831	300.92
371.212	312
371.593	274.03
371.974	304.31
372.355	309.74
372.736	310.87
373.117	315.61
373.498	297.08
373.879	299.12
374.26	312.22
374.641	290.98
375.021	325.56
375.402	278.55
375.783	315.39
376.163	321.94
376.544	321.26
376.925	327.36
377.305	307.25
377.686	330.75
378.066	316.97
378.447	328.95
378.827	335.95
379.208	324.88
379.588	333.01
379.968	351.54
380.349	341.6
380.729	314.26
381.109	331.66
381.489	331.43
381.87	325.1
382.25	341.38
382.63	322.62
383.01	341.15
383.39	332.56
383.77	335.27
384.15	339.12
384.53	354.03
384.91	342.05
385.29	346.57
385.67	318.1
386.049	343.18
386.429	352.67
386.809	338.21
387.189	354.71
387.568	353.35
387.948	356.74
388.328	347.48
388.707	354.93
389.087	330.75
389.466	348.15
389.846	347.48
390.225	349.51
390.605	384.54
390.984	373.24
391.363	374.14
391.743	372.33
392.122	361.71
392.501	364.65
392.881	366.01
393.26	349.51
393.639	383.63
394.018	377.76
394.397	371.43
394.776	387.25
395.155	373.24
395.534	395.84
395.913	388.61
396.292	411.43
396.671	378.89
397.05	379.57
397.429	403.97
397.808	414.82
398.186	405.33
398.565	412.11
398.944	382.28
399.323	396.06
399.701	403.97
400.08	395.61
400.458	411.2
400.837	424.99
401.215	410.53
401.594	411.43
401.972	418.66
402.351	443.97
402.729	419.79
403.107	424.99
403.486	434.93
403.864	414.59
404.242	449.39
404.62	440.58
404.999	419.79
405.377	457.53
405.755	450.98
406.133	471.77
406.511	464.31
406.889	475.16
407.267	474.25
407.645	474.03
408.023	485.55
408.401	493.01
408.779	493.91
409.156	509.73
409.534	487.36
409.912	510.18
410.29	513.57
410.667	523.07
411.045	536.85
411.422	540.69
411.8	553.8
412.178	549.96
412.555	553.35
412.933	563.06
413.31	579.34
413.687	577.3
414.065	578.66
414.442	586.79
414.819	596.28
415.197	615.04
415.574	599.67
415.951	612.33
416.328	616.62
416.705	611.42
417.082	621.14
417.46	658.88
417.837	647.58
418.214	691.2
418.591	667.47
418.967	696.62
419.344	691.2
419.721	680.35
420.098	698.43
420.475	687.58
420.852	734.13
421.228	736.17
421.605	739.1
421.982	758.09
422.358	762.38
422.735	781.36
423.111	787.92
423.488	798.54
423.864	782.72
424.241	813
424.617	836.05
424.994	829.5
425.37	831.98
425.746	828.37
426.123	849.84
426.499	872.43
426.875	869.72
427.251	902.04
427.627	870.63
428.003	928.7
428.379	915.82
428.756	925.31
429.132	928.93
429.507	968.93
429.883	994.47
430.259	970.96
430.635	975.93
431.011	1009.15
431.387	999.44
431.763	1025.2
432.138	1047.8
432.514	1057.51
432.89	1071.75
433.265	1084.63
433.641	1093.45
434.016	1088.02
434.392	1126.89
434.767	1155.14
435.143	1128.47
435.518	1196.72
435.894	1218.19
436.269	1240.11
436.644	1235.59
437.02	1251.63
437.395	1287.11
437.77	1247.79
438.145	1322.14
438.52	1318.98
438.895	1357.17
439.271	1323.72
439.646	1394.91
440.021	1411.63
440.395	1401.46
440.77	1405.08
441.145	1452.76
441.52	1464.74
441.895	1471.51
442.27	1476.26
442.645	1457.05
443.019	1544.73
443.394	1503.15
443.769	1550.16
444.143	1514.9
444.518	1563.94
444.892	1528.24
445.267	1544.96
445.641	1577.5
446.016	1559.42
446.39	1590.61
446.764	1612.08
447.139	1619.08
447.513	1635.58
447.887	1619.99
448.262	1664.05
448.636	1661.57
449.01	1681.23
449.384	1671.96
449.758	1670.15
450.132	1709.93
450.506	1746.08
450.88	1742.02
451.254	1770.04
451.628	1786.53
452.002	1798.06
452.376	1795.8
452.75	1831.73
453.123	1841.22
453.497	1898.17
453.871	1861.79
454.244	1899.75
454.618	1930.49
454.992	1919.86
455.365	1955.34
455.739	1992.63
456.112	1998.96
456.486	2018.85
456.859	2009.35
457.232	2059.97
457.606	2090.71
457.979	2092.29
458.352	2095.68
458.725	2118.96
459.099	2210.7
459.472	2190.37
459.845	2218.61
460.218	2234.21
460.591	2271.27
460.964	2279.4
461.337	2278.73
461.71	2284.6
462.083	2357.82
462.456	2355.11
462.829	2357.82
463.201	2415.67
463.574	2428.55
463.947	2456.35
464.32	2507.65
464.692	2535.89
465.065	2492.28
465.438	2570.02
465.81	2601.65
466.183	2613.18
466.555	2684.82
466.928	2695.44
467.3	2696.12
467.672	2699.51
468.045	2803.91
468.417	2802.78
468.789	2840.29
469.161	2836.45
469.534	2901.08
469.906	2938.6
470.278	2945.37
470.65	2988.99
471.022	3050.46
471.394	3087.07
471.766	3113.96
472.138	3106.05
472.51	3158.7
472.882	3244.12
473.253	3231.47
473.625	3312.6
473.997	3372.48
474.369	3374.29
474.74	3405.25
475.112	3412.71
475.484	3526.6
475.855	3549.2
476.227	3610.89
476.598	3664.68
476.97	3721.4
477.341	3763.21
477.713	3852.92
478.084	3869.64
478.455	3913.71
478.827	3973.6
479.198	4101.05
479.569	4052.24
479.94	4126.36
480.311	4172.23
480.682	4296.75
481.053	4328.16
481.424	4422.4
481.795	4449.52
482.166	4535.16
482.537	4561.83
482.908	4616.07
483.279	4658.1
483.65	4695.61
484.021	4806.57
484.391	4849.05
484.762	4866.68
485.133	4962.27
485.503	4971.76
485.874	5073.23
486.244	5102.83
486.615	5230.74
486.985	5218.54
487.356	5322.49
487.726	5395.48
488.097	5442.71
488.467	5465.99
488.837	5563.84
489.207	5638.19
489.578	5668.47
489.948	5722.93
490.318	5785.75
490.688	5788.24
491.058	5829.82
491.428	5968.35
491.798	6016.25
492.168	6102.35
492.538	6093.31
492.908	6169.24
493.278	6240.2
493.648	6209.47
494.017	6288.34
494.387	6303.25
494.757	6399.97
495.126	6399.3
495.496	6503.93
495.866	6464.83
496.235	6589.35
496.605	6570.14
496.974	6622.11
497.344	6656.01
497.713	6655.33
498.082	6757.93
498.452	6818.72
498.821	6767.87
499.19	6880.19
499.559	6848.77
499.928	6849
500.298	6930.13
500.667	6968.32
501.036	6947.98
501.405	7073.4
501.774	7052.16
502.143	7113.4
502.512	7137.35
502.88	7130.12
503.249	7156.79
503.618	7208.09
503.987	7244.92
504.356	7244.47
504.724	7336.22
505.093	7250.57
505.462	7296.9
505.83	7361.53
506.199	7395.88
506.567	7492.37
506.936	7414.64
507.304	7466.39
507.672	7511.13
508.041	7625.93
508.409	7509.32
508.777	7584.35
509.145	7646.04
509.514	7655.99
509.882	7697.34
510.25	7676.78
510.618	7725.36
510.986	7691.01
511.354	7775.76
511.722	7841.07
512.09	7850.33
512.458	7821.86
512.826	7832.93
513.193	7821.63
513.561	7941.18
513.929	7921.74
514.297	7939.59
514.664	7999.7
515.032	8001.96
515.4	8083.54
515.767	8052.13
516.135	8043.55
516.502	7991.34
516.869	8078.57
517.237	8079.7
517.604	8100.04
517.972	8103.88
518.339	8196.99
518.706	8254.16
519.073	8195.18
519.44	8259.81
519.808	8240.83
520.175	8235.63
520.542	8336.65
520.909	8337.1
521.276	8311.11
521.643	8366.93
522.009	8389.3
522.376	8454.61
522.743	8442.63
523.11	8495.51
523.477	8523.53
523.843	8505.68
524.21	8563.08
524.577	8584.77
524.943	8636.52
525.31	8587.49
525.676	8675.39
526.043	8660.7
526.409	8735.05
526.776	8789.06
527.142	8751.55
527.508	8743.87
527.874	8810.98
528.241	8772.11
528.607	8796.75
528.973	8828.38
529.339	8775.5
529.705	8860.47
530.071	8925.33
530.437	8925.33
530.803	8875.16
531.169	8945.44
531.535	8890.08
531.901	8899.12
532.267	8942.96
532.632	8967.82
532.998	8956.06
533.364	8948.61
533.73	8994.48
534.095	9064.54
534.461	9067.7
534.826	9017.53
535.192	9057.08
535.557	9097.08
535.923	9025.67
536.288	9033.8
536.653	9089.17
537.019	8998.55
537.384	9033.35
537.749	9052.56
538.114	9041.49
538.479	9026.57
538.845	9017.98
539.21	9009.4
539.575	9020.92
539.94	9010.53
540.305	9077.64
540.67	9022.28
541.034	9067.93
541.399	8921.71
541.764	9042.62
542.129	9007.36
542.494	9011.66
542.858	9069.28
543.223	9059.56
543.587	8977.98
543.952	8965.33
544.316	9064.99
544.681	8980.92
545.045	9053.46
545.41	9010.53
545.774	9043.97
546.138	9020.47
546.503	9023.63
546.867	9006.68
547.231	9057.98
547.595	9025.21
547.959	9005.78
548.324	8999.23
548.688	8947.7
549.052	8987.48
549.416	8924.65
549.779	8981.15
550.143	8963.07
550.507	9014.59
550.871	8954.48
551.235	8942.96
551.599	9004.42
551.962	8929.17
552.326	9004.65
552.689	8959.23
553.053	8965.78
553.417	8944.31
553.78	9070.41
554.143	8930.98
554.507	8985.67
554.87	8992.67
555.234	9136.62
555.597	8980.47
555.96	8987.93
556.323	9008.27
556.686	9049.62
557.05	9046.46
557.413	9064.31
557.776	9073.8
558.139	9129.39
558.502	9075.61
558.865	9100.01
559.228	9133.23
559.59	9116.51
559.953	9153.8
560.316	9223.63
560.679	9174.59
561.041	9204.42
561.404	9219.56
561.767	9261.37
562.129	9153.8
562.492	9277.86
562.854	9237.86
563.217	9318.77
563.579	9298.65
563.941	9321.25
564.304	9328.26
564.666	9405.54
565.028	9368.71
565.39	9380.69
565.753	9426.11
566.115	9445.54
566.477	9432.21
566.839	9483.28
567.201	9484.86
567.563	9498.42
567.925	9516.28
568.287	9537.97
568.648	9559.89
569.01	9597.63
569.372	9673.56
569.734	9590.85
570.095	9707
570.457	9762.6
570.819	9752.2
571.18	9680.34
571.542	9859.32
571.903	9745.65
572.265	9856.15
572.626	9824.29
572.987	9843.05
573.349	9845.31
573.71	9909.71
574.071	9970.5
574.432	9937.06
574.794	9984.74
575.155	10044.62
575.516	10004.62
575.877	10053.66
576.238	10038.07
576.599	10045.53
576.96	10062.7
577.32	10030.16
577.681	10114.9
578.042	10248.91
578.403	10176.14
578.763	10193.77
579.124	10220.44
579.485	10335.69
579.845	10341.79
580.206	10326.2
580.566	10300.66
580.927	10272.19
581.287	10367.78
581.648	10361
582.008	10448.23
582.368	10391.28
582.728	10431.05
583.089	10406.65
583.449	10421.34
583.809	10412.75
584.169	10535.23
584.529	10512.63
584.889	10589.24
585.249	10504.05
585.609	10460.21
585.969	10511.05
586.329	10604.16
586.688	10565.51
587.048	10546.3
587.408	10579.75
587.768	10624.72
588.127	10662.46
588.487	10692.06
588.846	10636.7
589.206	10674.66
589.565	10627.88
589.925	10735
590.284	10705.85
590.643	10751.95
591.003	10746.53
591.362	10764.38
591.721	10824.04
592.08	10832.62
592.44	10796.69
592.799	10805.96
593.158	10818.39
593.517	10802.12
593.876	10901.1
594.235	10821.33
594.593	10868.56
594.952	10914.66
595.311	10872.62
595.67	10919.18
596.029	10926.41
596.387	10958.27
596.746	10975.45
597.104	10993.3
597.463	10918.72
597.822	11035.56
598.18	10919.18
598.538	10951.04
598.897	11060.42
599.255	10947.42
599.613	11048.21
599.972	10987.65
600.33	11031.04
600.688	10963.02
601.046	11000.3
601.404	11092.28
601.762	11116.46
602.12	11106.97
602.478	11100.87
602.836	11082.34
603.194	11004.82
603.552	11137.02
603.91	11016.8
604.268	11116.46
604.625	11123.24
604.983	11200.3
605.341	11098.83
605.698	11139.28
606.056	11227.87
606.413	11090.7
606.771	11192.62
607.128	11256.12
607.485	11111.71
607.843	11189
608.2	11239.17
608.557	11194.2
608.914	11196.68
609.272	11266.06
609.629	11304.93
609.986	11307.87
610.343	11292.95
610.7	11327.53
611.057	11320.52
611.414	11423.12
611.771	11404.14
612.127	11407.75
612.484	11355.55
612.841	11351.71
613.198	11344.48
613.554	11389.45
613.911	11377.02
614.267	11443
614.624	11425.38
614.98	11429.67
615.337	11467.18
615.693	11482.33
616.05	11432.38
616.406	11503.79
616.762	11452.5
617.118	11445.49
617.475	11472.83
617.831	11482.78
618.187	11477.13
618.543	11523
618.899	11519.39
619.255	11515.77
619.611	11544.47
619.967	11572.27
620.323	11607.29
620.678	11469.67
621.034	11573.62
621.39	11499.05
621.746	11458.37
622.101	11574.53
622.457	11521.42
622.812	11496.56
623.168	11609.55
623.523	11538.37
623.879	11604.81
624.234	11527.52
624.589	11560.06
624.945	11649.1
625.3	11561.65
625.655	11521.19
626.01	11554.19
626.365	11559.16
626.72	11568.2
627.075	11495.21
627.43	11582.44
627.785	11539.72
628.14	11535.43
628.495	11544.92
628.85	11499.95
629.205	11512.83
629.559	11567.75
629.914	11518.48
630.269	11499.73
630.623	11396.68
630.978	11393.97
631.332	11407.52
631.687	11461.31
632.041	11425.6
632.396	11447.52
632.75	11376.57
633.104	11390.35
633.459	11333.63
633.813	11307.87
634.167	11349.22
634.521	11297.47
634.875	11337.47
635.229	11330.24
635.583	11287.98
635.937	11259.51
636.291	11275.32
636.645	11278.04
636.999	11232.84
637.352	11288.21
637.706	11242.78
638.06	11257.25
638.413	11168.89
638.767	11192.84
639.121	11175.44
639.474	11142
639.828	11103.13
640.181	11162.56
640.534	11110.58
640.888	11134.76
641.241	11065.61
641.594	11034.43
641.947	11100.87
642.301	11154.65
642.654	11102.9
643.007	11100.41
643.36	11102.22
643.713	10995.78
644.066	11032.85
644.419	10982.45
644.771	10917.37
645.124	10812.74
645.477	10839.18
645.83	10758.73
646.182	10718.5
646.535	10663.59
646.888	10705.85
647.24	10746.3
647.593	10717.37
647.945	10646.41
648.298	10640.99
648.65	10631.27
649.002	10555.57
649.355	10636.02
649.707	10689.58
650.059	10719.86
650.411	10869.23
650.763	10849.57
651.115	10986.52
651.467	10829.24
651.819	10957.82
652.171	10882.11
652.523	10836.24
652.875	10807.54
653.227	10759.63
653.578	10918.72
653.93	10885.96
654.282	10730.03
654.633	10791.27
654.985	10872.85
655.337	10920.08
655.688	10838.5
656.039	10931.83
656.391	10754.43
656.742	10825.17
657.094	10825.17
657.445	10888.44
657.796	10856.58
658.147	10839.18
658.498	10826.07
658.849	10826.98
659.2	10815.9
659.551	10816.35
659.902	10917.37
660.253	10792.85
660.604	10882.34
660.955	10727.09
661.306	10827.2
661.656	10862.91
662.007	10814.55
662.358	10867.2
662.708	10816.58
663.059	10817.71
663.409	10791.04
663.76	10806.86
664.11	10811.83
664.461	10842.57
664.811	10883.02
665.161	10844.83
665.511	10774.77
665.862	10812.51
666.212	10841.89
666.562	10857.48
666.912	10829.46
667.262	10812.74
667.612	10879.4
667.962	10881.66
668.312	10873.98
668.662	10858.16
669.011	10808.44
669.361	10839.63
669.711	10793.76
670.06	10747.66
670.41	10749.92
670.76	10761.89
671.109	10788.33
671.459	10792.85
671.808	10771.84
672.157	10755.11
672.507	10659.97
672.856	10733.42
673.205	10756.47
673.554	10671.5
673.904	10692.52
674.253	10824.26
674.602	10771.61
674.951	10616.59
675.3	10504.5
675.649	10674.89
675.998	10667.21
676.346	10657.94
676.695	10690.48
677.044	10622.23
677.393	10626.98
677.741	10659.97
678.09	10569.58
678.438	10603.48
678.787	10606.87
679.135	10573.87
679.484	10508.34
679.832	10537.94
680.181	10478.96
680.529	10521.45
680.877	10487.55
681.225	10433.99
681.573	10501.79
681.922	10365.97
682.27	10422.24
682.618	10419.3
682.966	10359.42
683.314	10390.38
683.661	10310.38
684.009	10321.9
684.357	10198.97
684.705	10273.54
685.053	10283.94
685.4	10232.41
685.748	10155.13
686.095	10175.24
686.443	10133.43
686.79	10077.84
687.138	10159.65
687.485	10114.9
687.832	10041.46
688.18	10079.42
688.527	10090.5
688.874	9971.63
689.221	9974.79
689.568	9923.5
689.915	9874.68
690.262	9942.7
690.609	9891.18
690.956	9845.53
691.303	9761.69
691.65	9678.08
691.997	9685.99
692.344	9662.03
692.69	9740.45
693.037	9700.68
693.383	9516.73
693.73	9670.17
694.077	9616.61
694.423	9527.57
694.769	9464.98
695.116	9475.15
695.462	9495.71
695.808	9409.39
696.155	9472.89
696.501	9360.57
696.847	9379.1
697.193	9274.25
697.539	9361.48
697.885	9217.07
698.231	9246.23
698.577	9184.76
698.923	9210.97
699.269	9178.88
699.614	9077.42
699.96	9088.49
700.306	9056.17
700.651	9012.56
700.997	8954.71
701.342	8948.38
701.688	8918.78
702.033	8915.61
702.379	8914.26
702.724	8897.99
703.069	8889.17
703.415	8774.15
703.76	8748.39
704.105	8749.74
704.45	8729.4
704.795	8645.11
705.14	8652.12
705.485	8589.97
705.83	8562.63
706.175	8630.42
706.52	8502.29
706.865	8484.89
707.209	8486.02
707.554	8495.29
707.899	8447.15
708.243	8354.95
708.588	8376.87
708.932	8313.37
709.277	8349.07
709.621	8368.96
709.966	8284.44
710.31	8314.95
710.654	8195.41
710.998	8255.29
711.342	8218.23
711.687	8186.82
712.031	8204.67
712.375	8124
712.719	8123.32
713.063	8083.32
713.407	8157.89
713.75	8119.25
714.094	8102.98
714.438	8111.57
714.782	8145.24
715.125	8065.69
715.469	8002.87
715.812	7951.57
716.156	8046.48
716.499	8006.71
716.843	7995.86
717.186	7958.58
717.53	7997.22
717.873	7972.59
718.216	7950.67
718.559	7924.68
718.902	7899.59
719.246	7920.38
719.589	7847.17
719.932	7783.21
720.275	7841.52
720.617	7831.57
720.96	7793.38
721.303	7746.38
721.646	7838.35
721.989	7762.42
722.331	7769.65
722.674	7733.5
723.016	7803.1
723.359	7759.26
723.701	7790.9
724.044	7714.06
724.386	7756.32
724.729	7744.8
725.071	7700.28
725.413	7710.9
725.755	7692.82
726.097	7722.65
726.439	7592.48
726.782	7677.68
727.124	7709.54
727.465	7631.8
727.807	7631.35
728.149	7600.17
728.491	7625.48
728.833	7640.84
729.175	7595.42
729.516	7628.19
729.858	7611.92
730.199	7661.86
730.541	7574.63
730.882	7541.19
731.224	7631.13
731.565	7561.98
731.906	7555.87
732.248	7567.85
732.589	7494.41
732.93	7532.82
733.271	7470.23
733.612	7559.94
733.953	7505.03
734.294	7538.25
734.635	7566.04
734.976	7538.02
735.317	7482.2
735.658	7500.06
735.999	7521.3
736.339	7503.67
736.68	7568.98
737.021	7540.73
737.361	7477.46
737.702	7547.06
738.042	7520.17
738.383	7559.49
738.723	7561.07
739.063	7505.48
739.404	7558.13
739.744	7549.32
740.084	7517.91
740.424	7629.32
740.764	7563.33
741.104	7552.49
741.444	7604.24
741.784	7550.45
742.124	7593.84
742.464	7684.46
742.804	7669.09
743.143	7585.48
743.483	7632.48
743.823	7650.79
744.162	7665.25
744.502	7700.73
744.841	7689.88
745.181	7749.77
745.52	7793.61
745.86	7805.36
746.199	7794.29
746.538	7851.46
746.877	7860.27
747.216	7851.69
747.556	7957.22
747.895	7985.69
748.234	7991.8
748.573	7985.69
748.911	8041.29
749.25	8141.62
749.589	8133.94
749.928	8188.63
750.267	8276.76
750.605	8328.28
750.944	8349.3
751.283	8453.48
751.621	8435.85
751.96	8541.39
752.298	8634.26
752.636	8678.78
752.975	8693.47
753.313	8746.35
753.651	8928.04
753.989	8914.26
754.327	9108.38
754.666	9129.84
755.004	9285.32
755.342	9339.78
755.679	9422.27
756.017	9505.88
756.355	9666.33
756.693	9760.11
757.031	9854.35
757.368	9925.3
757.706	10023.38
758.044	10130.04
758.381	10352.64
758.719	10374.56
759.056	10558.51
759.394	10618.62
759.731	10704.49
760.068	10827.2
760.405	10932.96
760.743	11105.84
761.08	11277.36
761.417	11313.52
761.754	11443.46
762.091	11544.02
762.428	11726.39
762.765	11771.58
