Data from hue_38_FLMS001491_00026.txt Node
Date: Tue Feb 07 17:31:17 GMT 2017
User: dcchb
Spectrometer: FLMS00149
Trigger mode: 0
Integration Time (sec): 2.000000E-2
Scans to average: 10
Electric dark correction enabled: true
Nonlinearity correction enabled: false
Boxcar width: 0
XAxis mode: Wavelengths
Number of Pixels in Spectrum: 2048
>>>>>Begin Spectral Data<<<<<
341.393	-23.94
341.776	-23.94
342.16	-23.94
342.543	-74.79
342.927	-66.42
343.31	-66.88
343.693	-65.52
344.077	-71.17
344.46	-64.62
344.843	-55.13
345.226	-38.4
345.61	-32.3
345.993	-5.64
346.376	-10.38
346.759	16.51
347.142	24.65
347.525	53.12
347.908	47.02
348.291	67.81
348.674	99.45
349.057	101.48
349.44	136.73
349.823	134.93
350.206	173.57
350.588	204.3
350.971	203.17
351.354	221.93
351.737	258.09
352.119	247.01
352.502	280.01
352.884	277.52
353.267	283.4
353.65	282.27
354.032	301.25
354.414	322.49
354.797	314.58
355.179	333.56
355.562	334.92
355.944	332.89
356.326	324.3
356.709	320.23
357.091	349.16
357.473	343.73
357.855	348.25
358.238	336.95
358.62	360
359.002	340.12
359.384	340.8
359.766	342.6
360.148	335.37
360.53	345.32
360.912	348.71
361.294	348.48
361.676	341.93
362.057	342.6
362.439	335.15
362.821	327.92
363.203	333.79
363.584	315.26
363.966	328.37
364.348	325.66
364.729	325.2
365.111	336.95
365.493	329.5
365.874	310.51
366.256	315.49
366.637	331.76
367.019	313.23
367.4	308.71
367.781	311.19
368.163	315.71
368.544	304.86
368.925	311.42
369.306	302.15
369.688	339.89
370.069	322.49
370.45	317.07
370.831	341.93
371.212	299.22
371.593	307.58
371.974	316.84
372.355	324.53
372.736	315.94
373.117	327.24
373.498	320.91
373.879	320.23
374.26	317.52
374.641	314.36
375.021	302.38
375.402	332.66
375.783	319.1
376.163	339.67
376.544	321.14
376.925	329.72
377.305	330.17
377.686	342.6
378.066	323.4
378.447	331.53
378.827	359.33
379.208	325.2
379.588	324.3
379.968	323.62
380.349	359.55
380.729	358.42
381.109	327.01
381.489	328.14
381.87	341.25
382.25	361.81
382.63	353.23
383.01	345.09
383.39	350.97
383.77	355.03
384.15	354.13
384.53	353.68
384.91	356.84
385.29	348.25
385.67	356.61
386.049	347.35
386.429	363.85
386.809	364.3
387.189	365.2
387.568	363.85
387.948	356.61
388.328	365.65
388.707	377.41
389.087	378.54
389.466	374.92
389.846	384.86
390.225	379.67
390.605	396.84
390.984	363.62
391.363	377.18
391.743	361.13
392.122	376.95
392.501	373.79
392.881	402.72
393.26	363.39
393.639	389.16
394.018	377.63
394.397	384.64
394.776	394.81
395.155	393.22
395.534	359.55
395.913	382.83
396.292	399.1
396.671	407.24
397.05	404.07
397.429	400.23
397.808	384.86
398.186	415.14
398.565	410.62
398.944	396.61
399.323	376.5
399.701	397.07
400.08	390.96
400.458	420.12
400.837	423.28
401.215	396.39
401.594	401.81
401.972	390.06
402.351	424.18
402.729	411.75
403.107	411.98
403.486	425.09
403.864	404.3
404.242	407.01
404.62	434.35
404.999	442.26
405.377	428.93
405.755	434.13
406.133	431.87
406.511	446.78
406.889	448.36
407.267	442.94
407.645	461.24
408.023	442.04
408.401	449.49
408.779	442.26
409.156	468.25
409.534	455.14
409.912	477.06
410.29	464.41
410.667	482.04
411.045	461.47
411.422	454.01
411.8	484.07
412.178	480.68
412.555	480
412.933	509.61
413.31	473.67
413.687	487.46
414.065	494.24
414.442	499.89
414.819	503.28
415.197	495.14
415.574	507.8
415.951	504.86
416.328	500.79
416.705	523.16
417.082	507.12
417.46	531.98
417.837	527.68
418.214	543.73
418.591	518.19
418.967	527.23
419.344	530.85
419.721	526.1
420.098	543.05
420.475	547.12
420.852	540.34
421.228	550.28
421.605	561.58
421.982	559.32
422.358	569.04
422.735	553.22
423.111	554.58
423.488	571.3
423.864	561.58
424.241	570.17
424.617	579.21
424.994	571.3
425.37	597.06
425.746	554.58
426.123	594.8
426.499	602.03
426.875	618.98
427.251	608.36
427.627	597.29
428.003	605.87
428.379	627.34
428.756	626.89
429.132	612.65
429.507	630.51
429.883	621.92
430.259	654.46
430.635	660.11
431.011	652.43
431.387	653.33
431.763	681.58
432.138	686.32
432.514	676.38
432.89	680.9
433.265	682.26
433.641	672.31
434.016	699.43
434.392	696.04
434.767	715.48
435.143	707.57
435.518	715.48
435.894	714.8
436.269	714.12
436.644	704.63
437.02	752.76
437.395	747.57
437.77	762.03
438.145	778.3
438.52	754.57
438.895	762.25
439.271	782.59
439.646	791.63
440.021	797.96
440.395	773.33
440.77	773.33
441.145	803.83
441.52	806.32
441.895	810.84
442.27	797.73
442.645	807.45
443.019	807
443.394	811.74
443.769	817.62
444.143	825.98
444.518	837.73
444.892	824.4
445.267	830.27
445.641	838.86
446.016	846.55
446.39	852.2
446.764	865.3
447.139	859.43
447.513	859.43
447.887	866.43
448.262	869.6
448.636	875.25
449.01	895.13
449.384	872.31
449.758	922.48
450.132	897.62
450.506	930.84
450.88	925.41
451.254	921.8
451.628	934.23
452.002	938.52
452.376	946.43
452.75	959.31
453.123	946.88
453.497	975.58
453.871	990.5
454.244	964.96
454.618	997.73
454.992	1020.33
455.365	1004.06
455.739	1035.47
456.112	1054.68
456.486	1055.58
456.859	1040.89
457.232	1084.05
457.606	1075.69
457.979	1082.25
458.352	1099.87
458.725	1097.61
459.099	1104.39
459.472	1133.32
459.845	1151.85
460.218	1170.15
460.591	1171.28
460.964	1173.09
461.337	1197.5
461.71	1210.15
462.083	1206.76
462.456	1241.56
462.829	1252.86
463.201	1265.97
463.574	1250.38
463.947	1250.38
464.32	1303.03
464.692	1341
465.065	1359.07
465.438	1327.89
465.81	1348.45
466.183	1379.19
466.555	1403.82
466.928	1421.22
467.3	1436.36
467.672	1456.25
468.045	1493.76
468.417	1495.34
468.789	1507.77
469.161	1536.7
469.534	1544.15
469.906	1594.55
470.278	1586.64
470.65	1616.02
471.022	1650.37
471.394	1696.24
471.766	1738.95
472.138	1750.7
472.51	1783.92
472.882	1821.21
473.253	1848.78
473.625	1873.86
473.997	1901.66
474.369	1925.16
474.74	1952.51
475.112	1997.25
475.484	2058.94
475.855	2097.13
476.227	2168.77
476.598	2153.4
476.97	2241.31
477.341	2313.17
477.713	2321.76
478.084	2335.77
478.455	2452.15
478.827	2478.59
479.198	2527.63
479.569	2621.19
479.94	2695.54
480.311	2744.8
480.682	2814.4
481.053	2866.38
481.424	2997.9
481.795	3021.86
482.166	3049.43
482.537	3138.01
482.908	3248.29
483.279	3255.75
483.65	3396.99
484.021	3489.64
484.391	3567.15
484.762	3624.33
485.133	3635.62
485.503	3787.26
485.874	3904.77
486.244	3961.94
486.615	4109.96
486.985	4174.82
487.356	4282.61
487.726	4350.18
488.097	4456.39
488.467	4527.58
488.837	4667.24
489.207	4721.7
489.578	4857.74
489.948	4997.4
490.318	5090.95
490.688	5150.16
491.058	5237.84
491.428	5428.35
491.798	5515.35
492.168	5607.1
492.538	5684.38
492.908	5779.3
493.278	5940.65
493.648	5928.45
494.017	6063.81
494.387	6216.35
494.757	6268.32
495.126	6382.45
495.496	6475.55
495.866	6574.08
496.235	6684.58
496.605	6755.09
496.974	6884.13
497.344	6942.2
497.713	7071.24
498.082	7164.8
498.452	7250.9
498.821	7326.38
499.19	7364.34
499.559	7475.3
499.928	7553.26
500.298	7630.1
500.667	7727.95
501.036	7809.98
501.405	7912.57
501.774	7991.67
502.143	8071.44
502.512	8172.91
502.88	8248.84
503.249	8252.45
503.618	8408.15
503.987	8405.89
504.356	8500.81
504.724	8608.83
505.093	8726.56
505.462	8731.54
505.83	8856.05
506.199	8927.24
506.567	9083.17
506.936	9099.66
507.304	9168.81
507.672	9273.67
508.041	9362.48
508.409	9413.1
508.777	9477.28
509.145	9564.96
509.514	9620.55
509.882	9730.15
510.25	9702.58
510.618	9821.68
510.986	9898.51
511.354	9975.12
511.722	10023.03
512.09	10150.03
512.458	10104.83
512.826	10256.02
513.193	10337.14
513.561	10406.29
513.929	10449.91
514.297	10563.8
514.664	10632.95
515.032	10617.59
515.4	10771.03
515.767	10809.45
516.135	10918.37
516.502	10820.75
516.869	10972.61
517.237	11133.28
517.604	11058.25
517.972	11167.86
518.339	11325.59
518.706	11380.05
519.073	11387.06
519.44	11401.75
519.808	11559.71
520.175	11548.41
520.542	11688.29
520.909	11700.27
521.276	11782.3
521.643	11952.69
522.009	11970.77
522.376	12002.64
522.743	12111.56
523.11	12264.55
523.477	12329.86
523.843	12409.41
524.21	12494.83
524.577	12510.42
524.943	12585.45
525.31	12752
525.676	12831.54
526.043	12908.15
526.409	12951.31
526.776	13097.07
527.142	13124.64
527.508	13150.63
527.874	13241.02
528.241	13310.4
528.607	13361.92
528.973	13516.04
529.339	13473.33
529.705	13685.98
530.071	13802.36
530.437	13841.23
530.803	13898.63
531.169	14023.15
531.535	13986.54
531.901	14079.19
532.267	14101.11
532.632	14199.19
532.998	14216.82
533.364	14380.2
533.73	14376.81
534.095	14565.05
534.461	14557.82
534.826	14619.06
535.192	14679.85
535.557	14832.17
535.923	14804.37
536.288	14892.73
536.653	14969.79
537.019	14827.42
537.384	15023.12
537.749	15108.32
538.114	15188.09
538.479	15224.47
538.845	15268.54
539.21	15275.77
539.575	15333.62
539.94	15377.01
540.305	15397.8
540.67	15527.52
541.034	15536.55
541.399	15617.91
541.764	15716.21
542.129	15824.46
542.494	15808.41
542.858	15925.02
543.223	15899.26
543.587	16031.68
543.952	15986.94
544.316	16085.47
544.681	16108.29
545.045	16227.84
545.41	16252.02
545.774	16257.89
546.138	16299.7
546.503	16362.3
546.867	16401.62
547.231	16510.77
547.595	16670.99
547.959	16602.97
548.324	16767.93
548.688	16785.11
549.052	16758.9
549.416	16932
549.779	16857.2
550.143	16968.61
550.507	17115.72
550.871	17059.9
551.235	17168.15
551.599	17201.82
551.962	17379.9
552.326	17357.3
552.689	17524.75
553.053	17385.32
553.417	17408.6
553.78	17613.11
554.143	17671.87
554.507	17702.15
554.87	17801.58
555.234	17911.86
555.597	17885.65
555.96	17966.77
556.323	17892.88
556.686	18016.49
557.05	18174
557.413	18103.49
557.776	18302.13
558.139	18283.38
558.502	18336.03
558.865	18498.28
559.228	18512.3
559.59	18585.06
559.953	18620.99
560.316	18970.59
560.679	18784.38
561.041	18893.08
561.404	19032.51
561.767	19131.49
562.129	19000.19
562.492	19273.41
562.854	19221.2
563.217	19242.45
563.579	19279.51
563.941	19417.58
564.304	19496
564.666	19579.39
565.028	19604.7
565.39	19627.97
565.753	19825.48
566.115	19865.25
566.477	19910.23
566.839	20049.2
567.201	20067.06
567.563	20139.15
567.925	20285.36
568.287	20347.95
568.648	20382.76
569.01	20416.65
569.372	20655.29
569.734	20559.47
570.095	20770.09
570.457	20822.52
570.819	20856.64
571.18	20854.16
571.542	21045.11
571.903	21171.21
572.265	21184.09
572.626	21251.21
572.987	21302.05
573.349	21474.25
573.71	21595.15
574.071	21648.48
574.432	21812.55
574.794	22012.54
575.155	21913.79
575.516	21918.31
575.877	22078.76
576.238	22175.48
576.599	22300.9
576.96	22470.16
577.32	22417.05
577.681	22679.64
578.042	22754.67
578.403	22893.88
578.763	22998.05
579.124	23189.91
579.485	23242.57
579.845	23384.26
580.206	23556
580.566	23636.91
580.927	23791.7
581.287	24047.74
581.648	24045.48
582.008	24333.16
582.368	24489.54
582.728	24576.77
583.089	24771.79
583.449	24882.07
583.809	25103.76
584.169	25324.55
584.529	25449.97
584.889	25883.63
585.249	25783.52
585.609	25926.11
585.969	26315.93
586.329	26323.39
586.688	26671.63
587.048	26836.37
587.408	26922.92
587.768	27010.6
588.127	27271.16
588.487	27448.56
588.846	27923.57
589.206	27934.19
589.565	28180.52
589.925	28515.42
590.284	28637.68
590.643	28836.54
591.003	29099.59
591.362	29298.9
591.721	29516.53
592.08	29656.18
592.44	30001.71
592.799	30087.58
593.158	30275.6
593.517	30480.34
593.876	30770.05
594.235	30849.6
594.593	31018.18
594.952	31424.5
595.311	31412.75
595.67	31752.85
596.029	32113.52
596.387	32012.73
596.746	32428.99
597.104	32445.26
597.463	32783.11
597.822	33015.42
598.18	33124.34
598.538	33171.35
598.897	33644.55
599.255	33554.39
599.613	34186.01
599.972	34073.47
600.33	34269.4
600.688	34361.82
601.046	34682.72
601.404	34814.01
601.762	34947.34
602.12	35280.89
602.478	35427.33
602.836	35632.98
603.194	35521.79
603.552	35797.72
603.91	35846.08
604.268	36132.17
604.625	36187.09
604.983	36573.97
605.341	36383.01
605.698	36664.13
606.056	36968.76
606.413	36926.05
606.771	37137.57
607.128	37393.61
607.485	37342.76
607.843	37531.68
608.2	37637.44
608.557	38028.39
608.914	38033.82
609.272	38171.67
609.629	38237.88
609.986	38498.66
610.343	38504.31
610.7	38896.62
611.057	38837.41
611.414	38917.18
611.771	39099.78
612.127	39348.36
612.484	39381.8
612.841	39561.23
613.198	39560.56
613.554	39599.2
613.911	39920.55
614.267	39948.12
614.624	39894.33
614.98	40165.29
615.337	40366.41
615.693	40382.23
616.05	40292.97
616.406	40658.83
616.762	40631.71
617.118	40699.06
617.475	40911.71
617.831	41065.38
618.187	41059.73
618.543	41099.27
618.899	41356.44
619.255	41481.18
619.611	41326.61
619.967	41609.09
620.323	41747.17
620.678	41697
621.034	41603.67
621.39	41753.94
621.746	41692.48
622.101	42183.09
622.457	41906.71
622.812	42052.02
623.168	42071.45
623.523	42088.17
623.879	42272.12
624.234	42110.09
624.589	42340.6
624.945	42424.89
625.3	42428.96
625.655	42396.87
626.01	42501.04
626.365	42516.86
626.72	42419.69
627.075	42659.46
627.43	42603.64
627.785	42403.42
628.14	42604.77
628.495	42636.41
628.85	42647.93
629.205	42570.65
629.559	42743.75
629.914	42726.57
630.269	42674.6
630.623	42694.71
630.978	42573.36
631.332	42939.22
631.687	42857.19
632.041	42801.37
632.396	42729.96
632.75	42693.13
633.104	42782.84
633.459	42682.96
633.813	42692.9
634.167	42578.56
634.521	42644.09
634.875	42874.14
635.229	42779.91
635.583	42648.38
635.937	42665.11
636.291	42548.27
636.645	42745.1
636.999	42549.63
637.352	42739.91
637.706	42416.98
638.06	42736.52
638.413	42489.97
638.767	42384.44
639.121	42668.04
639.474	42432.12
639.828	42393.25
640.181	42497.43
640.534	42443.64
640.888	42318.45
641.241	42346.47
641.594	42360.26
641.947	42439.58
642.301	42311.22
642.654	42347.38
643.007	42521.16
643.36	42296.98
643.713	42266.7
644.066	42404.1
644.419	42082.07
644.771	41854.96
645.124	41538.36
645.477	41556.44
645.83	41206.84
646.182	41153.28
646.535	41069.22
646.888	41227.63
647.24	40934.98
647.593	41254.3
647.945	41018.82
648.298	40733.18
648.65	40784.25
649.002	40741.54
649.355	40999.84
649.707	40836.45
650.059	41044.81
650.411	41511.47
650.763	41433.73
651.115	41812.02
651.467	41840.5
651.819	41721.4
652.171	41733.38
652.523	41570.9
652.875	41435.99
653.227	41475.08
653.578	41919.82
653.93	41745.81
654.282	41509.43
654.633	41425.37
654.985	41609.32
655.337	41478.47
655.688	41572.71
656.039	41775.86
656.391	41312.37
656.742	41382.2
657.094	41468.3
657.445	41505.14
657.796	41472.37
658.147	41351.7
658.498	41356.44
658.849	41393.5
659.2	41379.72
659.551	41310.79
659.902	41310.11
660.253	41285.93
660.604	41463.56
660.955	41182.89
661.306	41331.81
661.656	41134.07
662.007	41251.81
662.358	41305.59
662.708	41273.96
663.059	41259.72
663.409	41083.68
663.76	41468.53
664.11	41216.33
664.461	41394.86
664.811	41351.02
665.161	41335.2
665.511	41275.09
665.862	41201.64
666.212	41377.91
666.562	41293.62
666.912	41169.55
667.262	41179.95
667.612	41254.3
667.962	41204.13
668.312	41047.52
668.662	41318.02
669.011	41301.75
669.361	41220.17
669.711	40986.73
670.06	41125.71
670.41	41082.1
670.76	41036.9
671.109	41027.18
671.459	41045.94
671.808	41126.16
672.157	41070.8
672.507	40758.26
672.856	40883.01
673.205	40899.28
673.554	41084.81
673.904	40813.63
674.253	41203.45
674.602	41019.05
674.951	40492.96
675.3	40196.02
675.649	40915.32
675.998	40857.7
676.346	40764.59
676.695	40904.7
677.044	40523.24
677.393	40707.19
677.741	40742.22
678.09	40640.08
678.438	40572.05
678.787	40546.74
679.135	40587.42
679.484	40306.98
679.832	40493.64
680.181	40258.62
680.529	40490.7
680.877	40298.39
681.225	40166.42
681.573	40479.18
681.922	40127.77
682.27	40101.33
682.618	40207.54
682.966	39997.15
683.314	40021.79
683.661	40022.92
684.009	39673.1
684.357	39761.45
684.705	39570.05
685.053	39654.11
685.4	39654.34
685.748	39486.66
686.095	39489.6
686.443	39193.79
686.79	39248.47
687.138	39388.58
687.485	39406.21
687.832	39210.51
688.18	39155.82
688.527	39066.11
688.874	38972.1
689.221	38961.48
689.568	38830.41
689.915	38770.07
690.262	38699.56
690.609	38729.39
690.956	38641.26
691.303	38607.13
691.65	38414.82
691.997	38285.56
692.344	38243.08
692.69	38193.36
693.037	38198.78
693.383	37766.48
693.73	37934.38
694.077	37665.01
694.423	37693.94
694.769	37686.03
695.116	37566.48
695.462	37476.09
695.808	37486.94
696.155	37445.58
696.501	37203.33
696.847	37296.21
697.193	36925.82
697.539	37140.28
697.885	36958.36
698.231	36674.98
698.577	36720.86
698.923	36608.54
699.269	36535.55
699.614	36330.81
699.96	36125.84
700.306	36249
700.651	36148.67
700.997	35964.04
701.342	36017.6
701.688	35892.4
702.033	35825.29
702.379	35805.4
702.724	35711.17
703.069	35696.7
703.415	35380.55
703.76	35505.3
704.105	35465.52
704.45	35317.5
704.795	35133.55
705.14	35061.92
705.485	35020.79
705.83	34892.66
706.175	34792.77
706.52	34970.85
706.865	34708.48
707.209	34662.15
707.554	34569.5
707.899	34644.07
708.243	34441.59
708.588	34400.01
708.932	34277.98
709.277	34102.62
709.621	34075.5
709.966	33892.68
710.31	33965.22
710.654	33761.61
710.998	33901.04
711.342	33800.48
711.687	33660.82
712.031	33471.45
712.375	33431.23
712.719	33432.36
713.063	33443.43
713.407	33456.76
713.75	33284.79
714.094	33140.61
714.438	33163.21
714.782	33247.5
715.125	32914.4
715.469	33163.66
715.812	32894.97
716.156	32714.18
716.499	32781.07
716.843	32767.97
717.186	32636.9
717.53	32760.96
717.873	32629.21
718.216	32551.25
718.559	32550.34
718.902	32285.94
719.246	32315.55
719.589	32215.44
719.932	32119.85
720.275	32127.3
720.617	32032.62
720.96	31894.54
721.303	32004.37
721.646	31977.93
721.989	31640.99
722.331	32030.13
722.674	31714.66
723.016	31809.8
723.359	31616.81
723.701	31718.95
724.044	31641.89
724.386	31308.12
724.729	31535
725.071	31332.3
725.413	31403.48
725.755	31336.37
726.097	31285.97
726.439	31157.84
726.782	31184.96
727.124	31294.11
727.465	31044.4
727.807	31108.12
728.149	31033.1
728.491	30884.85
728.833	31014.34
729.175	30890.5
729.516	30779.32
729.858	30756.27
730.199	30745.65
730.541	30580.23
730.882	30639.89
731.224	30672.43
731.565	30388.59
731.906	30434.02
732.248	30401.47
732.589	30269.5
732.93	30226.56
733.271	30321.25
733.612	30359.22
733.953	30284.64
734.294	30213.46
734.635	30148.37
734.976	30139.79
735.317	30006
735.658	30054.14
735.999	29963.97
736.339	29985.44
736.68	29997.19
737.021	29848.49
737.361	29684.21
737.702	29859.34
738.042	29729.63
738.383	29800.59
738.723	29842.85
739.063	29623.19
739.404	29701.15
739.744	29652.34
740.084	29370.77
740.424	29419.81
740.764	29378.9
741.104	29527.15
741.444	29272.69
741.784	29274.05
742.124	29309.3
742.464	29284.89
742.804	29187.04
743.143	29172.35
743.483	29072.7
743.823	28976.2
744.162	29042.87
744.502	29036.76
744.841	28862.76
745.181	29013.94
745.52	28935.3
745.86	28909.31
746.199	28839.26
746.538	28805.81
746.877	28846.71
747.216	28810.33
747.556	28681.52
747.895	28681.97
748.234	28534.41
748.573	28617.11
748.911	28502.09
749.25	28495.08
749.589	28438.14
749.928	28365.82
750.267	28273.85
750.605	28283.11
750.944	28028.88
751.283	28073.63
751.621	28158.14
751.96	28011.71
752.298	27854.2
752.636	28098.71
752.975	27858.04
753.313	27781.43
753.651	27886.51
753.989	27712.96
754.327	27647.87
754.666	27500.76
755.004	27551.83
755.342	27597.71
755.679	27587.31
756.017	27340.54
756.355	27498.95
756.693	27300.54
757.031	27307.77
757.368	27228.45
