Data from hue_22_FLMS001491_00049.txt Node
Date: Tue Feb 07 17:10:11 GMT 2017
User: dcchb
Spectrometer: FLMS00149
Trigger mode: 0
Integration Time (sec): 2.000000E-2
Scans to average: 10
Electric dark correction enabled: true
Nonlinearity correction enabled: false
Boxcar width: 0
XAxis mode: Wavelengths
Number of Pixels in Spectrum: 2048
>>>>>Begin Spectral Data<<<<<
341.393	-6.14
341.776	-6.14
342.16	-6.14
342.543	-67.84
342.927	-48.18
343.31	-87.27
343.693	-68.06
344.077	-81.4
344.46	-50.44
344.843	-41.62
345.226	-51.11
345.61	-33.94
345.993	-26.71
346.376	8.09
346.759	31.6
347.142	31.14
347.525	36.11
347.908	74.98
348.291	60.3
348.674	98.26
349.057	100.07
349.44	121.54
349.823	127.19
350.206	165.15
350.588	182.1
350.971	224.81
351.354	228.65
351.737	238.14
352.119	261.87
352.502	270.91
352.884	286.28
353.267	293.06
353.65	301.42
354.032	289.89
354.414	312.72
354.797	330.34
355.179	343
355.562	333.06
355.944	321.76
356.326	338.93
356.709	337.8
357.091	315.2
357.473	331.47
357.855	340.51
358.238	341.19
358.62	350.23
359.002	329.89
359.384	346.62
359.766	341.42
360.148	352.04
360.53	342.55
360.912	334.64
361.294	347.75
361.676	328.08
362.057	344.13
362.439	348.88
362.821	314.3
363.203	318.14
363.584	317.92
363.966	333.06
364.348	332.15
364.729	312.27
365.111	328.76
365.493	320.18
365.874	339.16
366.256	329.44
366.637	316.56
367.019	310.23
367.4	327.86
367.781	313.17
368.163	326.05
368.544	320.85
368.925	326.73
369.306	324.92
369.688	335.99
370.069	314.98
370.45	300.97
370.831	316.56
371.212	321.53
371.593	334.64
371.974	290.8
372.355	306.16
372.736	339.84
373.117	324.24
373.498	313.4
373.879	322.44
374.26	308.42
374.641	302.55
375.021	309.1
375.402	330.8
375.783	330.57
376.163	330.12
376.544	345.26
376.925	330.57
377.305	307.75
377.686	338.71
378.066	341.42
378.447	337.58
378.827	343.9
379.208	316.79
379.588	317.01
379.968	336.9
380.349	339.38
380.729	324.02
381.109	341.42
381.489	347.52
381.87	338.48
382.25	336.45
382.63	323.56
383.01	348.88
383.39	352.26
383.77	327.41
384.15	331.7
384.53	355.43
384.91	349.78
385.29	365.6
385.67	358.14
386.049	338.25
386.429	341.64
386.809	354.75
387.189	351.81
387.568	355.88
387.948	389.78
388.328	354.07
388.707	356.56
389.087	371.7
389.466	348.88
389.846	378.7
390.225	389.55
390.605	368.31
390.984	357.01
391.363	371.02
391.743	375.54
392.122	393.85
392.501	377.8
392.881	368.76
393.26	371.25
393.639	374.19
394.018	364.24
394.397	389.33
394.776	373.73
395.155	378.03
395.534	370.57
395.913	381.19
396.292	394.3
396.671	385.48
397.05	392.94
397.429	386.39
397.808	379.83
398.186	380.96
398.565	389.78
398.944	376.44
399.323	386.39
399.701	387.74
400.08	390.46
400.458	375.31
400.837	384.58
401.215	386.39
401.594	385.94
401.972	403.11
402.351	404.47
402.729	418.03
403.107	415.31
403.486	375.31
403.864	400.63
404.242	413.73
404.62	413.05
404.999	417.57
405.377	418.93
405.755	441.3
406.133	415.09
406.511	430.45
406.889	428.65
407.267	420.06
407.645	413.96
408.023	440.4
408.401	451.02
408.779	452.6
409.156	449.66
409.534	446.5
409.912	456.22
410.29	432.04
410.667	451.92
411.045	446.95
411.422	458.7
411.8	452.15
412.178	441.3
412.555	464.8
412.933	467.06
413.31	470.68
413.687	476.56
414.065	461.64
414.442	460.28
414.819	471.13
415.197	466.39
415.574	475.88
415.951	500.96
416.328	482.2
416.705	501.87
417.082	497.8
417.46	486.95
417.837	490.79
418.214	495.31
418.591	496.22
418.967	507.97
419.344	502.77
419.721	514.75
420.098	490.11
420.475	522.2
420.852	540.28
421.228	507.06
421.605	495.31
421.982	529.21
422.358	530.11
422.735	556.33
423.111	520.17
423.488	527.18
423.864	537.12
424.241	542.77
424.617	555.42
424.994	557.91
425.37	550.45
425.746	561.07
426.123	552.49
426.499	552.94
426.875	588.64
427.251	553.62
427.627	579.15
428.003	588.42
428.379	579.6
428.756	603.78
429.132	585.93
429.507	596.78
429.883	609.43
430.259	596.78
430.635	593.39
431.011	597
431.387	634.07
431.763	634.29
432.138	627.51
432.514	616.44
432.89	646.49
433.265	630.45
433.641	654.86
434.016	655.99
434.392	679.71
434.767	661.86
435.143	645.36
435.518	673.16
435.894	691.01
436.269	685.36
436.644	689.43
437.02	697.11
437.395	684.91
437.77	710
438.145	705.25
438.52	712.26
438.895	731.92
439.271	712.48
439.646	726.04
440.021	746.38
440.395	729.66
440.77	731.69
441.145	738.92
441.52	757.68
441.895	765.14
442.27	760.62
442.645	780.5
443.019	771.24
443.394	752.71
443.769	755.87
444.143	781.18
444.518	780.73
444.892	755.64
445.267	803.78
445.641	780.05
446.016	804.68
446.39	801.29
446.764	804.68
447.139	782.99
447.513	819.37
447.887	814.17
448.262	804
448.636	813.04
449.01	824.57
449.384	835.87
449.758	826.6
450.132	826.6
450.506	832.48
450.88	842.2
451.254	854.85
451.628	881.97
452.002	876.09
452.376	870.44
452.75	855.53
453.123	888.75
453.497	922.87
453.871	900.5
454.244	928.07
454.618	912.25
454.992	907.73
455.365	936.88
455.739	936.43
456.112	955.41
456.486	953.83
456.859	977.56
457.232	978.91
457.606	964.68
457.979	1001.06
458.352	1025.24
458.725	1013.04
459.099	1011.23
459.472	1051.46
459.845	1062.3
460.218	1030.44
460.591	1075.41
460.964	1093.94
461.337	1081.51
461.71	1108.63
462.083	1114.28
462.456	1139.36
462.829	1137.78
463.201	1136.65
463.574	1144.11
463.947	1168.51
464.32	1176.2
464.692	1207.84
465.065	1194.5
465.438	1212.13
465.81	1230.66
466.183	1253.71
466.555	1253.03
466.928	1268.62
467.3	1267.04
467.672	1296.19
468.045	1303.43
468.417	1342.52
468.789	1330.54
469.161	1345.01
469.534	1359.92
469.906	1411.22
470.278	1413.71
470.65	1410.54
471.022	1451.44
471.394	1457.77
471.766	1476.75
472.138	1514.49
472.51	1521.95
472.882	1559.69
473.253	1577.09
473.625	1600.14
473.997	1636.3
474.369	1627.49
474.74	1653.93
475.112	1706.58
475.484	1723.98
475.855	1737.54
476.227	1770.31
476.598	1798.78
476.97	1827.71
477.341	1855.73
477.713	1911.55
478.084	1869.06
478.455	1975.95
478.827	1977.76
479.198	2038.77
479.569	2044.88
479.94	2117.19
480.311	2127.13
480.682	2149.51
481.053	2237.86
481.424	2286.23
481.795	2300.46
482.166	2334.59
482.537	2345.43
482.908	2397.18
483.279	2420.91
483.65	2485.09
484.021	2543.62
484.391	2548.59
484.762	2607.12
485.133	2620.68
485.503	2704.97
485.874	2768.47
486.244	2758.98
486.615	2817.51
486.985	2876.49
487.356	2914.91
487.726	2946.09
488.097	3027.45
488.467	3022.93
488.837	3111.06
489.207	3159.65
489.578	3160.55
489.948	3194.45
490.318	3268.12
490.688	3333.2
491.058	3367.55
491.428	3406.87
491.798	3443.93
492.168	3529.36
492.538	3521.45
492.908	3553.31
493.278	3648.9
493.648	3657.26
494.017	3697.04
494.387	3753.53
494.757	3764.38
495.126	3803.25
495.496	3829.01
495.866	3875.79
496.235	3917.59
496.605	3950.14
496.974	3974.09
497.344	4045.73
497.713	4081.88
498.082	4089.57
498.452	4123.24
498.821	4149
499.19	4179.73
499.559	4239.39
499.928	4216.8
500.298	4276.46
500.667	4281.65
501.036	4311.71
501.405	4364.36
501.774	4373.85
502.143	4400.75
502.512	4396.9
502.88	4487.98
503.249	4451.82
503.618	4482.55
503.987	4523.45
504.356	4548.54
504.724	4612.27
505.093	4562.78
505.462	4607.52
505.83	4650
506.199	4671.25
506.567	4753.05
506.936	4729.1
507.304	4771.13
507.672	4809.77
508.041	4817.01
508.409	4812.49
508.777	4884.57
509.145	4881.64
509.514	4954.63
509.882	4988.75
510.25	4933.16
510.618	5002.31
510.986	5040.5
511.354	5015.87
511.722	5043.67
512.09	5116.89
512.458	5061.97
512.826	5132.93
513.193	5158.69
513.561	5197.34
513.929	5199.59
514.297	5264.45
514.664	5245.92
515.032	5252.25
515.4	5303.77
515.767	5295.41
516.135	5317.56
516.502	5324.79
516.869	5405.24
517.237	5392.36
517.604	5360.95
517.972	5474.39
518.339	5485.01
518.706	5525.91
519.073	5494.73
519.44	5538.8
519.808	5564.78
520.175	5579.92
520.542	5639.13
520.909	5627.15
521.276	5606.82
521.643	5652.92
522.009	5727.94
522.376	5725.46
522.743	5752.35
523.11	5860.82
523.477	5835.74
523.843	5901.05
524.21	5953.47
524.577	5960.7
524.943	5973.13
525.31	6046.58
525.676	6059.91
526.043	6125.9
526.409	6075.73
526.776	6207.7
527.142	6197.76
527.508	6202.28
527.874	6242.51
528.241	6281.15
528.607	6259.68
528.973	6355.04
529.339	6327.7
529.705	6389.17
530.071	6464.87
530.437	6473.69
530.803	6515.94
531.169	6550.75
531.535	6557.53
531.901	6557.07
532.267	6561.14
532.632	6633.23
532.998	6658.99
533.364	6684.08
533.73	6696.96
534.095	6766.79
534.461	6789.16
534.826	6831.42
535.192	6835.48
535.557	6904.18
535.923	6889.72
536.288	6898.99
536.653	6947.12
537.019	6939.89
537.384	6948.48
537.749	7060.79
538.114	7081.81
538.479	7021.69
538.845	7087.91
539.21	7092.2
539.575	7097.85
539.94	7176.72
540.305	7245.87
540.67	7162.03
541.034	7232.54
541.399	7273.44
541.764	7320.44
542.129	7378.07
542.494	7340.1
542.858	7403.83
543.223	7385.53
543.587	7511.85
543.952	7488.57
544.316	7480.21
544.681	7503.49
545.045	7581.23
545.41	7555.69
545.774	7586.42
546.138	7605.63
546.503	7626.88
546.867	7653.99
547.231	7727.66
547.595	7805.63
547.959	7752.3
548.324	7732.18
548.688	7853.76
549.052	7784.39
549.416	7855.57
549.779	7888.79
550.143	7923.82
550.507	7970.14
550.871	8001.33
551.235	8016.24
551.599	8016.02
551.962	8105.73
552.326	8045.17
552.689	8124.26
553.053	8135.34
553.417	8209.46
553.78	8237.71
554.143	8269.12
554.507	8273.41
554.87	8327.2
555.234	8347.31
555.597	8297.82
555.96	8344.82
556.323	8428.21
556.686	8400.87
557.05	8478.38
557.413	8471.6
557.776	8451.49
558.139	8592.5
558.502	8589.34
558.865	8535.78
559.228	8628.21
559.59	8631.82
559.953	8630.69
560.316	8674.98
560.679	8714.08
561.041	8789.11
561.404	8847.41
561.767	8830.46
562.129	8863.45
562.492	8886.28
562.854	8879.27
563.217	8919.05
563.579	8964.24
563.941	9032.49
564.304	9070.45
564.666	9118.36
565.028	9080.17
565.39	9092.15
565.753	9139.15
566.115	9254.18
566.477	9328.75
566.839	9282.2
567.201	9291.01
567.563	9349.77
567.925	9346.15
568.287	9442.65
568.648	9409.43
569.01	9502.76
569.372	9546.6
569.734	9569.2
570.095	9622.08
570.457	9660.27
570.819	9658.46
571.18	9689.19
571.542	9774.84
571.903	9720.83
572.265	9818.46
572.626	9855.97
572.987	9944.78
573.349	9978
573.71	10024.1
574.071	10025.91
574.432	10113.82
574.794	10156.3
575.155	10260.25
575.516	10168.96
575.877	10250.31
576.238	10365.56
576.599	10409.18
576.96	10513.81
577.32	10607.14
577.681	10703.18
578.042	10823.18
578.403	10818.43
578.763	10936.85
579.124	10978.43
579.485	11102.72
579.845	11196.05
580.206	11266.1
580.566	11401.47
580.927	11563.27
581.287	11640.78
581.648	11723.49
582.008	11881.91
582.368	11992.18
582.728	12148.56
583.089	12275.12
583.449	12400.54
583.809	12583.58
584.169	12780.19
584.529	12913.74
584.889	13205.49
585.249	13257.24
585.609	13415.42
585.969	13687.96
586.329	13810.89
586.688	14056.09
587.048	14283.2
587.408	14451.56
587.768	14649.74
588.127	14914.59
588.487	15076.17
588.846	15496.27
589.206	15626.67
589.565	15865.53
589.925	16211.96
590.284	16370.37
590.643	16658.28
591.003	16895.33
591.362	17215.55
591.721	17471.81
592.08	17835.19
592.44	18032.25
592.799	18405.35
593.158	18538.45
593.517	18912.45
593.876	19234.48
594.235	19542.49
594.593	19894.35
594.952	20150.39
595.311	20417.27
595.67	20683.93
596.029	21107.2
596.387	21472.84
596.746	21830.8
597.104	21943.56
597.463	22235.53
597.822	22673.94
598.18	22959.13
598.538	23212.45
598.897	23612.44
599.255	23743.97
599.613	24513.66
599.972	24503.49
600.33	25001.79
600.688	25148
601.046	25441.1
601.404	25844.48
601.762	26102.1
602.12	26525.14
602.478	26728.97
602.836	27135.74
603.194	27266.36
603.552	27577.54
603.91	27698.21
604.268	28187.01
604.625	28309.5
604.983	28784.96
605.341	28992.42
605.698	29167.33
606.056	29700.42
606.413	29905.84
606.771	30141.31
607.128	30426.05
607.485	30535.65
607.843	30807.96
608.2	31202.3
608.557	31552.8
608.914	31536.98
609.272	31950.98
609.629	32333.57
609.986	32483.85
610.343	32665.77
610.7	33077.96
611.057	33195.47
611.414	33509.81
611.771	33579.41
612.127	33893.76
612.484	34003.81
612.841	34296.23
613.198	34571.25
613.554	34578.48
613.911	35027.96
614.267	35146.15
614.624	35299.82
614.98	35512.92
615.337	35739.36
615.693	35885.57
616.05	35992.91
616.406	36303.86
616.762	36455.5
617.118	36599
617.475	36723.74
617.831	36970.28
618.187	37133.67
618.543	37286.66
618.899	37568.46
619.255	37682.36
619.611	37655.24
619.967	38032.86
620.323	38232.17
620.678	38054.1
621.034	38219.52
621.39	38360.76
621.746	38271.49
622.101	38873.51
622.457	38627.19
622.812	38906.51
623.168	39032.83
623.523	39155.54
623.879	39269.89
624.234	39237.8
624.589	39461.07
624.945	39485.47
625.3	39666.71
625.655	39649.08
626.01	39829.87
626.365	39886.59
626.72	39906.93
627.075	39880.94
627.43	39892.02
627.785	40018.57
628.14	40235.96
628.495	40285.68
628.85	40299.91
629.205	40218.79
629.559	40533.58
629.914	40393.92
630.269	40463.3
630.623	40397.09
630.978	40465.56
631.332	40716.18
631.687	40878.88
632.041	40710.07
632.396	40722.05
632.75	40628.95
633.104	40787.59
633.459	40591.43
633.813	40691.77
634.167	40650.41
634.521	40717.76
634.875	40720.24
635.229	40870.3
635.583	40600.47
635.937	40668.94
636.291	40633.01
636.645	40658.1
636.999	40714.37
637.352	40897.64
637.706	40672.79
638.06	40691.77
638.413	40773.57
638.767	40584.88
639.121	40711.88
639.474	40605.9
639.828	40750.07
640.181	40703.97
640.534	40769.51
640.888	40669.85
641.241	40603.18
641.594	40733.8
641.947	40867.36
642.301	40817.19
642.654	40714.82
643.007	40733.12
643.36	40767.93
643.713	40605.22
644.066	40837.75
644.419	40547.82
644.771	40353.02
645.124	39871.23
645.477	39906.03
645.83	39685.69
646.182	39668.75
646.535	39392.14
646.888	39582.87
647.24	39368.87
647.593	39525.47
647.945	39506.04
648.298	39390.11
648.65	39300.39
649.002	39357.57
649.355	39583.55
649.707	39342.65
650.059	39579.26
650.411	40052.24
650.763	39941.51
651.115	40423.3
651.467	40344.89
651.819	40318.22
652.171	40289.52
652.523	40048.62
652.875	40327.71
653.227	39988.51
653.578	40359.35
653.93	40214.04
654.282	40130.43
654.633	39963.43
654.985	40128.39
655.337	40140.82
655.688	40141.28
656.039	40169.3
656.391	39883.2
656.742	39891.11
657.094	40159.35
657.445	40193.93
657.796	40009.53
658.147	39979.02
658.498	39906.25
658.849	40111.22
659.2	39934.5
659.551	39893.37
659.902	40135.85
660.253	40078.23
660.604	40031.45
660.955	39852.47
661.306	40077.32
661.656	39981.05
662.007	40053.14
662.358	39979.02
662.708	39876.2
663.059	39856.54
663.409	39684.56
663.76	40094.04
664.11	39886.37
664.461	39997.32
664.811	39911.68
665.161	39874.84
665.511	39799.59
665.862	39847.05
666.212	39909.64
666.562	39856.54
666.912	39833.71
667.262	39771.79
667.612	39762.3
667.962	39809.08
668.312	39812.02
668.662	40019.24
669.011	39822.64
669.361	39753.71
669.711	39758.01
670.06	39742.87
670.41	39625.13
670.76	39748.97
671.109	39733.83
671.459	39844.33
671.808	39721.4
672.157	39767.95
672.507	39529.99
672.856	39647.05
673.205	39605.47
673.554	39834.84
673.904	39612.93
674.253	39841.17
674.602	39721.63
674.951	39045.71
675.3	38950.12
675.649	39503.78
675.998	39452.48
676.346	39391.69
676.695	39604.79
677.044	39286.16
677.393	39430.33
677.741	39463.55
678.09	39498.35
678.438	39259.49
678.787	39470.11
679.135	39162.32
679.484	39166.39
679.832	39256.1
680.181	38987.63
680.529	39121.87
680.877	38940.18
681.225	39010.23
681.573	39142.66
681.922	38856.11
682.27	38805.49
682.618	38803.01
682.966	38758.94
683.314	38706.28
683.661	38637.13
684.009	38461.77
684.357	38443.47
684.705	38454.99
685.053	38391.04
685.4	38450.25
685.748	38168.67
686.095	38295.45
686.443	38001.9
686.79	38064.27
687.138	38121.89
687.485	37982.01
687.832	37925.97
688.18	38048.45
688.527	37828.12
688.874	37693.88
689.221	37644.62
689.568	37667.67
689.915	37499.08
690.262	37577.5
690.609	37475.13
690.956	37289.15
691.303	37249.6
691.65	37183.84
691.997	37153.11
692.344	36962.15
692.69	36983.62
693.037	36924.64
693.383	36636.96
693.73	36743.62
694.077	36574.36
694.423	36368.27
694.769	36350.19
695.116	36411.66
695.462	36161.27
695.808	36170.08
696.155	36228.84
696.501	35993.36
696.847	36042.17
697.193	35775.74
697.539	35822.29
697.885	35553.15
698.231	35605.35
698.577	35506.14
698.923	35496.2
699.269	35283.78
699.614	35114.97
699.96	35136.66
700.306	35051.24
700.651	34938.93
700.997	34823.22
701.342	34732.15
701.688	34603.34
702.033	34552.95
702.379	34582.78
702.724	34440.18
703.069	34679.72
703.415	34180.53
703.76	34152.51
704.105	34234.31
704.45	34074.09
704.795	33877.26
705.14	33738.51
705.485	33769.92
705.83	33711.16
706.175	33795.45
706.52	33576.02
706.865	33507.55
707.209	33539.64
707.554	33296.48
707.899	33306.43
708.243	33053.78
708.588	33133.32
708.932	32905.76
709.277	32834.12
709.621	32908.47
709.966	32777.17
710.31	32852.43
710.654	32570.17
710.998	32756.16
711.342	32480.69
711.687	32455.38
712.031	32375.83
712.375	32355.72
712.719	32432.1
713.063	32351.2
713.407	32500.12
713.75	32049.28
714.094	32097.64
714.438	32053.58
714.782	32028.04
715.125	31895.84
715.469	31940.81
715.812	31698.56
716.156	31564.78
716.499	31547.83
716.843	31612.69
717.186	31379.25
717.53	31630.99
717.873	31655.4
718.216	31583.08
718.559	31362.52
718.902	31070.55
719.246	31231.68
719.589	31221.06
719.932	31003.66
720.275	30989.2
720.617	30965.7
720.96	30948.97
721.303	30982.65
721.646	30834.4
721.989	30762.99
722.331	30863.33
722.674	30615.88
723.016	30747.4
723.359	30782.43
723.701	30832.37
724.044	30494.75
724.386	30353.51
724.729	30459.04
725.071	30373.4
725.413	30321.65
725.755	30314.19
726.097	30280.29
726.439	30052.95
726.782	30005.72
727.124	30149.22
727.465	29955.33
727.807	30059.96
728.149	29894.31
728.491	29871.71
728.833	29915.78
729.175	29935.22
729.516	29814.54
729.858	29682.34
730.199	29709.68
730.541	29600.76
730.882	29521.44
731.224	29723.02
731.565	29450.48
731.906	29624.04
732.248	29469.01
732.589	29211.62
732.93	29302.92
733.271	29285.29
733.612	29256.59
733.953	29242.35
734.294	29179.98
734.635	28976.82
734.976	29165.29
735.317	28934.79
735.658	28991.29
735.999	28990.38
736.339	28920.33
736.68	28986.09
737.021	28909.71
737.361	28835.13
737.702	28975.01
738.042	28838.97
738.383	28701.12
738.723	28655.7
739.063	28615.02
739.404	28657.28
739.744	28598.08
740.084	28492.99
740.424	28566.66
740.764	28476.72
741.104	28572.54
741.444	28425.88
741.784	28248.71
742.124	28354.01
742.464	28373.67
742.804	28386.33
743.143	28218.88
743.483	28234.7
743.823	28063.85
744.162	28013.91
744.502	28162.61
744.841	27994.02
745.181	28099.33
745.52	27940.69
745.86	27947.02
746.199	28015.72
746.538	27816.85
746.877	28015.94
747.216	27943.86
747.556	27842.84
747.895	27777.98
748.234	27602.62
748.573	27649.85
748.911	27697.53
749.25	27616.63
749.589	27527.6
749.928	27545.22
750.267	27547.48
750.605	27381.84
750.944	27366.7
751.283	27342.29
751.621	27460.7
751.96	27212.12
752.298	27246.47
752.636	27199.24
752.975	27122.41
753.313	27049.19
753.651	27110.21
753.989	27020.72
754.327	26923.32
754.666	26747.73
755.004	26883.09
755.342	26818.46
755.679	26801.06
756.017	26655.98
756.355	26723.32
756.693	26495.53
757.031	26624.57
757.368	26461.18
757.706	26380.73
758.044	26381.86
758.381	26396.55
758.719	26305.25
759.056	26283.79
759.394	26175.09
759.731	26036.79
760.068	26120.17
760.405	25944.81
