Data from hue_36_FLMS001491_00050.txt Node
Date: Tue Feb 07 17:29:52 GMT 2017
User: dcchb
Spectrometer: FLMS00149
Trigger mode: 0
Integration Time (sec): 2.000000E-2
Scans to average: 10
Electric dark correction enabled: true
Nonlinearity correction enabled: false
Boxcar width: 0
XAxis mode: Wavelengths
Number of Pixels in Spectrum: 2048
>>>>>Begin Spectral Data<<<<<
341.393	-3.94
341.776	-3.94
342.16	-3.94
342.543	-52.07
342.927	-55.01
343.31	-55.46
343.693	-54.11
344.077	-56.37
344.46	-66.09
344.843	-39.65
345.226	-45.97
345.61	-27.22
345.993	-18.18
346.376	-8.23
346.759	-0.1
347.142	6.91
347.525	16.85
347.908	55.94
348.291	72.67
348.674	106.79
349.057	112.21
349.44	132.55
349.823	147.24
350.206	131.65
350.588	202.61
350.971	210.97
351.354	231.08
351.737	240.57
352.119	245.77
352.502	267.24
352.884	278.76
353.267	293.45
353.65	311.53
354.032	298.88
354.414	290.06
354.797	322.15
355.179	318.76
355.562	320.8
355.944	335.71
356.326	326.45
356.709	328.48
357.091	341.36
357.473	335.26
357.855	366.45
358.238	334.36
358.62	337.75
359.002	354.02
359.384	343.62
359.766	328.71
360.148	342.72
360.53	339.1
360.912	356.28
361.294	357.41
361.676	326.67
362.057	354.92
362.439	343.85
362.821	338.88
363.203	318.99
363.584	332.32
363.966	317.41
364.348	344.07
364.729	329.16
365.111	306.11
365.493	335.26
365.874	319.89
366.256	330.51
366.637	338.42
367.019	312.21
367.4	312.21
367.781	310.85
368.163	320.12
368.544	315.15
368.925	320.12
369.306	347.69
369.688	332.55
370.069	323.51
370.45	303.4
370.831	305.66
371.212	310.63
371.593	314.02
371.974	315.37
372.355	330.29
372.736	333.45
373.117	324.64
373.498	325.09
373.879	314.02
374.26	317.63
374.641	314.24
375.021	317.41
375.402	347.24
375.783	317.18
376.163	332.77
376.544	318.08
376.925	328.03
377.305	339.33
377.686	336.84
378.066	348.37
378.447	304.98
378.827	339.1
379.208	325.32
379.588	333.9
379.968	332.1
380.349	332.1
380.729	324.86
381.109	332.77
381.489	341.59
381.87	338.42
382.25	348.14
382.63	335.71
383.01	340.46
383.39	353.79
383.77	354.69
384.15	349.72
384.53	335.03
384.91	354.69
385.29	356.28
385.67	340.68
386.049	364.19
386.429	342.27
386.809	340.46
387.189	371.19
387.568	354.47
387.948	349.04
388.328	351.53
388.707	358.99
389.087	374.81
389.466	364.19
389.846	352.66
390.225	349.95
390.605	368.48
390.984	375.26
391.363	381.36
391.743	354.69
392.122	375.71
392.501	371.87
392.881	375.94
393.26	366.67
393.639	354.69
394.018	385.88
394.397	367.58
394.776	403.73
395.155	387.69
395.534	369.16
395.913	360.34
396.292	406.44
396.671	398.99
397.05	378.42
397.429	405.99
397.808	406.9
398.186	410.06
398.565	383.85
398.944	394.47
399.323	384.75
399.701	405.77
400.08	407.57
400.458	408.25
400.837	393.34
401.215	410.96
401.594	405.09
401.972	396.5
402.351	401.02
402.729	419.1
403.107	405.31
403.486	415.94
403.864	421.58
404.242	378.87
404.62	397.63
404.999	433.11
405.377	411.87
405.755	429.04
406.133	438.31
406.511	436.73
406.889	426.33
407.267	431.08
407.645	420
408.023	425.65
408.401	449.38
408.779	436.73
409.156	462.26
409.534	444.18
409.912	422.26
410.29	449.83
410.667	453
411.045	453.9
411.422	477.63
411.8	460.23
412.178	476.72
412.555	448.25
412.933	473.56
413.31	459.1
413.687	476.95
414.065	482.6
414.442	462.26
414.819	475.59
415.197	465.65
415.574	475.14
415.951	493.22
416.328	477.63
416.705	489.38
417.082	501.36
417.46	498.19
417.837	498.42
418.214	525.31
418.591	476.27
418.967	495.71
419.344	516.27
419.721	522.83
420.098	527.57
420.475	521.02
420.852	533.9
421.228	525.09
421.605	528.47
421.982	527.8
422.358	530.73
422.735	554.69
423.111	537.97
423.488	546.78
423.864	528.7
424.241	551.98
424.617	562.6
424.994	540.9
425.37	541.13
425.746	548.59
426.123	556.95
426.499	552.88
426.875	571.19
427.251	575.48
427.627	590.39
428.003	587.68
428.379	591.52
428.756	587.91
429.132	605.08
429.507	599.66
429.883	606.44
430.259	613.22
430.635	614.12
431.011	610.28
431.387	623.16
431.763	644.4
432.138	627.23
432.514	649.6
432.89	627.46
433.265	649.15
433.641	632.88
434.016	671.75
434.392	671.52
434.767	678.53
435.143	660.9
435.518	660.45
435.894	669.04
436.269	690.96
436.644	692.31
437.02	686.89
437.395	689.15
437.77	694.35
438.145	704.74
438.52	724.63
438.895	714.23
439.271	714.46
439.646	715.14
440.021	747.23
440.395	719.88
440.77	739.77
441.145	721.24
441.52	766.89
441.895	765.3
442.27	758.98
442.645	754.23
443.019	782.93
443.394	768.02
443.769	791.74
444.143	772.08
444.518	776.83
444.892	794.91
445.267	793.55
445.641	796.94
446.016	780.45
446.39	811.18
446.764	850.05
447.139	809.15
447.513	805.76
447.887	810.5
448.262	829.03
448.636	824.51
449.01	835.59
449.384	831.97
449.758	826.32
450.132	853.21
450.506	831.97
450.88	841.69
451.254	878.75
451.628	866.55
452.002	866.09
452.376	887.34
452.75	889.82
453.123	876.49
453.497	913.32
453.871	902.48
454.244	904.96
454.618	935.7
454.992	924.62
455.365	950.84
455.739	931.18
456.112	971.18
456.486	978.63
456.859	961.68
457.232	977.5
457.606	996.49
457.979	987.22
458.352	1008.46
458.725	1032.42
459.099	1042.81
459.472	1052.08
459.845	1062.47
460.218	1059.53
460.591	1097.95
460.964	1095.47
461.337	1078.97
461.71	1120.78
462.083	1136.82
462.456	1144.5
462.829	1130.72
463.201	1165.75
463.574	1159.19
463.947	1182.47
464.32	1211.85
464.692	1234.22
465.065	1212.52
465.438	1242.58
465.81	1273.99
466.183	1270.38
466.555	1266.76
466.928	1283.48
467.3	1313.09
467.672	1327.78
468.045	1353.09
468.417	1372.29
468.789	1371.16
469.161	1406.19
469.534	1434.67
469.906	1451.16
470.278	1495
470.65	1488.45
471.022	1502.91
471.394	1562.57
471.766	1561.89
472.138	1584.94
472.51	1624.94
472.882	1674.21
473.253	1673.98
473.625	1683.25
473.997	1761.89
474.369	1733.41
474.74	1792.4
475.112	1837.82
475.484	1849.8
475.855	1874.88
476.227	1946.74
476.598	2001.88
476.97	1996.91
477.341	2102.9
477.713	2136.57
478.084	2179.05
478.455	2222.22
478.827	2275.77
479.198	2325.26
479.569	2354.19
479.94	2439.16
480.311	2506.5
480.682	2567.29
481.053	2640.28
481.424	2705.14
481.795	2769.32
482.166	2781.07
482.537	2859.49
482.908	2956.21
483.279	2997.56
483.65	3121.63
484.021	3187.61
484.391	3269.65
484.762	3343.54
485.133	3386.7
485.503	3469.64
485.874	3589.64
486.244	3616.3
486.615	3734.72
486.985	3797.99
487.356	3926.13
487.726	3995.95
488.097	4101.49
488.467	4162.73
488.837	4283.18
489.207	4419.45
489.578	4457.64
489.948	4561.82
490.318	4705.31
490.688	4745.09
491.058	4862.15
491.428	4957.28
491.798	5072.54
492.168	5230.27
492.538	5232.98
492.908	5367.22
493.278	5504.39
493.648	5518.85
494.017	5607.89
494.387	5697.6
494.757	5846.98
495.126	5984.6
495.496	6035.45
495.866	6087.2
496.235	6239.74
496.605	6326.06
496.974	6347.76
497.344	6432.73
497.713	6522.22
498.082	6618.03
498.452	6741.87
498.821	6833.85
499.19	6867.97
499.559	6983.67
499.928	7079.49
500.298	7101.18
500.667	7252.82
501.036	7243.33
501.405	7415.3
501.774	7389.99
502.143	7497.11
502.512	7639.02
502.88	7725.12
503.249	7718.57
503.618	7780.04
503.987	7936.42
504.356	8043.53
504.724	8038.33
505.093	8060.71
505.462	8139.12
505.83	8194.71
506.199	8263.86
506.567	8437.42
506.936	8398.78
507.304	8599.22
507.672	8641.71
508.041	8650.97
508.409	8825.21
508.777	8824.08
509.145	8910.85
509.514	8983.39
509.882	9010.29
510.25	9032.43
510.618	9187.23
510.986	9210.96
511.354	9245.99
511.722	9405.08
512.09	9454.57
512.458	9422.25
512.826	9546.77
513.193	9637.84
513.561	9660.21
513.929	9699.76
514.297	9797.16
514.664	9848
515.032	9968.45
515.4	10031.5
515.767	10088.45
516.135	10070.37
516.502	10069.01
516.869	10227.43
517.237	10362.79
517.604	10253.42
517.972	10405.28
518.339	10463.13
518.706	10450.02
519.073	10539.06
519.44	10600.75
519.808	10722.56
520.175	10765.95
520.542	10851.82
520.909	10870.12
521.276	10862.44
521.643	11039.16
522.009	11018.82
522.376	11145.37
522.743	11187.86
523.11	11303.56
523.477	11456.78
523.843	11476.89
524.21	11526.38
524.577	11617.9
524.943	11691.35
525.31	11706.49
525.676	11919.81
526.043	11907.84
526.409	11915.29
526.776	12122.75
527.142	12125.91
527.508	12199.35
527.874	12361.84
528.241	12335.17
528.607	12378.78
528.973	12539.23
529.339	12631.89
529.705	12630.53
530.071	12745.1
530.437	12852.22
530.803	12854.03
531.169	12931.76
531.535	12991.88
531.901	13011.08
532.267	13093.57
532.632	13136.73
532.998	13183.74
533.364	13160.69
533.73	13292.43
534.095	13363.84
534.461	13454.69
534.826	13477.29
535.192	13454.01
535.557	13647.9
535.923	13658.98
536.288	13644.97
536.653	13740.33
537.019	13736.04
537.384	13731.52
537.749	13904.85
538.114	13939.87
538.479	14010.38
538.845	14106.2
539.21	14072.53
539.575	14169.25
539.94	14166.31
540.305	14372.63
540.67	14258.06
541.034	14387.55
541.399	14442.91
541.764	14544.15
542.129	14528.33
542.494	14627.77
542.858	14707.54
543.223	14723.58
543.587	14800.42
543.952	14831.83
544.316	14904.37
544.681	14818.49
545.045	14973.52
545.41	15063.46
545.774	15114.31
546.138	15107.07
546.503	15225.49
546.867	15295.77
547.231	15348.2
547.595	15408.76
547.959	15404.02
548.324	15464.58
548.688	15515.88
549.052	15569.21
549.416	15590.45
549.779	15604.24
550.143	15650.11
550.507	15746.15
550.871	15887.84
551.235	15874.96
551.599	15987.5
551.962	16039.03
552.326	16042.19
552.689	16165.13
553.053	16108.86
553.417	16153.83
553.78	16424.78
554.143	16230.43
554.507	16473.14
554.87	16429.3
555.234	16697.77
555.597	16442.86
555.96	16583.42
556.323	16547.71
556.686	16585.91
557.05	16831.55
557.413	16777.31
557.776	16756.07
558.139	16907.71
558.502	16951.32
558.865	17063.41
559.228	17084.65
559.59	17220.01
559.953	17181.37
560.316	17418.43
560.679	17400.8
561.041	17439.44
561.404	17558.08
561.767	17694.8
562.129	17601.92
562.492	17892.31
562.854	17785.42
563.217	17744.29
563.579	17829.71
563.941	17950.39
564.304	18071.97
564.666	18093.44
565.028	18114
565.39	18222.47
565.753	18224.05
566.115	18406.2
566.477	18394.22
566.839	18515.35
567.201	18657.04
567.563	18666.53
567.925	18790.59
568.287	18662.46
568.648	18871.04
569.01	18998.95
569.372	19123.24
569.734	18986.07
570.095	19156.01
570.457	19242.33
570.819	19258.15
571.18	19389
571.542	19453.4
571.903	19437.81
572.265	19615.43
572.626	19721.87
572.987	19754.64
573.349	19788.53
573.71	19906.04
574.071	20040.5
574.432	20020.84
574.794	20188.75
575.155	20325.92
575.516	20295.41
575.877	20513.03
576.238	20557.33
576.599	20646.59
576.96	20844.78
577.32	20981.04
577.681	20967.94
578.042	21188.95
578.403	21287.03
578.763	21338.32
579.124	21560.92
579.485	21734.24
579.845	21858.31
580.206	22027.57
580.566	21998.64
580.927	22171.75
581.287	22440.67
581.648	22443.15
582.008	22765.4
582.368	22790.04
582.728	22989.58
583.089	23193.42
583.449	23266.63
583.809	23530.13
584.169	23727.86
584.529	23824.13
584.889	24237.23
585.249	24289.88
585.609	24506.6
585.969	24723.77
586.329	24755.18
586.688	25149.52
587.048	25275.39
587.408	25444.66
587.768	25656.63
588.127	25796.74
588.487	26008.93
588.846	26373.9
589.206	26458.19
589.565	26621.12
589.925	26953.77
590.284	27211.62
590.643	27426.75
591.003	27640.53
591.362	27864.93
591.721	28186.05
592.08	28292.49
592.44	28613.84
592.799	28847.96
593.158	28994.84
593.517	29179.92
593.876	29544.89
594.235	29686.35
594.593	29840.02
594.952	30209.73
595.311	30309.16
595.67	30654.24
596.029	30832.08
596.387	31011.97
596.746	31396.36
597.104	31533.54
597.463	31681.33
597.822	31998.38
598.18	32003.35
598.538	32278.83
598.897	32541.42
599.255	32763.33
599.613	33206.94
599.972	33248.29
600.33	33535.97
600.688	33552.47
601.046	33863.19
601.404	34183.41
601.762	34149.74
602.12	34425.89
602.478	34693.68
602.836	34965.08
603.194	34851.64
603.552	34953.56
603.91	35171.18
604.268	35453.21
604.625	35483.94
604.983	35780.43
605.341	35694.56
605.698	36062
606.056	36342
606.413	36369.34
606.771	36631.25
607.128	36800.74
607.485	36692.27
607.843	36835.32
608.2	37174.97
608.557	37320.5
608.914	37381.52
609.272	37574.96
609.629	37806.82
609.986	38027.15
610.343	37974.27
610.7	38391.89
611.057	38500.36
611.414	38514.82
611.771	38720.01
612.127	38998.42
612.484	38983.28
612.841	39176.05
613.198	39130.4
613.554	39277.74
613.911	39522.93
614.267	39529.03
614.624	39565.41
614.98	39741.91
615.337	40136.25
615.693	39960.43
616.05	40156.81
616.406	40497.14
616.762	40453.07
617.118	40434.77
617.475	40520.64
617.831	40690.81
618.187	40605.84
618.543	40844.02
618.899	41136.67
619.255	41105.94
619.611	41142.55
619.967	41407.4
620.323	41383.22
620.678	41398.81
621.034	41370.34
621.39	41413.5
621.746	41466.38
622.101	41955.18
622.457	41643.1
622.812	41762.42
623.168	41972.13
623.523	41846.71
623.879	42162.18
624.234	41806.71
624.589	42196.08
624.945	42096.65
625.3	42252.12
625.655	42328.51
626.01	42290.31
626.365	42424.1
626.72	42317.43
627.075	42490.99
627.43	42434.94
627.785	42441.5
628.14	42602.17
628.495	42660.25
628.85	42582.96
629.205	42522.85
629.559	42723.3
629.914	42552.68
630.269	42712.68
630.623	42483.98
630.978	42511.78
631.332	42571.44
631.687	42688.04
632.041	42573.02
632.396	42652.56
632.75	42551.32
633.104	42626.12
633.459	42474.04
633.813	42695.28
634.167	42410.99
634.521	42521.72
634.875	42684.2
635.229	42632.23
635.583	42429.07
635.937	42416.64
636.291	42426.36
636.645	42516.52
636.999	42364.89
637.352	42546.13
637.706	42153.14
638.06	42444.66
638.413	42182.75
638.767	42208.06
639.121	42281.28
639.474	42146.59
639.828	42166.93
640.181	42244.21
640.534	42274.04
640.888	42183.65
641.241	42050.55
641.594	42175.52
641.947	42182.07
642.301	42138
642.654	42198.11
643.007	42255.06
643.36	42199.7
643.713	42181.16
644.066	42370.76
644.419	42064.78
644.771	41850.1
645.124	41373.95
645.477	41354.97
645.83	41251.7
646.182	41240.62
646.535	40888.77
646.888	40924.47
647.24	40771.94
647.593	41084.7
647.945	40886.74
648.298	40729.9
648.65	40597.03
649.002	40685.84
649.355	40769.68
649.707	40708.89
650.059	40774.87
650.411	41349.55
650.763	41280.62
651.115	41762.42
651.467	41541.41
651.819	41577.79
652.171	41562.2
652.523	41458.25
652.875	41497.12
653.227	41219.16
653.578	41603.1
653.93	41435.87
654.282	41315.88
654.633	41208.08
654.985	41284.01
655.337	41335.31
655.688	41303.67
656.039	41448.08
656.391	41148.88
656.742	41197.01
657.094	41417.8
657.445	41363.79
657.796	41253.28
658.147	41216.67
658.498	41287.63
658.849	41319.72
659.2	41233.17
659.551	41175.32
659.902	41317.01
660.253	41222.09
660.604	41223.68
660.955	40945.04
661.306	41239.04
661.656	41137.8
662.007	41228.42
662.358	41186.39
662.708	41132.6
663.059	41080.63
663.409	40919.5
663.76	41207.63
664.11	40999.95
664.461	41213.96
664.811	41232.04
665.161	41059.61
665.511	40938.49
665.862	41097.35
666.212	41129.22
666.562	41204.92
666.912	40938.94
667.262	40942.1
667.612	41022.33
667.962	41060.06
668.312	40933.74
668.662	41197.69
669.011	41044.7
669.361	40920.18
669.711	40979.39
670.06	40844.93
670.41	40762.22
670.76	40848.77
671.109	40948.43
671.459	40814.42
671.808	40759.06
672.157	40789.79
672.507	40679.74
672.856	40709.57
673.205	40813.29
673.554	40857.36
673.904	40582.11
674.253	40985.94
674.602	40851.26
674.951	40269.8
675.3	40131.95
675.649	40673.86
675.998	40726.06
676.346	40574.88
676.695	40837.47
677.044	40369.69
677.393	40519.29
677.741	40669.34
678.09	40467.54
678.438	40511.15
678.787	40520.64
679.135	40491.94
679.484	40021.9
679.832	40319.07
680.181	40181.22
680.529	40295.79
680.877	40215.57
681.225	40147.77
681.573	40237.71
681.922	40093.08
682.27	39981.22
682.618	40069.13
682.966	39820.77
683.314	39942.35
683.661	39773.77
684.009	39638.41
684.357	39585.07
684.705	39579.43
685.053	39557.51
685.4	39546.21
685.748	39246.78
686.095	39355.93
686.443	39173.33
686.79	39144.86
687.138	39267.57
687.485	39289.94
687.832	39212.88
688.18	39157.52
688.527	38944.19
688.874	38936.5
689.221	38781.25
689.568	38707.36
689.915	38684.08
690.262	38750.75
690.609	38654.25
690.956	38346.24
691.303	38410.64
691.65	38068.5
691.997	38256.97
692.344	38057.43
692.69	37978.34
693.037	38076.41
693.383	37756.87
693.73	37845.01
694.077	37489.31
694.423	37552.81
694.769	37425.81
695.116	37373.16
695.462	37355.3
695.808	37213.84
696.155	37347.39
696.501	37004.58
696.847	36965.71
697.193	36771.59
697.539	36882.55
697.885	36727.07
698.231	36638.94
698.577	36645.27
698.923	36524.59
699.269	36254.99
699.614	36165.28
699.96	36145.39
700.306	36211.83
700.651	35930.26
700.997	35902.91
701.342	35883.93
701.688	35779.07
702.033	35763.48
702.379	35747.21
702.724	35674.67
703.069	35720.32
703.415	35292.76
703.76	35249.37
704.105	35321.23
704.45	35148.13
704.795	34957.85
705.14	34892.32
705.485	34832.66
705.83	34796.73
706.175	34718.31
706.52	34570.97
706.865	34588.82
707.209	34561.93
707.554	34435.38
707.899	34408.94
708.243	34237.87
708.588	34187.93
708.932	34009.85
709.277	33933.47
709.621	34032.45
709.966	33700.71
710.31	33968.05
710.654	33492.35
710.998	33619.36
711.342	33720.82
711.687	33573.03
712.031	33474.95
712.375	33276.54
712.719	33253.49
713.063	33215.07
713.407	33301.17
713.75	33106.15
714.094	33110.22
714.438	32846.27
714.782	32949.32
715.125	32849.43
715.469	32904.57
715.812	32717.01
716.156	32604.69
716.499	32537.12
716.843	32595.65
717.186	32460.29
717.53	32592.26
717.873	32538.25
718.216	32443.57
718.559	32273.18
718.902	32067.53
719.246	32404.02
719.589	32209.22
719.932	31885.39
720.275	31941.43
720.617	31954.54
720.96	31929.91
721.303	31918.38
721.646	31795.9
721.989	31659.63
722.331	31760.2
722.674	31702.8
723.016	31661.22
723.359	31535.57
723.701	31590.03
724.044	31437.94
724.386	31275.91
724.729	31449.02
725.071	31314.56
725.413	31226.88
725.755	31212.41
726.097	31108.01
726.439	30942.82
726.782	31083.38
727.124	31173.77
727.465	30907.34
727.807	30917.51
728.149	30924.29
728.491	30764.74
728.833	30826.89
729.175	30674.12
729.516	30566.1
729.858	30575.59
730.199	30641.13
730.541	30546.89
730.882	30427.35
731.224	30489.04
731.565	30420.12
731.906	30302.83
732.248	30425.54
732.589	30355.94
732.93	30089.51
733.271	30186.23
733.612	30106
733.953	30210.63
734.294	30033.01
734.635	30028.49
734.976	30075.49
735.317	29832.56
735.658	29955.95
735.999	29779.91
736.339	29785.78
736.68	29782.17
737.021	29657.43
737.361	29621.04
737.702	29753.92
738.042	29792.11
738.383	29594.38
738.723	29513.25
739.063	29553.93
739.404	29489.75
739.744	29516.41
740.084	29365.68
740.424	29495.4
740.764	29358.68
741.104	29378.79
741.444	29171.79
741.784	29278.45
742.124	29122.75
742.464	29257.21
742.804	29130.43
743.143	29122.3
743.483	29094.5
743.823	28948.29
744.162	28961.85
744.502	29011.34
744.841	28834.85
745.181	29018.35
745.52	28762.76
745.86	28743.78
746.199	28841.18
746.538	28704.91
746.877	28848.41
747.216	28677.79
747.556	28630.11
747.895	28584.46
748.234	28493.84
748.573	28414.3
748.911	28402.09
749.25	28342.21
749.589	28261.3
749.928	28317.12
750.267	28306.05
750.605	28214.07
750.944	28155.32
751.283	28133.17
751.621	28091.14
751.96	27892.28
752.298	27943.8
752.636	27911.26
752.975	27757.14
753.313	27603.7
753.651	27852.95
753.989	27543.81
754.327	27591.49
754.666	27401.67
755.004	27569.35
755.342	27487.77
755.679	27462.46
756.017	27310.37
756.355	27477.14
756.693	27232.63
757.031	27295
