Data from hue_280_FLMS001491_00085.txt Node
Date: Tue Feb 07 15:55:54 GMT 2017
User: dcchb
Spectrometer: FLMS00149
Trigger mode: 0
Integration Time (sec): 2.000000E-2
Scans to average: 10
Electric dark correction enabled: true
Nonlinearity correction enabled: false
Boxcar width: 0
XAxis mode: Wavelengths
Number of Pixels in Spectrum: 2048
>>>>>Begin Spectral Data<<<<<
341.393	3.53
341.776	3.53
342.16	3.53
342.543	-65.62
342.927	-65.39
343.31	-73.53
343.693	-67.43
344.077	-66.52
344.46	-55.68
344.843	-69.91
345.226	-23.81
345.61	-19.75
345.993	-23.59
346.376	-19.97
346.759	20.93
347.142	25
347.525	49.18
347.908	66.58
348.291	66.35
348.674	92.12
349.057	100.03
349.44	119.01
349.823	146.58
350.206	175.5
350.588	171.89
350.971	224.54
351.354	215.95
351.737	218.21
352.119	233.58
352.502	241.49
352.884	272.68
353.267	283.98
353.65	291.21
354.032	283.98
354.414	291.66
354.797	310.19
355.179	313.58
355.562	314.26
355.944	313.58
356.326	333.92
356.709	326.01
357.091	337.53
357.473	369.62
357.855	342.73
358.238	345.89
358.62	339.34
359.002	328.49
359.384	321.94
359.766	319.68
360.148	338.21
360.53	355.16
360.912	304.31
361.294	323.3
361.676	346.35
362.057	323.07
362.439	333.92
362.821	330.75
363.203	331.21
363.584	324.65
363.966	319.45
364.348	308.38
364.729	306.35
365.111	299.12
365.493	320.81
365.874	336.18
366.256	307.7
366.637	295.73
367.019	326.69
367.4	305.67
367.781	320.36
368.163	321.94
368.544	295.73
368.925	312
369.306	323.52
369.688	296.86
370.069	293.92
370.45	312.45
370.831	344.99
371.212	309.74
371.593	312.22
371.974	314.26
372.355	309.06
372.736	310.64
373.117	292.11
373.498	304.99
373.879	287.14
374.26	300.02
374.641	295.95
375.021	308.83
375.402	304.09
375.783	321.49
376.163	327.36
376.544	333.69
376.925	325.78
377.305	312
377.686	314.26
378.066	300.7
378.447	323.97
378.827	305.22
379.208	340.92
379.588	308.61
379.968	336.4
380.349	330.3
380.729	330.53
381.109	348.61
381.489	337.53
381.87	323.52
382.25	328.95
382.63	341.38
383.01	330.3
383.39	350.64
383.77	354.71
384.15	332.34
384.53	334.37
384.91	312.9
385.29	343.64
385.67	344.76
386.049	355.61
386.429	368.04
386.809	348.15
387.189	368.72
387.568	366.01
387.948	343.41
388.328	359.68
388.707	346.35
389.087	369.4
389.466	366.46
389.846	351.09
390.225	362.62
390.605	364.88
390.984	354.93
391.363	356.97
391.743	362.84
392.122	369.85
392.501	365.33
392.881	357.42
393.26	373.01
393.639	379.11
394.018	384.09
394.397	395.16
394.776	388.15
395.155	389.74
395.534	399.45
395.913	376.63
396.292	356.74
396.671	412.56
397.05	416.85
397.429	393.35
397.808	402.62
398.186	411.43
398.565	402.16
398.944	399.23
399.323	396.97
399.701	405.55
400.08	406.46
400.458	408.49
400.837	414.59
401.215	434.71
401.594	413.92
401.972	402.39
402.351	397.64
402.729	454.59
403.107	407.59
403.486	415.05
403.864	424.99
404.242	432.67
404.62	431.54
404.999	449.62
405.377	431.09
405.755	426.12
406.133	421.6
406.511	441.49
406.889	467.47
407.267	465.21
407.645	453.69
408.023	455.72
408.401	486.23
408.779	471.54
409.156	488.49
409.534	471.54
409.912	493.46
410.29	525.55
410.667	524.65
411.045	495.27
411.422	511.77
411.8	502.27
412.178	534.36
412.555	524.42
412.933	529.84
413.31	551.54
413.687	531.2
414.065	550.86
414.442	549.05
414.819	563.52
415.197	558.77
415.574	575.95
415.951	609.62
416.328	591.99
416.705	602.16
417.082	612.1
417.46	615.72
417.837	598.54
418.214	616.17
418.591	634.93
418.967	665.43
419.344	627.24
419.721	643.74
420.098	675.83
420.475	649.16
420.852	697.75
421.228	686.45
421.605	686.9
421.982	692.33
422.358	724.19
422.735	710.63
423.111	708.82
423.488	736.85
423.864	735.49
424.241	758.31
424.617	773.91
424.994	788.14
425.37	777.52
425.746	774.36
426.123	789.95
426.499	780.01
426.875	788.82
427.251	806.22
427.627	819.55
428.003	848.48
428.379	832.44
428.756	855.71
429.132	849.38
429.507	867.01
429.883	869.72
430.259	876.28
430.635	900.46
431.011	908.59
431.387	943.39
431.763	961.25
432.138	959.44
432.514	972.32
432.89	965.31
433.265	999.44
433.641	980.45
434.016	992.43
434.392	1028.59
434.767	1029.72
435.143	1041.7
435.518	1068.36
435.894	1095.71
436.269	1096.84
436.644	1103.62
437.02	1112.2
437.395	1124.41
437.77	1132.31
438.145	1181.35
438.52	1173.9
438.895	1201.69
439.271	1194.46
439.646	1235.81
440.021	1215.48
440.395	1228.13
440.77	1234.69
441.145	1236.04
441.52	1262.48
441.895	1276.72
442.27	1288.92
442.645	1287.79
443.019	1292.54
443.394	1311.52
443.769	1310.16
444.143	1309.26
444.518	1357.62
444.892	1319.2
445.267	1356.94
445.641	1354
446.016	1330.28
446.39	1371.18
446.764	1369.14
447.139	1351.07
447.513	1407.79
447.887	1358.07
448.262	1379.54
448.636	1403.49
449.01	1424.28
449.384	1431.52
449.758	1426.32
450.132	1442.14
450.506	1472.42
450.88	1443.95
451.254	1449.82
451.628	1449.82
452.002	1483.94
452.376	1503.15
452.75	1534.34
453.123	1481.01
453.497	1512.42
453.871	1534.79
454.244	1560.78
454.618	1536.82
454.992	1586.54
455.365	1579.08
455.739	1615.69
456.112	1613.66
456.486	1613.43
456.859	1632.64
457.232	1668.35
457.606	1665.41
457.979	1669.7
458.352	1697.72
458.725	1715.8
459.099	1700.21
459.472	1753.54
459.845	1774.78
460.218	1763.71
460.591	1778.4
460.964	1787.89
461.337	1809.81
461.71	1845.52
462.083	1853.88
462.456	1858.62
462.829	1843.93
463.201	1861.79
463.574	1890.71
463.947	1906.98
464.32	1920.77
464.692	1927.55
465.065	1942.24
465.438	2009.81
465.81	1985.85
466.183	2018.85
466.555	2080.31
466.928	2061.1
467.3	2060.65
467.672	2095.45
468.045	2137.49
468.417	2118.96
468.789	2121.89
469.161	2158.95
469.534	2177.03
469.906	2212.06
470.278	2194.21
470.65	2243.92
471.022	2297.48
471.394	2319.63
471.766	2306.75
472.138	2327.76
472.51	2367.99
472.882	2403.69
473.253	2425.16
473.625	2437.82
473.997	2479.4
474.369	2496.8
474.74	2496.12
475.112	2565.5
475.484	2559.17
475.855	2613.86
476.227	2610.02
476.598	2640.3
476.97	2691.6
477.341	2727.75
477.713	2741.76
478.084	2734.53
478.455	2823.34
478.827	2825.15
479.198	2905.6
479.569	2866.05
479.94	2963.91
480.311	2986.96
480.682	3006.39
481.053	3114.64
481.424	3120.06
481.795	3168.42
482.166	3212.26
482.537	3213.62
482.908	3252.26
483.279	3283.67
483.65	3318.25
484.021	3356.89
484.391	3378.58
484.762	3388.53
485.133	3422.2
485.503	3450.9
485.874	3488.41
486.244	3532.48
486.615	3582.42
486.985	3608.18
487.356	3676.88
487.726	3691.34
488.097	3712.81
488.467	3754.39
488.837	3812.02
489.207	3826.03
489.578	3903.32
489.948	3919.59
490.318	3950.55
490.688	3959.13
491.058	3989.64
491.428	4002.52
491.798	4032.58
492.168	4131.11
492.538	4171.11
492.908	4144.21
493.278	4228.73
493.648	4242.97
494.017	4259.69
494.387	4262.4
494.757	4308.05
495.126	4351.89
495.496	4363.42
495.866	4361.83
496.235	4394.15
496.605	4424.43
496.974	4405.22
497.344	4518.44
497.713	4506.69
498.082	4507.82
498.452	4570.42
498.821	4591.66
499.19	4556.63
499.559	4590.53
499.928	4654.48
500.298	4625.33
500.667	4673.24
501.036	4656.06
501.405	4684.54
501.774	4715.72
502.143	4727.7
502.512	4703.29
502.88	4793.46
503.249	4783.97
503.618	4801.37
503.987	4825.55
504.356	4847.47
504.724	4822.84
505.093	4866.23
505.462	4884.76
505.83	4859
506.199	4928.6
506.567	4976.96
506.936	4939.45
507.304	5009.95
507.672	4992.1
508.041	5044.75
508.409	5070.97
508.777	5056.96
509.145	5070.74
509.514	5089.5
509.882	5121.14
510.25	5102.38
510.618	5096.5
510.986	5109.84
511.354	5163.4
511.722	5150.51
512.09	5237.74
512.458	5204.52
512.826	5260.12
513.193	5214.24
513.561	5268.7
513.929	5256.27
514.297	5264.86
514.664	5310.51
515.032	5278.87
515.4	5325.42
515.767	5330.62
516.135	5366.55
516.502	5328.59
516.869	5364.07
517.237	5421.92
517.604	5330.4
517.972	5431.64
518.339	5383.28
518.706	5412.88
519.073	5419.43
519.44	5445.65
519.808	5518.64
520.175	5454.69
520.542	5508.02
520.909	5523.61
521.276	5546.44
521.643	5509.37
522.009	5630.28
522.376	5582.59
522.743	5643.38
523.11	5627.34
523.477	5701.91
523.843	5694
524.21	5688.35
524.577	5771.06
524.943	5751.63
525.31	5788.92
525.676	5832.98
526.043	5872.53
526.409	5835.47
526.776	5867.11
527.142	5883.6
527.508	5914.34
527.874	5949.14
528.241	5964.5
528.607	5978.06
528.973	5991.17
529.339	5978.97
529.705	6072.52
530.071	6086.99
530.437	6095.12
530.803	6132.41
531.169	6075.46
531.535	6079.76
531.901	6119.98
532.267	6137.61
532.632	6162.01
532.998	6170.83
533.364	6259.41
533.73	6196.36
534.095	6244.04
534.461	6253.76
534.826	6277.94
535.192	6315.46
535.557	6378.28
535.923	6336.25
536.288	6366.3
536.653	6343.7
537.019	6310.26
537.384	6380.31
537.749	6380.31
538.114	6381.22
538.479	6396.58
538.845	6416.24
539.21	6390.03
539.575	6471.16
539.94	6463.25
540.305	6477.26
540.67	6432.74
541.034	6460.99
541.399	6499.41
541.764	6478.39
542.129	6514.09
542.494	6495.79
542.858	6606.97
543.223	6524.04
543.587	6609.68
543.952	6573.75
544.316	6572.62
544.681	6583.47
545.045	6569.91
545.41	6613.07
545.774	6671.38
546.138	6638.38
546.503	6644.71
546.867	6620.53
547.231	6763.81
547.595	6676.8
547.959	6728.33
548.324	6766.74
548.688	6751.38
549.052	6775.78
549.416	6766.29
549.779	6760.87
550.143	6744.82
550.507	6821.43
550.871	6850.58
551.235	6861.66
551.599	6825.5
551.962	6834.31
552.326	6926.06
552.689	6879.28
553.053	6865.95
553.417	6887.64
553.78	6945.04
554.143	6878.15
554.507	6913.63
554.87	6925.16
555.234	7025.04
555.597	6967.87
555.96	7011.48
556.323	6964.48
556.686	6987.75
557.05	7051.48
557.413	7091.71
557.776	7041.09
558.139	7079.73
558.502	7036.57
558.865	7101.88
559.228	7085.6
559.59	7149.11
559.953	7251.25
560.316	7262.78
560.679	7265.26
561.041	7258.03
561.404	7237.24
561.767	7374.41
562.129	7295.99
562.492	7409.21
562.854	7371.02
563.217	7375.09
563.579	7403.56
563.941	7419.38
564.304	7488.98
564.666	7491.24
565.028	7443.11
565.39	7515.88
565.753	7600.62
566.115	7635.65
566.477	7627.74
566.839	7642.43
567.201	7721.29
567.563	7754.29
567.925	7739.6
568.287	7747.96
568.648	7759.71
569.01	7805.81
569.372	7839.94
569.734	7800.61
570.095	7880.39
570.457	7898.24
570.819	8010.78
571.18	7956.32
571.542	7962.87
571.903	8024.11
572.265	8021.4
572.626	8103.66
572.987	8040.61
573.349	8090.78
573.71	8108.18
574.071	8260.94
574.432	8203.77
574.794	8213.26
575.155	8296.87
575.516	8313.37
575.877	8326.93
576.238	8355.4
576.599	8415.06
576.96	8399.47
577.32	8406.25
577.681	8549.97
578.042	8558.33
578.403	8553.81
578.763	8608.95
579.124	8659.57
579.485	8703.87
579.845	8738.89
580.206	8780.25
580.566	8821.15
580.927	8847.37
581.287	8906.12
581.648	8922.17
582.008	9022.28
582.368	8999.9
582.728	9046.68
583.089	9078.32
583.449	9118.55
583.809	9211.65
584.169	9322.38
584.529	9291.42
584.889	9406.45
585.249	9411.87
585.609	9398.76
585.969	9573.22
586.329	9518.54
586.688	9624.29
587.048	9675.14
587.408	9716.72
587.768	9794.23
588.127	9862.71
588.487	9858.41
588.846	9972.53
589.206	10002.14
589.565	10098.41
589.925	10142.93
590.284	10192.87
590.643	10274.22
591.003	10383.82
591.362	10459.08
591.721	10451.62
592.08	10490.94
592.44	10633.53
592.799	10710.14
593.158	10764.38
593.517	10710.82
593.876	10875.56
594.235	10852.96
594.593	10990.81
594.952	11062.9
595.311	11093.18
595.67	11169.79
596.029	11234.87
596.387	11321.43
596.746	11350.8
597.104	11358.03
597.463	11413.85
597.822	11600.06
598.18	11574.3
598.538	11539.95
598.897	11685.03
599.255	11685.03
599.613	11874.18
599.972	11814.75
600.33	11907.85
600.688	11921.86
601.046	11958.47
601.404	12066.49
601.762	12093.61
602.12	12173.61
602.478	12218.58
602.836	12252.47
603.194	12247.5
603.552	12306.94
603.91	12311.68
604.268	12354.39
604.625	12336.09
604.983	12508.29
605.341	12452.24
605.698	12585.57
606.056	12649.75
606.413	12634.16
606.771	12705.57
607.128	12768.39
607.485	12770.88
607.843	12715.97
608.2	12740.82
608.557	12891.55
608.914	12869.63
609.272	12984.88
609.629	12955.96
609.986	13029.18
610.343	13062.4
610.7	13114.37
611.057	13069.63
611.414	13113.92
611.771	13219
612.127	13292.45
612.484	13158.21
612.841	13306.23
613.198	13299.23
613.554	13219
613.911	13460.8
614.267	13410.86
614.624	13404.53
614.98	13403.63
615.337	13516.62
615.693	13537.64
616.05	13477.98
616.406	13631.65
616.762	13518.2
617.118	13544.87
617.475	13564.53
617.831	13742.83
618.187	13621.93
618.543	13630.07
618.899	13779.21
619.255	13800.23
619.611	13711.87
619.967	13876.16
620.323	13830.51
620.678	13838.2
621.034	13856.73
621.39	13821.25
621.746	13755.49
622.101	14057.85
622.457	13945.09
622.812	13915.26
623.168	13909.61
623.523	13919.78
623.879	13995.71
624.234	14000.68
624.589	14000.45
624.945	14077.74
625.3	13975.37
625.655	13985.08
626.01	14017.4
626.365	14018.98
626.72	14057.17
627.075	14033.67
627.43	14077.74
627.785	13976.72
628.14	13982.82
628.495	13993.45
628.85	14018.98
629.205	13960.45
629.559	14009.94
629.914	13958.87
630.269	14002.71
630.623	13928.81
630.978	13933.56
631.332	13981.92
631.687	14005.42
632.041	13971.3
632.396	13975.37
632.75	13951.41
633.104	13900.57
633.459	13898.76
633.813	13894.47
634.167	13878.65
634.521	13929.27
634.875	13927.68
635.229	13852.66
635.583	13821.02
635.937	13894.47
636.291	13839.78
636.645	13845.2
636.999	13810.85
637.352	13871.87
637.706	13721.59
638.06	13762.04
638.413	13768.82
638.767	13792.55
639.121	13745.54
639.474	13656.28
639.828	13675.26
640.181	13749.84
640.534	13654.92
640.888	13716.84
641.241	13520.69
641.594	13690.4
641.947	13651.76
642.301	13674.36
642.654	13607.47
643.007	13606.56
643.36	13638.65
643.713	13663.06
644.066	13599.33
644.419	13525.66
644.771	13556.62
645.124	13342.84
645.477	13348.49
645.83	13258.78
646.182	13108.27
646.535	13278.21
646.888	13252.22
647.24	13118.67
647.593	13215.16
647.945	13164.54
648.298	13162.06
648.65	13151.21
649.002	13087.93
649.355	13184.43
649.707	13138.55
650.059	13246.57
650.411	13373.8
650.763	13442.27
651.115	13626.22
651.467	13476.62
651.819	13514.14
652.171	13567.92
652.523	13475.95
652.875	13456.06
653.227	13374.93
653.578	13512.78
653.93	13475.27
654.282	13459.22
654.633	13431.2
654.985	13490.63
655.337	13505.77
655.688	13468.94
656.039	13548.94
656.391	13428.94
656.742	13390.52
657.094	13513.46
657.445	13464.87
657.796	13459.45
658.147	13459.45
658.498	13480.69
658.849	13485.21
659.2	13482.72
659.551	13445.44
659.902	13516.4
660.253	13501.26
660.604	13612.44
660.955	13408.83
661.306	13545.1
661.656	13546.45
662.007	13556.85
662.358	13464.19
662.708	13605.43
663.059	13512.78
663.409	13513.01
663.76	13617.64
664.11	13569.28
664.461	13522.5
664.811	13541.03
665.161	13595.26
665.511	13579.9
665.862	13502.61
666.212	13562.95
666.562	13593.68
666.912	13583.96
667.262	13566.11
667.612	13661.02
667.962	13595.49
668.312	13527.47
668.662	13655.6
669.011	13675.49
669.361	13592.78
669.711	13564.53
670.06	13584.19
670.41	13582.61
670.76	13588.03
671.109	13531.31
671.459	13510.97
671.808	13470.75
672.157	13502.84
672.507	13454.7
672.856	13484.08
673.205	13485.66
673.554	13535.83
673.904	13538.32
674.253	13515.27
674.602	13519.11
674.951	13299.9
675.3	13213.58
675.649	13441.6
675.998	13418.09
676.346	13438.21
676.695	13538.99
677.044	13322.73
677.393	13370.19
677.741	13459
678.09	13398.66
678.438	13383.97
678.787	13362.28
679.135	13333.12
679.484	13253.13
679.832	13355.5
680.181	13220.13
680.529	13292.45
680.877	13248.83
681.225	13250.87
681.573	13299
681.922	13179.91
682.27	13129.51
682.618	13182.17
682.966	13163.64
683.314	13068.27
683.661	13052.45
684.009	12993.02
684.357	12994.15
684.705	12863.76
685.053	12996.86
685.4	12909.86
685.748	12852.46
686.095	12855.4
686.443	12853.36
686.79	12809.07
687.138	12826.47
687.485	12737.66
687.832	12794.61
688.18	12767.94
688.527	12661.73
688.874	12654.95
689.221	12615.4
689.568	12508.29
689.915	12529.08
690.262	12528.63
690.609	12410.44
690.956	12425.58
691.303	12391.91
691.65	12393.94
691.997	12342.19
692.344	12272.81
692.69	12205.47
693.037	12205.47
693.383	12144.68
693.73	12122.08
694.077	12106.72
694.423	11954.4
694.769	12024.91
695.116	12009.54
695.462	11933.16
695.808	11898.13
696.155	11885.25
696.501	11791.7
696.847	11824.01
697.193	11646.39
697.539	11750.79
697.885	11646.16
698.231	11641.42
698.577	11687.74
698.923	11599.38
699.269	11525.26
699.614	11445.72
699.96	11413.63
700.306	11482.1
700.651	11335.89
700.997	11304.7
701.342	11314.19
701.688	11236
702.033	11262.9
702.379	11208.21
702.724	11141.77
703.069	11094.31
703.415	10964.37
703.76	11060.42
704.105	11002.11
704.45	10961.89
704.795	10846.86
705.14	10897.48
705.485	10897.93
705.83	10874.66
706.175	10824.26
706.52	10737.49
706.865	10663.59
707.209	10711.72
707.554	10672.63
707.899	10645.74
708.243	10613.42
708.588	10597.15
708.932	10494.78
709.277	10497.27
709.621	10495.23
709.966	10500.2
710.31	10375.01
710.654	10430.38
710.998	10395.8
711.342	10434.9
711.687	10357.16
712.031	10286.88
712.375	10351.96
712.719	10329.81
713.063	10273.77
713.407	10234
713.75	10204.39
714.094	10209.82
714.438	10152.42
714.782	10155.13
715.125	10111.97
715.469	10150.83
715.812	10001.23
716.156	10004.17
716.499	10045.75
716.843	10077.39
717.186	10026.09
717.53	10024.96
717.873	10048.24
718.216	9999.88
718.559	9943.61
718.902	9820
719.246	9916.04
719.589	9828.36
719.932	9852.09
720.275	9832.65
720.617	9802.6
720.96	9859.09
721.303	9780.22
721.646	9786.55
721.989	9772.54
722.331	9772.31
722.674	9741.81
723.016	9788.81
723.359	9790.62
723.701	9838.53
724.044	9716.5
724.386	9651.41
724.729	9690.28
725.071	9659.32
725.413	9660
725.755	9700
726.097	9657.06
726.439	9590.62
726.782	9636.5
727.124	9703.16
727.465	9614.58
727.807	9607.57
728.149	9619.55
728.491	9527.12
728.833	9590.17
729.175	9588.14
729.516	9542.49
729.858	9556.05
730.199	9563.05
730.541	9535.94
730.882	9508.14
731.224	9583.39
731.565	9527.8
731.906	9503.39
732.248	9576.16
732.589	9540.23
732.93	9561.7
733.271	9514.47
733.612	9568.03
733.953	9628.81
734.294	9459.33
734.635	9518.31
734.976	9544.52
735.317	9574.8
735.658	9524.18
735.999	9548.82
736.339	9528.48
736.68	9590.4
737.021	9577.52
737.361	9532.55
737.702	9584.97
738.042	9525.31
738.383	9617.29
738.723	9596.05
739.063	9631.75
739.404	9656.38
739.744	9586.56
740.084	9581.36
740.424	9671.53
740.764	9608.48
741.104	9653.22
741.444	9685.31
741.784	9637.18
742.124	9729.38
742.464	9651.41
742.804	9669.49
743.143	9674.69
743.483	9723.28
743.823	9729.15
744.162	9771.18
744.502	9795.59
744.841	9830.62
745.181	9935.47
745.52	9912.2
745.86	10011.63
746.199	9976.38
746.538	10017.5
746.877	10087.11
747.216	10098.18
747.556	10182.47
747.895	10215.47
748.234	10244.84
748.573	10243.71
748.911	10365.52
749.25	10352.86
749.589	10422.47
749.928	10545.63
750.267	10622.69
750.605	10734.55
750.944	10777.48
751.283	10791.95
751.621	10892.06
751.96	11004.37
752.298	11020.87
752.636	11089.12
752.975	11218.6
753.313	11331.37
753.651	11449.78
753.989	11518.26
754.327	11597.35
754.666	11689.33
755.004	11855.42
755.342	11988.3
755.679	12074.4
756.017	12125.92
756.355	12361.17
756.693	12386.03
757.031	12613.59
757.368	12677.77
757.706	12752.57
758.044	13012.23
758.381	13106.92
758.719	13226.01
759.056	13344.88
759.394	13386.68
759.731	13502.16
760.068	13716.62
760.405	13790.29
760.743	13987.34
761.08	14209.26
761.417	14227.34
761.754	14374
