Data from hue_20_FLMS001491_42.txt Node
Date: Mon Feb 06 15:34:10 GMT 2017
User: dcchb
Spectrometer: FLMS00149
Trigger mode: 0
Integration Time (sec): 2.000000E-2
Scans to average: 10
Electric dark correction enabled: true
Nonlinearity correction enabled: false
Boxcar width: 0
XAxis mode: Wavelengths
Number of Pixels in Spectrum: 2048
>>>>>Begin Spectral Data<<<<<
341.393	-11.09
341.776	-11.09
342.16	-11.09
342.543	-68.49
342.927	-59.9
343.31	-66.45
343.693	-81.59
344.077	-59.45
344.46	-67.36
344.843	-50.18
345.226	-60.8
345.61	-29.84
345.993	-28.49
346.376	-9.51
346.759	15.13
347.142	37.5
347.525	50.61
347.908	51.74
348.291	82.24
348.674	91.96
349.057	124.5
349.44	137.84
349.823	123.15
350.206	164.95
350.588	195.91
350.971	213.77
351.354	211.05
351.737	255.57
352.119	244.05
352.502	259.87
352.884	284.72
353.267	282.24
353.65	302.35
354.032	309.58
354.414	314.1
354.797	338.73
355.179	331.5
355.562	364.27
355.944	336.25
356.326	348.9
356.709	336.7
357.091	329.24
357.473	358.85
357.855	354.33
358.238	340.32
358.62	350.03
359.002	347.77
359.384	354.55
359.766	345.29
360.148	334.44
360.53	360.2
360.912	323.14
361.294	330.6
361.676	340.09
362.057	356.13
362.439	331.28
362.821	319.75
363.203	333.76
363.584	322.92
363.966	320.43
364.348	315.23
364.729	321.56
365.111	319.98
365.493	321.11
365.874	333.54
366.256	311.84
366.637	324.27
367.019	339.19
367.4	320.66
367.781	319.3
368.163	326.08
368.544	326.53
368.925	296.25
369.306	316.36
369.688	336.47
370.069	305.29
370.45	324.95
370.831	314.33
371.212	311.84
371.593	318.85
371.974	314.33
372.355	315.23
372.736	347.1
373.117	323.14
373.498	316.36
373.879	333.54
374.26	312.07
374.641	291.96
375.021	327.66
375.402	313.42
375.783	319.3
376.163	318.17
376.544	328.56
376.925	344.38
377.305	349.81
377.686	306.64
378.066	349.36
378.447	338.06
378.827	343.03
379.208	315.91
379.588	334.21
379.968	335.57
380.349	329.92
380.729	337.83
381.109	334.67
381.489	344.61
381.87	352.29
382.25	321.79
382.63	359.52
383.01	319.53
383.39	356.59
383.77	359.75
384.15	357.26
384.53	356.13
384.91	338.73
385.29	373.08
385.67	344.38
386.049	357.26
386.429	355.23
386.809	357.49
387.189	367.21
387.568	358.85
387.948	372.63
388.328	351.84
388.707	360.2
389.087	379.18
389.466	375.57
389.846	367.66
390.225	375.12
390.605	368.56
390.984	400.43
391.363	393.87
391.743	379.18
392.122	376.7
392.501	385.74
392.881	370.15
393.26	407.88
393.639	392.29
394.018	380.09
394.397	396.36
394.776	369.47
395.155	380.54
395.534	390.48
395.913	391.39
396.292	413.31
396.671	390.48
397.05	392.74
397.429	387.09
397.808	393.87
398.186	405.17
398.565	404.04
398.944	397.04
399.323	396.13
399.701	410.6
400.08	407.88
400.458	420.09
400.837	418.05
401.215	406.75
401.594	435.68
401.972	407.43
402.351	429.35
402.729	447.66
403.107	415.12
403.486	446.08
403.864	423.48
404.242	412.4
404.62	423.25
404.999	446.53
405.377	411.73
405.755	446.98
406.133	431.84
406.511	463.48
406.889	425.96
407.267	455.12
407.645	448.34
408.023	449.47
408.401	443.36
408.779	473.65
409.156	468.9
409.534	470.71
409.912	452.18
410.29	455.79
410.667	473.65
411.045	484.27
411.422	481.78
411.8	462.35
412.178	499.18
412.555	490.82
412.933	477.04
413.31	498.05
413.687	519.97
414.065	495.57
414.442	504.15
414.819	519.52
415.197	495.57
415.574	519.52
415.951	515
416.328	509.8
416.705	518.39
417.082	547.32
417.46	538.73
417.837	552.97
418.214	530.37
418.591	553.64
418.967	542.57
419.344	538.73
419.721	538.95
420.098	552.29
420.475	553.19
420.852	543.7
421.228	548.9
421.605	555.68
421.982	571.04
422.358	569.46
422.735	589.12
423.111	589.35
423.488	572.63
423.864	586.19
424.241	589.35
424.617	593.19
424.994	606.75
425.37	598.16
425.746	609.24
426.123	587.77
426.499	615.34
426.875	638.16
427.251	638.16
427.627	633.42
428.003	644.71
428.379	651.04
428.756	628.22
429.132	637.03
429.507	651.49
429.883	649.23
430.259	672.74
430.635	654.66
431.011	678.39
431.387	677.71
431.763	680.19
432.138	704.37
432.514	676.13
432.89	700.31
433.265	716.58
433.641	713.87
434.016	732.4
434.392	741.66
434.767	725.39
435.143	753.41
435.518	760.42
435.894	760.64
436.269	759.97
436.644	752.73
437.02	748.67
437.395	770.14
437.77	772.39
438.145	794.32
438.52	781.43
438.895	816.24
439.271	797.03
439.646	841.09
440.021	837.25
440.395	805.16
440.77	839.96
441.145	830.92
441.52	826.63
441.895	840.42
442.27	837.93
442.645	855.78
443.019	859.85
443.394	844.03
443.769	840.87
444.143	849.68
444.518	857.59
444.892	882.67
445.267	878.83
445.641	895.56
446.016	868.89
446.39	891.26
446.764	902.56
447.139	870.02
447.513	923.35
447.887	907.53
448.262	913.18
448.636	915.22
449.01	919.96
449.384	917.93
449.758	944.82
450.132	949.11
450.506	940.3
450.88	975.1
451.254	960.86
451.628	985.04
452.002	965.84
452.376	976.01
452.75	978.04
453.123	1004.03
453.497	1000.41
453.871	1015.55
454.244	1038.83
454.618	1024.82
454.992	1015.78
455.365	1053.29
455.739	1087.87
456.112	1074.76
456.486	1093.97
456.859	1097.36
457.232	1118.83
457.606	1106.62
457.979	1136.45
458.352	1159.05
458.725	1175.77
459.099	1163.8
459.472	1174.19
459.845	1199.95
460.218	1238.15
460.591	1216
460.964	1231.37
461.337	1251.25
461.71	1273.17
462.083	1278.14
462.456	1265.04
462.829	1292.61
463.201	1288.77
463.574	1291.25
463.947	1325.83
464.32	1336.67
464.692	1377.12
465.065	1394.75
465.438	1386.84
465.81	1399.72
466.183	1434.75
466.555	1431.81
466.928	1493.73
467.3	1456.44
467.672	1512.49
468.045	1503.9
468.417	1500.74
468.789	1517.01
469.161	1554.07
469.534	1603.11
469.906	1618.7
470.278	1625.03
470.65	1651.24
471.022	1658.7
471.394	1684.69
471.766	1699.83
472.138	1720.84
472.51	1773.5
472.882	1782.09
473.253	1818.92
473.625	1856.66
473.997	1862.54
474.369	1902.99
474.74	1917.9
475.112	1950.22
475.484	1982.76
475.855	1999.71
476.227	2042.19
476.598	2092.13
476.97	2109.76
477.341	2148.18
477.713	2164.22
478.084	2211
478.455	2257.55
478.827	2298.91
479.198	2345.01
479.569	2385.46
479.94	2438.11
480.311	2437.21
480.682	2513.59
481.053	2567.6
481.424	2626.36
481.795	2647.15
482.166	2681.95
482.537	2745.22
482.908	2828.61
483.279	2806.24
483.65	2876.07
484.021	2921.94
484.391	2993.13
484.762	2989.74
485.133	3029.28
485.503	3107.02
485.874	3180.24
486.244	3170.52
486.615	3231.09
486.985	3337.3
487.356	3364.19
487.726	3391.99
488.097	3482.83
488.467	3524.86
488.837	3552.66
489.207	3608.25
489.578	3679.66
489.948	3742.49
490.318	3760.79
490.688	3824.52
491.058	3868.13
491.428	3912.65
491.798	3988.81
492.168	4081.01
492.538	4062.48
492.908	4113.1
493.278	4188.58
493.648	4191.06
494.017	4236.48
494.387	4276.26
494.757	4286.65
495.126	4421.79
495.496	4381.11
495.866	4449.59
496.235	4537.27
496.605	4538.4
496.974	4519.42
497.344	4614.33
497.713	4653.65
498.082	4666.98
498.452	4729.13
498.821	4740.88
499.19	4757.37
499.559	4810.25
499.928	4856.58
500.298	4833.31
500.667	4924.83
501.036	4963.47
501.405	4993.3
501.774	4997.59
502.143	5076.91
502.512	5082.79
502.88	5116.91
503.249	5158.27
503.618	5134.77
503.987	5180.64
504.356	5184.71
504.724	5243.69
505.093	5325.27
505.462	5266.97
505.83	5307.42
506.199	5352.39
506.567	5474.19
506.936	5453.4
507.304	5490.01
507.672	5515.1
508.041	5457.92
508.409	5586.73
508.777	5589.67
509.145	5627.18
509.514	5649.55
509.882	5679.38
510.25	5664.92
510.618	5682.1
510.986	5738.59
511.354	5846.16
511.722	5851.13
512.09	5825.82
512.458	5872.15
512.826	5894.52
513.193	5926.16
513.561	5945.59
513.929	5986.27
514.297	6009.32
514.664	6045.25
515.032	6093.38
515.4	6142.42
515.767	6136.55
516.135	6167.51
516.502	6169.32
516.869	6280.5
517.237	6193.95
517.604	6230.78
517.972	6311.46
518.339	6363.89
518.706	6331.57
519.073	6343.32
519.44	6401.17
519.808	6448.63
520.175	6407.5
520.542	6494.96
520.909	6551.68
521.276	6511.91
521.643	6594.39
522.009	6632.13
522.376	6684.1
522.743	6692.01
523.11	6737.89
523.477	6823.99
523.843	6812.46
524.21	6892.91
524.577	6965.45
524.943	6936.53
525.31	6989.41
525.676	7022.63
526.043	7095.17
526.409	7095.39
526.776	7170.87
527.142	7188.27
527.508	7246.12
527.874	7267.59
528.241	7276.18
528.607	7320.7
528.973	7398.66
529.339	7431.65
529.705	7560.47
530.071	7547.36
530.437	7536.06
530.803	7690.63
531.169	7604.76
531.535	7692.66
531.901	7639.33
532.267	7757.97
532.632	7808.59
532.998	7858.54
533.364	7861.25
533.73	7870.74
534.095	7946.44
534.461	7988.7
534.826	8018.76
535.192	8043.16
535.557	8123.39
535.923	8137.17
536.288	8115.25
536.653	8198.19
537.019	8198.19
537.384	8185.53
537.749	8351.18
538.114	8305.76
538.479	8265.08
538.845	8318.41
539.21	8372.65
539.575	8383.72
539.94	8387.34
540.305	8477.5
540.67	8487.67
541.034	8557.05
541.399	8573.55
541.764	8571.29
542.129	8548.24
542.494	8617.16
542.858	8664.39
543.223	8688.57
543.587	8789.81
543.952	8768.12
544.316	8789.59
544.681	8832.97
545.045	8877.94
545.41	8930.15
545.774	8934.67
546.138	8944.84
546.503	8960.65
546.867	9085.62
547.231	9121.55
547.595	9082.91
547.959	9120.88
548.324	9156.36
548.688	9179.86
549.052	9173.76
549.416	9222.57
549.779	9250.82
550.143	9375.33
550.507	9406.52
550.871	9428.44
551.235	9406.52
551.599	9413.52
551.962	9517.7
552.326	9514.99
552.689	9634.31
553.053	9525.61
553.417	9526.06
553.78	9710.01
554.143	9689.22
554.507	9651.48
554.87	9787.75
555.234	9814.87
555.597	9811.93
555.96	9816.68
556.323	9825.72
556.686	9861.2
557.05	9944.58
557.413	9996.33
557.776	9992.04
558.139	10086.05
558.502	10138.48
558.865	10146.16
559.228	10161.07
559.59	10192.03
559.953	10225.93
560.316	10345.02
560.679	10307.74
561.041	10341.63
561.404	10387.74
561.767	10430.67
562.129	10443.55
562.492	10566.71
562.854	10496.89
563.217	10538.01
563.579	10601.74
563.941	10642.42
564.304	10721.96
564.666	10722.42
565.028	10743.21
565.39	10751.57
565.753	10864.11
566.115	10816.42
566.477	10945.01
566.839	10911.34
567.201	11021.17
567.563	11048.96
567.925	11073.82
568.287	11138.68
568.648	11107.04
569.01	11186.13
569.372	11239.24
569.734	11262.51
570.095	11356.75
570.457	11389.97
570.819	11411.89
571.18	11352.46
571.542	11628.83
571.903	11524.65
572.265	11633.58
572.626	11621.83
572.987	11718.55
573.349	11737.3
573.71	11777.53
574.071	11855.04
574.432	11891.2
574.794	11996.28
575.155	12040.35
575.516	12023.62
575.877	12208.7
576.238	12268.59
576.599	12325.31
576.96	12376.38
577.32	12463.61
577.681	12536.61
578.042	12595.13
578.403	12664.29
578.763	12706.32
579.124	12836.94
579.485	12991.96
579.845	13123.93
580.206	13114.22
580.566	13280.31
580.927	13406.64
581.287	13552.85
581.648	13539.29
582.008	13719.85
582.368	13860.19
582.728	14017.24
583.089	14111.25
583.449	14384.24
583.809	14475.99
584.169	14642.76
584.529	14713.5
584.889	15109.19
585.249	15196.65
585.609	15278
585.969	15616.75
586.329	15688.16
586.688	15925.22
587.048	16103.52
587.408	16353.45
587.768	16610.17
588.127	16825.08
588.487	17026.88
588.846	17308.68
589.206	17460.54
589.565	17715.23
589.925	18054.2
590.284	18280.64
590.643	18537.58
591.003	18947.28
591.362	19151.35
591.721	19372.58
592.08	19767.6
592.44	20018.67
592.799	20298.21
593.158	20549.28
593.517	20959.89
593.876	21230.61
594.235	21441
594.593	21760.32
594.952	22172.06
595.311	22387.65
595.67	22584.48
596.029	23114.18
596.387	23480.05
596.746	23745.58
597.104	23879.13
597.463	24241.61
597.822	24670.3
598.18	24874.13
598.538	25164.75
598.897	25586.66
599.255	25780.78
599.613	26348.45
599.972	26465.73
600.33	26928.54
600.688	27167.63
601.046	27415.08
601.404	27885.13
601.762	28213.48
602.12	28440.82
602.478	28813.24
602.836	29087.13
603.194	29182.72
603.552	29623.84
603.91	29834.46
604.268	30248.23
604.625	30311.05
604.983	30783.58
605.341	31005.27
605.698	31379.95
606.056	31721.41
606.413	32007.05
606.771	32294.05
607.128	32608.39
607.485	32783.3
607.843	33009.74
608.2	33446.11
608.557	33710.06
608.914	33827.12
609.272	34060.33
609.629	34495.35
609.986	34839.07
610.343	34778.51
610.7	35285.39
611.057	35560.41
611.414	35757.92
611.771	35930.57
612.127	36299.37
612.484	36419.59
612.841	36809.41
613.198	36733.03
613.554	36938.68
613.911	37460.7
614.267	37438.32
614.624	37601.48
614.98	38010.06
615.337	38257.74
615.693	38322.37
616.05	38303.84
616.406	38892.75
616.762	38692.98
617.118	38956.25
617.475	39058.62
617.831	39330.48
618.187	39547.87
618.543	39676.68
618.899	40110.12
619.255	40117.35
619.611	40100.4
619.967	40432.37
620.323	40638.92
620.678	40730.44
621.034	40729.54
621.39	40728.18
621.746	41015.4
622.101	41377.2
622.457	41209.07
622.812	41348.28
623.168	41494.94
623.523	41687.93
623.879	41878.21
624.234	41724.54
624.589	41893.12
624.945	42146.45
625.3	42222.15
625.655	42171.31
626.01	42360.45
626.365	42289.27
626.72	42418.76
627.075	42486.1
627.43	42542.37
627.785	42548.92
628.14	42719.31
628.495	42717.05
628.85	42806.77
629.205	42816.26
629.559	43146.65
629.914	42952.98
630.269	43103.94
630.623	43049.93
630.978	42973.55
631.332	43233.88
631.687	43333.76
632.041	43149.59
632.396	43297.38
632.75	43177.83
633.104	43282.46
633.459	43153.88
633.813	43208.57
634.167	43243.37
634.521	43322.46
634.875	43263.48
635.229	43323.59
635.583	43167.21
635.937	43269.36
636.291	43250.6
636.645	43258.74
636.999	43284.05
637.352	43397.94
637.706	43238.85
638.06	43355
638.413	43359.3
638.767	43361.33
639.121	43341.45
639.474	43216.93
639.828	43383.93
640.181	43274.1
640.534	43303.71
640.888	43165.86
641.241	43044.5
641.594	43261.22
641.947	43280.43
642.301	43138.29
642.654	43219.87
643.007	43256.48
643.36	43060.77
643.713	43155.91
644.066	43328.34
644.419	43014.22
644.771	42903.94
645.124	42538.53
645.477	42378.08
645.83	42156.62
646.182	42005.89
646.535	42011.08
646.888	42018.77
647.24	41752.11
647.593	42048.6
647.945	41951.43
648.298	41781.49
648.65	41693.13
649.002	41670.75
649.355	41889.51
649.707	41798.89
650.059	41920.92
650.411	42390.96
650.763	42589.15
651.115	42958.63
651.467	42895.36
651.819	42697.17
652.171	42677.73
652.523	42730.39
652.875	42625.53
653.227	42518.87
653.578	42826.66
653.93	42555.03
654.282	42616.27
654.633	42443.62
654.985	42506.66
655.337	42518.19
655.688	42625.31
656.039	42651.07
656.391	42329.95
656.742	42389.38
657.094	42496.5
657.445	42563.84
657.796	42430.28
658.147	42324.97
658.498	42413.11
658.849	42514.12
659.2	42415.14
659.551	42303.05
659.902	42586.66
660.253	42440
660.604	42481.81
660.955	42264.41
661.306	42425.99
661.656	42284.52
662.007	42300.12
662.358	42308.7
662.708	42193.68
663.059	42385.76
663.409	42072.55
663.76	42315.03
664.11	42319.55
664.461	42339.21
664.811	42181.93
665.161	42271.19
665.511	42200.68
665.862	42200.68
666.212	42313.22
666.562	42267.58
666.912	42190.74
667.262	42309.16
667.612	42223.28
667.962	42241.59
668.312	42035.26
668.662	42271.42
669.011	42213.57
669.361	42193
669.711	42170.63
670.06	42120.23
670.41	41908.94
670.76	42083.17
671.109	42224.19
671.459	41996.4
671.808	41959.33
672.157	42220.8
672.507	41863.07
672.856	41976.28
673.205	41886.57
673.554	42029.84
673.904	41816.74
674.253	42152.55
674.602	41984.87
674.951	41456.52
675.3	41342.18
675.649	41807.02
675.998	41830.75
676.346	41839.11
676.695	41856.51
677.044	41680.7
677.393	41667.14
677.741	41741.94
678.09	41734.26
678.438	41647.48
678.787	41517.54
679.135	41492.45
679.484	41292.01
679.832	41499.23
680.181	41205.23
680.529	41522.28
680.877	41411.1
681.225	41243.2
681.573	41453.81
681.922	41302.63
682.27	41018.79
682.618	41223.31
682.966	41014.05
683.314	41072.13
683.661	40887.5
684.009	40922.98
684.357	40762.53
684.705	40741.51
685.053	40692.93
685.4	40720.5
685.748	40493.61
686.095	40500.84
686.443	40423.1
686.79	40221.75
687.138	40387.4
687.485	40410
687.832	40170.46
688.18	40162.77
688.527	39990.8
688.874	40132.26
689.221	39765.95
689.568	39924.36
689.915	39761.43
690.262	39795.55
690.609	39676
690.956	39423.13
691.303	39565.95
691.65	39382.23
691.997	39346.3
692.344	38994.21
692.69	39098.62
693.037	39045.74
693.383	38685.3
693.73	38935.01
694.077	38597.84
694.423	38579.99
694.769	38530.95
695.116	38474.91
695.462	38352.2
695.808	38240.34
696.155	38402.82
696.501	38176.38
696.847	38013
697.193	37872.44
697.539	38056.61
697.885	37679.22
698.231	37601.03
698.577	37620.92
698.923	37500.92
699.269	37324.65
699.614	37200.36
699.96	37192.23
700.306	37290.08
700.651	37013.25
700.997	36927.6
701.342	36852.35
701.688	36808.96
702.033	36697.33
702.379	36664.33
702.724	36610.1
703.069	36506.6
703.415	36237.68
703.76	36200.39
704.105	36282.42
704.45	36164.01
704.795	35950.9
705.14	35919.49
705.485	35780.06
705.83	35696.45
706.175	35717.46
706.52	35481.76
706.865	35522.44
707.209	35486.74
707.554	35361.77
707.899	35404.03
708.243	35264.6
708.588	35071.38
708.932	35009.01
709.277	34939.63
709.621	34839.52
709.966	34682.92
710.31	34729.92
710.654	34545.07
710.998	34536.48
711.342	34616.25
711.687	34510.26
712.031	34296.03
712.375	34195.24
712.719	34254
713.063	34193.66
713.407	34364.28
713.75	34161.35
714.094	34036.61
714.438	33983.27
714.782	34032.31
715.125	33884.07
715.469	33805.65
715.812	33695.15
716.156	33562.72
716.499	33468.03
716.843	33504.64
717.186	33247.02
717.53	33527.92
717.873	33529.5
718.216	33401.37
718.559	33326.57
718.902	33014.03
719.246	33113.24
719.589	32973.13
719.932	32978.78
720.275	32938.33
720.617	32896.97
720.96	32732.23
721.303	32852.46
721.646	32822.85
721.989	32599.35
722.331	32609.07
722.674	32597.77
723.016	32485.46
723.359	32489.98
723.701	32583.54
724.044	32323.2
724.386	32155.75
724.729	32233.94
725.071	32118.69
725.413	32259.93
725.755	32207.73
726.097	32151.68
726.439	32012.93
726.782	31853.39
727.124	31989.2
727.465	31704.91
727.807	31676.44
728.149	31656.78
728.491	31592.15
728.833	31758.25
729.175	31521.42
729.516	31572.49
729.858	31546.95
730.199	31402.1
730.541	31497.46
730.882	31320.52
731.224	31472.83
731.565	31226.28
731.906	31249.11
732.248	31181.76
732.589	30977.02
732.93	31070.13
733.271	31039.17
733.612	30929.79
733.953	31099.96
734.294	30891.83
734.635	30738.84
734.976	30838.72
735.317	30673.3
735.658	30684.15
735.999	30764.6
736.339	30629.24
736.68	30608.22
737.021	30503.82
737.361	30483.93
737.702	30608.45
738.042	30536.58
738.383	30396.02
738.723	30591.95
739.063	30332.3
739.404	30443.48
739.744	30199.42
740.084	30104.28
740.424	30190.38
740.764	30024.28
741.104	30140.89
741.444	30003.72
741.784	29794.91
742.124	29975.02
742.464	29789.94
742.804	29780.67
743.143	29718.07
743.483	29787.68
743.823	29555.59
744.162	29703.16
744.502	29623.16
744.841	29509.94
745.181	29650.51
745.52	29547.46
745.86	29594.91
746.199	29381.13
746.538	29454.58
746.877	29523.73
747.216	29413.68
747.556	29385.65
747.895	29286.9
748.234	29157.86
748.573	29189.27
748.911	29166.68
749.25	29237.86
749.589	29052.78
749.928	29000.81
750.267	29022.27
750.605	28902.5
750.944	28834.93
751.283	28871.54
751.621	28798.32
751.96	28638.33
752.298	28613.92
752.636	28692.34
752.975	28453.7
753.313	28443.53
753.651	28481.04
753.989	28476.75
754.327	28300.94
754.666	28128.96
755.004	28172.58
755.342	28338.68
755.679	28056.65
756.017	28084.45
756.355	28101.39
756.693	27934.62
757.031	28047.61
757.368	27820.27
757.706	27933.26
758.044	27702.99
758.381	27625.02
758.719	27585.48
759.056	27682.2
