Data from hue_270_FLMS001491_00013.txt Node
Date: Tue Feb 07 15:56:49 GMT 2017
User: dcchb
Spectrometer: FLMS00149
Trigger mode: 0
Integration Time (sec): 2.000000E-2
Scans to average: 10
Electric dark correction enabled: true
Nonlinearity correction enabled: false
Boxcar width: 0
XAxis mode: Wavelengths
Number of Pixels in Spectrum: 2048
>>>>>Begin Spectral Data<<<<<
341.393	0.97
341.776	0.97
342.16	0.97
342.543	-62.07
342.927	-59.36
343.31	-72.24
343.693	-80.61
344.077	-72.7
344.46	-60.04
344.843	-61.17
345.226	-44.67
345.61	-31.57
345.993	-14.39
346.376	-0.61
346.759	12.05
347.142	19.05
347.525	67.41
347.908	58.15
348.291	76.9
348.674	95.66
349.057	108.77
349.44	141.08
349.823	146.06
350.206	164.81
350.588	177.92
350.971	189.67
351.354	227.18
351.737	210.46
352.119	228.77
352.502	254.3
352.884	261.76
353.267	267.63
353.65	253.62
354.032	291.14
354.414	315.77
354.797	323.45
355.179	307.18
355.562	295.66
355.944	326.62
356.326	304.24
356.709	315.54
357.091	321.19
357.473	330.01
357.855	335.88
358.238	344.69
358.62	325.03
359.002	330.68
359.384	344.24
359.766	332.27
360.148	332.27
360.53	329.78
360.912	325.03
361.294	327.52
361.676	314.19
362.057	320.29
362.439	314.64
362.821	308.09
363.203	320.29
363.584	324.36
363.966	322.1
364.348	320.51
364.729	300.4
365.111	324.13
365.493	309.67
365.874	291.59
366.256	313.28
366.637	306.5
367.019	310.57
367.4	311.7
367.781	306.96
368.163	300.63
368.544	313.51
368.925	337.24
369.306	316.9
369.688	306.28
370.069	304.47
370.45	288.65
370.831	304.02
371.212	320.74
371.593	298.37
371.974	308.99
372.355	294.3
372.736	322.55
373.117	315.09
373.498	309.44
373.879	296.11
374.26	297.69
374.641	313.28
375.021	313.73
375.402	336.78
375.783	341.98
376.163	330.01
376.544	315.54
376.925	310.57
377.305	315.54
377.686	316.9
378.066	327.29
378.447	327.52
378.827	318.48
379.208	327.29
379.588	340.4
379.968	315.32
380.349	343.11
380.729	328.88
381.109	328.88
381.489	326.16
381.87	328.42
382.25	339.72
382.63	332.04
383.01	337.01
383.39	346.73
383.77	327.52
384.15	347.86
384.53	334.98
384.91	351.25
385.29	332.94
385.67	358.93
386.049	346.28
386.429	369.78
386.809	368.2
387.189	337.46
387.568	363.45
387.948	366.39
388.328	353.06
388.707	353.96
389.087	352.83
389.466	362.55
389.846	373.62
390.225	372.49
390.605	375.2
390.984	373.85
391.363	345.82
391.743	351.02
392.122	364.81
392.501	360.74
392.881	385.15
393.26	382.66
393.639	385.6
394.018	349.89
394.397	387.41
394.776	379.5
395.155	392.15
395.534	383.11
395.913	384.69
396.292	393.73
396.671	384.47
397.05	399.16
397.429	403.22
397.808	391.47
398.186	395.31
398.565	396.22
398.944	401.42
399.323	414.3
399.701	395.54
400.08	392.15
400.458	403.22
400.837	395.99
401.215	422.88
401.594	427.86
401.972	440.74
402.351	414.52
402.729	445.03
403.107	427.86
403.486	435.99
403.864	417.91
404.242	463.56
404.62	462.21
404.999	451.13
405.377	444.35
405.755	450.23
406.133	451.81
406.511	446.84
406.889	453.62
407.267	457.46
407.645	478.25
408.023	486.61
408.401	482.54
408.779	493.39
409.156	488.65
409.534	514.41
409.912	499.27
410.29	504.01
410.667	527.74
411.045	535.2
411.422	529.55
411.8	505.59
412.178	542.88
412.555	520.28
412.933	551.92
413.31	567.97
413.687	577
414.065	583.33
414.442	581.98
414.819	574.74
415.197	566.16
415.574	599.6
415.951	603.22
416.328	625.14
416.705	618.13
417.082	646.16
417.46	645.25
417.837	641.64
418.214	645.93
418.591	654.97
418.967	647.51
419.344	661.97
419.721	674.63
420.098	669.88
420.475	679.37
420.852	710.33
421.228	711.24
421.605	723.89
421.982	719.37
422.358	716.21
422.735	736.77
423.111	774.29
423.488	751.69
423.864	753.5
424.241	809.09
424.617	834.17
424.994	830.33
425.37	805.02
425.746	807.51
426.123	818.13
426.499	830.56
426.875	854.51
427.251	838.01
427.627	896.54
428.003	873.95
428.379	873.95
428.756	901.52
429.132	918.46
429.507	914.17
429.883	931.35
430.259	948.75
430.635	951.46
431.011	980.16
431.387	1006.37
431.763	1011.34
432.138	994.85
432.514	1037.78
432.89	1025.35
433.265	1023.77
433.641	1061.74
434.016	1054.51
434.392	1102.87
434.767	1120.72
435.143	1104.67
435.518	1157.1
435.894	1158.01
436.269	1187.38
436.644	1186.25
437.02	1215.86
437.395	1221.51
437.77	1235.74
438.145	1254.27
438.52	1266.03
438.895	1279.81
439.271	1305.8
439.646	1318.23
440.021	1348.96
440.395	1360.26
440.77	1360.26
441.145	1356.87
441.52	1379.02
441.895	1407.94
442.27	1404.55
442.645	1413.37
443.019	1423.54
443.394	1452.69
443.769	1436.42
444.143	1432.58
444.518	1481.61
444.892	1456.08
445.267	1462.63
445.641	1498.11
446.016	1533.36
446.39	1536.3
446.764	1533.36
447.139	1531.1
447.513	1550.31
447.887	1564.1
448.262	1596.86
448.636	1545.11
449.01	1571.55
449.384	1602.06
449.758	1620.14
450.132	1624.21
450.506	1598.9
450.88	1666.02
451.254	1637.32
451.628	1666.24
452.002	1680.48
452.376	1670.54
452.75	1713.47
453.123	1703.3
453.497	1728.16
453.871	1722.29
454.244	1762.28
454.618	1793.02
454.992	1803.86
455.365	1813.36
455.739	1854.94
456.112	1858.55
456.486	1842.51
456.859	1879.57
457.232	1924.31
457.606	1922.05
457.979	1904.2
458.352	1944.65
458.725	1950.3
459.099	2007.48
459.472	2025.33
459.845	2048.83
460.218	2035.72
460.591	2052.67
460.964	2064.42
461.337	2111.43
461.71	2129.05
462.083	2169.28
462.456	2167.02
462.829	2176.06
463.201	2226.68
463.574	2189.39
463.947	2251.76
464.32	2283.4
464.692	2296.73
465.065	2308.94
465.438	2312.1
465.81	2346.68
466.183	2389.84
466.555	2376.51
466.928	2425.54
467.3	2454.92
467.672	2473.9
468.045	2504.86
468.417	2534.47
468.789	2510.06
469.161	2527.69
469.534	2570.62
469.906	2632.77
470.278	2641.81
470.65	2681.13
471.022	2692.43
471.394	2752.09
471.766	2755.93
472.138	2773.11
472.51	2794.35
472.882	2857.62
473.253	2887
473.625	2956.6
473.997	2977.85
474.369	2976.26
474.74	3006.77
475.112	3064.62
475.484	3100.55
475.855	3154.11
476.227	3127.45
476.598	3251.96
476.97	3274.56
477.341	3285.18
477.713	3347.78
478.084	3377.83
478.455	3389.13
478.827	3450.6
479.198	3527.21
479.569	3524.95
479.94	3633.65
480.311	3648.11
480.682	3736.7
481.053	3810.59
481.424	3791.61
481.795	3845.39
482.166	3873.42
482.537	3928.33
482.908	3982.34
483.279	3999.51
483.65	4073.64
484.021	4081.32
484.391	4172.62
484.762	4195.67
485.133	4214.42
485.503	4233.18
485.874	4355.21
486.244	4340.97
486.615	4465.04
486.985	4487.86
487.356	4559.27
487.726	4560.63
488.097	4650.8
488.467	4641.08
488.837	4740.51
489.207	4779.38
489.578	4815.99
489.948	4794.29
490.318	4921.52
490.688	4918.13
491.058	4977.57
491.428	5066.6
491.798	5049.2
492.168	5161.97
492.538	5129.43
492.908	5168.75
493.278	5271.12
493.648	5239.25
494.017	5292.13
494.387	5322.87
494.757	5392.02
495.126	5399.93
495.496	5424.11
495.866	5424.79
496.235	5481.28
496.605	5511.34
496.974	5583.65
497.344	5657.1
497.713	5596.31
498.082	5671.33
498.452	5641.73
498.821	5735.51
499.19	5706.81
499.559	5712.46
499.928	5771.67
500.298	5767.6
500.667	5827.26
501.036	5777.77
501.405	5873.59
501.774	5885.57
502.143	5919.91
502.512	5916.53
502.88	6022.96
503.249	5978.9
503.618	5997.65
503.987	5954.94
504.356	5999.01
504.724	6047.37
505.093	6103.19
505.462	6016.64
505.83	6120.59
506.199	6116.52
506.567	6190.64
506.936	6194.71
507.304	6222.96
507.672	6233.81
508.041	6231.32
508.409	6326.46
508.777	6340.24
509.145	6348.6
509.514	6270.41
509.882	6361.03
510.25	6352.67
510.618	6396.29
510.986	6415.72
511.354	6385.67
511.722	6440.81
512.09	6441.26
512.458	6486.91
512.826	6495.72
513.193	6479
513.561	6528.26
513.929	6498.43
514.297	6574.59
514.664	6544.53
515.032	6533.68
515.4	6593.12
515.767	6614.81
516.135	6662.04
516.502	6522.38
516.869	6648.71
517.237	6735.49
517.604	6697.75
517.972	6622.72
518.339	6718.54
518.706	6687.58
519.073	6691.87
519.44	6778.65
519.808	6780.68
520.175	6760.8
520.542	6815.71
520.909	6858.87
521.276	6845.31
521.643	6853.45
522.009	6848.7
522.376	6927.12
522.743	6896.61
523.11	6992.43
523.477	6997.4
523.843	6972.32
524.21	6971.19
524.577	7017.06
524.943	7053.44
525.31	7104.29
525.676	7130.28
526.043	7108.36
526.409	7148.58
526.776	7219.54
527.142	7203.05
527.508	7232.87
527.874	7199.88
528.241	7328.01
528.607	7293.89
528.973	7325.98
529.339	7256.83
529.705	7295.02
530.071	7348.8
530.437	7366.66
530.803	7404.4
531.169	7420.89
531.535	7431.97
531.901	7437.39
532.267	7456.15
532.632	7431.97
532.998	7482.59
533.364	7521.45
533.73	7507.44
534.095	7509.25
534.461	7515.35
534.826	7521
535.192	7574.33
535.557	7569.82
535.923	7582.47
536.288	7585.18
536.653	7592.19
537.019	7601.23
537.384	7587.89
537.749	7567.56
538.114	7614.56
538.479	7606.2
538.845	7646.42
539.21	7646.2
539.575	7630.83
539.94	7601.68
540.305	7588.57
540.67	7665.41
541.034	7657.72
541.399	7709.02
541.764	7757.15
542.129	7675.35
542.494	7694.11
542.858	7668.57
543.223	7718.74
543.587	7738.4
543.952	7756.25
544.316	7732.75
544.681	7722.13
545.045	7754.67
545.41	7793.76
545.774	7787.66
546.138	7746.53
546.503	7776.36
546.867	7762.35
547.231	7855.68
547.595	7843.25
547.959	7849.36
548.324	7800.32
548.688	7827.44
549.052	7857.94
549.416	7831.5
549.779	7789.24
550.143	7788.34
550.507	7858.4
550.871	7893.65
551.235	7818.62
551.599	7867.89
551.962	7851.62
552.326	7876.93
552.689	7942.46
553.053	7860.88
553.417	7873.76
553.78	7979.97
554.143	7939.75
554.507	8010.03
554.87	7996.24
555.234	7982.01
555.597	7937.94
555.96	8070.14
556.323	8002.8
556.686	8011.61
557.05	8068.11
557.413	8057.26
557.776	8056.58
558.139	8049.12
558.502	8124.38
558.865	8075.79
559.228	8143.13
559.59	8175.22
559.953	8166.18
560.316	8214.09
560.679	8234.43
561.041	8219.74
561.404	8267.88
561.767	8302.23
562.129	8313.75
562.492	8343.13
562.854	8386.29
563.217	8302.9
563.579	8443.46
563.941	8419.51
564.304	8446.4
564.666	8459.96
565.028	8482.33
565.39	8543.35
565.753	8551.94
566.115	8562.56
566.477	8594.87
566.839	8670.35
567.201	8651.14
567.563	8700.18
567.925	8777.69
568.287	8717.13
568.648	8711.25
569.01	8823.12
569.372	8790.35
569.734	8767.3
570.095	8821.08
570.457	8869.67
570.819	8898.82
571.18	8911.02
571.542	8978.37
571.903	9019.27
572.265	8994.41
572.626	9085.26
572.987	9034.41
573.349	9071.7
573.71	9144.01
574.071	9172.94
574.432	9123.9
574.794	9192.15
575.155	9199.83
575.516	9248.19
575.877	9214.07
576.238	9295.65
576.599	9352.37
576.96	9389.88
577.32	9383.33
577.681	9409.09
578.042	9407.51
578.403	9463.1
578.763	9465.58
579.124	9488.18
579.485	9579.25
579.845	9604.56
580.206	9586.49
580.566	9649.31
580.927	9629.87
581.287	9648.63
581.648	9673.94
582.008	9714.39
582.368	9688.63
582.728	9804.78
583.089	9789.42
583.449	9904.89
583.809	9811.56
584.169	9902.64
584.529	9874.84
584.889	9977.21
585.249	9953.26
585.609	9939.92
585.969	10082.07
586.329	10028.96
586.688	10092.91
587.048	10097.66
587.408	10072.57
587.768	10052.01
588.127	10056.08
588.487	10138.11
588.846	10205
589.206	10157.77
589.565	10203.42
589.925	10294.94
590.284	10220.14
590.643	10325.45
591.003	10256.07
591.362	10396.41
591.721	10411.55
592.08	10324.09
592.44	10384.66
592.799	10465.56
593.158	10435.5
593.517	10426.01
593.876	10479.8
594.235	10471.89
594.593	10540.13
594.952	10470.53
595.311	10514.82
595.67	10596.63
596.029	10615.84
596.387	10600.02
596.746	10654.03
597.104	10518.66
597.463	10637.31
597.822	10656.51
598.18	10613.12
598.538	10682.28
598.897	10749.62
599.255	10712.56
599.613	10768.83
599.972	10773.8
600.33	10776.28
600.688	10744.42
601.046	10842.95
601.404	10840.69
601.762	10867.81
602.12	10830.75
602.478	10880.01
602.836	10883.17
603.194	10778.54
603.552	10893.8
603.91	10877.75
604.268	10902.61
604.625	10838.2
604.983	10835.49
605.341	10854.7
605.698	10930.63
606.056	10938.99
606.413	10920.69
606.771	11031.19
607.128	11006.33
607.485	10921.14
607.843	11014.7
608.2	11031.64
608.557	11081.81
608.914	10993.68
609.272	11096.95
609.629	11102.15
609.986	11197.06
610.343	11106.67
610.7	11192.54
611.057	11185.09
611.414	11101.02
611.771	11144.64
612.127	11240.68
612.484	11186.22
612.841	11258.31
613.198	11240.9
613.554	11232.09
613.911	11301.02
614.267	11249.94
614.624	11299.43
614.98	11297.4
615.337	11291.07
615.693	11278.19
616.05	11338.98
616.406	11398.87
616.762	11306.67
617.118	11322.48
617.475	11306.89
617.831	11380.11
618.187	11360.9
618.543	11376.04
618.899	11386.21
619.255	11401.13
619.611	11443.39
619.967	11381.01
620.323	11463.95
620.678	11397.96
621.034	11402.93
621.39	11367.23
621.746	11458.07
622.101	11470.5
622.457	11444.29
622.812	11456.94
623.168	11520.67
623.523	11463.27
623.879	11490.84
624.234	11447.68
624.589	11466.89
624.945	11479.32
625.3	11513.67
625.655	11530.84
626.01	11458.3
626.365	11453.78
626.72	11403.39
627.075	11513.89
627.43	11513.89
627.785	11439.09
628.14	11467.79
628.495	11456.72
628.85	11375.36
629.205	11441.13
629.559	11357.51
629.914	11356.38
630.269	11418.3
630.623	11372.2
630.978	11383.73
631.332	11351.64
631.687	11369.72
632.041	11324.74
632.396	11437.06
632.75	11331.98
633.104	11304.18
633.459	11218.53
633.813	11184.18
634.167	11265.54
634.521	11249.94
634.875	11263.05
635.229	11222.83
635.583	11134.69
635.937	11225.54
636.291	11177.4
636.645	11243.62
636.999	11205.2
637.352	11185.09
637.706	11087.24
638.06	11202.26
638.413	11122.26
638.767	11147.57
639.121	11151.64
639.474	11014.24
639.828	11047.24
640.181	11068.25
640.534	11018.31
640.888	10989.39
641.241	11024.64
641.594	11061.02
641.947	11008.82
642.301	10952.78
642.654	10981.7
643.007	11014.24
643.36	10899.67
643.713	11003.17
644.066	10990.74
644.419	10937.18
644.771	10874.36
645.124	10736.51
645.477	10716.62
645.83	10702.84
646.182	10637.98
646.535	10592.11
646.888	10703.07
647.24	10604.09
647.593	10546.23
647.945	10593.46
648.298	10586.91
648.65	10567.93
649.002	10522.96
649.355	10574.03
649.707	10576.97
650.059	10583.75
650.411	10717.3
650.763	10725.66
651.115	10806.79
651.467	10809.05
651.819	10768.15
652.171	10780.35
652.523	10766.79
652.875	10775.15
653.227	10722.5
653.578	10825.77
653.93	10717.08
654.282	10787.81
654.633	10688.38
654.985	10794.36
655.337	10725.89
655.688	10779.22
656.039	10793.91
656.391	10684.54
656.742	10820.13
657.094	10811.76
657.445	10807.02
657.796	10810.86
658.147	10748.71
658.498	10763.18
658.849	10800.46
659.2	10800.24
659.551	10821.93
659.902	10754.36
660.253	10804.53
660.604	10838.88
660.955	10765.44
661.306	10882.27
661.656	10757.53
662.007	10786.91
662.358	10793.91
662.708	10793.01
663.059	10761.37
663.409	10759.11
663.76	10819.67
664.11	10763.86
664.461	10799.11
664.811	10798.66
665.161	10819.22
665.511	10714.14
665.862	10762.95
666.212	10867.58
666.562	10747.81
666.912	10740.58
667.262	10781.26
667.612	10817.41
667.962	10769.73
668.312	10747.13
668.662	10769.28
669.011	10723.4
669.361	10731.09
669.711	10729.05
670.06	10735.83
670.41	10760.69
670.76	10748.49
671.109	10737.42
671.459	10675.5
671.808	10730.86
672.157	10784.19
672.507	10673.01
672.856	10764.76
673.205	10724.76
673.554	10721.6
673.904	10627.14
674.253	10770.18
674.602	10711.43
674.951	10532.68
675.3	10451.32
675.649	10597.98
675.998	10517.53
676.346	10588.49
676.695	10593.92
677.044	10608.83
677.393	10579.23
677.741	10644.08
678.09	10581.26
678.438	10591.88
678.787	10580.81
679.135	10549.62
679.484	10441.38
679.832	10508.04
680.181	10425.33
680.529	10434.6
680.877	10486.8
681.225	10445.67
681.573	10438.44
681.922	10419.46
682.27	10372
682.618	10362.74
682.966	10357.09
683.314	10425.11
683.661	10347.14
684.009	10306.01
684.357	10278.22
684.705	10253.81
685.053	10273.92
685.4	10243.42
685.748	10177.88
686.095	10200.03
686.443	10206.36
686.79	10118.22
687.138	10114.61
687.485	10086.13
687.832	10093.36
688.18	10068.51
688.527	10019.24
688.874	10007.94
689.221	9990.99
689.568	9902.18
689.915	9894.5
690.262	9927.72
690.609	9870.09
690.956	9755.52
691.303	9833.71
691.65	9736.31
691.997	9729.08
692.344	9638.91
692.69	9684.34
693.037	9694.28
693.383	9644.11
693.73	9512.81
694.077	9491.8
694.423	9571.8
694.769	9539.71
695.116	9440.73
695.462	9418.58
695.808	9445.7
696.155	9452.03
696.501	9325.48
696.847	9346.94
697.193	9232.82
697.539	9268.98
697.885	9221.52
698.231	9140.62
698.577	9194.18
698.923	9118.93
699.269	9086.84
699.614	9035.09
699.96	9011.81
700.306	8991.02
700.651	8921.42
700.997	8940.63
701.342	8899.95
701.688	8890.23
702.033	8838.26
702.379	8840.29
702.724	8772.72
703.069	8819.27
703.415	8708.99
703.76	8732.95
704.105	8686.4
704.45	8732.72
704.795	8607.3
705.14	8635.78
705.485	8640.07
705.83	8555.78
706.175	8577.25
706.52	8499.28
706.865	8493.86
707.209	8445.5
707.554	8450.02
707.899	8473.97
708.243	8414.09
708.588	8419.96
708.932	8348.1
709.277	8407.99
709.621	8303.81
709.966	8293.19
710.31	8293.64
710.654	8242.11
710.998	8291.15
711.342	8198.27
711.687	8256.58
712.031	8142.91
712.375	8132.74
712.719	8158.5
713.063	8106.07
713.407	8139.97
713.75	8105.39
714.094	8050.25
714.438	8040.09
714.782	8045.28
715.125	7979.52
715.469	8015.23
715.812	8016.36
716.156	7966.64
716.499	7948.56
716.843	7926.42
717.186	7856.14
717.53	7917.38
717.873	7927.09
718.216	7939.07
718.559	7895.23
718.902	7805.97
719.246	7831.73
719.589	7800.09
719.932	7805.06
720.275	7795.57
720.617	7792.18
720.96	7762.13
721.303	7792.18
721.646	7767.32
721.989	7696.14
722.331	7772.97
722.674	7756.48
723.016	7736.82
723.359	7751.28
723.701	7761
724.044	7787.21
724.386	7695.24
724.729	7690.94
725.071	7652.3
725.413	7716.25
725.755	7699.08
726.097	7620.21
726.439	7620.21
726.782	7582.02
727.124	7663.37
727.465	7650.04
727.807	7598.51
728.149	7606.42
728.491	7616.14
728.833	7625.41
729.175	7534.79
729.516	7527.1
729.858	7596.03
730.199	7608.91
730.541	7593.54
730.882	7556.93
731.224	7521.68
731.565	7554
731.906	7602.13
732.248	7592.19
732.589	7556.26
732.93	7486.2
733.271	7497.73
733.612	7538.4
733.953	7598.74
734.294	7518.97
734.635	7530.04
734.976	7581.79
735.317	7546.31
735.658	7535.24
735.999	7593.54
736.339	7562.58
736.68	7546.76
737.021	7573.66
737.361	7536.6
737.702	7525.3
738.042	7542.92
738.383	7558.06
738.723	7563.71
739.063	7560.78
739.404	7556.48
739.744	7525.75
740.084	7551.51
740.424	7631.73
740.764	7584.05
741.104	7650.26
741.444	7664.95
741.784	7606.65
742.124	7687.78
742.464	7675.58
742.804	7660.66
743.143	7686.42
743.483	7716.93
743.823	7671.28
744.162	7666.99
744.502	7732.75
744.841	7770.49
745.181	7796.7
745.52	7793.76
745.86	7863.59
746.199	7932.07
746.538	7950.82
746.877	7982.91
747.216	7990.82
747.556	8043.93
747.895	8046.19
748.234	8099.29
748.573	8097.26
748.911	8202.11
749.25	8234.43
749.589	8214.54
749.928	8325.95
750.267	8414.99
750.605	8432.39
750.944	8479.62
751.283	8528.89
751.621	8654.31
751.96	8662.89
752.298	8777.92
752.636	8859.5
752.975	8861.31
753.313	8869.44
753.651	9167.51
753.989	9258.81
754.327	9245.03
754.666	9357.11
755.004	9499.03
755.342	9653.6
755.679	9735.86
756.017	9779.25
756.355	9908.51
756.693	10013.82
757.031	10230.99
757.368	10290.87
757.706	10522.51
758.044	10592.79
758.381	10710.3
758.719	10874.36
759.056	11048.82
759.394	11088.82
759.731	11240.45
760.068	11420.79
760.405	11505.3
760.743	11726.54
761.08	11836.37
761.417	11985.97
761.754	12181.9
762.091	12305.51
762.428	12376.02
762.765	12566.52
763.102	12736.01
763.438	12849
