Data from hue_150_FLMS001491_00062.txt Node
Date: Tue Feb 07 16:54:21 GMT 2017
User: dcchb
Spectrometer: FLMS00149
Trigger mode: 0
Integration Time (sec): 2.000000E-2
Scans to average: 10
Electric dark correction enabled: true
Nonlinearity correction enabled: false
Boxcar width: 0
XAxis mode: Wavelengths
Number of Pixels in Spectrum: 2048
>>>>>Begin Spectral Data<<<<<
341.393	1.57
341.776	1.57
342.16	1.57
342.543	-62.61
342.927	-64.87
343.31	-75.72
343.693	-64.19
344.077	-51.31
344.46	-71.2
344.843	-56.06
345.226	-50.41
345.61	-38.21
345.993	-15.61
346.376	3.83
346.759	15.13
347.142	22.81
347.525	40.66
347.908	59.87
348.291	81.79
348.674	92.64
349.057	105.97
349.44	126.31
349.823	138.97
350.206	163.37
350.588	192.75
350.971	201.34
351.354	227.1
351.737	245.18
352.119	250.37
352.502	260.09
352.884	273.65
353.267	282.69
353.65	276.81
354.032	287.21
354.414	302.8
354.797	310.26
355.179	319.3
355.562	324.72
355.944	331.28
356.326	346.42
356.709	321.33
357.091	338.73
357.473	334.67
357.855	339.41
358.238	337.15
358.62	358.62
359.002	332.86
359.384	336.02
359.766	338.28
360.148	348.68
360.53	344.38
360.912	327.43
361.294	350.03
361.676	336.7
362.057	334.67
362.439	341.9
362.821	343.48
363.203	337.38
363.584	331.95
363.966	309.58
364.348	310.94
364.729	332.86
365.111	327.66
365.493	325.85
365.874	325.18
366.256	322.46
366.637	317.27
367.019	303.48
367.4	318.62
367.781	321.33
368.163	319.75
368.544	292.18
368.925	323.59
369.306	299.41
369.688	312.97
370.069	285.4
370.45	290.37
370.831	321.56
371.212	317.49
371.593	314.33
371.974	322.01
372.355	318.85
372.736	326.3
373.117	306.19
373.498	312.07
373.879	314.33
374.26	328.34
374.641	318.62
375.021	318.4
375.402	346.87
375.783	323.14
376.163	335.57
376.544	328.79
376.925	320.88
377.305	314.78
377.686	323.82
378.066	329.24
378.447	337.6
378.827	331.95
379.208	347.32
379.588	355
379.968	341.45
380.349	329.24
380.729	345.97
381.109	358.39
381.489	347.32
381.87	342.35
382.25	348.45
382.63	349.58
383.01	347.55
383.39	357.26
383.77	340.09
384.15	344.61
384.53	346.42
384.91	356.36
385.29	348.68
385.67	372.18
386.049	382.12
386.429	353.87
386.809	356.13
387.189	367.66
387.568	364.5
387.948	373.76
388.328	362.69
388.707	372.63
389.087	389.81
389.466	365.63
389.846	370.82
390.225	377.15
390.605	377.15
390.984	371.73
391.363	374.67
391.743	372.41
392.122	376.7
392.501	368.79
392.881	378.96
393.26	369.47
393.639	373.99
394.018	412.4
394.397	376.25
394.776	388.68
395.155	406.75
395.534	395.68
395.913	392.29
396.292	413.31
396.671	397.94
397.05	418.28
397.429	399.07
397.808	391.84
398.186	385.29
398.565	418.73
398.944	395.91
399.323	413.31
399.701	392.29
400.08	400.43
400.458	416.47
400.837	436.81
401.215	395.91
401.594	400.2
401.972	423.48
402.351	434.1
402.729	412.4
403.107	419.41
403.486	427.55
403.864	426.87
404.242	425.06
404.62	423.93
404.999	449.01
405.377	451.05
405.755	434.78
406.133	463.25
406.511	443.14
406.889	451.5
407.267	452.18
407.645	474.32
408.023	462.35
408.401	470.71
408.779	489.24
409.156	490.37
409.534	486.98
409.912	476.13
410.29	487.66
410.667	480.88
411.045	472.52
411.422	484.27
411.8	495.79
412.178	516.81
412.555	518.39
412.933	498.28
413.31	503.25
413.687	499.86
414.065	527.66
414.442	531.5
414.819	540.08
415.197	517.26
415.574	515.23
415.951	524.49
416.328	546.64
416.705	548.45
417.082	516.36
417.46	543.47
417.837	552.51
418.214	550.71
418.591	551.61
418.967	547.77
419.344	565.62
419.721	561.33
420.098	566.98
420.475	568.78
420.852	593.87
421.228	578.05
421.605	576.47
421.982	599.07
422.358	579.63
422.735	630.93
423.111	629.35
423.488	604.49
423.864	609.46
424.241	612.4
424.617	637.94
424.994	635.45
425.37	607.65
425.746	641.1
426.123	620.76
426.499	658.73
426.875	642.45
427.251	654.88
427.627	665.96
428.003	659.86
428.379	673.41
428.756	688.1
429.132	689.46
429.507	699.63
429.883	696.24
430.259	719.51
430.635	696.46
431.011	721.77
431.387	712.51
431.763	731.04
432.138	728.55
432.514	751.6
432.89	747.31
433.265	748.89
433.641	774.2
434.016	774.88
434.392	758.84
434.767	793.41
435.143	788.89
435.518	841.09
435.894	816.91
436.269	799.06
436.644	820.98
437.02	825.5
437.395	819.4
437.77	839.51
438.145	850.81
438.52	852.39
438.895	902.79
439.271	877.25
439.646	871.38
440.021	934.2
440.395	915.89
440.77	889.91
441.145	919.06
441.52	901.43
441.895	914.99
442.27	938.94
442.645	910.92
443.019	942.79
443.394	955.67
443.769	965.61
444.143	953.41
444.518	985.27
444.892	952.73
445.267	978.27
445.641	971.49
446.016	999.96
446.39	989.11
446.764	958.38
447.139	994.99
447.513	1013.29
447.887	1000.41
448.262	1000.19
448.636	1049.45
449.01	1041.99
449.384	1063.46
449.758	1042.9
450.132	1079.73
450.506	1066.85
450.88	1106.62
451.254	1104.14
451.628	1097.58
452.002	1121.99
452.376	1124.93
452.75	1121.76
453.123	1117.24
453.497	1141.42
453.871	1152.5
454.244	1181.42
454.618	1168.54
454.992	1186.62
455.365	1215.1
455.739	1234.3
456.112	1235.43
456.486	1237.47
456.859	1263.46
457.232	1300.52
457.606	1303.23
457.979	1297.58
458.352	1339.16
458.725	1360.4
459.099	1366.96
459.472	1367.41
459.845	1375.09
460.218	1413.06
460.591	1426.62
460.964	1425.49
461.337	1460.74
461.71	1498.25
462.083	1514.3
462.456	1527.4
462.829	1522.43
463.201	1537.57
463.574	1550.68
463.947	1584.58
464.32	1611.02
464.692	1627.06
465.065	1666.83
465.438	1685.14
465.81	1695.31
466.183	1691.24
466.555	1805.14
466.928	1788.87
467.3	1805.59
467.672	1828.64
468.045	1869.77
468.417	1852.37
468.789	1897.56
469.161	1954.28
469.534	1953.38
469.906	2020.72
470.278	2038.35
470.65	2086.71
471.022	2099.37
471.394	2146.82
471.766	2227.27
472.138	2194.73
472.51	2270.21
472.882	2321.96
473.253	2374.39
473.625	2406.93
473.997	2431.33
474.369	2496.42
474.74	2535.51
475.112	2628.84
475.484	2693.47
475.855	2760.82
476.227	2778.9
476.598	2886.69
476.97	2914.26
477.341	3046.46
477.713	3042.62
478.084	3137.08
478.455	3220.92
478.827	3266.11
479.198	3387.69
479.569	3427.01
479.94	3573.9
480.311	3632.66
480.682	3712.2
481.053	3825.87
481.424	3948.36
481.795	4025.19
482.166	4114.45
482.537	4232.42
482.908	4353.32
483.279	4362.58
483.65	4565.06
484.021	4683.25
484.391	4763.93
484.762	4865.39
485.133	5002.79
485.503	5112.85
485.874	5224.48
486.244	5352.39
486.615	5515.1
486.985	5615.66
487.356	5774.3
487.726	5854.07
488.097	6036.66
488.467	6172.7
488.837	6360.27
489.207	6413.83
489.578	6575.18
489.948	6754.16
490.318	6869.86
490.688	6954.83
491.058	7144.88
491.428	7254.71
491.798	7366.35
492.168	7586.45
492.538	7700.8
492.908	7885.88
493.278	8029.38
493.648	8062.82
494.017	8265.53
494.387	8356.83
494.757	8508.91
495.126	8708.46
495.496	8733.77
495.866	8867.32
496.235	9076.81
496.605	9124.72
496.974	9275
497.344	9393.19
497.713	9461.43
498.082	9616
498.452	9784.36
498.821	9873.4
499.19	9908.43
499.559	10062.55
499.928	10145.26
500.298	10279.26
500.667	10414.85
501.036	10449.43
501.405	10631.8
501.774	10627.28
502.143	10766.03
502.512	10837.22
502.88	10936.87
503.249	10944.56
503.618	11122.18
503.987	11194.04
504.356	11307.94
504.724	11346.81
505.093	11458.89
505.462	11510.87
505.83	11625.67
506.199	11706.8
506.567	11952.21
506.936	11890.75
507.304	11992.21
507.672	12090.97
508.041	12070.63
508.409	12209.38
508.777	12341.81
509.145	12386.33
509.514	12386.33
509.882	12533.67
510.25	12566.44
510.618	12637.39
510.986	12656.15
511.354	12780.89
511.722	12782.02
512.09	12955.8
512.458	12884.39
512.826	12971.17
513.193	13094.56
513.561	13061.11
513.929	13132.07
514.297	13188.79
514.664	13299.98
515.032	13297.72
515.4	13373.65
515.767	13417.26
516.135	13570.93
516.502	13418.84
516.869	13626.52
517.237	13649.34
517.604	13615
517.972	13746.97
518.339	13778.15
518.706	13782.67
519.073	13709.23
519.44	13866.74
519.808	13989.9
520.175	13810.47
520.542	14077.58
520.909	14066.96
521.276	13999.84
521.643	14138.15
522.009	14195.09
522.376	14217.92
522.743	14305.15
523.11	14346.73
523.477	14452.71
523.843	14433.05
524.21	14530.68
524.577	14610.45
524.943	14587.85
525.31	14620.17
525.676	14719.82
526.043	14750.33
526.409	14817.45
526.776	14924.11
527.142	14850.67
527.508	14927.73
527.874	14897.22
528.241	14932.7
528.607	14950.55
528.973	15057.22
529.339	15033.94
529.705	15023.55
530.071	15051.79
530.437	15128.18
530.803	15128.63
531.169	15147.16
531.535	14974.96
531.901	15083.66
532.267	15139.25
532.632	15138.34
532.998	15203.2
533.364	15130.66
533.73	15124.79
534.095	15210.89
534.461	15194.61
534.826	15184.45
535.192	15198.91
535.557	15191.22
535.923	15136.76
536.288	15092.47
536.653	15167.5
537.019	15174.5
537.384	15042.98
537.749	15116.88
538.114	15093.15
538.479	15060.38
538.845	15049.53
539.21	14960.27
539.575	14988.74
539.94	14949.2
540.305	14949.65
540.67	14905.81
541.034	14901.74
541.399	14859.48
541.764	14837.34
542.129	14764.12
542.494	14809.09
542.858	14712.14
543.223	14711.01
543.587	14718.69
543.952	14730.9
544.316	14744
544.681	14613.39
545.045	14577.68
545.41	14598.47
545.774	14611.35
546.138	14552.15
546.503	14585.82
546.867	14438.7
547.231	14565.25
547.595	14419.95
547.959	14438.25
548.324	14398.25
548.688	14354.86
549.052	14389.89
549.416	14383.34
549.779	14367.97
550.143	14411.36
550.507	14353.96
550.871	14340.17
551.235	14242.78
551.599	14374.52
551.962	14243.23
552.326	14228.99
552.689	14230.35
553.053	14163.91
553.417	14152.61
553.78	14278.48
554.143	14175.43
554.507	14147.18
554.87	14033.29
555.234	14149.44
555.597	14058.6
555.96	14099.28
556.323	14096.79
556.686	14090.24
557.05	14030.13
557.413	14117.81
557.776	14101.54
558.139	14099.95
558.502	14066.73
558.865	14011.37
559.228	14165.72
559.59	14150.57
559.953	14148.31
560.316	14182.21
560.679	14213.62
561.041	14116.68
561.404	14135.89
561.767	14185.83
562.129	14095.89
562.492	14225.37
562.854	14178.14
563.217	14192.16
563.579	14147.18
563.941	14269.67
564.304	14306.95
564.666	14304.02
565.028	14377.69
565.39	14299.27
565.753	14371.81
566.115	14292.49
566.477	14388.99
566.839	14414.97
567.201	14423.11
567.563	14385.6
567.925	14512.37
568.287	14486.84
568.648	14419.49
569.01	14505.59
569.372	14509.43
569.734	14445.71
570.095	14577.46
570.457	14595.53
570.819	14590.56
571.18	14615.42
571.542	14723.44
571.903	14595.31
572.265	14699.49
572.626	14703.55
572.987	14662.43
573.349	14683.67
573.71	14769.99
574.071	14743.1
574.432	14787.39
574.794	14849.31
575.155	14919.59
575.516	14791.91
575.877	14746.72
576.238	14815.64
576.599	14838.24
576.96	14911.91
577.32	14797.11
577.681	14909.2
578.042	14937.22
578.403	14838.92
578.763	14908.52
579.124	14881.18
579.485	14924.11
579.845	15035.97
580.206	14925.47
580.566	14949.88
580.927	14918.92
581.287	14944.9
581.648	14849.09
582.008	14955.52
582.368	14880.05
582.728	14913.49
583.089	14844.79
583.449	14929.08
583.809	14869.88
584.169	14935.41
584.529	14855.19
584.889	14890.44
585.249	14864
585.609	14839.6
585.969	14859.48
586.329	14839.82
586.688	14823.55
587.048	14826.94
587.408	14800.05
587.768	14754.17
588.127	14803.89
588.487	14690.45
588.846	14860.84
589.206	14808.86
589.565	14771.8
589.925	14783.55
590.284	14764.8
590.643	14852.93
591.003	14773.16
591.362	14836.66
591.721	14713.72
592.08	14829.88
592.44	14816.77
592.799	14788.3
593.158	14707.62
593.517	14642.31
593.876	14759.82
594.235	14693.84
594.593	14717.34
594.952	14746.04
595.311	14627.17
595.67	14655.87
596.029	14758.24
596.387	14743.55
596.746	14790.33
597.104	14749.2
597.463	14686.83
597.822	14712.59
598.18	14737.23
598.538	14655.42
598.897	14711.69
599.255	14582.43
599.613	14828.75
599.972	14708.3
600.33	14724.34
600.688	14624.01
601.046	14751.69
601.404	14730.22
601.762	14741.97
602.12	14726.83
602.478	14731.12
602.836	14722.76
603.194	14690.67
603.552	14658.81
603.91	14602.31
604.268	14741.75
604.625	14669.88
604.983	14754.17
605.341	14723.21
605.698	14734.74
606.056	14802.76
606.413	14779.71
606.771	14814.29
607.128	14762.99
607.485	14670.79
607.843	14715.08
608.2	14772.7
608.557	14871.23
608.914	14794.4
609.272	14918.24
609.629	14888.41
609.986	14887.05
610.343	14885.7
610.7	14829.88
611.057	14885.7
611.414	14824.68
611.771	14936.09
612.127	14909.2
612.484	14951.91
612.841	15007.73
613.198	14929.54
613.554	14920.27
613.911	15004.34
614.267	14985.58
614.624	14970.67
614.98	14899.71
615.337	14999.59
615.693	14969.99
616.05	14999.37
616.406	15073.94
616.762	15045.01
617.118	14972.02
617.475	14993.26
617.831	15059.25
618.187	15079.59
618.543	15040.95
618.899	15207.95
619.255	15161.85
619.611	15161.4
619.967	15142.86
620.323	15108.74
620.678	15166.14
621.034	14994.62
621.39	15122.07
621.746	15011.12
622.101	15243.65
622.457	15075.3
622.812	15050.89
623.168	15137.44
623.523	15158.91
623.879	15115.07
624.234	15151.68
624.589	15184.45
624.945	15186.48
625.3	15191.45
625.655	15172.47
626.01	15178.12
626.365	15269.64
626.72	15174.5
627.075	15169.53
627.43	15172.47
627.785	15159.14
628.14	15223.99
628.495	15149.87
628.85	15215.18
629.205	15168.4
629.559	15290.66
629.914	15120.27
630.269	15162.98
630.623	15083.21
630.978	15063.32
631.332	15133.37
631.687	15080.95
632.041	15087.95
632.396	15089.31
632.75	15036.2
633.104	15010.89
633.459	14960.5
633.813	14946.03
634.167	14963.89
634.521	14999.37
634.875	14992.81
635.229	14949.88
635.583	14787.17
635.937	14792.82
636.291	14817
636.645	14848.18
636.999	14787.62
637.352	14747.62
637.706	14657
638.06	14793.95
638.413	14658.36
638.767	14675.08
639.121	14683.89
639.474	14521.41
639.828	14598.92
640.181	14651.35
640.534	14688.64
640.888	14521.64
641.241	14503.33
641.594	14598.47
641.947	14570.68
642.301	14586.49
642.654	14570.45
643.007	14595.53
643.36	14610.68
643.713	14499.94
644.066	14542.65
644.419	14456.78
644.771	14425.37
645.124	14300.17
645.477	14236.67
645.83	14203.23
646.182	14112.61
646.535	14042.78
646.888	14115.32
647.24	13991.26
647.593	14024.02
647.945	14007.53
648.298	13998.49
648.65	14019.73
649.002	13872.62
649.355	13977.47
649.707	13988.77
650.059	14082.1
650.411	14212.27
650.763	14260.63
651.115	14330.46
651.467	14245.26
651.819	14354.18
652.171	14323.68
652.523	14181.08
652.875	14182.66
653.227	14229.44
653.578	14330.91
653.93	14271.93
654.282	14314.86
654.633	14235.09
654.985	14314.19
655.337	14244.58
655.688	14273.06
656.039	14290.01
656.391	14254.53
656.742	14232.38
657.094	14226.5
657.445	14300.63
657.796	14324.58
658.147	14196.22
658.498	14297.92
658.849	14259.5
659.2	14248.88
659.551	14233.96
659.902	14354.18
660.253	14238.48
660.604	14268.54
660.955	14308.31
661.306	14245.94
661.656	14181.31
662.007	14300.4
662.358	14246.62
662.708	14212.95
663.059	14280.74
663.409	14170.23
663.76	14310.12
664.11	14306.28
664.461	14396.67
664.811	14363.45
665.161	14330.68
665.511	14242.55
665.862	14278.71
666.212	14313.51
666.562	14364.13
666.912	14281.19
667.262	14248.65
667.612	14278.93
667.962	14303.11
668.312	14349.89
668.662	14346.73
669.011	14307.41
669.361	14247.52
669.711	14212.04
670.06	14302.89
670.41	14266.96
670.76	14240.52
671.109	14291.81
671.459	14191.93
671.808	14166.85
672.157	14285.03
672.507	14075.77
672.856	14186.51
673.205	14113.74
673.554	14265.83
673.904	14092.04
674.253	14155.77
674.602	14134.3
674.951	14048.43
675.3	13850.02
675.649	14127.07
675.998	14047.3
676.346	14128.2
676.695	14108.09
677.044	13998.71
677.393	14004.82
677.741	14048.2
678.09	13999.84
678.438	14016.11
678.787	13952.61
679.135	13825.84
679.484	13882.33
679.832	13951.48
680.181	13852.05
680.529	13848.66
680.877	13816.8
681.225	13773.18
681.573	13816.8
681.922	13607.09
682.27	13676.69
682.618	13694.54
682.966	13629.91
683.314	13612.96
683.661	13647.54
684.009	13538.16
684.357	13610.7
684.705	13534.55
685.053	13603.92
685.4	13513.75
685.748	13446.41
686.095	13416.81
686.443	13443.7
686.79	13447.99
687.138	13404.61
687.485	13412.06
687.832	13348.56
688.18	13309.01
688.527	13255.46
688.874	13222.69
689.221	13212.29
689.568	13180.43
689.915	13151.28
690.262	13124.61
690.609	13001.68
690.956	13036.71
691.303	12954.45
691.65	12944.05
691.997	12831.96
692.344	12800.33
692.69	12721.01
693.037	12756.26
693.383	12631.74
693.73	12653.44
694.077	12636.72
694.423	12697.51
694.769	12589.71
695.116	12532.76
695.462	12445.53
695.808	12434.01
696.155	12426.78
696.501	12394.24
696.847	12338.42
697.193	12245.77
697.539	12391.75
697.885	12249.38
698.231	12119.89
698.577	12152.89
698.923	12118.99
699.269	12065.66
699.614	12014.36
699.96	11975.49
700.306	11918.77
700.651	11818.88
700.997	11819.11
701.342	11775.95
701.688	11767.81
702.033	11710.86
702.379	11747.25
702.724	11647.36
703.069	11665.67
703.415	11517.88
703.76	11578.44
704.105	11530.98
704.45	11517.88
704.795	11419.35
705.14	11386.81
705.485	11369.86
705.83	11252.57
706.175	11358.33
706.52	11249.86
706.865	11288.05
707.209	11235.85
707.554	11074.95
707.899	11180.03
708.243	11065.46
708.588	11058.45
708.932	10952.24
709.277	10998.34
709.621	11020.26
709.966	10890.55
710.31	10856.2
710.654	10783.21
710.998	10894.16
711.342	10892.35
711.687	10883.99
712.031	10844.22
712.375	10764.67
712.719	10853.71
713.063	10705.24
713.407	10740.72
713.75	10656.65
714.094	10658.69
714.438	10678.58
714.782	10620.05
715.125	10621.4
715.469	10625.92
715.812	10544.12
716.156	10474.74
716.499	10475.87
716.843	10446.26
717.186	10480.16
717.53	10476.55
717.873	10523.1
718.216	10392.48
718.559	10316.78
718.902	10366.94
719.246	10424.8
719.589	10387.51
719.932	10308.42
720.275	10294.18
720.617	10277.23
720.96	10247.17
721.303	10217.8
721.646	10232.71
721.989	10221.64
722.331	10201.07
722.674	10219.83
723.016	10241.98
723.359	10206.95
723.701	10188.64
724.044	10116.1
724.386	10061.19
724.729	10163.56
725.071	10115.88
725.413	10141.87
725.755	10022.1
726.097	10080.17
726.439	10094.18
726.782	10042.21
727.124	10103.22
727.465	10025.03
727.807	10028.87
728.149	10030.68
728.491	9944.58
728.833	9988.2
729.175	10020.06
729.516	9947.75
729.858	9918.14
730.199	9999.72
730.541	9993.62
730.882	9950.68
731.224	9966.96
731.565	9920.63
731.906	9927.41
732.248	10076.56
732.589	9889.44
732.93	9889.9
733.271	9922.21
733.612	9968.31
733.953	9928.76
734.294	9866.85
734.635	9885.15
734.976	9900.06
735.317	9850.57
735.658	9916.56
735.999	9909.1
736.339	9880.18
736.68	9917.92
737.021	9870.69
737.361	9806.06
737.702	9915.88
738.042	9887.64
738.383	9852.61
738.723	9893.51
739.063	9946.84
739.404	9907.52
739.744	9874.98
740.084	9940.74
740.424	9881.99
740.764	9897.58
741.104	9959.05
741.444	9931.7
741.784	9854.64
742.124	9976.9
742.464	9963.11
742.804	10019.38
743.143	10024.13
743.483	10043.34
743.823	10028.2
744.162	10037.91
744.502	10070.91
744.841	10112.94
745.181	10174.18
745.52	10124.47
745.86	10186.16
746.199	10281.3
746.538	10349.32
746.877	10340.05
747.216	10357
747.556	10368.53
747.895	10460.28
748.234	10458.24
748.573	10498.69
748.911	10563.1
749.25	10677.9
749.589	10681.29
749.928	10774.84
750.267	10797.44
750.605	10789.31
750.944	10912.69
751.283	10999.92
751.621	11059.13
751.96	11178.67
752.298	11198.79
752.636	11321.72
752.975	11353.36
753.313	11398.33
753.651	11566.01
753.989	11624.54
754.327	11705.89
754.666	11734.82
755.004	11973.46
755.342	12117.41
755.679	12194.24
756.017	12290.06
756.355	12446.66
756.693	12550.39
