Data from hue_300_FLMS001491_00042.txt Node
Date: Tue Feb 07 15:50:46 GMT 2017
User: dcchb
Spectrometer: FLMS00149
Trigger mode: 0
Integration Time (sec): 2.000000E-2
Scans to average: 10
Electric dark correction enabled: true
Nonlinearity correction enabled: false
Boxcar width: 0
XAxis mode: Wavelengths
Number of Pixels in Spectrum: 2048
>>>>>Begin Spectral Data<<<<<
341.393	-4.42
341.776	-4.42
342.16	-4.42
342.543	-59.11
342.927	-101.37
343.31	-66.79
343.693	-61.82
344.077	-63.4
344.46	-61.14
344.843	-66.57
345.226	-25.21
345.61	-19.34
345.993	-15.49
346.376	-13.46
346.759	22.02
347.142	26.31
347.525	21.79
347.908	54.56
348.291	61.79
348.674	105.63
349.057	101.11
349.44	108.34
349.823	151.06
350.206	158.51
350.588	182.01
350.971	215.23
351.354	233.09
351.737	242.13
352.119	237.38
352.502	251.84
352.884	289.13
353.267	285.52
353.65	294.55
354.032	302.24
354.414	305.18
354.797	320.99
355.179	325.29
355.562	285.06
355.944	330.94
356.326	323.71
356.709	308.11
357.091	312.63
357.473	348.11
357.855	344.5
358.238	339.3
358.62	322.8
359.002	326.42
359.384	323.71
359.766	330.49
360.148	310.15
360.53	315.12
360.912	340.65
361.294	346.76
361.676	350.15
362.057	309.02
362.439	343.14
362.821	315.34
363.203	316.7
363.584	320.99
363.966	326.19
364.348	330.49
364.729	310.37
365.111	306.53
365.493	329.36
365.874	302.92
366.256	298.62
366.637	317.83
367.019	316.93
367.4	317.83
367.781	330.71
368.163	322.35
368.544	326.87
368.925	298.85
369.306	339.3
369.688	304.27
370.069	326.64
370.45	320.54
370.831	300.2
371.212	309.24
371.593	294.33
371.974	313.31
372.355	321.45
372.736	313.99
373.117	326.19
373.498	322.12
373.879	343.37
374.26	309.02
374.641	309.02
375.021	290.03
375.402	310.6
375.783	354.21
376.163	303.59
376.544	310.6
376.925	339.98
377.305	317.6
377.686	320.77
378.066	321.45
378.447	329.36
378.827	322.58
379.208	330.94
379.588	351.05
379.968	356.7
380.349	334.1
380.729	341.33
381.109	337.49
381.489	332.07
381.87	338.85
382.25	337.27
382.63	367.55
383.01	349.47
383.39	368.9
383.77	353.31
384.15	340.88
384.53	351.73
384.91	363.48
385.29	357.83
385.67	341.33
386.049	352.86
386.429	364.84
386.809	346.3
387.189	365.29
387.568	361.67
387.948	372.97
388.328	355.12
388.707	362.58
389.087	366.87
389.466	373.65
389.846	384.5
390.225	368.68
390.605	390.37
390.984	369.13
391.363	386.3
391.743	363.48
392.122	365.96
392.501	377.49
392.881	391.95
393.26	374.55
393.639	391.28
394.018	392.86
394.397	369.58
394.776	394.89
395.155	398.28
395.534	414.33
395.913	409.58
396.292	390.6
396.671	397.6
397.05	398.28
397.429	411.16
397.808	406.87
398.186	409.81
398.565	402.8
398.944	417.72
399.323	416.36
399.701	423.14
400.08	427.88
400.458	417.26
400.837	436.92
401.215	439.86
401.594	442.12
401.972	421.56
402.351	438.05
402.729	428.11
403.107	452.52
403.486	431.73
403.864	438.05
404.242	445.96
404.62	443.48
404.999	468.34
405.377	472.4
405.755	476.7
406.133	485.28
406.511	478.96
406.889	475.79
407.267	473.31
407.645	495.68
408.023	501.78
408.401	511.05
408.779	514.44
409.156	521.44
409.534	510.14
409.912	535.23
410.29	551.95
410.667	555.56
411.045	519.86
411.422	544.49
411.8	570.93
412.178	579.52
412.555	591.5
412.933	572.74
413.31	594.89
413.687	610.03
414.065	615
414.442	618.16
414.819	642.57
415.197	655.45
415.574	648.9
415.951	679.86
416.328	671.04
416.705	684.15
417.082	660.65
417.46	695.9
417.837	697.93
418.214	692.06
418.591	718.95
418.967	742
419.344	737.71
419.721	734.32
420.098	740.87
420.475	770.7
420.852	769.8
421.228	774.32
421.605	782
421.982	791.94
422.358	791.72
422.735	826.97
423.111	842.11
423.488	848.66
423.864	835.78
424.241	863.58
424.617	895.22
424.994	877.82
425.37	900.19
425.746	893.18
426.123	895.22
426.499	917.81
426.875	936.57
427.251	941.32
427.627	953.75
428.003	944.71
428.379	966.63
428.756	1010.24
429.132	970.69
429.507	1022.44
429.883	1014.31
430.259	1062.67
430.635	1057.02
431.011	1058.83
431.387	1076.23
431.763	1112.39
432.138	1110.35
432.514	1103.57
432.89	1147.64
433.265	1143.57
433.641	1154.42
434.016	1161.88
434.392	1197.13
434.767	1164.81
435.143	1226.73
435.518	1226.73
435.894	1227.41
436.269	1252.95
436.644	1238.48
437.02	1275.55
437.395	1279.84
437.77	1307.41
438.145	1313.96
438.52	1332.72
438.895	1361.64
439.271	1351.7
439.646	1356.9
440.021	1342.21
440.395	1369.55
440.77	1374.75
441.145	1430.12
441.52	1408.65
441.895	1412.72
442.27	1434.86
442.645	1429.44
443.019	1417.01
443.394	1414.52
443.769	1431.7
444.143	1423.56
444.518	1451.36
444.892	1433.28
445.267	1482.77
445.641	1455.65
446.016	1492.26
446.39	1498.82
446.764	1508.31
447.139	1454.07
447.513	1499.49
447.887	1519.83
448.262	1499.72
448.636	1538.82
449.01	1517.12
449.384	1545.14
449.758	1505.82
450.132	1576.1
450.506	1605.25
450.88	1543.11
451.254	1582.2
451.628	1561.19
452.002	1583.79
452.376	1612.03
452.75	1619.27
453.123	1608.42
453.497	1610
453.871	1640.96
454.244	1664.91
454.618	1678.02
454.992	1710.11
455.365	1680.28
455.739	1725.03
456.112	1751.69
456.486	1715.76
456.859	1746.49
457.232	1806.61
457.606	1792.37
457.979	1793.5
458.352	1821.29
458.725	1809.32
459.099	1824.91
459.472	1872.37
459.845	1860.16
460.218	1874.85
460.591	1885.7
460.964	1908.98
461.337	1907.62
461.71	1939.71
462.083	1954.4
462.456	1969.76
462.829	1987.62
463.201	1991.91
463.574	1976.09
463.947	2040.27
464.32	2081.4
464.692	2070.33
465.065	2065.36
465.438	2125.92
465.81	2105.58
466.183	2141.51
466.555	2162.53
466.928	2163.88
467.3	2133.15
467.672	2193.94
468.045	2219.02
468.417	2234.84
468.789	2266.03
469.161	2265.35
469.534	2317.55
469.906	2336.08
470.278	2322.98
470.65	2332.47
471.022	2389.64
471.394	2430.32
471.766	2433.93
472.138	2472.58
472.51	2518.9
472.882	2525
473.253	2499.69
473.625	2561.16
473.997	2618.34
474.369	2601.84
474.74	2619.24
475.112	2697.43
475.484	2714.83
475.855	2724.77
476.227	2771.1
476.598	2809.06
476.97	2808.39
477.341	2861.72
477.713	2901.72
478.084	2921.6
478.455	2982.85
478.827	2986.69
479.198	3014.93
479.569	3077.31
479.94	3142.39
480.311	3099.9
480.682	3192.78
481.053	3230.97
481.424	3249.73
481.795	3253.12
482.166	3312.78
482.537	3358.2
482.908	3368.82
483.279	3393.46
483.65	3417.41
484.021	3508.48
484.391	3541.7
484.762	3546.45
485.133	3574.69
485.503	3594.35
485.874	3678.19
486.244	3692.43
486.615	3719.78
486.985	3760.45
487.356	3811.75
487.726	3844.07
488.097	3955.93
488.467	3878.87
488.837	3972.65
489.207	3995.93
489.578	4028.69
489.948	4097.84
490.318	4144.17
490.688	4142.36
491.058	4137.39
491.428	4214.45
491.798	4214.68
492.168	4299.65
492.538	4277.5
492.908	4324.28
493.278	4402.92
493.648	4384.84
494.017	4464.84
494.387	4464.84
494.757	4476.14
495.126	4546.42
495.496	4565.4
495.866	4589.36
496.235	4562.92
496.605	4608.57
496.974	4623.03
497.344	4640.65
497.713	4667.32
498.082	4715
498.452	4766.98
498.821	4739.18
499.19	4751.84
499.559	4785.28
499.928	4830.71
500.298	4856.47
500.667	4873.42
501.036	4861.21
501.405	4894.21
501.774	4944.83
502.143	4977.6
502.512	4950.48
502.88	4996.58
503.249	5026.63
503.618	4991.83
503.987	5044.71
504.356	5061.43
504.724	5104.37
505.093	5114.77
505.462	5092.39
505.83	5135.78
506.199	5169.91
506.567	5205.61
506.936	5188.21
507.304	5227.31
507.672	5263.46
508.041	5281.09
508.409	5285.61
508.777	5349.11
509.145	5354.31
509.514	5392.73
509.882	5446.28
510.25	5402.67
510.618	5418.04
510.986	5425.27
511.354	5512.95
511.722	5497.58
512.09	5521.08
512.458	5516.34
512.826	5524.02
513.193	5568.77
513.561	5584.81
513.929	5626.84
514.297	5654.19
514.664	5706.84
515.032	5699.84
515.4	5727.86
515.767	5733.28
516.135	5739.38
516.502	5632.04
516.869	5752.94
517.237	5756.78
517.604	5760.85
517.972	5811.47
518.339	5813.73
518.706	5846.27
519.073	5856.44
519.44	5873.39
519.808	5929.89
520.175	5909.55
520.542	5972.15
520.909	5994.29
521.276	6002.88
521.643	6050.34
522.009	6032.71
522.376	6071.35
522.743	6109.32
523.11	6084.68
523.477	6212.82
523.843	6205.81
524.21	6208.52
524.577	6268.41
524.943	6300.27
525.31	6286.71
525.676	6379.59
526.043	6429.08
526.409	6408.97
526.776	6487.16
527.142	6471.12
527.508	6558.57
527.874	6528.74
528.241	6590.89
528.607	6610.32
528.973	6631.56
529.339	6605.8
529.705	6683.31
530.071	6712.69
530.437	6785.68
530.803	6835.4
531.169	6825.68
531.535	6790.88
531.901	6905.45
532.267	6942.29
532.632	6963.08
532.998	6960.37
533.364	7046.69
533.73	7056.64
534.095	7088.73
534.461	7098.9
534.826	7093.25
535.192	7152.91
535.557	7161.04
535.923	7224.77
536.288	7200.81
536.653	7213.24
537.019	7261.15
537.384	7291.21
537.749	7289.17
538.114	7341.6
538.479	7393.35
538.845	7371.88
539.21	7368.04
539.575	7412.56
539.94	7472.9
540.305	7584.08
540.67	7539.79
541.034	7534.14
541.399	7678.99
541.764	7616.17
542.129	7699.33
542.494	7666.11
542.858	7707.92
543.223	7721.03
543.587	7833.34
543.952	7767.58
544.316	7829.95
544.681	7860.01
545.045	7911.08
545.41	7961.47
545.774	7876.05
546.138	7977.29
546.503	7998.08
546.867	8006.22
547.231	8053.9
547.595	8066.1
547.959	8170.05
548.324	8072.2
548.688	8153.33
549.052	8191.3
549.416	8192.88
549.779	8297.73
550.143	8242.82
550.507	8309.26
550.871	8320.78
551.235	8298.64
551.599	8449.59
551.962	8401.69
552.326	8416.15
552.689	8507.9
553.053	8443.04
553.417	8409.82
553.78	8557.84
554.143	8531.17
554.507	8638.97
554.87	8600.55
555.234	8668.57
555.597	8557.39
555.96	8613.88
556.323	8689.36
556.686	8680.55
557.05	8727.55
557.413	8706.31
557.776	8792.41
558.139	8839.19
558.502	8793.31
558.865	8883.03
559.228	8886.42
559.59	8910.37
559.953	8965.74
560.316	8995.57
560.679	9007.77
561.041	9031.5
561.404	9150.59
561.767	9073.53
562.129	9079.63
562.492	9216.13
562.854	9113.31
563.217	9154.21
563.579	9271.04
563.941	9235.79
564.304	9330.02
564.666	9372.28
565.028	9359.63
565.39	9430.59
565.753	9422.9
566.115	9495.44
566.477	9507.42
566.839	9471.26
567.201	9528.21
567.563	9551.94
567.925	9678.04
568.287	9651.14
568.648	9617.7
569.01	9690.92
569.372	9796.9
569.734	9773.63
570.095	9876.68
570.457	9867.86
570.819	9938.37
571.18	9963.23
571.542	9982.89
571.903	10054.98
572.265	10111.02
572.626	10115.09
572.987	10196.44
573.349	10242.32
573.71	10331.13
574.071	10386.49
574.432	10427.4
574.794	10552.59
575.155	10482.76
575.516	10509.88
575.877	10627.84
576.238	10782.64
576.599	10846.59
576.96	10903.09
577.32	10983.99
577.681	11105.8
578.042	11233.25
578.403	11231.89
578.763	11397.09
579.124	11487.48
579.485	11635.27
579.845	11736.74
580.206	11820.81
580.566	11984.64
580.927	12071.19
581.287	12270.28
581.648	12434.57
582.008	12566.77
582.368	12720.89
582.728	12908.69
583.089	13042.47
583.449	13192.75
583.809	13348.22
584.169	13569.23
584.529	13644.94
584.889	14048.54
585.249	14196.56
585.609	14361.98
585.969	14626.38
586.329	14803.55
586.688	15033.15
587.048	15231.56
587.408	15469.75
587.768	15744.54
588.127	15955.61
588.487	16275.38
588.846	16635.14
589.206	16755.14
589.565	16962.59
589.925	17360.77
590.284	17627.66
590.643	17876.24
591.003	18295.44
591.362	18507.18
591.721	18823.78
592.08	19053.38
592.44	19600.26
592.799	19758
593.158	20076.86
593.517	20365.44
593.876	20606.79
594.235	20873.67
594.593	21085.19
594.952	21502.81
595.311	21857.15
595.67	22167.2
596.029	22455.1
596.387	22846.28
596.746	23162.2
597.104	23328.75
597.463	23658.46
597.822	24084.21
598.18	24227.94
598.538	24533.01
598.897	24948.6
599.255	24973
599.613	25575.25
599.972	25724.62
600.33	26043.48
600.688	26264.72
601.046	26684.37
601.404	27020.41
601.762	27298.82
602.12	27724.57
602.478	27915.52
602.836	28153.71
603.194	28339.69
603.552	28651.1
603.91	28804.31
604.268	29085.21
604.625	29379.44
604.983	29750.73
605.341	29831.63
605.698	30313.43
606.056	30585.74
606.413	30696.69
606.771	31111.37
607.128	31255.55
607.485	31461.42
607.843	31698.25
608.2	31946.6
608.557	32312.7
608.914	32287.39
609.272	32653.93
609.629	32928.5
609.986	33101.38
610.343	33284.87
610.7	33589.95
611.057	33733.45
611.414	33909.94
611.771	34158.97
612.127	34440.1
612.484	34498.85
612.841	34815.45
613.198	34860.43
613.554	35123.92
613.911	35410.02
614.267	35484.82
614.624	35577.24
614.98	35952.15
615.337	36214.74
615.693	36159.37
616.05	36320.5
616.406	36664.67
616.762	36792.58
617.118	36861.95
617.475	37043.42
617.831	37180.59
618.187	37186.47
618.543	37533.35
618.899	37758.88
619.255	37750.07
619.611	37852.66
619.967	38079.32
620.323	38227.79
620.678	38237.06
621.034	38336.72
621.39	38432.99
621.746	38503.72
622.101	38873.88
622.457	38686.54
622.812	38897.38
623.168	39112.74
623.523	39090.14
623.879	39372.62
624.234	39110.71
624.589	39395.67
624.945	39388.44
625.3	39624.37
625.655	39662.56
626.01	39787.08
626.365	39728.32
626.72	39841.54
627.075	39883.34
627.43	39979.84
627.785	39923.57
628.14	40022.1
628.495	40019.61
628.85	39978.03
629.205	40070.46
629.559	40448.3
629.914	40246.5
630.269	40397.68
630.623	40323.56
630.978	40306.61
631.332	40379.15
631.687	40603.1
632.041	40333.73
632.396	40463.22
632.75	40317.23
633.104	40587.28
633.459	40414.18
633.813	40410.79
634.167	40309.1
634.521	40592.93
634.875	40650.78
635.229	40455.31
635.583	40495.98
635.937	40410.79
636.291	40338.93
636.645	40411.92
636.999	40387.29
637.352	40559.26
637.706	40466.38
638.06	40437.91
638.413	40459.6
638.767	40395.87
639.121	40507.51
639.474	40246.05
639.828	40246.72
640.181	40379.15
640.534	40410.11
640.888	40291.92
641.241	40107.74
641.594	40236.33
641.947	40380.73
642.301	40368.98
642.654	40404.46
643.007	40379.38
643.36	40280.85
643.713	40255.76
644.066	40586.38
644.419	40111.13
644.771	39930.35
645.124	39721.31
645.477	39570.81
645.83	39289.46
646.182	39389.12
646.535	39083.82
646.888	39229.8
647.24	39003.14
647.593	39291.72
647.945	39138.96
648.298	39006.53
648.65	39022.8
649.002	38964.27
649.355	39102.57
649.707	39083.59
650.059	39255.11
650.411	39765.38
650.763	39869.33
651.115	40013.51
651.467	39955.21
651.819	40045.6
652.171	39860.52
652.523	39924.02
652.875	39881.99
653.227	39685.61
653.578	40001.31
653.93	39892.84
654.282	39700.52
654.633	39695.33
654.985	39868.43
655.337	39830.92
655.688	39824.59
656.039	39906.17
656.391	39619.4
656.742	39681.54
657.094	39700.98
657.445	39852.38
657.796	39740.75
658.147	39662.56
658.498	39673.86
658.849	39675.44
659.2	39584.14
659.551	39650.13
659.902	39712.28
660.253	39645.16
660.604	39736
660.955	39458.5
661.306	39588.21
661.656	39604.03
662.007	39588.66
662.358	39516.35
662.708	39590.02
663.059	39674.31
663.409	39407.42
663.76	39710.02
664.11	39608.1
664.461	39671.15
664.811	39453.07
665.161	39537.36
665.511	39471.6
665.862	39616.68
666.212	39723.8
666.562	39668.43
666.912	39616.46
667.262	39474.09
667.612	39529.23
667.962	39544.82
668.312	39567.87
668.662	39694.65
669.011	39605.84
669.361	39628.89
669.711	39529.45
670.06	39444.49
670.41	39425.5
670.76	39267.54
671.109	39478.83
671.459	39450.14
671.808	39235
672.157	39423.02
672.507	39046.08
672.856	39078.62
673.205	39218.73
673.554	39242
673.904	39086.3
674.253	39293.75
674.602	39193.87
674.951	38587.33
675.3	38519.76
675.649	39308.67
675.998	38987.32
676.346	39260.08
676.695	39150.26
677.044	38889.02
677.393	38979.19
677.741	39070.26
678.09	39041.33
678.438	38897.83
678.787	39034.1
679.135	38906.42
679.484	38714.11
679.832	38911.39
680.181	38690.16
680.529	38721.79
680.877	38558.18
681.225	38790.27
681.573	38804.5
681.922	38516.15
682.27	38440.44
682.618	38492.65
682.966	38238.42
683.314	38305.08
683.661	38269.38
684.009	38131.53
684.357	38127.23
684.705	37994.35
685.053	38045.43
685.4	37904.64
685.748	37835.04
686.095	37824.64
686.443	37768.6
686.79	37651.31
687.138	37811.76
687.485	37703.74
687.832	37523.41
688.18	37635.72
688.527	37453.8
688.874	37333.58
689.221	37262.85
689.568	37302.17
689.915	37144.43
690.262	37093.36
690.609	37115.73
690.956	36843.2
691.303	36795.97
691.65	36774.05
691.997	36770.88
692.344	36583.32
692.69	36556.2
693.037	36614.05
693.383	36323.44
693.73	36423.77
694.077	36082.77
694.423	36155.76
694.769	36186.04
695.116	35916.22
695.462	35869.89
695.808	35795.09
696.155	36022.65
696.501	35676.45
696.847	35723.45
697.193	35420.41
697.539	35536.11
697.885	35260.19
698.231	35236.46
698.577	35168.21
698.923	35042.79
699.269	34901.78
699.614	34920.76
699.96	34708.56
700.306	34683.48
700.651	34545.63
700.997	34494.56
701.342	34501.34
701.688	34392.19
702.033	34260.89
702.379	34269.48
702.724	34207.34
703.069	34147.22
703.415	33785.43
703.76	33824.52
704.105	33812.54
704.45	33759.89
704.795	33570.97
705.14	33414.59
705.485	33314.48
705.83	33254.82
706.175	33341.14
706.52	33382.72
706.865	33168.27
707.209	33161.03
707.554	33029.51
707.899	33019.8
708.243	32840.82
708.588	32780.93
708.932	32655.51
709.277	32549.07
709.621	32534.38
709.966	32367.61
710.31	32405.57
710.654	32196.09
710.998	32263.66
711.342	32246.48
711.687	32135.07
712.031	32005.36
712.375	31905.7
712.719	32076.77
713.063	32039.71
713.407	31916.32
713.75	31751.81
714.094	31672.94
714.438	31664.58
714.782	31687.63
715.125	31550.23
715.469	31599.49
715.812	31254.64
716.156	31228.66
716.499	31232.72
716.843	31278.6
717.186	31192.27
717.53	31350.24
717.873	31221.2
718.216	31207.64
718.559	31017.59
718.902	30845.84
719.246	30958.38
719.589	30809.46
719.932	30712.96
720.275	30761.32
720.617	30560.65
720.96	30603.36
721.303	30649.69
721.646	30620.08
721.989	30425.06
722.331	30455.34
722.674	30305.52
723.016	30296.7
723.359	30317.95
723.701	30350.71
724.044	30126.09
724.386	29870.95
724.729	29934
725.071	30043.15
725.413	29931.97
725.755	29868.24
726.097	29807.68
726.439	29647.91
726.782	29777.62
727.124	29852.65
727.465	29713.22
727.807	29675.25
728.149	29540.79
728.491	29576.04
728.833	29530.62
729.175	29385.31
729.516	29373.56
729.858	29327.69
730.199	29444.3
730.541	29385.09
730.882	29188.48
731.224	29243.62
731.565	29068.04
731.906	29161.82
732.248	29059.67
732.589	29009.73
732.93	28920.02
733.271	28894.48
733.612	28841.83
733.953	29004.76
734.294	28862.84
734.635	28802.73
734.976	28788.27
735.317	28700.59
735.658	28670.53
735.999	28639.12
736.339	28656.07
736.68	28642.06
737.021	28535.39
737.361	28470.76
737.702	28610.65
738.042	28547.37
738.383	28383.53
738.723	28488.84
739.063	28470.99
739.404	28327.49
739.744	28275.06
740.084	28291.33
740.424	28203.65
740.764	28157.32
741.104	28293.82
741.444	28112.58
741.784	27968.18
742.124	28109.42
742.464	28028.29
742.804	27971.34
743.143	27911.46
743.483	27985.8
743.823	27805.7
744.162	27940.16
744.502	27845.92
744.841	27694.74
745.181	27848.63
745.52	27657.45
745.86	27734.51
746.199	27710.33
746.538	27804.11
746.877	27647.28
747.216	27704.68
747.556	27614.51
747.895	27643.67
748.234	27345.59
748.573	27414.75
748.911	27421.52
749.25	27317.12
749.589	27280.29
749.928	27435.08
750.267	27353.5
750.605	27294.75
750.944	27220.63
751.283	27081.65
751.621	27286.39
751.96	27037.81
752.298	27086.62
752.636	27132.27
752.975	27005.04
753.313	26823.35
753.651	27082.32
753.989	26961.42
754.327	26772.73
754.666	26726.4
755.004	26786.97
755.342	26825.61
755.679	26749.9
756.017	26544.03
756.355	26645.5
756.693	26531.83
757.031	26637.36
757.368	26500.65
757.706	26396.47
758.044	26373.64
758.381	26457.93
758.719	26340.88
