Data from hue_270_FLMS001491_00098.txt Node
Date: Tue Feb 07 15:57:57 GMT 2017
User: dcchb
Spectrometer: FLMS00149
Trigger mode: 0
Integration Time (sec): 2.000000E-2
Scans to average: 10
Electric dark correction enabled: true
Nonlinearity correction enabled: false
Boxcar width: 0
XAxis mode: Wavelengths
Number of Pixels in Spectrum: 2048
>>>>>Begin Spectral Data<<<<<
341.393	-20.95
341.776	-20.95
342.16	-20.95
342.543	-64.11
342.927	-72.02
343.31	-87.61
343.693	-80.83
344.077	-73.37
344.46	-43.32
344.843	-34.28
345.226	-44.9
345.61	-32.02
345.993	-8.52
346.376	-5.58
346.759	13.86
347.142	29.45
347.525	29.22
347.908	74.87
348.291	70.8
348.674	72.61
349.057	119.62
349.44	124.59
349.823	148.99
350.206	149.9
350.588	180.63
350.971	192.38
351.354	219.73
351.737	206.84
352.119	241.42
352.502	262.21
352.884	264.02
353.267	273.06
353.65	286.16
354.032	295.2
354.414	295.2
354.797	294.3
355.179	304.92
355.562	311.47
355.944	333.62
356.326	320.06
356.709	327.52
357.091	325.94
357.473	339.95
357.855	344.92
358.238	332.72
358.62	334.07
359.002	333.17
359.384	312.83
359.766	346.95
360.148	305.15
360.53	341.98
360.912	320.51
361.294	325.71
361.676	344.02
362.057	311.47
362.439	320.97
362.821	315.54
363.203	344.02
363.584	328.42
363.966	301.53
364.348	316.45
364.729	292.72
365.111	310.8
365.493	324.58
365.874	279.84
366.256	309.89
366.637	295.66
367.019	303.79
367.4	306.5
367.781	304.24
368.163	287.29
368.544	299.72
368.925	302.66
369.306	327.97
369.688	289.1
370.069	298.59
370.45	293.4
370.831	301.76
371.212	331.36
371.593	301.98
371.974	294.53
372.355	300.63
372.736	283.9
373.117	315.99
373.498	323.9
373.879	296.56
374.26	309.89
374.641	314.19
375.021	317.8
375.402	315.99
375.783	323
376.163	324.58
376.544	308.99
376.925	307.41
377.305	326.16
377.686	322.32
378.066	314.86
378.447	317.35
378.827	359.16
379.208	329.55
379.588	307.63
379.968	314.19
380.349	332.72
380.729	333.62
381.109	319.16
381.489	337.46
381.87	334.75
382.25	322.77
382.63	333.4
383.01	327.07
383.39	343.56
383.77	322.1
384.15	334.3
384.53	342.21
384.91	346.95
385.29	339.27
385.67	358.71
386.049	338.82
386.429	361.87
386.809	336.56
387.189	360.97
387.568	366.39
387.948	343.34
388.328	361.42
388.707	370.68
389.087	366.39
389.466	338.59
389.846	341.53
390.225	366.84
390.605	382.89
390.984	359.38
391.363	357.58
391.743	364.81
392.122	347.63
392.501	380.63
392.881	392.83
393.26	362.09
393.639	379.72
394.018	371.81
394.397	409.55
394.776	369.33
395.155	394.64
395.534	394.64
395.913	385.15
396.292	393.73
396.671	398.25
397.05	381.76
397.429	405.03
397.808	383.56
398.186	404.35
398.565	390.57
398.944	393.28
399.323	402.55
399.701	406.61
400.08	404.58
400.458	398.25
400.837	405.48
401.215	417.69
401.594	400.06
401.972	409.1
402.351	425.6
402.729	428.08
403.107	428.08
403.486	412.49
403.864	428.08
404.242	438.93
404.62	432.6
404.999	432.15
405.377	430.12
405.755	457.91
406.133	472.6
406.511	462.43
406.889	457.01
407.267	467.18
407.645	465.14
408.023	463.56
408.401	472.37
408.779	483.9
409.156	498.36
409.534	492.26
409.912	509.44
410.29	499.49
410.667	516.89
411.045	493.16
411.422	526.16
411.8	549.21
412.178	541.53
412.555	551.02
412.933	547.17
413.31	537.46
413.687	572.94
414.065	579.94
414.442	602.31
414.819	593.73
415.197	616.55
415.574	595.76
415.951	604.35
416.328	614.07
416.705	605.03
417.082	625.82
417.46	624.23
417.837	628.75
418.214	633.5
418.591	632.6
418.967	643.44
419.344	683.89
419.721	675.76
420.098	699.04
420.475	692.93
420.852	684.8
421.228	695.42
421.605	722.76
421.982	741.52
422.358	718.92
422.735	733.38
423.111	745.81
423.488	753.95
423.864	774.97
424.241	781.74
424.617	807.06
424.994	794.85
425.37	809.77
425.746	826.49
426.123	863.55
426.499	836.66
426.875	856.77
427.251	851.35
427.627	863.1
428.003	859.03
428.379	896.32
428.756	929.76
429.132	910.33
429.507	922.53
429.883	941.06
430.259	963.44
430.635	946.03
431.011	953.49
431.387	976.09
431.763	984.23
432.138	1014.28
432.514	1014.06
432.89	1044.34
433.265	1055.86
433.641	1058.57
434.016	1070.78
434.392	1086.6
434.767	1093.15
435.143	1144.45
435.518	1140.38
435.894	1149.64
436.269	1191.45
436.644	1180.38
437.02	1226.48
437.395	1210.21
437.77	1208.17
438.145	1266.93
438.52	1247.72
438.895	1285.46
439.271	1285.69
439.646	1300.83
440.021	1337.21
440.395	1347.61
440.77	1351
441.145	1337.89
441.52	1387.15
441.895	1408.62
442.27	1400.03
442.645	1408.85
443.019	1426.7
443.394	1442.29
443.769	1461.28
444.143	1457.66
444.518	1474.83
444.892	1459.24
445.267	1455.85
445.641	1495.4
446.016	1506.7
446.39	1528.84
446.764	1519.13
447.139	1494.27
447.513	1560.48
447.887	1547.83
448.262	1546.92
448.636	1582.85
449.01	1603.19
449.384	1615.17
449.758	1607.94
450.132	1612.46
450.506	1653.13
450.88	1621.27
451.254	1656.07
451.628	1652.68
452.002	1665.11
452.376	1691.55
452.75	1700.36
453.123	1689.74
453.497	1729.74
453.871	1741.27
454.244	1788.95
454.618	1776.52
454.992	1816.29
455.365	1819.46
455.739	1840.93
456.112	1879.57
456.486	1867.82
456.859	1896.29
457.232	1895.39
457.606	1895.61
457.979	1913.47
458.352	1941.04
458.725	1977.42
459.099	1999.79
459.472	2040.47
459.845	2026.23
460.218	2059.68
460.591	2087.47
460.964	2062.16
461.337	2121.82
461.71	2129.96
462.083	2196.4
462.456	2180.58
462.829	2201.82
463.201	2208.83
463.574	2226.23
463.947	2242.5
464.32	2293.34
464.692	2297.41
465.065	2308.94
465.438	2367.92
465.81	2368.14
466.183	2422.61
466.555	2431.65
466.928	2432.55
467.3	2408.14
467.672	2463.28
468.045	2462.83
468.417	2539.44
468.789	2536.5
469.161	2562.49
469.534	2610.85
469.906	2647.23
470.278	2625.54
470.65	2652.66
471.022	2727.23
471.394	2725.2
471.766	2796.38
472.138	2813.1
472.51	2842.48
472.882	2892.88
473.253	2911.63
473.625	2944.63
473.997	3025.3
474.369	3038.86
474.74	3004.74
475.112	3078.18
475.484	3139.42
475.855	3163.83
476.227	3184.62
476.598	3246.31
476.97	3250.15
477.341	3352.98
477.713	3363.15
478.084	3406.08
478.455	3478.17
478.827	3498.06
479.198	3595.46
479.569	3537.83
479.94	3640.65
480.311	3723.36
480.682	3761.1
481.053	3792.74
481.424	3849.46
481.795	3881.55
482.166	3929.01
482.537	3948.67
482.908	4010.36
483.279	4051.49
483.65	4119.51
484.021	4174.88
484.391	4232.95
484.762	4222.11
485.133	4281.09
485.503	4287.19
485.874	4413.74
486.244	4392.72
486.615	4499.84
486.985	4520.86
487.356	4576.67
487.726	4569.44
488.097	4685.82
488.467	4674.3
488.837	4761.98
489.207	4837.68
489.578	4860.96
489.948	4905.03
490.318	4971.01
490.688	4968.3
491.058	5001.52
491.428	5105.02
491.798	5162.42
492.168	5263.66
492.538	5205.58
492.908	5269.08
493.278	5298.91
493.648	5338.69
494.017	5333.72
494.387	5387.5
494.757	5471.34
495.126	5488.74
495.496	5473.82
495.866	5483.77
496.235	5546.59
496.605	5587.27
496.974	5637.44
497.344	5654.16
497.713	5659.58
498.082	5732.58
498.452	5802.4
498.821	5808.05
499.19	5777.77
499.559	5894.83
499.928	5867.26
500.298	5850.76
500.667	5945.9
501.036	5925.79
501.405	5960.59
501.774	5990.2
502.143	5963.3
502.512	6009.86
502.88	6067.03
503.249	6048.73
503.618	6131.89
503.987	6057.54
504.356	6151.32
504.724	6188.83
505.093	6220.92
505.462	6199.68
505.83	6225.9
506.199	6216.63
506.567	6323.52
506.936	6335.5
507.304	6347.47
507.672	6292.56
508.041	6389.96
508.409	6429.05
508.777	6394.03
509.145	6416.85
509.514	6450.97
509.882	6431.54
510.25	6479.45
510.618	6492.56
510.986	6493.01
511.354	6563.06
511.722	6591.99
512.09	6627.69
512.458	6630.86
512.826	6654.81
513.193	6639.67
513.561	6635.38
513.929	6689.16
514.297	6774.81
514.664	6749.27
515.032	6751.31
515.4	6790.17
515.767	6789.72
516.135	6803.73
516.502	6768.03
516.869	6847.12
517.237	6820.91
517.604	6848.03
517.972	6803.51
518.339	6876.5
518.706	6914.69
519.073	6880.34
519.44	6872.21
519.808	6989.72
520.175	6948.14
520.542	6966.22
520.909	6965.76
521.276	6962.83
521.643	7019.1
522.009	7085.08
522.376	7158.3
522.743	7081.01
523.11	7156.27
523.477	7150.62
523.843	7229.94
524.21	7228.81
524.577	7288.47
524.943	7260.9
525.31	7299.31
525.676	7284.4
526.043	7366.88
526.409	7362.59
526.776	7438.75
527.142	7316.94
527.508	7396.71
527.874	7382.48
528.241	7465.64
528.607	7452.08
528.973	7551.51
529.339	7554
529.705	7498.63
530.071	7617.5
530.437	7629.93
530.803	7657.27
531.169	7670.15
531.535	7649.14
531.901	7653.43
532.267	7645.75
532.632	7728.23
532.998	7695.91
533.364	7735.91
533.73	7726.87
534.095	7761.45
534.461	7760.77
534.826	7763.71
535.192	7788.11
535.557	7813.42
535.923	7782.69
536.288	7838.96
536.653	7798.96
537.019	7802.35
537.384	7836.93
537.749	7942.46
538.114	7826.31
538.479	7836.7
538.845	7876.02
539.21	7883.93
539.575	7852.29
539.94	7897.94
540.305	7985.4
540.67	7899.52
541.034	7869.69
541.399	7877.6
541.764	7942.01
542.129	7985.4
542.494	7920.31
542.858	7979.3
543.223	7944.27
543.587	8019.07
543.952	7964.15
544.316	7960.77
544.681	8005.28
545.045	7969.35
545.41	8029.01
545.774	8076.02
546.138	8034.21
546.503	8000.54
546.867	8015.23
547.231	8099.07
547.595	8063.81
547.959	8087.77
548.324	8034.89
548.688	8049.35
549.052	8066.07
549.416	8101.33
549.779	8119.18
550.143	8096.13
550.507	8157.37
550.871	8132.96
551.235	8115.56
551.599	8151.95
551.962	8142.91
552.326	8148.78
552.689	8156.01
553.053	8092.74
553.417	8139.07
553.78	8259.06
554.143	8152.4
554.507	8242.57
554.87	8233.3
555.234	8266.29
555.597	8231.27
555.96	8240.08
556.323	8270.14
556.686	8272.4
557.05	8325.28
557.413	8323.92
557.776	8292.06
558.139	8352.17
558.502	8403.92
558.865	8422.22
559.228	8429.23
559.59	8488.89
559.953	8513.75
560.316	8542.9
560.679	8528.21
561.041	8534.08
561.404	8572.27
561.767	8677.81
562.129	8607.3
562.492	8683.68
562.854	8671.93
563.217	8652.95
563.579	8705.83
563.941	8717.13
564.304	8707.86
564.666	8842.32
565.028	8803.68
565.39	8796.68
565.753	8915.77
566.115	8918.03
566.477	8875.32
566.839	8985.15
567.201	9064.92
567.563	9000.51
567.925	9053.17
568.287	9018.36
568.648	9062.88
569.01	9095.88
569.372	9123.45
569.734	9137.91
570.095	9207.96
570.457	9271.01
570.819	9258.13
571.18	9306.04
571.542	9261.75
571.903	9392.82
572.265	9401.63
572.626	9436.21
572.987	9425.13
573.349	9440.95
573.71	9509.2
574.071	9504.45
574.432	9557.79
574.794	9559.82
575.155	9569.54
575.516	9552.81
575.877	9638.46
576.238	9748.51
576.599	9700.61
576.96	9756.42
577.32	9765.01
577.681	9819.93
578.042	9823.99
578.403	9813.37
578.763	9855.18
579.124	9864.22
579.485	9929.53
579.845	9929.75
580.206	10004.55
580.566	9974.05
580.927	10026.25
581.287	10153.93
581.648	10031.22
582.008	10121.61
582.368	10206.13
582.728	10150.76
583.089	10211.78
583.449	10182.85
583.809	10266.47
584.169	10298.1
584.529	10305.79
584.889	10358.67
585.249	10284.77
585.609	10283.19
585.969	10388.72
586.329	10386.24
586.688	10455.84
587.048	10445.9
587.408	10437.76
587.768	10536.29
588.127	10554.6
588.487	10498.55
588.846	10653.58
589.206	10551.88
589.565	10620.13
589.925	10671.88
590.284	10636.4
590.643	10724.08
591.003	10731.31
591.362	10850.63
591.721	10774.48
592.08	10834.14
592.44	10796.17
592.799	10844.53
593.158	10815.83
593.517	10875.26
593.876	10891.76
594.235	10947.81
594.593	10858.99
594.952	10994.81
595.311	11007.69
595.67	10995.49
596.029	11041.81
596.387	11079.33
596.746	11084.3
597.104	11042.49
597.463	11079.55
597.822	11097.86
598.18	11109.83
598.538	11108.93
598.897	11202.71
599.255	11035.71
599.613	11229.38
599.972	11142.6
600.33	11186.44
600.688	11129.27
601.046	11228.93
601.404	11302.82
601.762	11270.96
602.12	11354.8
602.478	11360.22
602.836	11256.27
603.194	11233.9
603.552	11301.02
603.91	11326.33
604.268	11339.66
604.625	11292.2
604.983	11357.74
605.341	11275.03
605.698	11407.68
606.056	11392.77
606.413	11428.02
606.771	11409.94
607.128	11442.48
607.485	11375.36
607.843	11464.18
608.2	11500.56
608.557	11537.62
608.914	11451.52
609.272	11516.38
609.629	11512.76
609.986	11559.31
610.343	11525.64
610.7	11575.13
611.057	11537.62
611.414	11566.77
611.771	11621.46
612.127	11662.59
612.484	11645.64
612.841	11650.16
613.198	11583.04
613.554	11651.06
613.911	11712.08
614.267	11666.43
614.624	11712.31
614.98	11725.41
615.337	11772.64
615.693	11813.55
616.05	11747.78
616.406	11852.41
616.762	11804.96
617.118	11760.21
617.475	11749.37
617.831	11846.31
618.187	11835.92
618.543	11897.61
618.899	11920.66
619.255	11843.83
619.611	11811.51
619.967	11840.44
620.323	11883.83
620.678	11896.03
621.034	11833.43
621.39	11852.87
621.746	11868.69
622.101	11990.49
622.457	11898.74
622.812	12004.95
623.168	11809.48
623.523	11952.3
623.879	12000.43
624.234	11903.26
624.589	11839.76
624.945	11916.82
625.3	11943.26
625.655	11929.02
626.01	11942.58
626.365	11901.68
626.72	11852.19
627.075	11904.62
627.43	11840.44
627.785	11887.44
628.14	11925.86
628.495	11879.08
628.85	11886.54
629.205	11800.21
629.559	11875.69
629.914	11849.02
630.269	11892.41
630.623	11800.66
630.978	11783.04
631.332	11777.61
631.687	11882.7
632.041	11766.31
632.396	11804.05
632.75	11726.77
633.104	11753.21
633.459	11604.51
633.813	11701.91
634.167	11685.19
634.521	11734.45
634.875	11668.01
635.229	11715.24
635.583	11667.56
635.937	11635.02
636.291	11609.03
636.645	11667.11
636.999	11569.03
637.352	11559.31
637.706	11550.5
638.06	11654.91
638.413	11554.57
638.767	11537.85
639.121	11477.73
639.474	11502.37
639.828	11498.07
640.181	11565.19
640.534	11550.95
640.888	11511.18
641.241	11423.27
641.594	11413.56
641.947	11501.01
642.301	11480.22
642.654	11466.44
643.007	11509.15
643.36	11479.54
643.713	11441.58
644.066	11511.18
644.419	11404.97
644.771	11370.17
645.124	11180.34
645.477	11149.16
645.83	11073.23
646.182	11044.98
646.535	11027.58
646.888	11026.22
647.24	10967.69
647.593	11074.13
647.945	11007.46
648.298	11015.6
648.65	10964.75
649.002	10947.13
649.355	11009.05
649.707	10998.43
650.059	11115.71
650.411	11103.06
650.763	11175.82
651.115	11260.11
651.467	11283.84
651.819	11247.91
652.171	11178.99
652.523	11232.32
652.875	11248.14
653.227	11200.23
653.578	11219.21
653.93	11272.77
654.282	11199.32
654.633	11145.54
654.985	11235.03
655.337	11257.63
655.688	11254.24
656.039	11185.77
656.391	11123.85
656.742	11158.42
657.094	11227.57
657.445	11221.24
657.796	11209.72
658.147	11233.22
658.498	11129.95
658.849	11254.69
659.2	11162.71
659.551	11203.62
659.902	11223.5
660.253	11187.12
660.604	11224.41
660.955	11193
661.306	11161.36
661.656	11139.89
662.007	11229.15
662.358	11211.53
662.708	11215.82
663.059	11288.36
663.409	11141.25
663.76	11244.97
664.11	11211.98
664.461	11193.45
664.811	11259.21
665.161	11268.25
665.511	11171.08
665.862	11185.54
666.212	11288.36
666.562	11182.38
666.912	11197.06
667.262	11174.47
667.612	11175.82
667.962	11195.26
668.312	11180.34
668.662	11228.02
669.011	11197.52
669.361	11188.03
669.711	11133.79
670.06	11133.34
670.41	11114.35
670.76	11109.83
671.109	11203.62
671.459	11193.67
671.808	11122.49
672.157	11143.05
672.507	11094.69
672.856	11119.55
673.205	11102.38
673.554	11171.3
673.904	11049.95
674.253	11093.56
674.602	11089.72
674.951	11018.54
675.3	10875.49
675.649	11033
675.998	10996.39
676.346	11001.59
676.695	11087.69
677.044	10983.28
677.393	11023.28
677.741	10989.61
678.09	10982.83
678.438	10967.92
678.787	10991.65
679.135	10983.96
679.484	10934.02
679.832	10919.56
680.181	10851.76
680.529	10835.27
680.877	10887.47
681.225	10848.37
681.573	10891.08
681.922	10842.5
682.27	10771.09
682.618	10795.94
682.966	10777.41
683.314	10774.25
683.661	10737.87
684.009	10683.63
684.357	10676.4
684.705	10684.99
685.053	10629.85
685.4	10682.73
685.748	10569.28
686.095	10561.83
686.443	10458.78
686.79	10511.21
687.138	10495.16
687.485	10458.33
687.832	10494.48
688.18	10497.2
688.527	10423.3
688.874	10386.01
689.221	10328.16
689.568	10337.2
689.915	10318.9
690.262	10275.73
690.609	10205
690.956	10177.43
691.303	10206.58
691.65	10128.39
691.997	10086.81
692.344	10063.53
692.69	10043.65
693.037	10045.46
693.383	10077.09
693.73	10014.04
694.077	10006.81
694.423	9877.55
694.769	9937.21
695.116	9828.96
695.462	9782.41
695.808	9793.03
696.155	9834.61
696.501	9711.91
696.847	9755.29
697.193	9634.39
697.539	9631.68
697.885	9574.06
698.231	9529.99
698.577	9566.82
698.923	9512.59
699.269	9495.64
699.614	9431.46
699.96	9419.26
700.306	9375.42
700.651	9352.82
700.997	9294.29
701.342	9222.65
701.688	9347.85
702.033	9233.05
702.379	9262.2
702.724	9218.13
703.069	9270.11
703.415	9084.13
703.76	9119.6
704.105	9023.56
704.45	9074.86
704.795	9067.4
705.14	9056.78
705.485	8949.44
705.83	8901.08
706.175	8955.09
706.52	8867.63
706.865	8854.53
707.209	8879.16
707.554	8843.91
707.899	8838.26
708.243	8778.14
708.588	8781.08
708.932	8695.89
709.277	8677.36
709.621	8725.04
709.966	8637.36
710.31	8691.37
710.654	8541.31
710.998	8585.16
711.342	8570.24
711.687	8533.86
712.031	8523.46
712.375	8494.54
712.719	8549.68
713.063	8523.91
713.407	8463.58
713.75	8463.58
714.094	8464.03
714.438	8426.97
714.782	8382.22
715.125	8323.24
715.469	8412.5
715.812	8316.46
716.156	8338.83
716.499	8285.05
716.843	8337.03
717.186	8313.98
717.53	8269.46
717.873	8258.38
718.216	8327.76
718.559	8267.2
718.902	8194.66
719.246	8172.74
719.589	8218.39
719.932	8179.97
720.275	8180.19
720.617	8154.88
720.96	8096.35
721.303	8133.87
721.646	8189.91
721.989	8143.59
722.331	8090.71
722.674	8133.87
723.016	8075.79
723.359	8022.23
723.701	8042.57
724.044	7991.72
724.386	8029.92
724.729	8031.05
725.071	8067.88
725.413	8031.5
725.755	7970.71
726.097	7970.48
726.439	7975
726.782	7956.02
727.124	7997.15
727.465	7972.52
727.807	7949.01
728.149	7914.66
728.491	7974.55
728.833	7963.03
729.175	7976.58
729.516	7918.73
729.858	7920.54
730.199	7891.39
730.541	7876.47
730.882	7902.91
731.224	7861.56
731.565	7909.02
731.906	7868.79
732.248	7864.5
732.589	7857.72
732.93	7828.34
733.271	7837.83
733.612	7882.12
733.953	7891.84
734.294	7889.81
734.635	7782.01
734.976	7864.04
735.317	7874.89
735.658	7822.92
735.999	7793.09
736.339	7813.2
736.68	7860.2
737.021	7833.76
737.361	7895
737.702	7853.2
738.042	7883.03
738.383	7842.58
738.723	7904.95
739.063	7922.12
739.404	7865.4
739.744	7905.63
740.084	7839.19
740.424	7913.31
740.764	7898.62
741.104	7922.57
741.444	7918.28
741.784	7981.33
742.124	7916.92
742.464	7965.74
742.804	7986.75
743.143	7966.19
743.483	7986.3
743.823	7969.35
744.162	8006.41
744.502	8049.58
744.841	8087.99
745.181	8108.56
745.52	8139.52
745.86	8200.98
746.199	8112.63
746.538	8193.53
746.877	8256.35
747.216	8311.94
747.556	8369.34
747.895	8405.27
748.234	8396.91
748.573	8475.55
748.911	8497.47
749.25	8543.57
749.589	8554.2
749.928	8638.04
750.267	8699.05
750.605	8754.19
750.944	8800.97
751.283	8802.78
751.621	8998.7
751.96	8928.2
752.298	9007.52
752.636	9096.33
752.975	9176.33
753.313	9273.95
753.651	9317.34
753.989	9423.33
754.327	9500.61
754.666	9593.04
755.004	9716.43
755.342	9835.97
755.679	9988.06
756.017	10041.84
756.355	10189.18
756.693	10225.56
757.031	10458.1
757.368	10485.67
757.706	10658.32
758.044	10737.19
758.381	10972.66
758.719	11085.65
759.056	11170.4
759.394	11262.37
759.731	11412.2
760.068	11603.38
760.405	11672.53
760.743	11802.02
761.08	12081.56
761.417	12101.67
761.754	12301.89
762.091	12433.19
762.428	12627.31
