Data from hue_28_FLMS001491_00030.txt Node
Date: Tue Feb 07 17:17:04 GMT 2017
User: dcchb
Spectrometer: FLMS00149
Trigger mode: 0
Integration Time (sec): 2.000000E-2
Scans to average: 10
Electric dark correction enabled: true
Nonlinearity correction enabled: false
Boxcar width: 0
XAxis mode: Wavelengths
Number of Pixels in Spectrum: 2048
>>>>>Begin Spectral Data<<<<<
341.393	-10.61
341.776	-10.61
342.16	-10.61
342.543	-69.36
342.927	-70.94
343.31	-72.98
343.693	-94.22
344.077	-69.14
344.46	-47.67
344.843	-58.06
345.226	-28.69
345.61	-41.11
345.993	-22.81
346.376	4.31
346.759	7.02
347.142	24.19
347.525	55.15
347.908	64.87
348.291	73.68
348.674	103.74
349.057	101.71
349.44	144.42
349.823	128.15
350.206	162.04
350.588	199.56
350.971	221.93
351.354	233.68
351.737	255.37
352.119	254.02
352.502	276.17
352.884	279.78
353.267	289.72
353.65	289.05
354.032	323.85
354.414	302.38
354.797	320.91
355.179	327.46
355.562	342.6
355.944	331.98
356.326	340.8
356.709	337.86
357.091	348.25
357.473	357.74
357.855	340.12
358.238	317.75
358.62	333.34
359.002	338.54
359.384	361.81
359.766	342.83
360.148	345.54
360.53	348.48
360.912	354.36
361.294	348.48
361.676	355.26
362.057	365.88
362.439	331.98
362.821	319.1
363.203	328.82
363.584	336.73
363.966	336.73
364.348	322.49
364.729	332.43
365.111	333.34
365.493	321.36
365.874	310.74
366.256	318.65
366.637	322.49
367.019	314.13
367.4	325.66
367.781	313.9
368.163	308.25
368.544	313.45
368.925	308.93
369.306	328.37
369.688	317.97
370.069	312.32
370.45	322.94
370.831	324.75
371.212	306.45
371.593	320.46
371.974	322.04
372.355	313.23
372.736	317.29
373.117	307.12
373.498	312.55
373.879	327.92
374.26	313.23
374.641	308.03
375.021	316.16
375.402	343.28
375.783	320.68
376.163	327.24
376.544	321.81
376.925	331.76
377.305	324.53
377.686	330.17
378.066	322.27
378.447	353.68
378.827	348.48
379.208	349.38
379.588	320.91
379.968	337.41
380.349	350.29
380.729	339.89
381.109	349.38
381.489	361.59
381.87	349.61
382.25	367.69
382.63	336.5
383.01	344.86
383.39	347.12
383.77	361.36
384.15	371.98
384.53	366.78
384.91	354.58
385.29	341.02
385.67	354.81
386.049	363.17
386.429	343.96
386.809	337.41
387.189	353.23
387.568	351.64
387.948	379.44
388.328	374.47
388.707	369.27
389.087	364.75
389.466	397.52
389.846	374.69
390.225	383.51
390.605	385.77
390.984	387.12
391.363	382.15
391.743	390.29
392.122	368.37
392.501	350.74
392.881	366.33
393.26	379.21
393.639	343.73
394.018	364.52
394.397	387.35
394.776	380.8
395.155	386.67
395.534	410.4
395.913	373.34
396.292	385.54
396.671	396.84
397.05	398.65
397.429	412.88
397.808	405.43
398.186	398.65
398.565	390.74
398.944	396.84
399.323	413.79
399.701	385.54
400.08	422.15
400.458	431.42
400.837	393.9
401.215	424.41
401.594	419.89
401.972	395.26
402.351	404.07
402.729	412.66
403.107	418.99
403.486	413.56
403.864	416.73
404.242	420.57
404.62	443.17
404.999	413.56
405.377	421.25
405.755	440.91
406.133	434.8
406.511	425.77
406.889	437.06
407.267	462.83
407.645	440.91
408.023	485.65
408.401	450.17
408.779	452.88
409.156	474.8
409.534	456.05
409.912	456.73
410.29	468.7
410.667	471.41
411.045	484.97
411.422	488.36
411.8	460.57
412.178	487.68
412.555	491.98
412.933	468.48
413.31	474.13
413.687	502.37
414.065	512.54
414.442	485.43
414.819	512.09
415.197	520
415.574	522.03
415.951	521.81
416.328	522.71
416.705	535.14
417.082	534.46
417.46	518.42
417.837	530.62
418.214	551.19
418.591	541.24
418.967	530.62
419.344	541.24
419.721	557.06
420.098	542.82
420.475	538.31
420.852	542.82
421.228	546.21
421.605	556.38
421.982	565.42
422.358	564.29
422.735	570.39
423.111	560.23
423.488	578.3
423.864	583.05
424.241	595.03
424.617	579.89
424.994	572.65
425.37	598.87
425.746	583.73
426.123	598.42
426.499	600.22
426.875	597.74
427.251	640
427.627	630.96
428.003	625.08
428.379	633.22
428.756	614.46
429.132	628.02
429.507	656.04
429.883	641.35
430.259	650.84
430.635	670.73
431.011	664.86
431.387	663.73
431.763	683.84
432.138	661.24
432.514	683.39
432.89	688.13
433.265	706.44
433.641	726.1
434.016	699.43
434.392	711.41
434.767	725.87
435.143	728.58
435.518	739.43
435.894	737.62
436.269	765.42
436.644	768.81
437.02	751.41
437.395	772.2
437.77	761.8
438.145	776.72
438.52	784.85
438.895	762.25
439.271	805.42
439.646	805.19
440.021	783.72
440.395	810.84
440.77	803.38
441.145	818.75
441.52	828.47
441.895	830.95
442.27	832.53
442.645	849.26
443.019	820.11
443.394	830.5
443.769	842.93
444.143	854.68
444.518	856.71
444.892	842.93
445.267	863.95
445.641	870.05
446.016	864.85
446.39	867.34
446.764	881.35
447.139	911.63
447.513	897.39
447.887	886.32
448.262	894.68
448.636	926.09
449.01	922.02
449.384	938.52
449.758	937.39
450.132	953.21
450.506	931.29
450.88	964.96
451.254	932.42
451.628	955.24
452.002	982.14
452.376	987.78
452.75	979.88
453.123	984.85
453.497	991.4
453.871	1023.49
454.244	1008.12
454.618	1018.97
454.992	1054.9
455.365	1040.66
455.739	1067.78
456.112	1061.68
456.486	1085.41
456.859	1113.43
457.232	1112.75
457.606	1119.98
457.979	1108.69
458.352	1143.03
458.725	1134.45
459.099	1164.73
459.472	1160.66
459.845	1202.69
460.218	1194.11
460.591	1192.53
460.964	1230.04
461.337	1237.5
461.71	1259.64
462.083	1291.96
462.456	1245.41
462.829	1276.82
463.201	1317.72
463.574	1289.47
463.947	1342.8
464.32	1342.8
464.692	1345.97
465.065	1361.33
465.438	1398.85
465.81	1401.79
466.183	1413.54
466.555	1424.16
466.928	1430.48
467.3	1443.59
467.672	1458.51
468.045	1499.18
468.417	1533.99
468.789	1510.26
469.161	1530.6
469.534	1611.72
469.906	1588.45
470.278	1612.63
470.65	1643.59
471.022	1656.02
471.394	1695.34
471.766	1717.26
472.138	1746.41
472.51	1776.01
472.882	1795.22
473.253	1837.25
473.625	1851.26
473.997	1893.52
474.369	1893.98
474.74	1922.22
475.112	1961.77
475.484	1993.86
475.855	2035.67
476.227	2064.59
476.598	2107.53
476.97	2137.13
477.341	2175.1
477.713	2201.54
478.084	2252.61
478.455	2298.48
478.827	2298.94
479.198	2419.61
479.569	2427.07
479.94	2518.82
480.311	2519.27
480.682	2600.4
481.053	2661.87
481.424	2719.04
481.795	2708.42
482.166	2783.9
482.537	2828.64
482.908	2865.02
483.279	2921.07
483.65	2985.7
484.021	3014.17
484.391	3098.92
484.762	3135.52
485.133	3192.47
485.503	3238.12
485.874	3269.53
486.244	3314.5
486.615	3419.13
486.985	3471.34
487.356	3568.51
487.726	3573.03
488.097	3667.04
488.467	3706.81
488.837	3793.13
489.207	3840.14
489.578	3928.5
489.948	3950.64
490.318	4018.44
490.688	4034.03
491.058	4128.04
491.428	4236.06
491.798	4234.25
492.168	4340.69
492.538	4340.01
492.908	4421.37
493.278	4472.44
493.648	4505.66
494.017	4606.67
494.387	4649.84
494.757	4687.12
495.126	4743.62
495.496	4805.76
495.866	4811.41
496.235	4883.5
496.605	4954.01
496.974	4991.52
497.344	4993.33
497.713	5084.4
498.082	5096.15
498.452	5107.45
498.821	5177.05
499.19	5178.41
499.559	5269.25
499.928	5278.52
500.298	5340.21
500.667	5346.77
501.036	5382.02
501.405	5433.77
501.774	5492.53
502.143	5571.39
502.512	5560.77
502.88	5612.75
503.249	5649.58
503.618	5647.78
503.987	5693.88
504.356	5734.78
504.724	5763.93
505.093	5802.12
505.462	5838.5
505.83	5872.18
506.199	5896.13
506.567	5977.03
506.936	5996.69
507.304	6033.75
507.672	6062.68
508.041	6066.52
508.409	6113.75
508.777	6149.68
509.145	6242.11
509.514	6211.83
509.882	6240.53
510.25	6264.71
510.618	6286.4
510.986	6311.26
511.354	6368.21
511.722	6418.15
512.09	6463.35
512.458	6500.86
512.826	6493.85
513.193	6593.97
513.561	6574.08
513.929	6676.67
514.297	6684.13
514.664	6732.72
515.032	6673.96
515.4	6774.3
515.767	6813.62
516.135	6809.55
516.502	6777.69
516.869	6904.92
517.237	6938.81
517.604	6853.62
517.972	6878.93
518.339	6958.48
518.706	6966.61
519.073	7000.28
519.44	7080.05
519.808	7120.5
520.175	7130.45
520.542	7251.12
520.909	7228.52
521.276	7192.14
521.643	7261.29
522.009	7288.64
522.376	7353.27
522.743	7424
523.11	7502.19
523.477	7495.64
523.843	7510.33
524.21	7588.97
524.577	7662.86
524.943	7659.02
525.31	7743.09
525.676	7767.49
526.043	7855.4
526.409	7843.2
526.776	7908.05
527.142	7939.01
527.508	7934.72
527.874	8062.4
528.241	8061.72
528.607	8089.97
528.973	8249.74
529.339	8157.31
529.705	8255.39
530.071	8281.83
530.437	8338.55
530.803	8370.87
531.169	8406.35
531.535	8385.78
531.901	8445.89
532.267	8468.49
532.632	8496.97
532.998	8627.13
533.364	8644.31
533.73	8588.49
534.095	8700.12
534.461	8677.53
534.826	8788.94
535.192	8822.38
535.557	8861.93
535.923	8943.73
536.288	8922.04
536.653	8972.66
537.019	8940.12
537.384	8997.52
537.749	9096.27
538.114	9068.7
538.479	9109.83
538.845	9116.38
539.21	9103.73
539.575	9161.13
539.94	9295.14
540.305	9289.04
540.67	9296.04
541.034	9288.81
541.399	9407.68
541.764	9376.26
542.129	9474.79
542.494	9495.58
542.858	9555.24
543.223	9552.08
543.587	9644.51
543.952	9583.72
544.316	9740.55
544.681	9677.05
545.045	9785.52
545.41	9807.21
545.774	9775.8
546.138	9870.72
546.503	9902.8
546.867	9859.42
547.231	10034.33
547.595	9970.15
547.959	10072.74
548.324	10031.84
548.688	10123.36
549.052	10097.83
549.416	10176.7
549.779	10122.46
550.143	10159.07
550.507	10180.76
550.871	10336.47
551.235	10227.54
551.599	10342.57
551.962	10382.11
552.326	10413.75
552.689	10522.68
553.053	10468.67
553.417	10510.7
553.78	10616.91
554.143	10565.39
554.507	10678.83
554.87	10659.17
555.234	10746.4
555.597	10725.16
555.96	10733.29
556.323	10788.21
556.686	10725.16
557.05	10852.84
557.413	10862.33
557.776	10919.05
558.139	10920.63
558.502	11010.8
558.865	11020.52
559.228	11069.33
559.59	11131.92
559.953	11140.51
560.316	11241.75
560.679	11282.2
561.041	11321.52
561.404	11360.85
561.767	11373.95
562.129	11375.99
562.492	11535.08
562.854	11416.89
563.217	11469.77
563.579	11547.06
563.941	11607.39
564.304	11575.08
564.666	11722.19
565.028	11778.01
565.39	11755.19
565.753	11824.34
566.115	11803.55
566.477	11973.71
566.839	11968.29
567.201	11941.85
567.563	11985.69
567.925	12116.53
568.287	12132.35
568.648	12090.32
569.01	12186.13
569.372	12392.23
569.734	12252.35
570.095	12302.29
570.457	12454.6
570.819	12436.3
571.18	12524.2
571.542	12597.87
571.903	12622.73
572.265	12579.12
572.626	12643.98
572.987	12713.13
573.349	12743.86
573.71	12880.58
574.071	12924.65
574.432	13107.24
574.794	13219.33
575.155	13162.61
575.516	13134.81
575.877	13285.09
576.238	13337.29
576.599	13434.92
576.96	13457.74
577.32	13605.08
577.681	13709.26
578.042	13897.05
578.403	13916.03
578.763	14014.56
579.124	14090.94
579.485	14259.98
579.845	14400.31
580.206	14513.3
580.566	14573.64
580.927	14710.59
581.287	14989.22
581.648	14927.31
582.008	15149.9
582.368	15344.7
582.728	15520.28
583.089	15600.73
583.449	15705.36
583.809	15977.22
584.169	16144.9
584.529	16331.34
584.889	16607.49
585.249	16794.37
585.609	16831.21
585.969	17203.18
586.329	17339.22
586.688	17536.5
587.048	17856.27
587.408	18082.25
587.768	18256.48
588.127	18489.7
588.487	18730.82
588.846	19066.86
589.206	19145.73
589.565	19559.95
589.925	19897.8
590.284	20118.58
590.643	20441.96
591.003	20628.4
591.362	21076.97
591.721	21238.78
592.08	21552.44
592.44	21811.42
592.799	22139.77
593.158	22339.77
593.517	22678.29
593.876	22907.43
594.235	23217.71
594.593	23522.79
594.952	23884.58
595.311	24195.99
595.67	24435.08
596.029	24860.6
596.387	25258.11
596.746	25554.14
597.104	25626.68
597.463	25998.65
597.822	26318.19
598.18	26605.19
598.538	26760.67
598.897	27288.11
599.255	27370.82
599.613	28112.27
599.972	28126.05
600.33	28500.51
600.688	28498.93
601.046	29072.7
601.404	29373.25
601.762	29579.12
602.12	29980.02
602.478	30291.87
602.836	30550.17
603.194	30642.6
603.552	30921.91
603.91	31165.07
604.268	31568
604.625	31659.29
604.983	32054.31
605.341	32069.91
605.698	32526.39
606.056	32965.93
606.413	33021.52
606.771	33297.22
607.128	33540.83
607.485	33716.42
607.843	33963.87
608.2	34447.24
608.557	34696.28
608.914	34682.27
609.272	35042.26
609.629	35289.93
609.986	35598.4
610.343	35645.4
610.7	35989.35
611.057	36288.33
611.414	36310.02
611.771	36535.32
612.127	36891.02
612.484	37022.54
612.841	37394.51
613.198	37250.33
613.554	37496.2
613.911	37999.47
614.267	37959.92
614.624	38106.81
614.98	38416.63
615.337	38708.83
615.693	38811.2
616.05	38871.53
616.406	39080.12
616.762	39240.34
617.118	39292.31
617.475	39511.97
617.831	39780.66
618.187	39820.21
618.543	39941.79
618.899	40363.47
619.255	40340.42
619.611	40428.33
619.967	40694.31
620.323	40845.72
620.678	40638.04
621.034	40847.3
621.39	40920.97
621.746	40916.68
622.101	41423.11
622.457	41053.4
622.812	41360.73
623.168	41461.97
623.523	41601.86
623.879	41914.62
624.234	41755.07
624.589	41941.28
624.945	41829.87
625.3	42137.44
625.655	42140.6
626.01	42243.88
626.365	42291.33
626.72	42424.89
627.075	42412.91
627.43	42455.62
627.785	42534.04
628.14	42572.45
628.495	42664.66
628.85	42677.08
629.205	42579.46
629.559	42803.63
629.914	42714.37
630.269	42816.97
630.623	42887.7
630.978	42785.78
631.332	43005.66
631.687	43014.25
632.041	43028.26
632.396	43086.79
632.75	42959.56
633.104	43057.87
633.459	42979.67
633.813	43034.81
634.167	42920.24
634.521	42997.75
634.875	43113
635.229	43080.69
635.583	42994.82
635.937	43011.31
636.291	42876.85
636.645	42978.55
636.999	42932.44
637.352	43053.57
637.706	42857.42
638.06	43061.25
638.413	42986
638.767	42785.33
639.121	42915.72
639.474	42777.19
639.828	42666.24
640.181	42820.81
640.534	42953.46
640.888	42848.38
641.241	42687.25
641.594	42802.73
641.947	42708.72
642.301	42874.82
642.654	42898.77
643.007	42805.22
643.36	42792.34
643.713	42677.76
644.066	42947.13
644.419	42799.34
644.771	42496.75
645.124	42145.8
645.477	42156.65
645.83	41784.68
646.182	41711.69
646.535	41718.92
646.888	41602.08
647.24	41461.97
647.593	41795.3
647.945	41583.55
648.298	41566.83
648.65	41391.47
649.002	41363.67
649.355	41534.52
649.707	41535.65
650.059	41663.1
650.411	42079.13
650.763	42108.06
651.115	42433.93
651.467	42429.63
651.819	42228.96
652.171	42301.95
652.523	42205.23
652.875	42149.41
653.227	42109.64
653.578	42414.94
653.93	42345.34
654.282	42127.49
654.633	41988.97
654.985	42113.48
655.337	42249.75
655.688	42198.23
656.039	42316.64
656.391	42087.72
656.742	42099.47
657.094	42179.02
657.445	42261.5
657.796	42211.56
658.147	42010.21
658.498	42164.1
658.849	42119.81
659.2	42031.68
659.551	42048.85
659.902	42130.43
660.253	42083.2
660.604	42113.71
660.955	41999.14
661.306	42037.78
661.656	41925.47
662.007	42056.99
662.358	41990.55
662.708	41953.71
663.059	42063.77
663.409	41697.45
663.76	42013.6
664.11	41834.62
664.461	42034.39
664.811	41906.48
665.161	41953.04
665.511	41836.2
665.862	42033.49
666.212	41878.46
666.562	41884.11
666.912	41982.87
667.262	41770.22
667.612	41729.31
667.962	41955.52
668.312	41791.23
668.662	42112.13
669.011	41987.38
669.361	41861.74
669.711	41865.58
670.06	41799.82
670.41	41785.36
670.76	41660.84
671.109	41929.08
671.459	41682.76
671.808	41777.9
672.157	41934.05
672.507	41444.8
672.856	41543.33
673.205	41628.98
673.554	41694.29
673.904	41585.36
674.253	41726.83
674.602	41676.66
674.951	41106.05
675.3	40967.3
675.649	41477.12
675.998	41480.73
676.346	41519.37
676.695	41584.68
677.044	41369.32
677.393	41529.54
677.741	41411.81
678.09	41392.82
678.438	41330.9
678.787	41307.85
679.135	41315.54
679.484	41235.99
679.832	41340.85
680.181	40974.53
680.529	41226.05
680.877	41139.72
681.225	40963
681.573	41141.98
681.922	41056.34
682.27	40886.17
682.618	40872.39
682.966	40711.49
683.314	40990.8
683.661	40718.94
684.009	40590.81
684.357	40488.89
684.705	40589
685.053	40516.24
685.4	40414.54
685.748	40257.49
686.095	40246.87
686.443	40117.83
686.79	40081.22
687.138	40037.38
687.485	40106.98
687.832	39855.46
688.18	39898.63
688.527	39749.03
688.874	39709.48
689.221	39625.19
689.568	39630.84
689.915	39446.21
690.262	39539.09
690.609	39485.08
690.956	39176.16
691.303	39177.97
691.65	38976.62
691.997	38985.88
692.344	39008.03
692.69	38915.6
693.037	38916.73
693.383	38685.32
693.73	38788.15
694.077	38409.63
694.423	38447.82
694.769	38272.23
695.116	38234.49
695.462	38291.66
695.808	37994.5
696.155	38210.99
696.501	37938.9
696.847	37908.62
697.193	37641.74
697.539	37737.1
697.885	37388.18
698.231	37310.9
698.577	37342.08
698.923	37366.72
699.269	37143.44
699.614	37035.42
699.96	36980.74
700.306	36883.11
700.651	36834.3
700.997	36734.42
701.342	36587.07
701.688	36713.63
702.033	36493.74
702.379	36368.1
702.724	36370.36
703.069	36439.51
703.415	35928.79
703.76	36166.75
704.105	36088.33
704.45	36022.12
704.795	35624.16
705.14	35632.3
705.485	35675.69
705.83	35548.91
706.175	35532.64
706.52	35446.99
706.865	35352.08
707.209	35255.81
707.554	35099.2
707.899	35279.09
708.243	34919.32
708.588	34845.2
708.932	34697.86
709.277	34712.77
709.621	34752.32
709.966	34486.11
710.31	34642.49
710.654	34343.97
710.998	34458.32
711.342	34442.27
711.687	34364.76
712.031	34130.87
712.375	33988.05
712.719	33949.86
713.063	33993.47
713.407	34115.5
713.75	33860.59
714.094	33869.86
714.438	33679.35
714.782	33846.13
715.125	33605.23
715.469	33717.77
715.812	33488.63
716.156	33364.11
716.499	33459.02
716.843	33463.99
717.186	33263.09
717.53	33368.85
717.873	33389.19
718.216	33124.34
718.559	33055.64
718.902	32847.06
719.246	33007.51
719.589	32832.82
719.932	32730.45
720.275	32773.84
720.617	32664.92
720.96	32457.47
721.303	32579.27
721.646	32578.82
721.989	32378.82
722.331	32474.64
722.674	32283.23
723.016	32386.96
723.359	32204.82
723.701	32312.16
724.044	32027.42
724.386	31971.83
724.729	32178.83
725.071	32126.4
725.413	32018.83
725.755	31920.53
726.097	31887.99
726.439	31761.66
726.782	31677.6
727.124	31963.92
727.465	31681.44
727.807	31689.12
728.149	31541.11
728.491	31561.67
728.833	31566.87
729.175	31390.15
729.516	31329.36
729.858	31388.79
730.199	31431.05
730.541	31315.8
730.882	31181.12
731.224	31364.61
731.565	31147.44
731.906	31110.38
732.248	31144.96
732.589	30968.24
732.93	30874.23
733.271	30781.35
733.612	30835.14
733.953	30769.83
734.294	30806.21
734.635	30713.78
734.976	30775.93
735.317	30528.7
735.658	30632.2
735.999	30568.25
736.339	30598.76
736.68	30508.14
737.021	30490.96
737.361	30316.96
737.702	30469.5
738.042	30336.39
738.383	30205.1
738.723	30338.65
739.063	30107.47
739.404	30241.25
739.744	30167.81
740.084	30185.66
740.424	30050.98
740.764	30074.93
741.104	30089.39
741.444	29952.22
741.784	29926.46
742.124	29807.37
742.464	29894.6
742.804	29821.6
743.143	29693.47
743.483	29625.68
743.823	29536.41
744.162	29600.82
744.502	29598.33
744.841	29404.21
745.181	29504.55
745.52	29441.5
745.86	29431.78
746.199	29332.8
746.538	29192.69
746.877	29420.26
747.216	29315.4
747.556	29271.56
747.895	29292.35
748.234	29160.6
748.573	29153.6
748.911	29051.23
749.25	29081.51
749.589	28898.69
749.928	29025.01
750.267	28948.86
750.605	28908.63
750.944	28937.11
751.283	28734.17
751.621	28757.22
751.96	28640.84
752.298	28764.68
752.636	28676.32
752.975	28579.6
753.313	28446.72
753.651	28571.92
753.989	28405.82
754.327	28378.7
754.666	28243.11
755.004	28383.22
755.342	28228.88
755.679	28211.02
756.017	28064.36
756.355	28206.05
756.693	27936.91
757.031	28070.69
757.368	27833.41
757.706	27938.04
758.044	27709.57
758.381	27808.77
758.719	27668.44
