Data from hue_20_FLMS001491_48.txt Node
Date: Mon Feb 06 15:34:11 GMT 2017
User: dcchb
Spectrometer: FLMS00149
Trigger mode: 0
Integration Time (sec): 2.000000E-2
Scans to average: 10
Electric dark correction enabled: true
Nonlinearity correction enabled: false
Boxcar width: 0
XAxis mode: Wavelengths
Number of Pixels in Spectrum: 2048
>>>>>Begin Spectral Data<<<<<
341.393	-33.57
341.776	-33.57
342.16	-33.57
342.543	-47.36
342.927	-62.27
343.31	-66.34
343.693	-74.02
344.077	-75.15
344.46	-31.99
344.843	-57.53
345.226	-50.97
345.61	-31.76
345.993	-14.36
346.376	-3.52
346.759	25.86
347.142	15.47
347.525	36.26
347.908	48.46
348.291	82.58
348.674	91.4
349.057	105.63
349.44	124.84
349.823	134.33
350.206	173.65
350.588	191.96
350.971	208.45
351.354	232.86
351.737	223.82
352.119	239.87
352.502	282.58
352.884	274.22
353.267	277.61
353.65	299.75
354.032	300.2
354.414	294.33
354.797	312.18
355.179	292.97
355.562	302.69
355.944	348.34
356.326	328.9
356.709	334.1
357.091	338.85
357.473	332.75
357.855	341.78
358.238	330.71
358.62	353.99
359.002	334.1
359.384	366.87
359.766	360.99
360.148	350.82
360.53	357.6
360.912	332.52
361.294	345.85
361.676	338.62
362.057	350.6
362.439	336.81
362.821	313.54
363.203	342.69
363.584	320.77
363.966	307.89
364.348	343.82
364.729	331.39
365.111	327.77
365.493	322.12
365.874	330.94
366.256	331.16
366.637	309.92
367.019	303.14
367.4	320.32
367.781	316.25
368.163	322.8
368.544	304.5
368.925	330.03
369.306	323.48
369.688	311.73
370.069	331.62
370.45	304.95
370.831	328
371.212	310.15
371.593	303.82
371.974	300.66
372.355	309.24
372.736	322.35
373.117	334.55
373.498	335.23
373.879	319.86
374.26	322.12
374.641	324.16
375.021	322.58
375.402	338.62
375.783	318.06
376.163	348.34
376.544	325.06
376.925	330.71
377.305	324.61
377.686	329.13
378.066	316.7
378.447	345.4
378.827	348.34
379.208	338.85
379.588	340.88
379.968	344.5
380.349	326.42
380.729	342.91
381.109	330.26
381.489	354.21
381.87	346.3
382.25	339.98
382.63	365.74
383.01	364.84
383.39	353.76
383.77	349.02
384.15	354.44
384.53	333.42
384.91	350.6
385.29	364.61
385.67	354.44
386.049	354.21
386.429	351.95
386.809	339.3
387.189	358.06
387.568	347.43
387.948	360.54
388.328	368.9
388.707	370.26
389.087	361.22
389.466	380.65
389.846	363.03
390.225	370.71
390.605	366.19
390.984	374.33
391.363	346.98
391.743	391.5
392.122	364.16
392.501	384.04
392.881	384.95
393.26	385.17
393.639	399.64
394.018	406.42
394.397	394.89
394.776	395.34
395.155	391.95
395.534	387.89
395.913	407.09
396.292	392.18
396.671	400.31
397.05	415.46
397.429	396.92
397.808	394.44
398.186	400.31
398.565	407.09
398.944	408.9
399.323	399.41
399.701	402.35
400.08	417.49
400.458	410.48
400.837	423.36
401.215	419.07
401.594	422.69
401.972	400.54
402.351	424.04
402.729	414.55
403.107	417.72
403.486	429.69
403.864	439.86
404.242	423.36
404.62	447.09
404.999	456.13
405.377	440.31
405.755	471.5
406.133	433.76
406.511	433.08
406.889	457.49
407.267	449.13
407.645	452.74
408.023	436.25
408.401	460.43
408.779	452.06
409.156	472.85
409.534	453.42
409.912	471.72
410.29	471.05
410.667	493.87
411.045	461.78
411.422	502.91
411.8	494.55
412.178	479.86
412.555	490.93
412.933	503.14
413.31	466.75
413.687	488.67
414.065	504.27
414.442	522.57
414.819	513.31
415.197	509.24
415.574	512.85
415.951	535.68
416.328	536.36
416.705	508.33
417.082	537.94
417.46	534.1
417.837	558.73
418.214	537.94
418.591	538.62
418.967	538.84
419.344	530.03
419.721	536.58
420.098	540.2
420.475	558.5
420.852	552.85
421.228	560.31
421.605	547.66
421.982	553.08
422.358	567.77
422.735	559.18
423.111	581.78
423.488	586.52
423.864	582.23
424.241	573.64
424.617	601.89
424.994	600.54
425.37	610.93
425.746	599.63
426.123	620.65
426.499	608.67
426.875	600.54
427.251	605.05
427.627	617.94
428.003	618.39
428.379	641.66
428.756	643.92
429.132	660.19
429.507	654.54
429.883	649.35
430.259	661.32
430.635	645.51
431.011	669.46
431.387	697.48
431.763	673.08
432.138	706.75
432.514	698.61
432.89	697.71
433.265	702.91
433.641	708.33
434.016	710.36
434.392	760.76
434.767	724.83
435.143	746.97
435.518	747.65
435.894	750.36
436.269	764.37
436.644	762.34
437.02	767.08
437.395	773.86
437.77	784.71
438.145	796.24
438.52	828.55
438.895	759.17
439.271	789.68
439.646	817.03
440.021	824.71
440.395	824.48
440.77	813.64
441.145	836.69
441.52	857.03
441.895	821.32
442.27	838.27
442.645	831.94
443.019	828.1
443.394	873.07
443.769	871.26
444.143	874.2
444.518	876.91
444.892	852.05
445.267	868.1
445.641	868.1
446.016	865.16
446.39	905.39
446.764	905.61
447.139	883.69
447.513	905.84
447.887	916.23
448.262	910.58
448.636	920.98
449.01	948.77
449.384	928.44
449.758	932.28
450.132	927.31
450.506	937.48
450.88	948.77
451.254	956.23
451.628	980.64
452.002	974.31
452.376	965.72
452.75	995.33
453.123	1013.41
453.497	1030.13
453.871	1043.69
454.244	1009.56
454.618	1041.43
454.992	1059.73
455.365	1048.88
455.739	1072.84
456.112	1086.17
456.486	1107.41
456.859	1080.75
457.232	1107.64
457.606	1115.1
457.979	1120.3
458.352	1130.01
458.725	1193.97
459.099	1162.1
459.472	1166.85
459.845	1192.38
460.218	1209.56
460.591	1231.03
460.964	1229.45
461.337	1224.93
461.71	1236.68
462.083	1275.32
462.456	1269.22
462.829	1247.3
463.201	1308.54
463.574	1298.82
463.947	1336.56
464.32	1369.1
464.692	1350.57
465.065	1350.12
465.438	1370.46
465.81	1393.28
466.183	1419.72
466.555	1431.47
466.928	1464.02
467.3	1440.06
467.672	1459.95
468.045	1482.09
468.417	1512.15
468.789	1524.35
469.161	1571.36
469.534	1589.89
469.906	1609.1
470.278	1593.28
470.65	1642.77
471.022	1670.56
471.394	1681.86
471.766	1737
472.138	1726.16
472.51	1744.01
472.882	1792.59
473.253	1788.75
473.625	1823.55
473.997	1862.2
474.369	1867.39
474.74	1913.04
475.112	1920.05
475.484	1985.36
475.855	2027.84
476.227	2049.99
476.598	2080.95
476.97	2113.04
477.341	2137.44
477.713	2180.61
478.084	2217.44
478.455	2244.56
478.827	2261.51
479.198	2352.35
479.569	2335.18
479.94	2433.48
480.311	2458.11
480.682	2485.01
481.053	2542.63
481.424	2613.82
481.795	2634.83
482.166	2690.42
482.537	2707.15
482.908	2802.51
483.279	2816.07
483.65	2887.93
484.021	2949.85
484.391	2959.12
484.762	2998.44
485.133	3040.92
485.503	3057.19
485.874	3165.67
486.244	3183.52
486.615	3256.28
486.985	3353.91
487.356	3361.82
487.726	3383.06
488.097	3416.96
488.467	3472.32
488.837	3535.83
489.207	3599.1
489.578	3701.7
489.948	3728.81
490.318	3767.46
490.688	3776.72
491.058	3828.47
491.428	3866.89
491.798	3956.38
492.168	4042.7
492.538	4037.96
492.908	4115.24
493.278	4183.94
493.648	4177.84
494.017	4185.53
494.387	4285.18
494.757	4270.72
495.126	4365.63
495.496	4365.63
495.866	4413.99
496.235	4478.17
496.605	4511.17
496.974	4546.19
497.344	4636.14
497.713	4633.2
498.082	4642.91
498.452	4713.2
498.821	4665.06
499.19	4748
499.559	4795.68
499.928	4817.6
500.298	4830.48
500.667	4901.21
501.036	4892.17
501.405	5002.45
501.774	4990.7
502.143	5026.86
502.512	5040.19
502.88	5114.54
503.249	5104.15
503.618	5139.17
503.987	5186.18
504.356	5148.21
504.724	5197.02
505.093	5269.11
505.462	5270.47
505.83	5349.79
506.199	5337.59
506.567	5414.19
506.936	5444.93
507.304	5515.43
507.672	5468.88
508.041	5504.13
508.409	5505.94
508.777	5571.48
509.145	5558.6
509.514	5627.97
509.882	5673.85
510.25	5637.69
510.618	5734.64
510.986	5765.6
511.354	5751.13
511.722	5840.17
512.09	5818.25
512.458	5852.15
512.826	5887.63
513.193	5874.29
513.561	5970.11
513.929	5968.08
514.297	6041.52
514.664	6077
515.032	6040.62
515.4	6164.91
515.767	6110.45
516.135	6129.43
516.502	6113.16
516.869	6185.92
517.237	6256.66
517.604	6228.86
517.972	6300.5
518.339	6327.39
518.706	6317.9
519.073	6357.22
519.44	6383.89
519.808	6427.05
520.175	6401.29
520.542	6484
520.909	6501.85
521.276	6542.07
521.643	6618
522.009	6604.9
522.376	6653.26
522.743	6663.43
523.11	6735.74
523.477	6792.01
523.843	6839.02
524.21	6812.12
524.577	6913.82
524.943	6955.17
525.31	6943.19
525.676	7022.06
526.043	7071.55
526.409	7078.78
526.776	7177.09
527.142	7149.74
527.508	7231.77
527.874	7323.3
528.241	7300.7
528.607	7342.73
528.973	7398.77
529.339	7424.08
529.705	7462.5
530.071	7523.74
530.437	7549.5
530.803	7563.74
531.169	7618.43
531.535	7653
531.901	7696.17
532.267	7684.19
532.632	7733.68
532.998	7842.83
533.364	7848.71
533.73	7809.61
534.095	7928.03
534.461	7897.97
534.826	7978.87
535.192	7963.51
535.557	8046.44
535.923	8060.9
536.288	8132.54
536.653	8175.7
537.019	8104.52
537.384	8161.92
537.749	8260.45
538.114	8208.7
538.479	8270.62
538.845	8271.29
539.21	8322.59
539.575	8332.31
539.94	8372.08
540.305	8448.69
540.67	8463.61
541.034	8463.15
541.399	8579.08
541.764	8614.34
542.129	8579.76
542.494	8624.73
542.858	8618.63
543.223	8674.22
543.587	8706.76
543.952	8766.42
544.316	8779.3
544.681	8824.05
545.045	8850.94
545.41	8911.73
545.774	8986.53
546.138	8942.24
546.503	8993.76
546.867	8988.11
547.231	9060.88
547.595	9019.52
547.959	9182.46
548.324	9138.62
548.688	9154.21
549.052	9171.84
549.416	9253.64
549.779	9219.74
550.143	9320.31
550.507	9314.88
550.871	9381.55
551.235	9403.02
551.599	9412.28
551.962	9438.72
552.326	9469.23
552.689	9551.03
553.053	9575.67
553.417	9544.03
553.78	9615.21
554.143	9630.35
554.507	9695.66
554.87	9690.24
555.234	9821.31
555.597	9713.52
555.96	9798.49
556.323	9821.99
556.686	9824.25
557.05	9946.05
557.413	9880.97
557.776	9962.1
558.139	10035.09
558.502	10018.82
558.865	10042.09
559.228	10176.78
559.59	10181.07
559.953	10149.89
560.316	10298.59
560.679	10276.66
561.041	10358.92
561.404	10473.04
561.767	10416.77
562.129	10352.14
562.492	10501.97
562.854	10439.82
563.217	10481.63
563.579	10565.7
563.941	10621.29
564.304	10736.54
564.666	10659.93
565.028	10745.58
565.39	10792.58
565.753	10769.76
566.115	10853.82
566.477	10871.45
566.839	10986.25
567.201	10974.73
567.563	10967.27
567.925	11029.87
568.287	11127.49
568.648	11083.65
569.01	11213.36
569.372	11233.48
569.734	11299.46
570.095	11249.29
570.457	11374.49
570.819	11369.97
571.18	11406.35
571.542	11488.84
571.903	11520.25
572.265	11545.33
572.626	11621.49
572.987	11581.04
573.349	11717.08
573.71	11767.7
574.071	11838.88
574.432	11906.68
574.794	12003.63
575.155	12020.57
575.516	12108.48
575.877	12133.11
576.238	12135.15
576.599	12287.23
576.96	12279.32
577.32	12383.5
577.681	12514.12
578.042	12580.56
578.403	12652.65
578.763	12781.91
579.124	12847.67
579.485	12945.07
579.845	13108.45
580.206	13124.73
580.566	13227.77
580.927	13329.01
581.287	13458.95
581.648	13583.47
582.008	13817.59
582.368	13761.09
582.728	14015.78
583.089	14033.85
583.449	14302.55
583.809	14463
584.169	14619.83
584.529	14793.38
584.889	15093.49
585.249	15133.71
585.609	15283.09
585.969	15540.03
586.329	15605.56
586.688	15817.54
587.048	16056.85
587.408	16249.39
587.768	16500.91
588.127	16655.71
588.487	16922.59
588.846	17321.9
589.206	17441
589.565	17656.36
589.925	18057.25
590.284	18233.74
590.643	18508.09
591.003	18748.53
591.362	19141.52
591.721	19349.65
592.08	19645.68
592.44	19950.99
592.799	20241.15
593.158	20490.18
593.517	20803.17
593.876	21158.19
594.235	21408.12
594.593	21630.72
594.952	22124.71
595.311	22261.66
595.67	22690.35
596.029	22971.92
596.387	23379.82
596.746	23846.25
597.104	23827.27
597.463	24172.12
597.822	24587.25
598.18	24808.71
598.538	25070.63
598.897	25605.75
599.255	25640.1
599.613	26418.16
599.972	26479.18
600.33	26913.52
600.688	27005.94
601.046	27527.51
601.404	27836.2
601.762	28127.49
602.12	28635.05
602.478	28733.13
602.836	28997.75
603.194	29185.77
603.552	29554.12
603.91	29696.95
604.268	30137.39
604.625	30228
604.983	30774.88
605.341	30837.93
605.698	31263.91
606.056	31639.04
606.413	31771.69
606.771	32276.76
607.128	32465.69
607.485	32655.96
607.843	32919.01
608.2	33272.44
608.557	33651.64
608.914	33755.6
609.272	34142.93
609.629	34429.48
609.986	34572.75
610.343	34633.76
610.7	35276.46
611.057	35472.61
611.414	35680.52
611.771	35741.76
612.127	36205.25
612.484	36254.29
612.841	36565.69
613.198	36748.74
613.554	36850.88
613.911	37214.26
614.267	37451.54
614.624	37519.79
614.98	37782.38
615.337	37991.42
615.693	38013.34
616.05	38378.07
616.406	38475.7
616.762	38620.78
617.118	38775.8
617.475	39009.02
617.831	39222.34
618.187	39455.11
618.543	39751.6
618.899	39973.06
619.255	39984.81
619.611	40197.91
619.967	40406.04
620.323	40567.62
620.678	40547.51
621.034	40567.17
621.39	40669.54
621.746	40682.19
622.101	41380.03
622.457	41123.76
622.812	41328.5
623.168	41383.87
623.523	41433.36
623.879	41621.38
624.234	41500.93
624.589	41806.68
624.945	41983.85
625.3	42129.84
625.655	42081.03
626.01	42160.57
626.365	42314.24
626.72	42382.49
627.075	42459.77
627.43	42389.49
627.785	42401.02
628.14	42516.5
628.495	42701.35
628.85	42790.84
629.205	42647.11
629.559	42965.52
629.914	42844.17
630.269	42961.91
630.623	42908.12
630.978	42971.62
631.332	43114.67
631.687	43074.45
632.041	43076.71
632.396	43222.24
632.75	43035.13
633.104	43171.39
633.459	43033.77
633.813	43011.62
634.167	43164.39
634.521	43199.19
634.875	43244.39
635.229	43139.3
635.583	43025.18
635.937	43236.02
636.291	43051.4
636.645	43133.88
636.999	43200.54
637.352	43411.39
637.706	43163.94
638.06	43298.85
638.413	43161.22
638.767	43151.73
639.121	43332.07
639.474	42973.66
639.828	43022.7
640.181	43309.47
640.534	43180.66
640.888	43148.79
641.241	42812.76
641.594	43050.49
641.947	43166.42
642.301	43041.9
642.654	43206.87
643.007	43027.67
643.36	43221.34
643.713	42977.95
644.066	43093.66
644.419	42925.07
644.771	42710.39
645.124	42351.53
645.477	42110.18
645.83	42013.01
646.182	41851.2
646.535	41868.6
646.888	41824.99
647.24	41676.07
647.593	41834.03
647.945	41830.19
648.298	41579.8
648.65	41644.43
649.002	41614.6
649.355	41727.14
649.707	41669.74
650.059	41841.94
650.411	42349.49
650.763	42428.14
651.115	42825.87
651.467	42737.05
651.819	42737.28
652.171	42492.09
652.523	42472.43
652.875	42455.71
653.227	42422.71
653.578	42733.66
653.93	42580
654.282	42275.6
654.633	42320.12
654.985	42354.24
655.337	42326.22
655.688	42271.98
656.039	42612.54
656.391	42148.6
656.742	42401.92
657.094	42336.84
657.445	42373
657.796	42346.78
658.147	42206.22
658.498	42144.3
658.849	42429.94
659.2	42262.49
659.551	42138.43
659.902	42275.15
660.253	42320.34
660.604	42414.58
660.955	42210.97
661.306	42381.13
661.656	42035.83
662.007	42160.8
662.358	42180.91
662.708	42222.27
663.059	41979.33
663.409	41820.47
663.76	42148.14
664.11	42109.05
664.461	42135.94
664.811	42157.86
665.161	42139.56
665.511	42121.7
665.862	41996.06
666.212	42177.29
666.562	42174.58
666.912	41904.08
667.262	42019.56
667.612	42108.82
667.962	42192.21
668.312	41916.96
668.662	42206.67
669.011	42015.72
669.361	41920.13
669.711	42023.63
670.06	41831.09
670.41	41898.21
670.76	41869.73
671.109	42084.87
671.459	42010.52
671.808	41907.02
672.157	42131.19
672.507	41826.34
672.856	41761.26
673.205	41937.53
673.554	41916.96
673.904	41689.85
674.253	42004.19
674.602	41779.79
674.951	41206.92
675.3	41109.98
675.649	41655.95
675.998	41660.25
676.346	41665.44
676.695	41789.28
677.044	41474.49
677.393	41543.64
677.741	41676.74
678.09	41509.97
678.438	41514.04
678.787	41454.38
679.135	41415.06
679.484	41223.87
679.832	41420.03
680.181	41279.01
680.529	41305.68
680.877	41135.29
681.225	41150.2
681.573	41251.22
681.922	40996.54
682.27	40925.12
682.618	40967.16
682.966	40946.82
683.314	40986.37
683.661	40964.22
684.009	40583.66
684.357	40685.81
684.705	40616.66
685.053	40589.77
685.4	40618.92
685.748	40487.17
686.095	40346.61
686.443	40144.81
686.79	40126.73
687.138	40235.2
687.485	40259.15
687.832	39987.97
688.18	40176.9
688.527	39964.02
688.874	39840.18
689.221	39836.79
689.568	39752.95
689.915	39687.87
690.262	39658.27
690.609	39503.92
690.956	39308.44
691.303	39286.3
691.65	39147.09
691.997	39152.74
692.344	39060.99
692.69	38956.81
693.037	38943.48
693.383	38597.5
693.73	38787.1
694.077	38499.65
694.423	38522.48
694.769	38425.76
695.116	38319.77
695.462	38266.89
695.808	38196.83
696.155	38274.57
696.501	38001.59
696.847	38097.63
697.193	37670.29
697.539	37898.99
697.885	37566.79
698.231	37422.62
698.577	37477.98
698.923	37447.93
699.269	37201.38
699.614	37146.69
699.96	37045
700.306	37047.94
700.651	36847.72
700.997	36880.03
701.342	36739.02
701.688	36599.14
702.033	36537.22
702.379	36491.34
702.724	36305.81
703.069	36441.17
703.415	36063.78
703.76	36132.26
704.105	36281.4
704.45	36009.55
704.795	35911.25
705.14	35852.04
705.485	35772.27
705.83	35533.85
706.175	35683.68
706.52	35519.84
706.865	35416.12
707.209	35329.57
707.554	35218.61
707.899	35342.9
708.243	35146.29
708.588	35021.32
708.932	34894.55
709.277	34807.09
709.621	34870.14
709.966	34611.39
710.31	34728
710.654	34389.7
710.998	34469.93
711.342	34435.58
711.687	34382.47
712.031	34314.9
712.375	34092.54
712.719	34079.43
713.063	34214.11
713.407	34128.24
713.75	33932.31
714.094	34124.85
714.438	33794.46
714.782	33878.53
715.125	33659.33
715.469	33744.07
715.812	33491.65
716.156	33380.01
716.499	33481.93
716.843	33521.93
717.186	33234.03
717.53	33378.2
717.873	33325.1
718.216	33292.56
718.559	33136.63
718.902	32964.43
719.246	32989.29
719.589	32864.55
719.932	32728.05
720.275	32715.62
720.617	32724.44
720.96	32606.47
721.303	32620.71
721.646	32615.74
721.989	32449.87
722.331	32617.32
722.674	32428.85
723.016	32411.9
723.359	32330.77
723.701	32394.05
724.044	32282.41
724.386	32030.22
724.729	32188.86
725.071	32003.33
725.413	32218.91
725.755	32030.44
726.097	31855.98
726.439	31851.24
726.782	31762.65
727.124	31848.08
727.465	31713.39
727.807	31673.39
728.149	31646.95
728.491	31504.58
728.833	31581.42
729.175	31401.76
729.516	31446.5
729.858	31372.83
730.199	31366.96
730.541	31275.43
730.882	31132.61
731.224	31325.15
731.565	31107.53
731.906	31069.79
732.248	31090.58
732.589	30955.22
732.93	30812.85
733.271	30882.9
733.612	30956.8
733.953	30947.99
734.294	30867.54
734.635	30712.51
734.976	30805.84
735.317	30629.8
735.658	30443.82
735.999	30472.74
736.339	30573.31
736.68	30601.78
737.021	30520.43
737.361	30279.08
737.702	30569.01
738.042	30303.93
738.383	30331.05
738.723	30394.78
739.063	30223.48
739.404	30204.28
739.744	30077.27
740.084	29999.08
740.424	30005.19
740.764	29983.94
741.104	30056.71
741.444	29839.54
741.784	29717.51
742.124	29818.07
742.464	29808.58
742.804	29802.03
743.143	29623.73
743.483	29670.05
743.823	29568.81
744.162	29527.01
744.502	29675.7
744.841	29330.18
745.181	29658.98
745.52	29480.23
745.86	29457.18
746.199	29384.19
746.538	29382.15
746.877	29423.96
747.216	29338.99
747.556	29340.34
747.895	29275.71
748.234	29159.56
748.573	29061.93
748.911	29097.19
749.25	28980.58
749.589	28739.46
749.928	28932.22
750.267	28903.07
750.605	28885.44
750.944	28735.61
751.283	28660.36
751.621	28807.7
751.96	28602.74
752.298	28547.37
752.636	28562.29
752.975	28429.63
753.313	28413.14
753.651	28444.32
753.989	28245.91
754.327	28171.56
754.666	28112.58
755.004	28209.53
755.342	28121.17
755.679	28118.46
756.017	27924.56
756.355	28052.47
756.693	27817.9
757.031	27889.54
757.368	27710.33
757.706	27813.15
758.044	27597.34
758.381	27802.08
758.719	27520.05
759.056	27548.53
759.394	27468.98
