Data from hue_330_FLMS001491_4.txt Node
Date: Mon Feb 06 15:44:48 GMT 2017
User: dcchb
Spectrometer: FLMS00149
Trigger mode: 0
Integration Time (sec): 2.000000E-2
Scans to average: 10
Electric dark correction enabled: true
Nonlinearity correction enabled: false
Boxcar width: 0
XAxis mode: Wavelengths
Number of Pixels in Spectrum: 2048
>>>>>Begin Spectral Data<<<<<
341.393	-26.67
341.776	-26.67
342.16	-26.67
342.543	-66.66
342.927	-64.86
343.31	-56.04
343.693	-82.48
344.077	-91.52
344.46	-46.1
344.843	-39.77
345.226	-44.52
345.61	-22.82
345.993	-14.91
346.376	-10.4
346.759	19.21
347.142	4.97
347.525	45.87
347.908	74.35
348.291	72.54
348.674	90.17
349.057	101.47
349.44	137.4
349.823	150.05
350.206	160.45
350.588	210.16
350.971	220.56
351.354	228.24
351.737	232.76
352.119	264.17
352.502	282.25
352.884	302.14
353.267	298.75
353.65	305.75
354.032	304.17
354.414	303.04
354.797	322.25
355.179	315.25
355.562	333.78
355.944	330.84
356.326	343.72
356.709	325.42
357.091	335.58
357.473	332.42
357.855	348.47
358.238	357.05
358.62	345.75
359.002	337.84
359.384	319.77
359.766	345.08
360.148	322.48
360.53	326.77
360.912	334.45
361.294	338.07
361.676	346.66
362.057	353.66
362.439	357.96
362.821	322.25
363.203	321.35
363.584	319.99
363.966	324.29
364.348	305.3
364.729	317.51
365.111	320.9
365.493	319.54
365.874	330.61
366.256	318.86
366.637	305.98
367.019	317.73
367.4	327.67
367.781	307.79
368.163	319.54
368.544	327.45
368.925	321.8
369.306	332.19
369.688	325.42
370.069	317.51
370.45	328.13
370.831	311.63
371.212	292.2
371.593	301.46
371.974	327.45
372.355	305.98
372.736	323.16
373.117	289.71
373.498	301.46
373.879	323.16
374.26	317.51
374.641	320.44
375.021	335.58
375.402	317.28
375.783	346.66
376.163	333.78
376.544	327
376.925	311.86
377.305	331.97
377.686	325.64
378.066	309.14
378.447	327.22
378.827	323.83
379.208	333.55
379.588	336.04
379.968	336.04
380.349	320.22
380.729	336.71
381.109	309.82
381.489	335.81
381.87	326.55
382.25	337.84
382.63	352.08
383.01	345.08
383.39	335.81
383.77	323.16
384.15	340.56
384.53	332.42
384.91	349.37
385.29	336.49
385.67	357.28
386.049	347.34
386.429	352.76
386.809	354.34
387.189	345.08
387.568	368.13
387.948	352.53
388.328	360.89
388.707	365.19
389.087	368.35
389.466	362.25
389.846	351.18
390.225	357.5
390.605	355.02
390.984	358.63
391.363	373.55
391.743	348.01
392.122	363.15
392.501	379.88
392.881	373.32
393.26	378.07
393.639	363.61
394.018	375.81
394.397	393.21
394.776	374.45
395.155	371.52
395.534	379.88
395.913	366.32
396.292	371.74
396.671	386.2
397.05	375.13
397.429	401.57
397.808	367.67
398.186	377.62
398.565	388.01
398.944	396.6
399.323	399.54
399.701	407.67
400.08	400.44
400.458	410.61
400.837	408.35
401.215	424.17
401.594	396.6
401.972	399.76
402.351	385.53
402.729	400.89
403.107	418.75
403.486	426.2
403.864	406.32
404.242	425.07
404.62	421.23
404.999	418.75
405.377	440.21
405.755	425.53
406.133	432.31
406.511	433.43
406.889	441.34
407.267	468.46
407.645	449.25
408.023	450.61
408.401	462.36
408.779	461.46
409.156	452.87
409.534	465.52
409.912	459.42
410.29	478.86
410.667	475.47
411.045	484.96
411.422	499.65
411.8	481.57
412.178	493.32
412.555	503.72
412.933	503.72
413.31	526.09
413.687	512.53
414.065	533.32
414.442	538.06
414.819	528.57
415.197	523.6
415.574	545.75
415.951	543.49
416.328	568.57
416.705	559.99
417.082	553.88
417.46	578.29
417.837	577.39
418.214	569.93
418.591	557.73
418.967	603.15
419.344	608.35
419.721	609.48
420.098	616.48
420.475	631.85
420.852	636.14
421.228	630.72
421.605	622.81
421.982	629.14
422.358	631.4
422.735	645.86
423.111	652.64
423.488	677.04
423.864	679.98
424.241	685.86
424.617	690.6
424.994	701.45
425.37	708
425.746	688.34
426.123	690.15
426.499	703.71
426.875	713.2
427.251	701.22
427.627	737.38
428.003	771.51
428.379	745.74
428.756	760.43
429.132	765.4
429.507	767.89
429.883	793.43
430.259	795.46
430.635	788.23
431.011	793.43
431.387	802.92
431.763	824.61
432.138	798.62
432.514	807.21
432.89	819.64
433.265	868.68
433.641	856.25
434.016	874.33
434.392	891.05
434.767	885.4
435.143	873.42
435.518	906.19
435.894	923.37
436.269	927.21
436.644	926.98
437.02	918.62
437.395	942.8
437.77	955.68
438.145	988.67
438.52	929.24
438.895	979.18
439.271	969.24
439.646	985.28
440.021	992.97
440.395	1005.17
440.77	991.61
441.145	999.07
441.52	1010.37
441.895	1042.23
442.27	1011.27
442.645	1015.57
443.019	1034.55
443.394	1010.82
443.769	1055.34
444.143	1046.07
444.518	1071.38
444.892	1078.16
445.267	1054.44
445.641	1089.24
446.016	1075.23
446.39	1089.91
446.764	1086.75
447.139	1084.49
447.513	1071.84
447.887	1101.21
448.262	1108.67
448.636	1103.7
449.01	1129.24
449.384	1141.21
449.758	1108.67
450.132	1121.1
450.506	1131.5
450.88	1140.31
451.254	1140.99
451.628	1138.73
452.002	1166.75
452.376	1152.51
452.75	1149.57
453.123	1176.47
453.497	1181.44
453.871	1192.29
454.244	1200.87
454.618	1199.97
454.992	1219.85
455.365	1216.69
455.739	1277.03
456.112	1236.35
456.486	1263.24
456.859	1278.16
457.232	1291.49
457.606	1265.73
457.979	1279.74
458.352	1309.12
458.725	1307.08
459.099	1305.5
459.472	1366.52
459.845	1364.26
460.218	1369.46
460.591	1373.52
460.964	1357.48
461.337	1389.34
461.71	1390.92
462.083	1419.17
462.456	1420.75
462.829	1435.67
463.201	1442.45
463.574	1452.39
463.947	1484.71
464.32	1498.27
464.692	1508.43
465.065	1518.6
465.438	1519.73
465.81	1539.85
466.183	1539.39
466.555	1590.69
466.928	1568.32
467.3	1586.62
467.672	1577.59
468.045	1643.35
468.417	1658.26
468.789	1668.2
469.161	1683.8
469.534	1664.36
469.906	1718.37
470.278	1722.89
470.65	1712.05
471.022	1725.83
471.394	1783.46
471.766	1813.51
472.138	1793.4
472.51	1822.32
472.882	1867.75
473.253	1855.09
473.625	1899.16
473.997	1908.2
474.369	1906.62
474.74	1908.42
475.112	1979.83
475.484	2010.34
475.855	2028.65
476.227	2037.23
476.598	2065.93
476.97	2092.6
477.341	2118.81
477.713	2162.2
478.084	2170.11
478.455	2210.11
478.827	2236.33
479.198	2268.41
479.569	2280.39
479.94	2324.91
480.311	2345.7
480.682	2380.28
481.053	2411.91
481.424	2449.65
481.795	2491.91
482.166	2522.87
482.537	2528.52
482.908	2569.42
483.279	2597.45
483.65	2589.76
484.021	2664.11
484.391	2702.98
484.762	2723.77
485.133	2732.13
485.503	2750.21
485.874	2811
486.244	2816.65
486.615	2864.78
486.985	2947.04
487.356	2929.64
487.726	2935.52
488.097	3006.25
488.467	3028.85
488.837	3102.07
489.207	3096.87
489.578	3117.88
489.948	3187.94
490.318	3208.5
490.688	3216.64
491.058	3259.12
491.428	3256.64
491.798	3309.29
492.168	3367.6
492.538	3360.82
492.908	3376.18
493.278	3448.5
493.648	3418.67
494.017	3450.08
494.387	3492.11
494.757	3533.47
495.126	3573.47
495.496	3596.97
495.866	3594.48
496.235	3679.23
496.605	3666.34
496.974	3646.46
497.344	3699.79
497.713	3685.55
498.082	3719
498.452	3763.74
498.821	3813.23
499.19	3794.25
499.559	3856.62
499.928	3898.88
500.298	3868.15
500.667	3895.04
501.036	3849.16
501.405	3940.91
501.774	3894.81
502.143	3960.12
502.512	3961.48
502.88	3976.62
503.249	3957.64
503.618	4005.54
503.987	4026.33
504.356	4013.23
504.724	4043.28
505.093	4070.63
505.462	4110.17
505.83	4114.24
506.199	4086.22
506.567	4149.04
506.936	4153.11
507.304	4199.66
507.672	4169.83
508.041	4213.67
508.409	4230.85
508.777	4245.99
509.145	4283.96
509.514	4260.9
509.882	4280.57
510.25	4325.31
510.618	4298.64
510.986	4382.94
511.354	4356.5
511.722	4384.07
512.09	4424.97
512.458	4428.58
512.826	4456.83
513.193	4425.87
513.561	4418.87
513.929	4476.49
514.297	4517.85
514.664	4523.95
515.032	4498.64
515.4	4533.89
515.767	4556.94
516.135	4569.15
516.502	4557.39
516.869	4591.97
517.237	4581.57
517.604	4589.26
517.972	4618.18
518.339	4686.88
518.706	4655.24
519.073	4672.87
519.44	4688.01
519.808	4736.37
520.175	4723.27
520.542	4742.02
520.909	4769.82
521.276	4775.24
521.643	4770.95
522.009	4798.97
522.376	4841.91
522.743	4862.7
523.11	4877.39
523.477	4883.94
523.843	4896.82
524.21	4952.86
524.577	4968.23
524.943	4992.41
525.31	5056.14
525.676	5068.34
526.043	5048.23
526.409	5082.58
526.776	5148.57
527.142	5130.03
527.508	5172.29
527.874	5194.89
528.241	5184.5
528.607	5194.44
528.973	5254.33
529.339	5270.14
529.705	5373.19
530.071	5338.62
530.437	5415.45
530.803	5400.76
531.169	5466.97
531.535	5443.25
531.901	5438.5
532.267	5469.01
532.632	5481.44
532.998	5548.33
533.364	5579.97
533.73	5581.32
534.095	5554.66
534.461	5639.63
534.826	5617.03
535.192	5703.13
535.557	5720.98
535.923	5732.28
536.288	5700.64
536.653	5803.01
537.019	5769.34
537.384	5808.66
537.749	5796.01
538.114	5845.27
538.479	5845.72
538.845	5890.69
539.21	5885.27
539.575	5931.6
539.94	5965.94
540.305	5948.77
540.67	5979.5
541.034	6024.02
541.399	6057.69
541.764	6094.98
542.129	6043.46
542.494	6122.55
542.858	6141.99
543.223	6163.91
543.587	6192.61
543.952	6151.93
544.316	6190.12
544.681	6246.62
545.045	6266.73
545.41	6285.26
545.774	6319.38
546.138	6336.78
546.503	6353.05
546.867	6383.11
547.231	6384.92
547.595	6402.32
547.959	6504.24
548.324	6465.82
548.688	6498.13
549.052	6581.07
549.416	6510.34
549.779	6577.91
550.143	6645.93
550.507	6609.54
550.871	6688.41
551.235	6636.21
551.599	6678.02
551.962	6739.03
552.326	6764.34
552.689	6786.26
553.053	6778.35
553.417	6754.17
553.78	6867.84
554.143	6761.63
554.507	6866.03
554.87	6880.95
555.234	6890.67
555.597	6843.89
555.96	6939.25
556.323	6968.63
556.686	6911.68
557.05	6905.36
557.413	7000.04
557.776	6972.92
558.139	7031.23
558.502	7023.54
558.865	7046.59
559.228	7148.74
559.59	7151.9
559.953	7165.24
560.316	7196.19
560.679	7233.26
561.041	7255.63
561.404	7314.16
561.767	7301.95
562.129	7300.82
562.492	7382.4
562.854	7319.36
563.217	7387.83
563.579	7373.14
563.941	7437.32
564.304	7496.75
564.666	7464.44
565.028	7522.29
565.39	7520.71
565.753	7592.12
566.115	7564.09
566.477	7602.74
566.839	7662.4
567.201	7687.71
567.563	7662.4
567.925	7730.42
568.287	7768.16
568.648	7766.35
569.01	7868.95
569.372	7846.8
569.734	7821.04
570.095	7962.95
570.457	7977.87
570.819	7987.13
571.18	7938.77
571.542	8092.44
571.903	8075.95
572.265	8163.18
572.626	8183.97
572.987	8175.83
573.349	8229.16
573.71	8343.28
574.071	8313.45
574.432	8387.58
574.794	8482.94
575.155	8539.89
575.516	8517.06
575.877	8617.63
576.238	8638.64
576.599	8732.65
576.96	8820.11
577.32	8895.36
577.681	8973.55
578.042	9041.34
578.403	9058.97
578.763	9111.17
579.124	9257.61
579.485	9369.7
579.845	9506.64
580.206	9497.15
580.566	9645.85
580.927	9751.38
581.287	9960.64
581.648	9978.95
582.008	10162.9
582.368	10241.09
582.728	10412.61
583.089	10532.83
583.449	10683.56
583.809	10911.58
584.169	11080.84
584.529	11197.22
584.889	11449.87
585.249	11489.64
585.609	11765.34
585.969	12016.86
586.329	12140.02
586.688	12333.24
587.048	12535.26
587.408	12754.92
587.768	12902.94
588.127	13130.73
588.487	13407.33
588.846	13793.54
589.206	13879.86
589.565	14120.98
589.925	14442.56
590.284	14650.91
590.643	14942.88
591.003	15225.36
591.362	15565.01
591.721	15791
592.08	15972.01
592.44	16373.35
592.799	16717.53
593.158	16855.15
593.517	17056.5
593.876	17461.69
594.235	17644.06
594.593	18031.16
594.952	18388.44
595.311	18530.59
595.67	18927.41
596.029	19288.08
596.387	19590.9
596.746	19900.95
597.104	20162.18
597.463	20334.61
597.822	20749.96
598.18	20941.6
598.538	21297.97
598.897	21663.84
599.255	21741.35
599.613	22255.23
599.972	22402.35
600.33	22822.45
600.688	22880.53
601.046	23361.42
601.404	23719.6
601.762	23793.27
602.12	24383.99
602.478	24440.04
602.836	24797.54
603.194	24886.58
603.552	25241.6
603.91	25377.86
604.268	25749.61
604.625	25925.42
604.983	26352.08
605.341	26429.14
605.698	26833.64
606.056	27084.49
606.413	27264.82
606.771	27619.84
607.128	27878.14
607.485	27979.6
607.843	28228.18
608.2	28569.87
608.557	28869.75
608.914	28909.75
609.272	29275.84
609.629	29586.57
609.986	29887.12
610.343	29815.94
610.7	30191.07
611.057	30441.91
611.414	30406.88
611.771	30836.93
612.127	31126.87
612.484	31099.52
612.841	31586.06
613.198	31447.31
613.554	31787.19
613.911	31984.24
614.267	32207.29
614.624	32372.03
614.98	32446.38
615.337	32805.47
615.693	32873.49
616.05	32927.95
616.406	33268.28
616.762	33292.01
617.118	33372
617.475	33437.09
617.831	33803.86
618.187	34008.82
618.543	34040.23
618.899	34409.94
619.255	34375.14
619.611	34631.63
619.967	34905.3
620.323	34898.97
620.678	34897.61
621.034	34959.31
621.39	35028.68
621.746	35209.7
622.101	35679.06
622.457	35430.25
622.812	35711.6
623.168	35685.84
623.523	35895.1
623.879	36008.09
624.234	35951.37
624.589	36094.64
624.945	36179.39
625.3	36356.11
625.655	36451.92
626.01	36447.18
626.365	36560.85
626.72	36611.69
627.075	36625.03
627.43	36702.76
627.785	36590.45
628.14	36728.75
628.495	36799.94
628.85	36780.95
629.205	36788.86
629.559	37036.31
629.914	37126.71
630.269	36987.5
630.623	37076.99
630.978	36977.78
631.332	37146.59
631.687	37394.05
632.041	37255.97
632.396	37318.79
632.75	37293.71
633.104	37446.7
633.459	37232.02
633.813	37368.51
634.167	37398.56
634.521	37473.36
634.875	37377.55
635.229	37296.87
635.583	37274.27
635.937	37310.21
636.291	37281.96
636.645	37497.32
636.999	37332.58
637.352	37335.29
637.706	37334.84
638.06	37475.17
638.413	37335.74
638.767	37309.3
639.121	37399.02
639.474	37139.36
639.828	37282.64
640.181	37317.21
640.534	37447.38
640.888	37255.74
641.241	37090.78
641.594	37119.48
641.947	37318.79
642.301	37279.7
642.654	37259.81
643.007	37359.24
643.36	37208.51
643.713	37236.31
644.066	37284.22
644.419	37190.43
644.771	36848.3
645.124	36688.53
645.477	36426.16
645.83	36329.89
646.182	36232.04
646.535	36200.63
646.888	36253.96
647.24	35948.89
647.593	36286.28
647.945	36175.09
648.298	35983.23
648.65	36036.57
649.002	35982.1
649.355	36079.96
649.707	36014.87
650.059	36272.27
650.411	36680.62
650.763	36754.74
651.115	37020.04
651.467	36968.75
651.819	36913.15
652.171	36869.31
652.523	36731.69
652.875	36893.72
653.227	36608.53
653.578	36930.33
653.93	36871.12
654.282	36594.52
654.633	36477.01
654.985	36668.87
655.337	36710.9
655.688	36737.57
656.039	36739.6
656.391	36451.47
656.742	36738.24
657.094	36548.87
657.445	36695.76
657.796	36582.77
658.147	36634.74
658.498	36554.75
658.849	36635.87
659.2	36606.04
659.551	36562.65
659.902	36541.86
660.253	36582.99
660.604	36583.22
660.955	36440.4
661.306	36502.54
661.656	36556.55
662.007	36542.54
662.358	36507.74
662.708	36531.47
663.059	36558.13
663.409	36332.15
663.76	36629.55
664.11	36470.23
664.461	36641.75
664.811	36523.11
665.161	36566.72
665.511	36519.04
665.862	36502.77
666.212	36588.64
666.562	36648.53
666.912	36484.01
667.262	36487.63
667.612	36335.99
667.962	36382.55
668.312	36446.95
668.662	36501.64
669.011	36501.41
669.361	36292.15
669.711	36336.45
670.06	36272.49
670.41	36359.72
670.76	36105.27
671.109	36471.36
671.459	36206.28
671.808	36194.75
672.157	36313.85
672.507	36137.81
672.856	36106.62
673.205	36154.08
673.554	36268.65
673.904	36199.73
674.253	36207.86
674.602	36256.67
674.951	35726.97
675.3	35520.42
675.649	36142.33
675.998	36016
676.346	36128.32
676.695	36075.66
677.044	35931.26
677.393	35918.6
677.741	36067.3
678.09	35921.32
678.438	35911.37
678.787	35884.48
679.135	35956.57
679.484	35790.47
679.832	35937.59
680.181	35709.8
680.529	35759.74
680.877	35696.69
681.225	35643.81
681.573	35874.08
681.922	35680.19
682.27	35551.16
682.618	35528.78
682.966	35493.53
683.314	35399.07
683.661	35368.11
684.009	35219.64
684.357	35116.82
684.705	35171.96
685.053	35041.56
685.4	35114.56
685.748	34861.23
686.095	34867.56
686.443	34817.62
686.79	34823.27
687.138	34808.12
687.485	34818.97
687.832	34703.04
688.18	34771.29
688.527	34561.58
688.874	34635.25
689.221	34467.57
689.568	34443.84
689.915	34307.12
690.262	34313.45
690.609	34195.03
690.956	34125.2
691.303	34116.17
691.65	33894.48
691.997	33897.41
692.344	33805.44
692.69	33771.99
693.037	33802.73
693.383	33482.06
693.73	33674.82
694.077	33418.1
694.423	33433.92
694.769	33415.17
695.116	33182.18
695.462	33209.3
695.808	33006.14
696.155	33155.29
696.501	32816.09
696.847	32823.77
697.193	32700.61
697.539	32745.58
697.885	32538.13
698.231	32463.78
698.577	32294.74
698.923	32363.89
699.269	32212.71
699.614	32132.26
699.96	32024.02
700.306	32087.07
700.651	32035.32
700.997	31811.59
701.342	31862.89
701.688	31718.71
702.033	31645.72
702.379	31649.79
702.724	31492.73
703.069	31523.01
703.415	31215.22
703.76	31278.27
704.105	31327.76
704.45	31206.41
704.795	31040.31
705.14	30873.99
705.485	30937.27
705.83	30666.99
706.175	30813.2
706.52	30730.94
706.865	30576.37
707.209	30575.47
707.554	30438.75
707.899	30559.42
708.243	30311.07
708.588	30365.08
708.932	30145.42
709.277	30195.82
709.621	30153.11
709.966	30007.35
710.31	29990.4
710.654	29733
710.998	29753.79
711.342	29747.01
711.687	29660.01
712.031	29613.68
712.375	29502.5
712.719	29550.64
713.063	29488.04
713.407	29523.07
713.75	29319.46
714.094	29260.25
714.438	29168.95
714.782	29252.79
715.125	29055.96
715.469	29218.21
715.812	29119.01
716.156	28862.29
716.499	28861.84
716.843	28888.05
717.186	28734.84
717.53	28834.5
717.873	28816.42
718.216	28692.58
718.559	28637.67
718.902	28516.31
719.246	28458.01
719.589	28465.92
719.932	28379.14
720.275	28291.91
720.617	28269.31
720.96	28296.21
721.303	28335.53
721.646	28070.45
721.989	28111.8
722.331	28131.24
722.674	28034.74
723.016	28098.02
723.359	27912.71
723.701	28006.5
724.044	27747.97
724.386	27774.41
724.729	27778.48
725.071	27706.39
725.413	27579.84
725.755	27672.04
726.097	27533.29
726.439	27518.6
726.782	27491.93
727.124	27592.27
727.465	27338.04
727.807	27295.1
728.149	27306.63
728.491	27279.28
728.833	27275.22
729.175	27173.75
729.516	27127.65
729.858	27186.86
730.199	27072.06
730.541	27013.53
730.882	26992.74
731.224	27020.31
731.565	26851.72
731.906	26927.88
732.248	26841.78
732.589	26720.43
732.93	26739.64
733.271	26670.03
733.612	26717.26
733.953	26599.07
734.294	26568.34
734.635	26459.87
734.976	26543.93
735.317	26434.56
735.658	26492.18
735.999	26412.64
736.339	26401.34
736.68	26449.25
737.021	26261
737.361	26075.7
737.702	26320.44
738.042	26160.67
738.383	26204.51
738.723	26171.97
739.063	26140.56
739.404	26154.34
739.744	26181.68
740.084	25946.44
740.424	25936.95
740.764	25940.33
741.104	25920
741.444	25800.23
741.784	25775.37
742.124	25790.96
742.464	25775.37
742.804	25644.3
743.143	25655.82
743.483	25573.11
743.823	25421.7
744.162	25618.08
744.502	25602.94
744.841	25413.57
745.181	25466.22
745.52	25382.61
745.86	25351.42
746.199	25320.46
746.538	25239.56
746.877	25349.16
747.216	25330.41
747.556	25232.33
747.895	25150.75
748.234	25025.56
748.573	24988.72
748.911	25036.18
749.25	24988.04
749.589	24846.35
749.928	24827.14
750.267	24838.44
750.605	24701.05
750.944	24736.98
751.283	24774.94
751.621	24720.25
751.96	24569.07
752.298	24608.39
752.636	24574.04
752.975	24232.58
753.313	24296.31
753.651	24468.06
753.989	24396.19
754.327	24299.25
754.666	24155.52
755.004	24219.25
755.342	24191.68
755.679	24110.55
756.017	24000.5
756.355	24008.41
756.693	23940.39
757.031	23981.97
757.368	23745.82
757.706	23809.32
758.044	23687.96
758.381	23802.31
758.719	23708.76
759.056	23761.18
759.394	23457.01
