Data from hue_20_FLMS001491_49.txt Node
Date: Mon Feb 06 15:34:11 GMT 2017
User: dcchb
Spectrometer: FLMS00149
Trigger mode: 0
Integration Time (sec): 2.000000E-2
Scans to average: 10
Electric dark correction enabled: true
Nonlinearity correction enabled: false
Boxcar width: 0
XAxis mode: Wavelengths
Number of Pixels in Spectrum: 2048
>>>>>Begin Spectral Data<<<<<
341.393	-25.71
341.776	-25.71
342.16	-25.71
342.543	-75.2
342.927	-70.9
343.31	-66.38
343.693	-56.67
344.077	-78.59
344.46	-54.63
344.843	-59.6
345.226	-34.97
345.61	-37
345.993	-13.73
346.376	8.87
346.759	6.61
347.142	14.07
347.525	38.93
347.908	55.87
348.291	87.74
348.674	76.89
349.057	112.6
349.44	115.31
349.823	154.85
350.206	164.57
350.588	187.62
350.971	187.85
351.354	229.43
351.737	239.82
352.119	254.06
352.502	274.4
352.884	266.26
353.267	287.28
353.65	312.14
354.032	312.36
354.414	294.06
354.797	323.21
355.179	338.8
355.562	323.89
355.944	316.21
356.326	314.62
356.709	327.28
357.091	336.32
357.473	354.62
357.855	338.13
358.238	357.34
358.62	365.7
359.002	347.17
359.384	342.19
359.766	328.86
360.148	332.93
360.53	327.05
360.912	338.8
361.294	354.17
361.676	335.64
362.057	322.99
362.439	337.22
362.821	340.39
363.203	324.34
363.584	312.59
363.966	321.4
364.348	333.83
364.729	335.19
365.111	330.22
365.493	331.12
365.874	317.11
366.256	304.23
366.637	306.72
367.019	305.81
367.4	301.97
367.781	288.18
368.163	299.94
368.544	308.97
368.925	304.46
369.306	306.49
369.688	311.01
370.069	295.64
370.45	328.18
370.831	320.73
371.212	313.04
371.593	315.98
371.974	304.46
372.355	317.34
372.736	307.39
373.117	313.27
373.498	306.26
373.879	317.79
374.26	324.57
374.641	308.52
375.021	317.79
375.402	325.02
375.783	321.86
376.163	332.7
376.544	332.25
376.925	318.47
377.305	324.57
377.686	325.7
378.066	345.13
378.447	320.27
378.827	338.58
379.208	319.37
379.588	340.61
379.968	340.84
380.349	321.4
380.729	361.85
381.109	332.25
381.489	338.35
381.87	335.64
382.25	345.36
382.63	355.3
383.01	330.9
383.39	340.39
383.77	347.17
384.15	348.3
384.53	341.29
384.91	339.48
385.29	335.64
385.67	367.96
386.049	350.1
386.429	382.42
386.809	365.47
387.189	368.18
387.568	356.21
387.948	376.54
388.328	373.83
388.707	357.79
389.087	367.05
389.466	370.67
389.846	356.43
390.225	395.07
390.605	356.66
390.984	384
391.363	365.47
391.743	376.54
392.122	386.49
392.501	379.03
392.881	389.2
393.26	373.83
393.639	395.07
394.018	371.57
394.397	365.02
394.776	379.48
395.155	387.62
395.534	400.05
395.913	412.7
396.292	391.68
396.671	384.45
397.05	406.15
397.429	396.43
397.808	397.33
398.186	395.98
398.565	400.05
398.944	394.62
399.323	410.44
399.701	424.23
400.08	397.33
400.458	396.2
400.837	418.12
401.215	420.84
401.594	411.8
401.972	433.72
402.351	426.71
402.729	423.77
403.107	429.2
403.486	433.27
403.864	433.27
404.242	442.3
404.62	434.4
404.999	425.13
405.377	445.47
405.755	427.39
406.133	453.6
406.511	433.27
406.889	431.68
407.267	442.53
407.645	449.76
408.023	442.76
408.401	456.99
408.779	468.07
409.156	449.54
409.534	460.16
409.912	456.32
410.29	472.13
410.667	494.05
411.045	479.82
411.422	477.78
411.8	468.07
412.178	464.68
412.555	469.2
412.933	495.64
413.31	502.19
413.687	497.67
414.065	484.34
414.442	537.44
414.819	499.48
415.197	504.22
415.574	528.63
415.951	504.68
416.328	513.72
416.705	510.33
417.082	518.23
417.46	535.64
417.837	534.28
418.214	525.24
418.591	547.39
418.967	566.37
419.344	552.36
419.721	523.66
420.098	541.74
420.475	549.87
420.852	550.1
421.228	556.88
421.605	553.26
421.982	555.07
422.358	548.29
422.735	575.41
423.111	590.78
423.488	595.75
423.864	612.7
424.241	582.87
424.617	591.68
424.994	576.99
425.37	594.39
425.746	598.68
426.123	589.42
426.499	612.7
426.875	594.84
427.251	622.86
427.627	625.58
428.003	638.46
428.379	644.79
428.756	627.61
429.132	653.82
429.507	648.85
429.883	652.47
430.259	646.82
430.635	644.11
431.011	672.58
431.387	690.66
431.763	688.85
432.138	674.16
432.514	701.73
432.89	712.81
433.265	691.11
433.641	721.17
434.016	711.22
434.392	714.84
434.767	722.07
435.143	746.03
435.518	743.09
435.894	724.78
436.269	744.22
436.644	751.45
437.02	769.08
437.395	762.07
437.77	766.59
438.145	795.97
438.52	786.25
438.895	766.82
439.271	787.61
439.646	822.63
440.021	823.09
440.395	803.43
440.77	805.69
441.145	820.37
441.52	822.86
441.895	826.25
442.27	828.28
442.645	852.69
443.019	869.64
443.394	859.24
443.769	827.38
444.143	859.69
444.518	867.83
444.892	849.53
445.267	836.64
445.641	855.4
446.016	857.66
446.39	866.7
446.764	870.77
447.139	878.45
447.513	883.88
447.887	898.79
448.262	903.76
448.636	942.4
449.01	924.1
449.384	957.77
449.758	912.12
450.132	954.38
450.506	963.87
450.88	951.9
451.254	946.02
451.628	981.95
452.002	1000.71
452.376	977.21
452.75	994.83
453.123	975.4
453.497	983.08
453.871	999.13
454.244	1035.06
454.618	1038.9
454.992	1050.88
455.365	1061.27
455.739	1051.78
456.112	1064.44
456.486	1084.32
456.859	1094.94
457.232	1120.48
457.606	1138.78
457.979	1133.59
458.352	1141.27
458.725	1138.78
459.099	1152.12
459.472	1204.32
459.845	1194.6
460.218	1200.93
460.591	1235.73
460.964	1208.39
461.337	1218.1
461.71	1252.9
462.083	1240.02
462.456	1264.66
462.829	1257.2
463.201	1295.16
463.574	1297.65
463.947	1330.87
464.32	1347.82
464.692	1382.17
465.065	1382.84
465.438	1409.74
465.81	1403.64
466.183	1404.09
466.555	1433.69
466.928	1459
467.3	1439.57
467.672	1470.07
468.045	1536.06
468.417	1504.2
468.789	1525.67
469.161	1546
469.534	1568.83
469.906	1620.8
470.278	1613.57
470.65	1612.22
471.022	1651.31
471.394	1698.54
471.766	1693.12
472.138	1680.46
472.51	1734.93
472.882	1755.49
473.253	1784.87
473.625	1850.86
473.997	1830.29
474.369	1883.85
474.74	1924.07
475.112	1906.22
475.484	1969.5
475.855	1993
476.227	2054.01
476.598	2097.63
476.97	2129.27
477.341	2156.38
477.713	2166.33
478.084	2185.08
478.455	2281.8
478.827	2298.75
479.198	2349.6
479.569	2329.94
479.94	2418.52
480.311	2438.64
480.682	2516.37
481.053	2543.27
481.424	2608.35
481.795	2670.49
482.166	2687.22
482.537	2724.05
482.908	2796.37
483.279	2807.67
483.65	2856.25
484.021	2895.57
484.391	2943.26
484.762	2969.7
485.133	3035.68
485.503	3060.99
485.874	3132.63
486.244	3164.95
486.615	3217.37
486.985	3317.48
487.356	3355
487.726	3400.42
488.097	3455.78
488.467	3486.97
488.837	3560.87
489.207	3610.81
489.578	3719.96
489.948	3721.99
490.318	3779.17
490.688	3753.63
491.058	3812.61
491.428	3870.46
491.798	3940.07
492.168	4028.65
492.538	4067.29
492.908	4105.26
493.278	4186.16
493.648	4167.4
494.017	4213.05
494.387	4231.81
494.757	4327.63
495.126	4346.16
495.496	4393.39
495.866	4396.33
496.235	4442.43
496.605	4497.11
496.974	4504.8
497.344	4554.06
497.713	4641.97
498.082	4641.52
498.452	4727.84
498.821	4711.12
499.19	4773.49
499.559	4771.46
499.928	4818.69
500.298	4836.09
500.667	4941.62
501.036	4920.83
501.405	4975.97
501.774	4987.72
502.143	5040.15
502.512	5023.65
502.88	5108.4
503.249	5106.59
503.618	5111.11
503.987	5187.72
504.356	5192.69
504.724	5213.7
505.093	5215.29
505.462	5239.24
505.83	5303.65
506.199	5339.35
506.567	5468.16
506.936	5358.11
507.304	5425.9
507.672	5465.45
508.041	5471.1
508.409	5522.85
508.777	5589.29
509.145	5604.43
509.514	5611.89
509.882	5651.89
510.25	5668.16
510.618	5705.44
510.986	5694.82
511.354	5821.37
511.722	5771.88
512.09	5851.88
512.458	5804.42
512.826	5863.41
513.193	5899.56
513.561	5909.96
513.929	6002.61
514.297	6057.52
514.664	6051.65
515.032	6071.99
515.4	6142.49
515.767	6108.82
516.135	6166.22
516.502	6142.95
516.869	6208.25
517.237	6259.33
517.604	6206.9
517.972	6272.66
518.339	6391.3
518.706	6368.7
519.073	6345.2
519.44	6326.67
519.808	6440.11
520.175	6417.29
520.542	6480.11
520.909	6476.5
521.276	6537.06
521.643	6616.15
522.009	6621.35
522.376	6681.69
522.743	6707.45
523.11	6779.31
523.477	6800.33
523.843	6827.22
524.21	6894.11
524.577	6882.59
524.943	6972.98
525.31	7004.17
525.676	6998.52
526.043	7104.73
526.409	7124.84
526.776	7133.88
527.142	7178.85
527.508	7248.23
527.874	7282.58
528.241	7305.85
528.607	7323.03
528.973	7361.9
529.339	7403.7
529.705	7462.46
530.071	7473.53
530.437	7524.38
530.803	7589.46
531.169	7603.7
531.535	7593.3
531.901	7645.96
532.267	7683.02
532.632	7811.38
532.998	7777.71
533.364	7830.59
533.73	7807.08
534.095	7940.86
534.461	7929.34
534.826	7932.28
535.192	7970.92
535.557	8087.98
535.923	8050.92
536.288	8083.46
536.653	8163.68
537.019	8139.73
537.384	8148.77
537.749	8230.12
538.114	8220.86
538.479	8220.86
538.845	8315.32
539.21	8313.96
539.575	8367.07
539.94	8353.28
540.305	8449.78
540.67	8452.49
541.034	8484.13
541.399	8485.94
541.764	8547.85
542.129	8574.75
542.494	8651.81
542.858	8720.73
543.223	8727.74
543.587	8709.88
543.952	8710.56
544.316	8788.98
544.681	8780.62
545.045	8817.23
545.41	8904.91
545.774	8946.26
546.138	8887.28
546.503	8974.51
546.867	9004.34
547.231	8969.31
547.595	9084.79
547.959	9084.56
548.324	9157.56
548.688	9157.78
549.052	9250.21
549.416	9221.06
549.779	9258.12
550.143	9346.48
550.507	9357.55
550.871	9385.8
551.235	9350.09
551.599	9459.47
551.962	9492.01
552.326	9534.5
552.689	9548.05
553.053	9559.13
553.417	9551.67
553.78	9685
554.143	9615.62
554.507	9635.51
554.87	9746.47
555.234	9794.83
555.597	9743.98
555.96	9827.37
556.323	9828.72
556.686	9885.67
557.05	9881.15
557.413	9924.99
557.776	9966.35
558.139	10035.5
558.502	10054.48
558.865	10066.46
559.228	10073.92
559.59	10164.99
559.953	10142.16
560.316	10275.94
560.679	10319.79
561.041	10345.77
561.404	10352.33
561.767	10436.39
562.129	10359.11
562.492	10518.88
562.854	10480.68
563.217	10431.65
563.579	10535.37
563.941	10550.29
564.304	10598.65
564.666	10681.58
565.028	10684.97
565.39	10829.15
565.753	10843.39
566.115	10778.3
566.477	10844.29
566.839	10913.44
567.201	10994.12
567.563	10964.97
567.925	11058.07
568.287	11025.3
568.648	11049.94
569.01	11174.68
569.372	11264.85
569.734	11232.3
570.095	11284.51
570.457	11302.58
570.819	11357.5
571.18	11366.31
571.542	11461.22
571.903	11531.05
572.265	11540.32
572.626	11528.57
572.987	11651.28
573.349	11669.35
573.71	11770.59
574.071	11835
574.432	11946.64
574.794	11958.16
575.155	11995.9
575.516	11961.78
575.877	12139.85
576.238	12182.79
576.599	12235.67
576.96	12320.64
577.32	12376.68
577.681	12466.4
578.042	12563.79
578.403	12625.04
578.763	12626.62
579.124	12768.53
579.485	12917.68
579.845	13084.01
580.206	13112.03
580.566	13215.08
580.927	13260.72
581.287	13527.16
581.648	13588.63
582.008	13683.99
582.368	13826.36
582.728	13996.52
583.089	14093.7
583.449	14264.31
583.809	14412.78
584.169	14666.56
584.529	14754.02
584.889	14978.19
585.249	15033.33
585.609	15266.77
585.969	15516.03
586.329	15633.32
586.688	15882.8
587.048	16085.06
587.408	16285.96
587.768	16487.76
588.127	16636.91
588.487	16936.11
588.846	17305.82
589.206	17449.77
589.565	17593.49
589.925	17969.08
590.284	18190.76
590.643	18501.04
591.003	18856.74
591.362	19129.95
591.721	19375.37
592.08	19618.3
592.44	19949.14
592.799	20239.07
593.158	20445.85
593.517	20772.17
593.876	21142.1
594.235	21422.54
594.593	21631.58
594.952	21961.51
595.311	22168.97
595.67	22629.29
596.029	23007.36
596.387	23357.41
596.746	23748.13
597.104	23835.59
597.463	24104.51
597.822	24516.7
598.18	24751.27
598.538	25069.23
598.897	25505.37
599.255	25646.39
599.613	26315.97
599.972	26508.74
600.33	26809.52
600.688	27154.6
601.046	27416.28
601.404	27821.25
601.762	28083.84
602.12	28502.36
602.478	28776.47
602.836	29005.4
603.194	29100.53
603.552	29464.37
603.91	29596.57
604.268	30212.82
604.625	30355.19
604.983	30725.35
605.341	30878.34
605.698	31296.63
606.056	31595.16
606.413	31898.2
606.771	32131.87
607.128	32563.95
607.485	32573.89
607.843	32850.27
608.2	33299.29
608.557	33507.65
608.914	33752.84
609.272	34161.19
609.629	34387.85
609.986	34705.58
610.343	34779.93
610.7	35231.67
611.057	35353.93
611.414	35561.16
611.771	35760.02
612.127	36249.05
612.484	36379.21
612.841	36616.27
613.198	36654.69
613.554	36825.3
613.911	37251.73
614.267	37472.29
614.624	37467.55
614.98	37829.34
615.337	38045.61
615.693	38221.65
616.05	38242.67
616.406	38627.74
616.762	38601.08
617.118	38727.63
617.475	39004.45
617.831	39270.89
618.187	39490.09
618.543	39642.86
618.899	40026.8
619.255	39988.84
619.611	40213.69
619.967	40343.63
620.323	40495.26
620.678	40537.97
621.034	40544.75
621.39	40671.53
621.746	40890.28
622.101	41292.08
622.457	41102.25
622.812	41242.36
623.168	41416.59
623.523	41469.47
623.879	41868.56
624.234	41526.2
624.589	41757.38
624.945	41892.29
625.3	42151.04
625.655	42032.4
626.01	42186.07
626.365	42274.43
626.72	42218.38
627.075	42387.87
627.43	42435.1
627.785	42300.87
628.14	42702.44
628.495	42698.37
628.85	42702.21
629.205	42666.96
629.559	43046.38
629.914	42832.6
630.269	43011.35
630.623	42856.78
630.978	42859.27
631.332	43165.25
631.687	43134.52
632.041	43096.1
632.396	43218.36
632.75	42946.5
633.104	43165.25
633.459	42971.81
633.813	43064.23
634.167	43093.61
634.521	43139.94
634.875	43133.16
635.229	43205.93
635.583	43034.63
635.937	43202.99
636.291	43167.51
636.645	43063.33
636.999	43159.37
637.352	43279.37
637.706	43073.5
638.06	43333.61
638.413	43235.76
638.767	43123.44
639.121	43310.78
639.474	43020.17
639.828	43204.8
640.181	43192.37
640.534	43180.84
640.888	43011.35
641.241	43013.84
641.594	43060.39
641.947	43205.47
642.301	43056.1
642.654	43048.64
643.007	43020.62
643.36	43075.99
643.713	43008.87
644.066	43070.11
644.419	42933.84
644.771	42666.28
645.124	42320.98
645.477	42165.95
645.83	42020.87
646.182	42042.57
646.535	41795.34
646.888	41823.36
647.24	41611.17
647.593	41896.81
647.945	41723.25
648.298	41637.61
648.65	41692.97
649.002	41553.77
649.355	41702.69
649.707	41755.57
650.059	41847.77
650.411	42352.84
650.763	42365.04
651.115	42797.58
651.467	42711.25
651.819	42592.16
652.171	42554.64
652.523	42413.4
652.875	42482.78
653.227	42339.73
653.578	42676.45
653.93	42474.87
654.282	42382.22
654.633	42445.49
654.985	42504.93
655.337	42426.29
655.688	42404.59
656.039	42543.34
656.391	42142.23
656.742	42360.07
657.094	42288.21
657.445	42366.17
657.796	42307.42
658.147	42243.69
658.498	42174.99
658.849	42452.05
659.2	42285.95
659.551	42266.74
659.902	42365.72
660.253	42207.76
660.604	42245.73
660.955	42008.22
661.306	42377.25
661.656	41989.23
662.007	42187.87
662.358	42109.23
662.708	42042.11
663.059	42199.4
663.409	41843.25
663.76	42177.93
664.11	42052.96
664.461	42205.73
664.811	42063.81
665.161	42070.59
665.511	41995.11
665.862	42086.41
666.212	42017.93
666.562	42238.04
666.912	41991.95
667.262	41951.04
667.612	42060.87
667.962	42007.09
668.312	41938.16
668.662	42118.72
669.011	41980.42
669.361	41843.25
669.711	41917.82
670.06	41892.29
670.41	41807.32
670.76	41857.26
671.109	41963.02
671.459	41792.18
671.808	41782.01
672.157	42014.77
672.507	41826.53
672.856	41825.4
673.205	41882.35
673.554	42014.32
673.904	41802.57
674.253	42034.88
674.602	41748.56
674.951	41349.03
675.3	41084.17
675.649	41648.45
675.998	41722.58
676.346	41628.79
676.695	41778.39
677.044	41429.02
677.393	41661.56
677.741	41680.32
678.09	41459.98
678.438	41493.65
678.787	41497.04
679.135	41373.66
679.484	41217.73
679.832	41402.13
680.181	41065.19
680.529	41284.39
680.877	41289.37
681.225	41197.39
681.573	41363.26
681.922	40990.84
682.27	40973.44
682.618	40932.54
682.966	40833.11
683.314	40846.67
683.661	40832.2
684.009	40693.22
684.357	40701.59
684.705	40650.06
685.053	40587.69
685.4	40482.61
685.748	40340.01
686.095	40460.24
686.443	40286.23
686.79	40159.9
687.138	40190.41
687.485	40216.4
687.832	40158.32
688.18	40256.4
688.527	39968.95
688.874	39938.67
689.221	39721.72
689.568	39706.36
689.915	39624.1
690.262	39660.93
690.609	39505.91
690.956	39301.85
691.303	39391.11
691.65	39146.82
691.997	39253.26
692.344	38884.91
692.69	38959.71
693.037	38862.54
693.383	38608.76
693.73	38709.55
694.077	38478.82
694.423	38570.57
694.769	38376.9
695.116	38293.96
695.462	38324.7
695.808	38181.65
696.155	38176
696.501	37954.31
696.847	38022.56
697.193	37675.9
697.539	37862.11
697.885	37628.22
698.231	37429.81
698.577	37556.13
698.923	37423.25
699.269	37337.15
699.614	37067.33
699.96	37129.48
700.306	37082.02
700.651	36844.06
700.997	36792.76
701.342	36665.53
701.688	36613.78
702.033	36553.45
702.379	36640.9
702.724	36332.21
703.069	36489.94
703.415	36035.27
703.76	36107.13
704.105	36122.72
704.45	36060.13
704.795	35915.72
705.14	35684.54
705.485	35772.45
705.83	35655.39
706.175	35682.28
706.52	35572.68
706.865	35395.74
707.209	35365.23
707.554	35044.11
707.899	35361.61
708.243	35074.84
708.588	35036.42
708.932	34885.24
709.277	34713.95
709.621	34800.72
709.966	34699.03
710.31	34691.57
710.654	34377.68
710.998	34482.31
711.342	34354.86
711.687	34429.21
712.031	34259.49
712.375	34078.48
712.719	34154.41
713.063	34062.21
713.407	34270.79
713.75	33906.51
714.094	34056.56
714.438	33777.93
714.782	33992.61
715.125	33613.86
715.469	33751.71
715.812	33551.04
716.156	33441.44
716.499	33425.17
716.843	33514.43
717.186	33219.75
717.53	33412.06
717.873	33169.58
718.216	33248
718.559	33148.79
718.902	32966.87
719.246	33031.96
719.589	32866.99
719.932	32820.21
720.275	32665.41
720.617	32709.93
720.96	32648.92
721.303	32645.3
721.646	32605.53
721.989	32346.1
722.331	32500.67
722.674	32333.44
723.016	32423.61
723.359	32331.41
723.701	32327.57
724.044	32286.44
724.386	32042.6
724.729	32215.48
725.071	32063.39
725.413	32011.42
725.755	32041.93
726.097	31862.95
726.439	31768.03
726.782	31844.19
727.124	31848.94
727.465	31613.46
727.807	31634.03
728.149	31586.34
728.491	31472.22
728.833	31589.06
729.175	31403.07
729.516	31442.85
729.858	31309.52
730.199	31412.56
730.541	31507.25
730.882	31313.36
731.224	31272.91
731.565	31053.48
731.906	31115.62
732.248	31160.37
732.589	30861.39
732.93	30882.41
733.271	30934.84
733.612	30978.45
733.953	30825.69
734.294	30768.74
734.635	30672.24
734.976	30737.33
735.317	30708.85
735.658	30533.49
735.999	30585.69
736.339	30545.02
736.68	30631.34
737.021	30434.51
737.361	30262.99
737.702	30495.53
738.042	30363.33
738.383	30371.01
738.723	30301.63
739.063	30175.99
739.404	30251.24
739.744	30161.98
740.084	30020.06
740.424	30121.75
740.764	30083.33
741.104	29944.58
741.444	29879.72
741.784	29782.1
742.124	29798.82
742.464	29747.75
742.804	29662.78
743.143	29740.29
743.483	29600.86
743.823	29564.25
744.162	29468.89
744.502	29606.74
744.841	29498.49
745.181	29502.78
745.52	29364.93
745.86	29426.18
746.199	29449.68
746.538	29261.43
746.877	29352.51
747.216	29394.09
747.556	29166.75
747.895	29219.85
748.234	29050.14
748.573	29111.61
748.911	29016.02
749.25	29048.11
749.589	28841.11
749.928	28878.39
750.267	28934.89
750.605	28759.75
750.944	28726.98
751.283	28712.97
751.621	28696.03
751.96	28505.97
752.298	28407.22
752.636	28505.52
752.975	28388.46
753.313	28350.95
753.651	28468.69
753.989	28310.72
754.327	28244.74
754.666	28042.26
755.004	28180.33
755.342	28174
755.679	28082.03
756.017	27827.12
756.355	27979.43
756.693	27928.14
757.031	27971.98
757.368	27584.64
757.706	27828.7
758.044	27619.22
758.381	27696.05
758.719	27545.55
759.056	27570.41
759.394	27488.6
