Data from hue_340_FLMS001491_11.txt Node
Date: Mon Feb 06 15:42:20 GMT 2017
User: dcchb
Spectrometer: FLMS00149
Trigger mode: 0
Integration Time (sec): 2.000000E-2
Scans to average: 10
Electric dark correction enabled: true
Nonlinearity correction enabled: false
Boxcar width: 0
XAxis mode: Wavelengths
Number of Pixels in Spectrum: 2048
>>>>>Begin Spectral Data<<<<<
341.393	-21.12
341.776	-21.12
342.16	-21.12
342.543	-60.21
342.927	-68.12
343.31	-87.55
343.693	-64.73
344.077	-63.6
344.46	-76.26
344.843	-51.62
345.226	-43.26
345.61	-23.83
345.993	-20.21
346.376	15.72
346.759	11.65
347.142	25.89
347.525	46.91
347.908	69.73
348.291	59.33
348.674	99.11
349.057	102.72
349.44	122.84
349.823	148.15
350.206	177.3
350.588	195.6
350.971	208.48
351.354	221.36
351.737	236.96
352.119	257.52
352.502	257.07
352.884	262.95
353.267	305.43
353.65	268.82
354.032	301.81
354.414	334.58
354.797	322.38
355.179	339.55
355.562	323.06
355.944	327.58
356.326	321.93
356.709	339.33
357.091	328.71
357.473	356.5
357.855	346.33
358.238	342.72
358.62	351.98
359.002	343.85
359.384	355.82
359.766	317.86
360.148	319.67
360.53	343.62
360.912	320.8
361.294	325.99
361.676	351.53
362.057	303.62
362.439	326.67
362.821	332.32
363.203	323.73
363.584	325.99
363.966	309.72
364.348	319.67
364.729	308.14
365.111	333.45
365.493	309.27
365.874	277.63
366.256	326.9
366.637	312.21
367.019	295.94
367.4	314.7
367.781	326.67
368.163	315.15
368.544	295.71
368.925	317.63
369.306	328.71
369.688	314.47
370.069	318.31
370.45	309.5
370.831	293
371.212	292.55
371.593	302.94
371.974	306.56
372.355	318.54
372.736	318.54
373.117	298.88
373.498	312.44
373.879	304.98
374.26	321.93
374.641	292.55
375.021	324.64
375.402	325.09
375.783	317.63
376.163	324.86
376.544	332.32
376.925	303.62
377.305	303.17
377.686	320.8
378.066	314.24
378.447	322.38
378.827	329.61
379.208	329.61
379.588	331.64
379.968	323.28
380.349	310.85
380.729	323.73
381.109	330.97
381.489	309.5
381.87	331.42
382.25	346.11
382.63	334.36
383.01	320.8
383.39	325.99
383.77	333.45
384.15	348.59
384.53	318.31
384.91	324.41
385.29	332.1
385.67	333.45
386.049	336.39
386.429	342.27
386.809	344.07
387.189	338.2
387.568	342.49
387.948	330.51
388.328	352.89
388.707	335.49
389.087	345.88
389.466	336.62
389.846	356.05
390.225	360.12
390.605	347.69
390.984	357.41
391.363	363.96
391.743	365.77
392.122	353.34
392.501	364.86
392.881	380
393.26	354.24
393.639	361.25
394.018	366.67
394.397	368.93
394.776	357.18
395.155	371.19
395.534	367.35
395.913	369.83
396.292	353.79
396.671	382.49
397.05	374.35
397.429	383.62
397.808	365.54
398.186	369.83
398.565	362.6
398.944	383.39
399.323	381.36
399.701	377.97
400.08	373.68
400.458	382.72
400.837	376.84
401.215	380.23
401.594	370.51
401.972	384.98
402.351	405.54
402.729	394.24
403.107	392.66
403.486	393.11
403.864	396.95
404.242	401.7
404.62	396.05
404.999	401.47
405.377	402.15
405.755	423.84
406.133	410.51
406.511	415.26
406.889	432.21
407.267	434.92
407.645	416.39
408.023	426.56
408.401	421.36
408.779	451.87
409.156	433.11
409.534	433.56
409.912	427.01
410.29	441.02
410.667	450.06
411.045	438.99
411.422	438.31
411.8	448.02
412.178	489.83
412.555	450.51
412.933	456.16
413.31	478.53
413.687	464.07
414.065	496.39
414.442	506.55
414.819	488.02
415.197	490.96
415.574	505.65
415.951	504.97
416.328	525.31
416.705	518.31
417.082	517.63
417.46	516.72
417.837	527.34
418.214	520.11
418.591	547.01
418.967	542.94
419.344	555.59
419.721	541.81
420.098	538.87
420.475	560.11
420.852	547.23
421.228	538.19
421.605	564.41
421.982	567.57
422.358	574.35
422.735	581.58
423.111	570.28
423.488	576.61
423.864	603.73
424.241	603.95
424.617	571.19
424.994	596.04
425.37	615.93
425.746	587
426.123	605.08
426.499	615.7
426.875	627.68
427.251	638.75
427.627	647.79
428.003	651.41
428.379	667
428.756	634.91
429.132	670.17
429.507	658.19
429.883	655.48
430.259	667.91
430.635	684.18
431.011	672.43
431.387	703.61
431.763	714.91
432.138	695.02
432.514	701.13
432.89	713.55
433.265	727.57
433.641	733.22
434.016	729.37
434.392	744.74
434.767	749.03
435.143	733.44
435.518	760.33
435.894	775.47
436.269	759.43
436.644	789.71
437.02	809.6
437.395	786.55
437.77	786.55
438.145	803.27
438.52	805.76
438.895	829.03
439.271	799.2
439.646	846.88
440.021	836.94
440.395	852.31
440.77	830.39
441.145	825.19
441.52	872.19
441.895	864.51
442.27	854.12
442.645	882.59
443.019	893.44
443.394	898.86
443.769	882.82
444.143	888.24
444.518	875.13
444.892	890.27
445.267	890.95
445.641	922.36
446.016	888.01
446.39	883.95
446.764	922.59
447.139	931.4
447.513	919.2
447.887	918.3
448.262	935.24
448.636	931.18
449.01	937.5
449.384	938.63
449.758	936.37
450.132	969.14
450.506	955.36
450.88	971.63
451.254	973.89
451.628	983.38
452.002	1016.6
452.376	1008.01
452.75	995.81
453.123	1010.27
453.497	1010.04
453.871	991.29
454.244	1012.3
454.618	1041
454.992	1035.58
455.365	1066.54
455.739	1048.46
456.112	1082.13
456.486	1078.06
456.859	1072.64
457.232	1074
457.606	1102.02
457.979	1109.25
458.352	1103.15
458.725	1122.13
459.099	1156.03
459.472	1154.9
459.845	1170.49
460.218	1158.51
460.591	1173.43
460.964	1158.51
461.337	1182.69
461.71	1207.78
462.083	1231.51
462.456	1247.1
462.829	1231.28
463.201	1252.3
463.574	1240.55
463.947	1248
464.32	1270.83
464.692	1305.86
465.065	1271.96
465.438	1307.89
465.81	1321.9
466.183	1323.71
466.555	1348.34
466.928	1351.05
467.3	1356.93
467.672	1381.33
468.045	1407.32
468.417	1397.15
468.789	1428.11
469.161	1425.63
469.534	1407.1
469.906	1471.95
470.278	1478.05
470.65	1502.46
471.022	1541.1
471.394	1559.18
471.766	1569.8
472.138	1579.97
472.51	1615.23
472.882	1625.4
473.253	1635.56
473.625	1666.75
473.997	1702.23
474.369	1686.41
474.74	1680.08
475.112	1718.5
475.484	1756.92
475.855	1788.78
476.227	1819.74
476.598	1808.22
476.97	1871.26
477.341	1905.16
477.713	1909.46
478.084	1938.83
478.455	1965.5
478.827	2025.16
479.198	2047.76
479.569	2040.75
479.94	2081.65
480.311	2162.56
480.682	2186.06
481.053	2189.67
481.424	2244.81
481.795	2238.94
482.166	2270.12
482.537	2291.59
482.908	2344.47
483.279	2350.57
483.65	2364.13
484.021	2470.12
484.391	2446.84
484.762	2477.8
485.133	2513.06
485.503	2538.59
485.874	2640.74
486.244	2607.97
486.615	2655.42
486.985	2718.93
487.356	2733.84
487.726	2769.77
488.097	2792.14
488.467	2813.39
488.837	2869.2
489.207	2878.02
489.578	2909.2
489.948	2923.21
490.318	2981.52
490.688	2998.92
491.058	3053.61
491.428	3096.32
491.798	3137.67
492.168	3152.36
492.538	3194.85
492.908	3203.21
493.278	3277.56
493.648	3288.4
494.017	3305.8
494.387	3315.97
494.757	3394.84
495.126	3392.81
495.496	3407.95
495.866	3408.63
496.235	3415.4
496.605	3497.21
496.974	3505.35
497.344	3519.81
497.713	3521.62
498.082	3580.15
498.452	3616.53
498.821	3623.08
499.19	3621.27
499.559	3657.66
499.928	3691.56
500.298	3718
500.667	3721.84
501.036	3713.7
501.405	3779.24
501.774	3755.73
502.143	3799.12
502.512	3814.94
502.88	3825.56
503.249	3822.85
503.618	3892.45
503.987	3888.39
504.356	3870.99
504.724	3963.86
505.093	3927.93
505.462	3932.91
505.83	3958.22
506.199	3978.78
506.567	4018.33
506.936	4052
507.304	4085.22
507.672	4042.28
508.041	4072.79
508.409	4105.56
508.777	4113.69
509.145	4159.34
509.514	4132.45
509.882	4124.99
510.25	4186.91
510.618	4163.86
510.986	4200.24
511.354	4212.45
511.722	4253.57
512.09	4270.98
512.458	4301.93
512.826	4297.19
513.193	4315.95
513.561	4334.25
513.929	4352.1
514.297	4407.69
514.664	4410.63
515.032	4414.93
515.4	4368.37
515.767	4419.67
516.135	4464.87
516.502	4405.21
516.869	4513.23
517.237	4488.14
517.604	4475.94
517.972	4526.34
518.339	4543.96
518.706	4517.07
519.073	4547.8
519.44	4516.17
519.808	4633.68
520.175	4610.63
520.542	4629.84
520.909	4676.61
521.276	4628.71
521.643	4691.98
522.009	4700.57
522.376	4736.95
522.743	4727.91
523.11	4764.97
523.477	4776.27
523.843	4799.32
524.21	4810.4
524.577	4840.23
524.943	4860.79
525.31	4884.52
525.676	4978.98
526.043	4941.69
526.409	4958.64
526.776	4971.07
527.142	5024.18
527.508	4995.25
527.874	5073.21
528.241	5104.4
528.607	5103.72
528.973	5196.15
529.339	5174
529.705	5228.92
530.071	5255.36
530.437	5268.24
530.803	5273.21
531.169	5342.36
531.535	5292.42
531.901	5371.96
532.267	5330.61
532.632	5428.23
532.998	5414.9
533.364	5487.21
533.73	5446.54
534.095	5461.45
534.461	5531.96
534.826	5563.82
535.192	5549.81
535.557	5579.42
535.923	5581.68
536.288	5616.25
536.653	5639.07
537.019	5630.04
537.384	5638.62
537.749	5701.45
538.114	5695.57
538.479	5754.55
538.845	5752.07
539.21	5761.78
539.575	5806.53
539.94	5833.19
540.305	5896.7
540.67	5865.28
541.034	5875.9
541.399	5924.04
541.764	5973.76
542.129	5997.94
542.494	5992.51
542.858	6024.38
543.223	5975.56
543.587	6063.02
543.952	6080.42
544.316	6147.54
544.681	6082
545.045	6175.11
545.41	6126.52
545.774	6237.93
546.138	6237.48
546.503	6280.19
546.867	6281.77
547.231	6295.55
547.595	6331.94
547.959	6310.47
548.324	6352.95
548.688	6387.53
549.052	6362.9
549.416	6395.44
549.779	6474.31
550.143	6451.71
550.507	6532.38
550.871	6518.6
551.235	6508.88
551.599	6576.9
551.962	6583.23
552.326	6624.13
552.689	6600.86
553.053	6569.9
553.417	6610.12
553.78	6686.73
554.143	6680.86
554.507	6763.57
554.87	6722.44
555.234	6798.14
555.597	6708.65
555.96	6786.84
556.323	6757.69
556.686	6847.18
557.05	6837.24
557.413	6863.9
557.776	6887.86
558.139	6945.03
558.502	6963.79
558.865	6934.86
559.228	6977.57
559.59	6985.25
559.953	7042.43
560.316	7094.86
560.679	7084.46
561.041	7125.82
561.404	7107.06
561.767	7246.72
562.129	7165.59
562.492	7230.67
562.854	7234.97
563.217	7208.53
563.579	7254.17
563.941	7275.87
564.304	7378.01
564.666	7398.8
565.028	7426.82
565.39	7397.22
565.753	7482.19
566.115	7510.89
566.477	7487.16
566.839	7523.32
567.201	7570.78
567.563	7564.22
567.925	7667.04
568.287	7580.94
568.648	7595.86
569.01	7704.33
569.372	7682.86
569.734	7701.85
570.095	7851.9
570.457	7877.43
570.819	7865.91
571.18	7908.85
571.542	7918.34
571.903	7907.26
572.265	7981.16
572.626	8021.39
572.987	8102.74
573.349	8130.99
573.71	8189.29
574.071	8223.87
574.432	8245.56
574.794	8357.2
575.155	8343.86
575.516	8405.33
575.877	8474.71
576.238	8542.28
576.599	8582.27
576.96	8696.4
577.32	8672.44
577.681	8805.32
578.042	8902.94
578.403	8870.85
578.763	8988.14
579.124	9103.84
579.485	9236.95
579.845	9346.32
580.206	9365.08
580.566	9496.15
580.927	9605.3
581.287	9749.02
581.648	9797.38
582.008	9984.72
582.368	10093.87
582.728	10211.38
583.089	10360.98
583.449	10431.04
583.809	10679.85
584.169	10856.11
584.529	10995.54
584.889	11226.05
585.249	11344.69
585.609	11464.23
585.969	11682.31
586.329	11850.44
586.688	12073.93
587.048	12207.26
587.408	12417.65
587.768	12675.05
588.127	12860.13
588.487	13007.24
588.846	13411.53
589.206	13489.94
589.565	13681.12
589.925	14016.93
590.284	14271.62
590.643	14487.2
591.003	14821.43
591.362	15063.46
591.721	15302.32
592.08	15594.29
592.44	15862.99
592.799	16166.03
593.158	16452.8
593.517	16695.51
593.876	16986.8
594.235	17202.61
594.593	17583.62
594.952	17760.11
595.311	18097.5
595.67	18382.24
596.029	18734.1
596.387	18992.62
596.746	19338.38
597.104	19473.97
597.463	19756.22
597.822	20143.78
598.18	20349.87
598.538	20537.89
598.897	20986.47
599.255	21106.69
599.613	21569.73
599.972	21755.26
600.33	22055.37
600.688	22212.2
601.046	22613.77
601.404	22915.91
601.762	23095.79
602.12	23540.98
602.478	23773.74
602.836	24007.41
603.194	24107.74
603.552	24454.4
603.91	24647.84
604.268	25049.86
604.625	25255.96
604.983	25540.92
605.341	25632
605.698	26002.83
606.056	26227.91
606.413	26415.25
606.771	26702.7
607.128	27039.42
607.485	27048.23
607.843	27361.44
608.2	27738.38
608.557	27886.4
608.914	28050.46
609.272	28478.7
609.629	28634.63
609.986	28736.55
610.343	28894.06
610.7	29346.93
611.057	29433.25
611.414	29588.73
611.771	29798.44
612.127	30042.73
612.484	30316.62
612.841	30486.33
613.198	30470.06
613.554	30808.81
613.911	31091.51
614.267	31171.51
614.624	31214.22
614.98	31453.31
615.337	31824.83
615.693	31755.22
616.05	31893.53
616.406	32272.27
616.762	32264.14
617.118	32420.29
617.475	32594.07
617.831	32778.7
618.187	32881.75
618.543	33027.28
618.899	33485.35
619.255	33423.66
619.611	33579.58
619.967	33634.05
620.323	33799.46
620.678	33881.95
621.034	33852.8
621.39	33994.04
621.746	34088.5
622.101	34473.12
622.457	34144.99
622.812	34391.09
623.168	34611.65
623.523	34729.38
623.879	34907.46
624.234	34665.66
624.589	34835.14
624.945	35020.22
625.3	35218.86
625.655	35357.84
626.01	35458.4
626.365	35520.55
626.72	35466.77
627.075	35435.35
627.43	35435.35
627.785	35563.71
628.14	35679.19
628.495	35837.6
628.85	35776.59
629.205	35771.39
629.559	36018.39
629.914	35924.61
630.269	35894.55
630.623	35904.72
630.978	35988.33
631.332	36067.65
631.687	36232.85
632.041	36050.7
632.396	36196.46
632.75	36131.61
633.104	36168.44
633.459	36046.18
633.813	36071.04
634.167	36122.12
634.521	36336.57
634.875	36289.12
635.229	36209.34
635.583	36023.59
635.937	36221.1
636.291	36159.4
636.645	36210.02
636.999	36194.2
637.352	36254.77
637.706	36110.36
638.06	36248.21
638.413	36157.82
638.767	36066.75
639.121	36269.68
639.474	36005.73
639.828	36084.38
640.181	36201.89
640.534	36245.28
640.888	36182.23
641.241	35974.77
641.594	35970.03
641.947	36157.37
642.301	36002.8
642.654	36098.16
643.007	36124.6
643.36	36036.24
643.713	35930.93
644.066	36092.29
644.419	36027.2
644.771	35761.9
645.124	35498.18
645.477	35358.29
645.83	35201.46
646.182	35146.32
646.535	35097.06
646.888	35180.22
647.24	34838.53
647.593	35100.9
647.945	35133.44
648.298	34905.65
648.65	34736.39
649.002	34773.45
649.355	35079.66
649.707	34915.14
650.059	35000.56
650.411	35539.98
650.763	35544.96
651.115	35883.25
651.467	35836.25
651.819	35691.84
652.171	35706.08
652.523	35690.26
652.875	35654.78
653.227	35540.66
653.578	35807.77
653.93	35680.54
654.282	35561.9
654.633	35418.18
654.985	35567.78
655.337	35523.71
655.688	35578.85
656.039	35639.42
656.391	35444.62
656.742	35431.96
657.094	35558.29
657.445	35551.28
657.796	35355.58
658.147	35345.19
658.498	35384.51
658.849	35595.35
659.2	35373.21
659.551	35292.08
659.902	35468.35
660.253	35394.68
660.604	35365.3
660.955	35264.06
661.306	35466.54
661.656	35296.15
662.007	35417.27
662.358	35418.18
662.708	35306.32
663.059	35374.11
663.409	35143.16
663.76	35483.94
664.11	35420.44
664.461	35375.69
664.811	35406.65
665.161	35226.55
665.511	35231.07
665.862	35272.42
666.212	35407.78
666.562	35375.92
666.912	35346.32
667.262	35182.48
667.612	35337.28
667.962	35463.15
668.312	35320.1
668.662	35383.38
669.011	35284.85
669.361	35355.81
669.711	35280.33
670.06	35303.38
670.41	35102.93
670.76	35031.52
671.109	35248.47
671.459	35203.5
671.808	35074.91
672.157	35212.76
672.507	35078.3
672.856	34994.24
673.205	35176.38
673.554	35214.34
673.904	34879.44
674.253	35088.92
674.602	35056.38
674.951	34652.78
675.3	34515.83
675.649	35023.84
675.998	34980.9
676.346	34933.67
676.695	34889.61
677.044	34707.24
677.393	34900.23
677.741	34929.15
678.09	34997.62
678.438	34728.71
678.787	34791.08
679.135	34822.26
679.484	34471.76
679.832	34748.82
680.181	34573
680.529	34633.79
680.877	34596.28
681.225	34593.79
681.573	34787.24
681.922	34675.37
682.27	34390.64
682.618	34445.32
682.966	34330.75
683.314	34414.82
683.661	34339.79
684.009	34238.32
684.357	34010.76
684.705	34077.88
685.053	34118.78
685.4	33999.23
685.748	33799.46
686.095	33853.25
686.443	33797.66
686.79	33671.33
687.138	33727.6
687.485	33790.43
687.832	33625.46
688.18	33720.37
688.527	33400.83
688.874	33374.84
689.221	33554.5
689.568	33411
689.915	33161.74
690.262	33276.54
690.609	33124.23
690.956	33027.51
691.303	33051.91
691.65	32860.73
691.997	32808.53
692.344	32644.69
692.69	32744.58
693.037	32582.77
693.383	32364.25
693.73	32610.8
694.077	32360.63
694.423	32408.31
694.769	32276.57
695.116	32176.23
695.462	32056.69
695.808	31965.16
696.155	32038.38
696.501	31777.37
696.847	31847.2
697.193	31536.47
697.539	31728.56
697.885	31441.33
698.231	31472.29
698.577	31376.25
698.923	31416.93
699.269	31142.59
699.614	31125.64
699.96	31080.21
700.306	30986.66
700.651	30807.9
700.997	30833.67
701.342	30818.53
701.688	30725.19
702.033	30482.94
702.379	30524.07
702.724	30528.36
703.069	30570.4
703.415	30184.42
703.76	30287.92
704.105	30263.96
704.45	30174.47
704.795	29948.72
705.14	29791.21
705.485	29820.59
705.83	29733.81
706.175	29882.73
706.52	29652.91
706.865	29594.38
707.209	29591.67
707.554	29544.89
707.899	29483.87
708.243	29421.05
708.588	29358.9
708.932	29156.65
709.277	29167.04
709.621	29144.9
709.966	28941.29
710.31	29135.18
710.654	28835.08
710.998	28843.21
711.342	28912.59
711.687	28686.15
712.031	28711.46
712.375	28647.06
712.719	28598.47
713.063	28551.47
713.407	28523.67
713.75	28385.82
714.094	28337.69
714.438	28367.74
714.782	28290.68
715.125	28184.92
715.469	28263.34
715.812	27962.78
716.156	27869.22
716.499	27933.18
716.843	27983.35
717.186	27835.33
717.53	27953.74
717.873	27858.83
718.216	27851.15
718.559	27769.57
718.902	27532.51
719.246	27690.25
719.589	27559.18
719.932	27401.44
720.275	27527.76
720.617	27376.81
720.96	27334.32
721.303	27261.78
721.646	27272.4
721.989	27118.74
722.331	27296.58
722.674	27130.49
723.016	27173.42
723.359	27090.94
723.701	27112.18
724.044	26902.47
724.386	26882.13
724.729	26935.24
725.071	26855.01
725.413	26824.28
725.755	26861.57
726.097	26617.73
726.439	26604.4
726.782	26595.36
727.124	26639.43
727.465	26448.47
727.807	26537.28
728.149	26469.94
728.491	26348.81
728.833	26378.19
729.175	26302.94
729.516	26287.57
729.858	26298.87
730.199	26279.44
730.541	26175.48
730.882	26131.19
731.224	26251.19
731.565	26085.32
731.906	26017.75
732.248	26043.28
732.589	25992.44
732.93	25931.87
733.271	25784.08
733.612	25918.32
733.953	25849.39
734.294	25737.98
734.635	25700.92
734.976	25753.8
735.317	25569.62
735.658	25542.73
735.999	25618.44
736.339	25514.26
736.68	25576.4
737.021	25509.51
737.361	25313.81
737.702	25539.12
738.042	25353.81
738.383	25369.63
738.723	25407.37
739.063	25245.57
739.404	25283.3
739.744	25167.15
740.084	25080.15
740.424	25141.39
740.764	25081.05
741.104	25195.62
741.444	25017.32
741.784	24871.56
742.124	25074.04
742.464	24880.83
742.804	24806.71
743.143	24834.5
743.483	24862.3
743.823	24732.58
744.162	24608.75
744.502	24775.75
744.841	24602.87
745.181	24751.11
745.52	24607.84
745.86	24604.23
746.199	24524.68
746.538	24518.35
746.877	24518.13
747.216	24508.41
747.556	24375.31
747.895	24413.27
748.234	24366.94
748.573	24254.4
748.911	24305.02
749.25	24311.35
749.589	24108.19
749.928	24236.1
750.267	24155.42
750.605	24224.35
750.944	23976.22
751.283	23907.97
751.621	24109.78
751.96	23874.3
752.298	23853.74
752.636	23865.04
752.975	23745.49
753.313	23650.8
753.651	23826.62
753.989	23593.41
754.327	23563.35
754.666	23541.43
755.004	23574.65
755.342	23569
755.679	23461.88
756.017	23237.93
756.355	23389.34
756.693	23331.27
757.031	23323.36
757.368	23124.94
757.706	23075.9
758.044	23017.6
758.381	23047.88
758.719	22926.98
759.056	22984.38
759.394	22943.7
759.731	22694.9
760.068	22718.17
760.405	22576.03
760.743	22524.51
761.08	22499.2
