Data from hue_320_FLMS001491_24.txt Node
Date: Mon Feb 06 15:46:58 GMT 2017
User: dcchb
Spectrometer: FLMS00149
Trigger mode: 0
Integration Time (sec): 2.000000E-2
Scans to average: 10
Electric dark correction enabled: true
Nonlinearity correction enabled: false
Boxcar width: 0
XAxis mode: Wavelengths
Number of Pixels in Spectrum: 2048
>>>>>Begin Spectral Data<<<<<
341.393	-9.91
341.776	-9.91
342.16	-9.91
342.543	-73.64
342.927	-77.03
343.31	-62.79
343.693	-79.07
344.077	-62.79
344.46	-60.99
344.843	-44.94
345.226	-52.63
345.61	-22.12
345.993	-25.96
346.376	-27.77
346.759	8.39
347.142	35.51
347.525	37.09
347.908	68.73
348.291	72.34
348.674	94.26
349.057	122.74
349.44	123.19
349.823	141.72
350.206	162.28
350.588	196.41
350.971	219.46
351.354	203.19
351.737	210.64
352.119	246.12
352.502	261.72
352.884	272.34
353.267	277.99
353.65	299.23
354.032	317.08
354.414	322.96
354.797	325.22
355.179	307.36
355.562	325.67
355.944	310.98
356.326	327.7
356.709	335.84
357.091	340.81
357.473	327.25
357.855	344.43
358.238	334.71
358.62	334.93
359.002	336.52
359.384	337.42
359.766	327.25
360.148	318.21
360.53	318.89
360.912	327.25
361.294	314.6
361.676	326.35
362.057	327.03
362.439	313.01
362.821	317.31
363.203	317.31
363.584	324.54
363.966	309.85
364.348	321.83
364.729	307.59
365.111	315.5
365.493	303.52
365.874	342.39
366.256	317.53
366.637	321.83
367.019	335.16
367.4	299.23
367.781	316.63
368.163	303.98
368.544	315.5
368.925	303.07
369.306	328.38
369.688	310.3
370.069	315.5
370.45	316.86
370.831	317.31
371.212	313.92
371.593	300.13
371.974	311.43
372.355	303.3
372.736	331.09
373.117	320.47
373.498	303.75
373.879	319.57
374.26	318.44
374.641	343.97
375.021	324.09
375.402	304.88
375.783	314.6
376.163	322.73
376.544	312.11
376.925	322.05
377.305	316.18
377.686	318.44
378.066	315.05
378.447	330.42
378.827	321.83
379.208	351.21
379.588	315.5
379.968	332.45
380.349	328.38
380.729	340.36
381.109	315.5
381.489	327.03
381.87	328.83
382.25	326.8
382.63	315.95
383.01	345.56
383.39	342.39
383.77	334.71
384.15	337.42
384.53	342.84
384.91	330.64
385.29	357.53
385.67	351.21
386.049	356.4
386.429	346.69
386.809	355.73
387.189	352.56
387.568	337.42
387.948	348.27
388.328	344.43
388.707	323.18
389.087	368.15
389.466	351.66
389.846	359.11
390.225	365.22
390.605	348.27
390.984	367.93
391.363	373.58
391.743	361.6
392.122	364.31
392.501	367.7
392.881	361.37
393.26	354.6
393.639	390.53
394.018	378.78
394.397	364.99
394.776	358.66
395.155	377.65
395.534	363.41
395.913	364.76
396.292	387.81
396.671	359.57
397.05	363.41
397.429	381.26
397.808	364.99
398.186	380.58
398.565	388.27
398.944	376.06
399.323	400.47
399.701	388.72
400.08	375.16
400.458	377.19
400.837	396.63
401.215	396.4
401.594	380.13
401.972	395.95
402.351	422.62
402.729	408.38
403.107	404.09
403.486	399.57
403.864	408.61
404.242	381.04
404.62	416.29
404.999	442.5
405.377	421.03
405.755	421.71
406.133	453.12
406.511	418.77
406.889	444.76
407.267	435.72
407.645	442.73
408.023	430.98
408.401	440.02
408.779	455.61
409.156	453.35
409.534	444.99
409.912	463.29
410.29	472.33
410.667	466.23
411.045	480.92
411.422	468.49
411.8	478.43
412.178	481.82
412.555	492.9
412.933	506
413.31	524.08
413.687	522.95
414.065	501.03
414.442	518.88
414.819	529.96
415.197	542.61
415.574	535.61
415.951	534.03
416.328	551.88
416.705	567.7
417.082	568.15
417.46	563.63
417.837	569.73
418.214	561.6
418.591	595.04
418.967	568.37
419.344	605.44
419.721	618.77
420.098	595.94
420.475	628.03
420.852	605.44
421.228	628.49
421.605	630.97
421.982	634.14
422.358	654.7
422.735	637.75
423.111	665.77
423.488	675.04
423.864	674.13
424.241	675.04
424.617	663.97
424.994	688.15
425.37	669.39
425.746	691.76
426.123	700.57
426.499	701.93
426.875	711.87
427.251	712.55
427.627	716.17
428.003	744.87
428.379	759.56
428.756	748.71
429.132	767.01
429.507	766.79
429.883	754.81
430.259	807.69
430.635	803.85
431.011	794.36
431.387	818.76
431.763	837.29
432.138	828.48
432.514	835.71
432.89	833.9
433.265	843.62
433.641	843.4
434.016	894.92
434.392	870.51
434.767	898.31
435.143	886.33
435.518	899.44
435.894	908.48
436.269	915.03
436.644	908.25
437.02	934.01
437.395	939.89
437.77	943.05
438.145	953.68
438.52	955.71
438.895	957.97
439.271	963.17
439.646	1002.49
440.021	998.65
440.395	1026.44
440.77	995.26
441.145	1000.68
441.52	1027.8
441.895	1029.38
442.27	1047.91
442.645	1035.48
443.019	1028.7
443.394	1051.53
443.769	1042.94
444.143	1044.97
444.518	1047.68
444.892	1059.44
445.267	1068.47
445.641	1081.81
446.016	1059.21
446.39	1105.54
446.764	1078.64
447.139	1074.12
447.513	1078.64
447.887	1082.94
448.262	1093.56
448.636	1098.53
449.01	1135.59
449.384	1113.67
449.758	1119.77
450.132	1118.19
450.506	1107.8
450.88	1130.17
451.254	1111.41
451.628	1154.57
452.002	1127.23
452.376	1171.3
452.75	1170.62
453.123	1156.16
453.497	1159.55
453.871	1169.72
454.244	1204.52
454.618	1180.34
454.992	1201.58
455.365	1224.18
455.739	1231.18
456.112	1230.28
456.486	1240
456.859	1230.96
457.232	1249.26
457.606	1272.76
457.979	1255.36
458.352	1299.43
458.725	1265.76
459.099	1296.94
459.472	1301.46
459.845	1319.77
460.218	1331.07
460.591	1346.89
460.964	1322.93
461.337	1343.04
461.71	1380.56
462.083	1384.17
462.456	1390.5
462.829	1405.42
463.201	1434.57
463.574	1408.8
463.947	1430.5
464.32	1448.13
464.692	1447
465.065	1470.72
465.438	1466.43
465.81	1491.51
466.183	1488.58
466.555	1498.52
466.928	1529.48
467.3	1539.65
467.672	1552.98
468.045	1522.25
468.417	1548.91
468.789	1582.81
469.161	1584.39
469.534	1605.41
469.906	1641.12
470.278	1609.93
470.65	1640.89
471.022	1673.88
471.394	1678.63
471.766	1674.56
472.138	1728.34
472.51	1715.46
472.882	1773.09
473.253	1776.48
473.625	1762.24
473.997	1806.99
474.369	1814.67
474.74	1802.24
475.112	1870.49
475.484	1891.73
475.855	1872.97
476.227	1886.76
476.598	1956.14
476.97	1951.84
477.341	1985.06
477.713	2026.42
478.084	2002.01
478.455	2092.63
478.827	2083.14
479.198	2101.67
479.569	2113.64
479.94	2150.93
480.311	2136.92
480.682	2193.42
481.053	2213.53
481.424	2253.53
481.795	2250.82
482.166	2277.26
482.537	2311.83
482.908	2342.11
483.279	2379.63
483.65	2384.15
484.021	2390.47
484.391	2468.89
484.762	2460.98
485.133	2458.27
485.503	2483.13
485.874	2521.09
486.244	2576.46
486.615	2596.34
486.985	2622.33
487.356	2645.38
487.726	2682.44
488.097	2730.58
488.467	2698.49
488.837	2731.26
489.207	2739.84
489.578	2787.07
489.948	2786.17
490.318	2867.52
490.688	2849.9
491.058	2867.07
491.428	2930.12
491.798	2947.07
492.168	2999.95
492.538	2975.32
492.908	2963.79
493.278	3050.12
493.648	3043.56
494.017	3116.56
494.387	3138.93
494.757	3086.5
495.126	3135.09
495.496	3150.68
495.866	3172.83
496.235	3208.53
496.605	3209.44
496.974	3191.13
497.344	3239.27
497.713	3251.24
498.082	3279.94
498.452	3294.4
498.821	3295.08
499.19	3338.47
499.559	3359.49
499.928	3407.17
500.298	3345.25
500.667	3365.59
501.036	3389.09
501.405	3432.03
501.774	3396.32
502.143	3422.09
502.512	3465.7
502.88	3480.39
503.249	3445.59
503.618	3517.45
503.987	3531.46
504.356	3546.6
504.724	3519.71
505.093	3564.23
505.462	3528.3
505.83	3554.74
506.199	3596.32
506.567	3653.49
506.936	3629.54
507.304	3662.76
507.672	3624.11
508.041	3667.05
508.409	3657.56
508.777	3683.1
509.145	3703.66
509.514	3701.85
509.882	3691
510.25	3741.17
510.618	3754.96
510.986	3766.03
511.354	3720.83
511.722	3793.83
512.09	3797.67
512.458	3837.22
512.826	3807.61
513.193	3801.96
513.561	3826.82
513.929	3855.75
514.297	3907.95
514.664	3859.59
515.032	3862.07
515.4	3879.93
515.767	3880.38
516.135	3958.12
516.502	3862.53
516.869	3944.33
517.237	3916.08
517.604	3935.97
517.972	3981.84
518.339	3955.4
518.706	3968.29
519.073	3976.19
519.44	3962.64
519.808	4005.57
520.175	4002.86
520.542	4040.6
520.909	4031.56
521.276	4008.51
521.643	4067.49
522.009	4067.27
522.376	4094.84
522.743	4150.88
523.11	4158.34
523.477	4182.29
523.843	4170.54
524.21	4229.52
524.577	4221.39
524.943	4244.89
525.31	4233.82
525.676	4267.03
526.043	4302.51
526.409	4279.92
526.776	4309.07
527.142	4327.15
527.508	4372.57
527.874	4375.96
528.241	4386.13
528.607	4399.46
528.973	4455.05
529.339	4468.16
529.705	4535.05
530.071	4540.25
530.437	4562.85
530.803	4515.62
531.169	4571.21
531.535	4558.55
531.901	4583.86
532.267	4603.3
532.632	4625.44
532.998	4652.11
533.364	4659.34
533.73	4742.73
534.095	4737.08
534.461	4686.68
534.826	4753.12
535.192	4743.41
535.557	4782.5
535.923	4796.51
536.288	4789.96
536.653	4883.06
537.019	4824.99
537.384	4860.01
537.749	4896.4
538.114	4930.07
538.479	4965.77
538.845	4949.28
539.21	4947.69
539.575	4968.49
539.94	4976.85
540.305	5048.26
540.67	5034.25
541.034	5069.05
541.399	5078.09
541.764	5092.78
542.129	5121.02
542.494	5161.02
542.858	5177.07
543.223	5173
543.587	5174.81
543.952	5196.95
544.316	5218.2
544.681	5251.42
545.045	5241.25
545.41	5328.02
545.774	5306.1
546.138	5313.33
546.503	5353.79
546.867	5383.62
547.231	5417.51
547.595	5444.63
547.959	5431.52
548.324	5443.95
548.688	5482.37
549.052	5488.47
549.416	5533.22
549.779	5505.87
550.143	5486.21
550.507	5534.8
550.871	5565.53
551.235	5581.58
551.599	5654.57
551.962	5676.04
552.326	5673.78
552.689	5738.63
553.053	5653.89
553.417	5665.64
553.78	5735.24
554.143	5700.67
554.507	5743.38
554.87	5801.46
555.234	5820.89
555.597	5790.84
555.96	5832.87
556.323	5858.41
556.686	5857.05
557.05	5851.85
557.413	5880.1
557.776	5864.51
558.139	5943.6
558.502	5904.96
558.865	5927.33
559.228	6004.62
559.59	6019.53
559.953	6038.74
560.316	6052.52
560.679	6010.04
561.041	6082.81
561.404	6104.05
561.767	6178.85
562.129	6132.75
562.492	6177.27
562.854	6189.24
563.217	6188.57
563.579	6205.74
563.941	6264.72
564.304	6323.25
564.666	6287.32
565.028	6306.08
565.39	6292.07
565.753	6359.18
566.115	6287.09
566.477	6380.65
566.839	6419.97
567.201	6430.82
567.563	6461.33
567.925	6497.48
568.287	6505.39
568.648	6483.7
569.01	6593.3
569.372	6628.33
569.734	6634.43
570.095	6642.11
570.457	6640.53
570.819	6649.12
571.18	6650.25
571.542	6721.43
571.903	6735.9
572.265	6768.89
572.626	6792.62
572.987	6840.53
573.349	6916.23
573.71	6923.46
574.071	6988.09
574.432	6993.97
574.794	7108.54
575.155	7154.87
575.516	7113.51
575.877	7234.19
576.238	7287.75
576.599	7366.16
576.96	7407.52
577.32	7432.38
577.681	7511.7
578.042	7644.8
578.403	7713.5
578.763	7744.91
579.124	7854.51
579.485	7961.63
579.845	8073.26
580.206	8162.07
580.566	8216.31
580.927	8309.87
581.287	8473.7
581.648	8568.39
582.008	8698.1
582.368	8759.35
582.728	8939.91
583.089	9143.52
583.449	9224.19
583.809	9369.05
584.169	9527.24
584.529	9703.5
584.889	9910.73
585.249	10071.85
585.609	10184.85
585.969	10438.4
586.329	10658.51
586.688	10847.88
587.048	11002.9
587.408	11263.23
587.768	11443.34
588.127	11654.86
588.487	11869.55
588.846	12217.11
589.206	12369.87
589.565	12548.62
589.925	12897.99
590.284	13148.38
590.643	13391.09
591.003	13718.09
591.362	14048.02
591.721	14184.97
592.08	14394
592.44	14821.33
592.799	15144.49
593.158	15286.63
593.517	15608.88
593.876	15928.2
594.235	16172.48
594.593	16479.37
594.952	16759.14
595.311	16908.74
595.67	17265.56
596.029	17683.18
596.387	18051.53
596.746	18261.92
597.104	18479.77
597.463	18745.3
597.822	19151.62
598.18	19399.29
598.538	19721.77
598.897	20037.02
599.255	20212.83
599.613	20705.92
599.972	20879.48
600.33	21182.07
600.688	21328.96
601.046	21784.99
601.404	22079
601.762	22337.29
602.12	22613.44
602.478	22999.88
602.836	23187.22
603.194	23181.57
603.552	23738.16
603.91	23891.83
604.268	24191.03
604.625	24399.84
604.983	24802.54
605.341	24948.75
605.698	25287.05
606.056	25440.26
606.413	25708.73
606.771	25997.31
607.128	26313.23
607.485	26473.91
607.843	26680.23
608.2	26998.19
608.557	27349.37
608.914	27333.55
609.272	27754.78
609.629	27920.42
609.986	28191.6
610.343	28369
610.7	28789.78
611.057	28813.51
611.414	29098.92
611.771	29227.96
612.127	29563.54
612.484	29555.18
612.841	29889.64
613.198	29928.28
613.554	30244.43
613.911	30486.23
614.267	30603.52
614.624	30846.67
614.98	30989.5
615.337	31300.67
615.693	31318.75
616.05	31527.79
616.406	31733.66
616.762	31741.57
617.118	31856.59
617.475	31989.24
617.831	32273.53
618.187	32490.25
618.543	32558.72
618.899	32825.61
619.255	32907.41
619.611	32975.43
619.967	33201.87
620.323	33353.73
620.678	33219.27
621.034	33361.64
621.39	33549.2
621.746	33596.66
622.101	34038.23
622.457	33866.71
622.812	34107.15
623.168	34239.58
623.523	34207.49
623.879	34492.45
624.234	34377.66
624.589	34493.13
624.945	34646.35
625.3	34766.57
625.655	34731.54
626.01	34929.96
626.365	34993.23
626.72	35019.67
627.075	35148.26
627.43	35239.1
627.785	35233
628.14	35253.79
628.495	35350.96
628.85	35399.78
629.205	35245.2
629.559	35564.52
629.914	35413.11
630.269	35689.03
630.623	35498.76
630.978	35504.18
631.332	35672.08
631.687	35755.02
632.041	35748.24
632.396	35931.96
632.75	35797.05
633.104	35915.02
633.459	35743.27
633.813	35717.06
634.167	35948.01
634.521	35823.27
634.875	35909.82
635.229	35877.28
635.583	35762.93
635.937	35712.08
636.291	35896.49
636.645	35903.04
636.999	35785.53
637.352	35996.37
637.706	35886.09
638.06	36001.57
638.413	35817.84
638.767	35927.22
639.121	35951.17
639.474	35775.13
639.828	35747.56
640.181	35780.1
640.534	35960.44
640.888	35867.79
641.241	35621.24
641.594	35812.65
641.947	35859.2
642.301	35799.99
642.654	36013.54
643.007	35934.9
643.36	35773.1
643.713	35797.51
644.066	35971.51
644.419	35725.87
644.771	35416.95
645.124	35231.87
645.477	35083.85
645.83	35072.33
646.182	34812.45
646.535	34741.49
646.888	34850.64
647.24	34637.31
647.593	34898.55
647.945	34745.78
648.298	34689.96
648.65	34596.41
649.002	34436.18
649.355	34674.14
649.707	34559.35
650.059	34706.01
650.411	35181.02
650.763	35208.59
651.115	35627.11
651.467	35339.89
651.819	35437.51
652.171	35466.67
652.523	35348.48
652.875	35400.68
653.227	35256.5
653.578	35430.96
653.93	35346.67
654.282	35219.44
654.633	35127.24
654.985	35350.96
655.337	35243.85
655.688	35343.51
656.039	35356.39
656.391	35065.32
656.742	35023.06
657.094	35227.8
657.445	35229.61
657.796	35236.84
658.147	35049.05
658.498	35172.44
658.849	35249.04
659.2	35138.54
659.551	35063.51
659.902	35270.74
660.253	35202.49
660.604	35204.53
660.955	35176.73
661.306	35275.94
661.656	35140.35
662.007	35155.49
662.358	34951.2
662.708	35192.78
663.059	35116.17
663.409	34760.7
663.76	35079.11
664.11	35024.87
664.461	35181.25
664.811	35045.43
665.161	35114.59
665.511	35019.9
665.862	35071.65
666.212	35142.61
666.562	35200.23
666.912	35020.8
667.262	34923.18
667.612	35076.85
667.962	35196.84
668.312	34968.83
668.662	35087.24
669.011	34953.23
669.361	34913.23
669.711	34902.39
670.06	34774.71
670.41	34967.92
670.76	34789.4
671.109	35144.87
671.459	34862.84
671.808	34831.88
672.157	34909.39
672.507	34922.5
672.856	34778.77
673.205	34910.52
673.554	35054.7
673.904	34707.14
674.253	34902.39
674.602	34792.33
674.951	34348.5
675.3	34296.3
675.649	34770.19
675.998	34644.77
676.346	34680.02
676.695	34891.09
677.044	34437.77
677.393	34763.18
677.741	34744.65
678.09	34629.4
678.438	34496.52
678.787	34623.98
679.135	34571.32
679.484	34346.47
679.832	34485.22
680.181	34338.79
680.529	34342.63
680.877	34304.21
681.225	34231.44
681.573	34513.92
681.922	34157.55
682.27	34124.78
682.618	34163.65
682.966	34049.53
683.314	34136.76
683.661	34069.64
684.009	33880.04
684.357	33893.83
684.705	33843.43
685.053	33837.1
685.4	33776.54
685.748	33551.91
686.095	33561.41
686.443	33562.76
686.79	33520.5
687.138	33563.67
687.485	33513.5
687.832	33372.26
688.18	33421.07
688.527	33281.87
688.874	33135.88
689.221	33132.49
689.568	33115.99
689.915	32949.9
690.262	32944.47
690.609	32799.84
690.956	32737.25
691.303	32839.16
691.65	32700.86
691.997	32626.97
692.344	32423.13
692.69	32416.13
693.037	32386.52
693.383	32176.13
693.73	32238.5
694.077	32053.65
694.423	32050.26
694.769	32019.75
695.116	31937.49
695.462	31991.28
695.808	31757.84
696.155	31827.89
696.501	31608.01
696.847	31719.87
697.193	31373.89
697.539	31557.62
697.885	31235.59
698.231	31335.7
698.577	31087.57
698.923	31189.94
699.269	31054.35
699.614	30939.1
699.96	30873.79
700.306	30827.01
700.651	30757.86
700.997	30519.9
701.342	30583.4
701.688	30574.14
702.033	30567.36
702.379	30416.18
702.724	30326.69
703.069	30340.02
703.415	30026.36
703.76	30068.39
704.105	30125.56
704.45	29923.08
704.795	29820.26
705.14	29712.69
705.485	29760.15
705.83	29582.98
706.175	29709.76
706.52	29586.37
706.865	29419.82
707.209	29390.89
707.554	29395.41
707.899	29342.31
708.243	29254.63
708.588	29151.13
708.932	29057.12
709.277	29013.5
709.621	29153.84
709.966	28892.6
710.31	28990
710.654	28672.04
710.998	28736.45
711.342	28644.7
711.687	28629.33
712.031	28615.32
712.375	28337.59
712.719	28327.87
713.063	28247.87
713.407	28490.8
713.75	28242
714.094	28191.83
714.438	28154.09
714.782	27975.34
715.125	27952.74
715.469	28110.93
715.812	27895.79
716.156	27717.72
716.499	27732.86
716.843	27795
717.186	27550.26
717.53	27722.01
717.873	27689.92
718.216	27665.06
718.559	27562.69
718.902	27397.05
719.246	27470.94
719.589	27295.81
719.932	27326.77
720.275	27202.7
720.617	27238.86
720.96	27046.77
721.303	27144.85
721.646	27111.41
721.989	27093.33
722.331	27075.25
722.674	26957.74
723.016	27038.41
723.359	26894.46
723.701	27001.13
724.044	26796.61
724.386	26661.25
724.729	26700.34
725.071	26612.44
725.413	26659.67
725.755	26690.17
726.097	26583.28
726.439	26363.85
726.782	26380.35
727.124	26488.82
727.465	26306.68
727.807	26371.31
728.149	26233.24
728.491	26291.77
728.833	26291.09
729.175	26100.36
729.516	26084.09
729.858	26088.61
730.199	26157.31
730.541	26082.96
730.882	25965.22
731.224	26101.71
731.565	25901.04
731.906	25908.27
732.248	25812.23
732.589	25648.17
732.93	25632.8
733.271	25612.91
733.612	25736.75
733.953	25671.67
734.294	25471.9
734.635	25522.3
734.976	25599.36
735.317	25495.63
735.658	25364.33
735.999	25567.94
736.339	25404.56
736.68	25468.96
737.021	25376.99
737.361	25210.89
737.702	25378.57
738.042	25334.05
738.383	25175.64
738.723	25197.78
739.063	25138.8
739.404	25193.26
739.744	25171.34
740.084	24997.79
740.424	24981.97
740.764	24955.08
741.104	25005.7
741.444	24932.48
741.784	24766.61
742.124	24788.98
742.464	24803.22
742.804	24686.38
743.143	24679.15
743.483	24765.48
743.823	24561.64
744.162	24570.23
744.502	24608.19
744.841	24409.33
745.181	24589.44
745.52	24432.15
745.86	24441.19
746.199	24386.96
746.538	24411.36
746.877	24432.15
747.216	24293.17
747.556	24266.28
747.895	24304.47
748.234	24183.8
748.573	24186.96
748.911	24104.25
749.25	24130.24
749.589	23950.13
749.928	23972.96
750.267	24012.96
750.605	24029
750.944	23900.87
751.283	23843.24
751.621	23879.85
751.96	23709.01
752.298	23631.27
752.636	23666.75
752.975	23708.78
753.313	23433.54
753.651	23585.17
753.989	23494.78
754.327	23427.43
754.666	23301.11
755.004	23369.58
755.342	23411.84
755.679	23329.81
756.017	23151.96
756.355	23318.06
756.693	23188.57
757.031	23139.53
757.368	23001.01
757.706	22874
758.044	22960.78
758.381	22892.08
758.719	22780.9
759.056	22836.72
759.394	22728.47
759.731	22500.45
760.068	22629.04
760.405	22526.89
