Data from hue_80_FLMS001491_9.txt Node
Date: Mon Feb 06 15:22:23 GMT 2017
User: dcchb
Spectrometer: FLMS00149
Trigger mode: 0
Integration Time (sec): 2.000000E-2
Scans to average: 10
Electric dark correction enabled: true
Nonlinearity correction enabled: false
Boxcar width: 0
XAxis mode: Wavelengths
Number of Pixels in Spectrum: 2048
>>>>>Begin Spectral Data<<<<<
341.393	-1.12
341.776	-1.12
342.16	-1.12
342.543	-66.88
342.927	-62.36
343.31	-73.43
343.693	-74.79
344.077	-68.46
344.46	-56.03
344.843	-63.71
345.226	-47.44
345.61	-29.36
345.993	-17.16
346.376	-9.25
346.759	23.52
347.142	41.14
347.525	46.34
347.908	45.44
348.291	66.91
348.674	91.99
349.057	124.3
349.44	103.29
349.823	149.39
350.206	145.55
350.588	199.56
350.971	211.08
351.354	212.89
351.737	249.05
352.119	230.97
352.502	260.8
352.884	280.68
353.267	287.46
353.65	299.67
354.032	295.83
354.414	317.07
354.797	321.81
355.179	329.72
355.562	321.59
355.944	334.24
356.326	357.07
356.709	335.15
357.091	344.19
357.473	339.44
357.855	347.58
358.238	332.43
358.62	337.86
359.002	358.2
359.384	334.92
359.766	355.03
360.148	345.32
360.53	310.74
360.912	348.71
361.294	330.63
361.676	325.2
362.057	313.45
362.439	348.93
362.821	314.13
363.203	342.83
363.584	294.47
363.966	328.37
364.348	310.51
364.729	320.01
365.111	328.82
365.493	314.81
365.874	311.19
366.256	305.54
366.637	325.2
367.019	320.91
367.4	311.42
367.781	305.09
368.163	329.72
368.544	300.57
368.925	315.94
369.306	314.81
369.688	309.16
370.069	316.16
370.45	321.14
370.831	310.51
371.212	298.76
371.593	311.19
371.974	337.18
372.355	320.91
372.736	310.51
373.117	314.13
373.498	310.74
373.879	330.4
374.26	309.16
374.641	304.64
375.021	297.63
375.402	319.1
375.783	331.98
376.163	330.85
376.544	331.76
376.925	312.1
377.305	336.95
377.686	329.27
378.066	311.19
378.447	346.22
378.827	320.68
379.208	305.32
379.588	336.28
379.968	331.53
380.349	328.37
380.729	334.24
381.109	329.05
381.489	331.98
381.87	317.75
382.25	355.94
382.63	352.77
383.01	340.8
383.39	350.29
383.77	348.25
384.15	349.38
384.53	341.7
384.91	381.7
385.29	348.71
385.67	361.13
386.049	344.86
386.429	361.36
386.809	342.6
387.189	368.14
387.568	367.24
387.948	368.14
388.328	357.29
388.707	345.09
389.087	366.11
389.466	360.68
389.846	348.71
390.225	355.71
390.605	361.13
390.984	347.8
391.363	360
391.743	371.08
392.122	369.95
392.501	365.43
392.881	358.2
393.26	372.66
393.639	365.65
394.018	365.88
394.397	362.49
394.776	389.83
395.155	379.44
395.534	362.94
395.913	369.04
396.292	354.36
396.671	373.11
397.05	395.71
397.429	385.54
397.808	390.96
398.186	393.9
398.565	385.77
398.944	374.92
399.323	388.03
399.701	395.48
400.08	388.93
400.458	396.16
400.837	410.17
401.215	402.72
401.594	398.42
401.972	383.73
402.351	396.61
402.729	412.21
403.107	384.64
403.486	398.42
403.864	436.84
404.242	431.42
404.62	426.22
404.999	403.17
405.377	413.79
405.755	421.02
406.133	421.25
406.511	437.29
406.889	431.64
407.267	462.83
407.645	428.25
408.023	413.56
408.401	440
408.779	428.25
409.156	446.1
409.534	442.94
409.912	460.79
410.29	444.3
410.667	430.74
411.045	466.44
411.422	455.82
411.8	451.75
412.178	457.86
412.555	460.12
412.933	461.02
413.31	471.41
413.687	466.67
414.065	488.59
414.442	464.86
414.819	482.04
415.197	505.31
415.574	474.35
415.951	504.63
416.328	507.35
416.705	498.98
417.082	493.79
417.46	491.98
417.837	501.24
418.214	481.58
418.591	482.94
418.967	510.06
419.344	505.76
419.721	506.22
420.098	501.7
420.475	524.97
420.852	508.93
421.228	508.93
421.605	517.74
421.982	508.48
422.358	535.82
422.735	542.37
423.111	545.31
423.488	544.41
423.864	549.83
424.241	546.21
424.617	555.03
424.994	564.07
425.37	557.51
425.746	561.58
426.123	567.91
426.499	567.91
426.875	572.43
427.251	576.72
427.627	597.06
428.003	586.67
428.379	592.09
428.756	615.14
429.132	581.47
429.507	590.96
429.883	597.74
430.259	611.75
430.635	610.62
431.011	621.01
431.387	620.56
431.763	630.28
432.138	637.74
432.514	642.94
432.89	618.75
433.265	643.61
433.641	675.48
434.016	675.25
434.392	663.05
434.767	667.79
435.143	683.61
435.518	705.98
435.894	666.66
436.269	721.8
436.644	715.7
437.02	716.15
437.395	706.89
437.77	694.69
438.145	712.31
438.52	731.07
438.895	749.37
439.271	721.35
439.646	731.75
440.021	763.38
440.395	748.7
440.77	752.54
441.145	752.08
441.52	776.72
441.895	766.77
442.27	771.75
442.645	783.04
443.019	778.07
443.394	785.53
443.769	778.52
444.143	807.22
444.518	801.35
444.892	801.8
445.267	797.28
445.641	802.48
446.016	840.67
446.39	812.2
446.764	843.38
447.139	845.42
447.513	833.21
447.887	827.11
448.262	855.36
448.636	837.05
449.01	850.39
449.384	850.39
449.758	876.6
450.132	898.97
450.506	875.92
450.88	885.64
451.254	901.46
451.628	889.93
452.002	901.46
452.376	926.09
452.75	913.66
453.123	903.04
453.497	924.51
453.871	931.06
454.244	938.97
454.618	976.03
454.992	979.42
455.365	996.6
455.739	992.98
456.112	1007.67
456.486	1018.97
456.859	1019.2
457.232	1043.6
457.606	1010.38
457.979	1033.21
458.352	1044.05
458.725	1071.17
459.099	1085.41
459.472	1089.25
459.845	1122.92
460.218	1116.14
460.591	1114.56
460.964	1140.78
461.337	1185.07
461.71	1162.02
462.083	1228
462.456	1197.72
462.829	1196.59
463.201	1252.64
463.574	1249.7
463.947	1267.33
464.32	1272.3
464.692	1311.62
465.065	1292.41
465.438	1323.82
465.81	1350.26
466.183	1339.41
466.555	1404.5
466.928	1417.38
467.3	1410.6
467.672	1465.06
468.045	1480.65
468.417	1477.72
468.789	1499.41
469.161	1527.21
469.534	1551.61
469.906	1568.11
470.278	1578.5
470.65	1660.76
471.022	1663.7
471.394	1692.17
471.766	1725.39
472.138	1745.5
472.51	1828.67
472.882	1830.7
473.253	1849.46
473.625	1898.04
473.997	1962
474.369	2010.58
474.74	2035.67
475.112	2075.89
475.484	2126.51
475.855	2155.21
476.227	2240.18
476.598	2290.58
476.97	2320.18
477.341	2409.67
477.713	2479.95
478.084	2472.49
478.455	2532.38
478.827	2596.56
479.198	2709.55
479.569	2739.83
479.94	2865.25
480.311	2928.07
480.682	3068.18
481.053	3149.08
481.424	3188.4
481.795	3260.49
482.166	3369.87
482.537	3450.77
482.908	3523.09
483.279	3636.75
483.65	3712.46
484.021	3834.04
484.391	3955.62
484.762	4010.53
485.133	4145.67
485.503	4244.2
485.874	4307.02
486.244	4470.18
486.615	4609.61
486.985	4698.42
487.356	4839.66
487.726	4956.04
488.097	5061.12
488.467	5207.56
488.837	5348.12
489.207	5463.6
489.578	5608.23
489.948	5702.92
490.318	5889.58
490.688	5985.39
491.058	6111.27
491.428	6278.27
491.798	6425.38
492.168	6624.25
492.538	6713.06
492.908	6788.08
493.278	6976.1
493.648	7090.9
494.017	7233.95
494.387	7384.45
494.757	7509.87
495.126	7699.02
495.496	7791.9
495.866	7893.14
496.235	8077.09
496.605	8170.87
496.974	8340.59
497.344	8491.99
497.713	8578.77
498.082	8736.28
498.452	8876.62
498.821	8957.52
499.19	9046.1
499.559	9243.84
499.928	9357.06
500.298	9499.65
500.667	9642.47
501.036	9620.55
501.405	9849.25
501.774	9884.73
502.143	10037.26
502.512	10170.59
502.88	10296.47
503.249	10337.14
503.618	10571.04
503.987	10534.2
504.356	10719.28
504.724	10774.87
505.093	10924.25
505.462	10970.8
505.83	11089.89
506.199	11242.66
506.567	11392.03
506.936	11386.61
507.304	11608.75
507.672	11653.49
508.041	11717.9
508.409	11845.13
508.777	11946.14
509.145	12062.3
509.514	12132.12
509.882	12294.61
510.25	12328.05
510.618	12427.03
510.986	12464.55
511.354	12636.52
511.722	12723.07
512.09	12884.42
512.458	12819.11
512.826	12929.62
513.193	12996.51
513.561	13098.88
513.929	13246.45
514.297	13410.73
514.664	13450.73
515.032	13417.97
515.4	13499.09
515.767	13593.33
516.135	13691.63
516.502	13655.47
516.869	13881.23
517.237	13899.99
517.604	13855.7
517.972	14087.55
518.339	14128.68
518.706	14115.35
519.073	14224.5
519.44	14299.3
519.808	14434.21
520.175	14377.26
520.542	14586.52
520.909	14581.55
521.276	14525.06
521.643	14829.23
522.009	14798.5
522.376	14988.55
522.743	15016.57
523.11	15069.45
523.477	15191.93
523.843	15232.61
524.21	15339.72
524.577	15411.36
524.943	15521.64
525.31	15444.81
525.676	15551.92
526.043	15707.17
526.409	15713.73
526.776	15856.77
527.142	15756.66
527.508	15900.61
527.874	15987.84
528.241	16056.32
528.607	16122.98
528.973	16095.64
529.339	16106.94
529.705	16281.39
530.071	16299.92
530.437	16364.33
530.803	16420.37
531.169	16459.69
531.535	16370.43
531.901	16372.69
532.267	16489.75
532.632	16522.07
532.998	16482.29
533.364	16664.89
533.73	16590.09
534.095	16659.46
534.461	16593.7
534.826	16796.41
535.192	16725.45
535.557	16792.79
535.923	16684.55
536.288	16789.86
536.653	16825.11
537.019	16639.12
537.384	16855.39
537.749	16903.07
538.114	16779.46
538.479	16704.21
538.845	16832.11
539.21	16736.75
539.575	16805
539.94	16761.16
540.305	16889.06
540.67	16809.06
541.034	16870.98
541.399	16784.21
541.764	16861.49
542.129	16793.02
542.494	16824.43
542.858	16847.93
543.223	16802.51
543.587	16836.18
543.952	16826.69
544.316	16795.5
544.681	16740.36
545.045	16790.08
545.41	16836.86
545.774	16850.64
546.138	16774.71
546.503	16832.57
546.867	16774.94
547.231	16814.94
547.595	16764.09
547.959	16778.56
548.324	16814.26
548.688	16767.71
549.052	16774.04
549.416	16690.87
549.779	16714.83
550.143	16753.47
550.507	16774.49
550.871	16781.72
551.235	16721.61
551.599	16824.66
551.962	16791.21
552.326	16810.42
552.689	16818.33
553.053	16752.34
553.417	16750.76
553.78	16867.14
554.143	16781.27
554.507	16781.04
554.87	16742.17
555.234	16923.18
555.597	16723.64
555.96	16760.03
556.323	16846.12
556.686	16723.42
557.05	16844.99
557.413	16887.93
557.776	16809.74
558.139	16886.35
558.502	16922.73
558.865	16888.38
559.228	16983.52
559.59	17030.3
559.953	17026.23
560.316	17103.75
560.679	16995.95
561.041	17021.71
561.404	17106.68
561.767	17152.33
562.129	17180.35
562.492	17357.98
562.854	17181.03
563.217	17158.66
563.579	17217.87
563.941	17241.59
564.304	17393.91
564.666	17444.98
565.028	17428.03
565.39	17445.43
565.753	17451.98
566.115	17647.46
566.477	17638.19
566.839	17549.16
567.201	17728.59
567.563	17582.15
567.925	17621.92
568.287	17715.48
568.648	17663.5
569.01	17777.4
569.372	17752.32
569.734	17787.34
570.095	17755.71
570.457	17932.42
570.819	17906.44
571.18	17874.12
571.542	18036.38
571.903	17905.76
572.265	17981.46
572.626	17905.53
572.987	18057.84
573.349	18059.88
573.71	18139.2
574.071	18145.07
574.432	18167.67
574.794	18221.23
575.155	18180.78
575.516	18217.61
575.877	18335.13
576.238	18287.22
576.599	18382.58
576.96	18345.97
577.32	18312.75
577.681	18355.46
578.042	18415.12
578.403	18373.77
578.763	18390.04
579.124	18335.13
579.485	18389.36
579.845	18479.53
580.206	18410.38
580.566	18430.26
580.927	18370.15
581.287	18463.71
581.648	18355.46
582.008	18425.97
582.368	18368.8
582.728	18443.82
583.089	18342.81
583.449	18338.97
583.809	18388.91
584.169	18455.12
584.529	18412.41
584.889	18552.07
585.249	18455.12
585.609	18321.11
585.969	18524.95
586.329	18415.12
586.688	18429.36
587.048	18439.98
587.408	18348.01
587.768	18332.87
588.127	18351.17
588.487	18298.74
588.846	18323.37
589.206	18247.44
589.565	18203.83
589.925	18298.29
590.284	18322.47
590.643	18324.5
591.003	18380.32
591.362	18397.04
591.721	18272.98
592.08	18355.24
592.44	18302.36
592.799	18298.97
593.158	18238.4
593.517	18244.73
593.876	18293.09
594.235	18237.73
594.593	18280.21
594.952	18212.64
595.311	18143.27
595.67	18316.37
596.029	18376.48
596.387	18346.88
596.746	18425.97
597.104	18411.28
597.463	18289.48
597.822	18281.57
598.18	18258.29
598.538	18201.8
598.897	18372.86
599.255	18151.63
599.613	18439.98
599.972	18274.79
600.33	18408.57
600.688	18268.46
601.046	18339.42
601.404	18413.09
601.762	18345.97
602.12	18268.46
602.478	18327.67
602.836	18517.27
603.194	18339.19
603.552	18355.01
603.91	18249.03
604.268	18436.14
604.625	18327.22
604.983	18414.22
605.341	18273.21
605.698	18340.32
606.056	18437.5
606.413	18403.82
606.771	18449.92
607.128	18471.62
607.485	18334.22
607.843	18438.63
608.2	18555.46
608.557	18586.64
608.914	18455.35
609.272	18520.43
609.629	18572.63
609.986	18559.3
610.343	18533.09
610.7	18705.29
611.057	18697.83
611.414	18545.97
611.771	18573.09
612.127	18649.92
612.484	18644.5
612.841	18640.43
613.198	18616.47
613.554	18619.41
613.911	18795
614.267	18742.8
614.624	18741.67
614.98	18814.89
615.337	18873.87
615.693	18792.97
616.05	18822.57
616.406	18957.26
616.762	18823.25
617.118	18889.91
617.475	18855.34
617.831	18940.31
618.187	18945.28
618.543	18972.17
618.899	19089.23
619.255	19014.2
619.611	19050.36
619.967	18941.66
620.323	19064.15
620.678	19071.83
621.034	19002.68
621.39	19073.86
621.746	19010.81
622.101	19278.6
622.457	18990.7
622.812	19154.09
623.168	19160.41
623.523	19039.97
623.879	19179.4
624.234	19066.18
624.589	19172.17
624.945	19197.93
625.3	19162
625.655	19070.02
626.01	19091.04
626.365	19161.09
626.72	19069.34
627.075	19048.1
627.43	19041.55
627.785	19098.27
628.14	19103.24
628.495	19129
628.85	19134.2
629.205	19027.76
629.559	19170.36
629.914	19080.19
630.269	18992.74
630.623	18962.45
630.978	18989.35
631.332	19119.29
631.687	19088.1
632.041	19041.32
632.396	19013.3
632.75	18954.77
633.104	18973.3
633.459	18868.9
633.813	18885.85
634.167	18839.97
634.521	18909.8
634.875	18924.04
635.229	18885.85
635.583	18759.52
635.937	18757.71
636.291	18745.28
636.645	18699.18
636.999	18747.77
637.352	18758.39
637.706	18701.44
638.06	18613.31
638.413	18717.94
638.767	18609.47
639.121	18676.36
639.474	18554.78
639.828	18576.47
640.181	18550.49
640.534	18662.35
640.888	18552.29
641.241	18460.55
641.594	18456.93
641.947	18553.42
642.301	18465.07
642.654	18471.39
643.007	18512.52
643.36	18505.74
643.713	18504.61
644.066	18471.17
644.419	18315.92
644.771	18242.02
645.124	18095.13
645.477	18042.7
645.83	18061.01
646.182	17863.95
646.535	17917.74
646.888	17854.91
647.24	17826.66
647.593	17915.7
647.945	17820.11
648.298	17737.63
648.65	17801.13
649.002	17720.9
649.355	17879.77
649.707	17750.06
650.059	17721.36
650.411	17987.56
650.763	18016.72
651.115	18288.57
651.467	18222.81
651.819	18144.17
652.171	18177.39
652.523	18081.12
652.875	18209.03
653.227	18065.53
653.578	18164.96
653.93	18187.11
654.282	18122.48
654.633	18036.83
654.985	18066.43
655.337	18236.82
655.688	18057.62
656.039	18139.42
656.391	18008.58
656.742	18167.22
657.094	18030.27
657.445	18127.22
657.796	18096.94
658.147	18171.74
658.498	18130.84
658.849	18187.78
659.2	18127.9
659.551	18044.96
659.902	18145.75
660.253	18106.66
660.604	18201.57
660.955	18088.13
661.306	18253.55
661.656	18071.86
662.007	18119.99
662.358	18195.69
662.708	18184.17
663.059	18145.75
663.409	18063.04
663.76	18224.17
664.11	18264.62
664.461	18155.92
664.811	18084.06
665.161	18190.27
665.511	18169.93
665.862	18221.68
666.212	18220.33
666.562	18209.93
666.912	18185.52
667.262	18251.96
667.612	18170.61
667.962	18261.91
668.312	18214.22
668.662	18278.86
669.011	18159.76
669.361	18109.59
669.711	18207.9
670.06	18104.17
670.41	18087.67
670.76	18077.5
671.109	18145.53
671.459	18118.86
671.808	18086.54
672.157	18141.91
672.507	17951.86
672.856	17930.39
673.205	17967.23
673.554	18080.89
673.904	18034.34
674.253	18016.72
674.602	18025.98
674.951	17754.8
675.3	17723.62
675.649	17895.36
675.998	17896.49
676.346	17903.27
676.695	18059.43
677.044	17889.26
677.393	17854.69
677.741	17941.01
678.09	17871.63
678.438	17883.39
678.787	17805.2
679.135	17893.55
679.484	17688.81
679.832	17760.23
680.181	17689.94
680.529	17789.38
680.877	17714.8
681.225	17602.72
681.573	17683.84
681.922	17597.29
682.27	17477.97
682.618	17531.76
682.966	17399.33
683.314	17440.23
683.661	17399.78
684.009	17378.54
684.357	17349.39
684.705	17321.82
685.053	17256.51
685.4	17334.93
685.748	17183.97
686.095	17145.78
686.443	17064.42
686.79	17128.15
687.138	17122.28
687.485	17182.39
687.832	16929.29
688.18	17060.81
688.527	16931.09
688.874	16921.38
689.221	16852.45
689.568	16849.06
689.915	16728.84
690.262	16699.69
690.609	16645.68
690.956	16701.04
691.303	16657.88
691.65	16532.23
691.997	16491.11
692.344	16358
692.69	16392.58
693.037	16422.86
693.383	16168.4
693.73	16331.56
694.077	16108.52
694.423	16162.75
694.769	16046.37
695.116	15998.01
695.462	16018.35
695.808	15897.68
696.155	15998.92
696.501	15805.7
696.847	15781.07
697.193	15628.08
697.539	15730.9
697.885	15544.69
698.231	15486.39
698.577	15592.37
698.923	15475.77
699.269	15424.92
699.614	15346.5
699.96	15210.01
700.306	15327.75
700.651	15194.42
700.997	15245.26
701.342	15150.58
701.688	15101.09
702.033	15046.85
702.379	15015.89
702.724	14907.19
703.069	14949.23
703.415	14819.29
703.76	14812.96
704.105	14807.76
704.45	14657.03
704.795	14654.09
705.14	14619.74
705.485	14625.84
705.83	14491.38
706.175	14472.85
706.52	14463.36
706.865	14341.11
707.209	14384.04
707.554	14284.16
707.899	14264.72
708.243	14227.89
708.588	14271.96
708.932	14100.66
709.277	14103.15
709.621	14056.37
709.966	14000.32
710.31	14018.85
710.654	13924.39
710.998	13950.61
711.342	13860.44
711.687	13891.4
712.031	13861.12
712.375	13777.73
712.719	13812.76
713.063	13677.17
713.407	13818.63
713.75	13634.68
714.094	13633.1
714.438	13652.99
714.782	13580.67
715.125	13588.81
715.469	13546.1
715.812	13474.01
716.156	13462.94
716.499	13492.31
716.843	13375.26
717.186	13346.33
717.53	13405.99
717.873	13434.24
718.216	13341.36
718.559	13315.6
718.902	13228.14
719.246	13303.85
719.589	13268.59
719.932	13149.27
720.275	13154.24
720.617	13170.97
720.96	13130.97
721.303	13172.78
721.646	13145.88
721.989	13011.65
722.331	13139.1
722.674	13034.02
723.016	13107.47
723.359	13056.17
723.701	13083.96
724.044	13032.67
724.386	13045.55
724.729	13022.27
725.071	12958.54
725.413	12915.83
725.755	12937.3
726.097	12919.22
726.439	12845.1
726.782	12830.64
727.124	12879.9
727.465	12868.38
727.807	12884.42
728.149	12890.3
728.491	12897.3
728.833	12883.97
729.175	12816.85
729.516	12815.72
729.858	12792.45
730.199	12779.79
730.541	12798.1
730.882	12716.06
731.224	12787.93
731.565	12777.08
731.906	12761.71
732.248	12735.95
732.589	12706.8
732.93	12637.2
733.271	12615.95
733.612	12731.66
733.953	12599.46
734.294	12654.82
734.635	12613.69
734.976	12697.99
735.317	12660.7
735.658	12570.31
735.999	12624.54
736.339	12639
736.68	12717.87
737.021	12617.08
737.361	12615.73
737.702	12690.08
738.042	12641.72
738.383	12695.05
738.723	12642.17
739.063	12669.51
739.404	12717.19
739.744	12686.91
740.084	12664.99
740.424	12674.03
740.764	12742.73
741.104	12754.26
741.444	12694.37
741.784	12728.49
742.124	12728.94
742.464	12691.88
742.804	12729.85
743.143	12780.92
743.483	12831.77
743.823	12786.34
744.162	12796.06
744.502	12865.21
744.841	12874.7
745.181	12974.59
745.52	12909.96
745.86	12996.73
746.199	12938.66
746.538	13038.32
746.877	13114.92
747.216	13133.91
747.556	13087.81
747.895	13223.62
748.234	13245.32
748.573	13214.13
748.911	13276.28
749.25	13399.44
749.589	13419.1
749.928	13509.72
750.267	13594.46
750.605	13608.02
750.944	13727.56
751.283	13726.43
751.621	13882.59
751.96	13820.89
752.298	13934.11
752.636	14060.89
752.975	14079.42
753.313	14156.7
753.651	14292.52
753.989	14316.25
754.327	14433.53
754.666	14540.87
755.004	14629.69
755.342	14801.43
755.679	14919.85
756.017	14891.83
756.355	15059.96
756.693	15196.22
