Data from hue_130_FLMS001491_00026.txt Node
Date: Tue Feb 07 16:57:23 GMT 2017
User: dcchb
Spectrometer: FLMS00149
Trigger mode: 0
Integration Time (sec): 2.000000E-2
Scans to average: 10
Electric dark correction enabled: true
Nonlinearity correction enabled: false
Boxcar width: 0
XAxis mode: Wavelengths
Number of Pixels in Spectrum: 2048
>>>>>Begin Spectral Data<<<<<
341.393	-1.45
341.776	-1.45
342.16	-1.45
342.543	-72.64
342.927	-60.21
343.31	-74.9
343.693	-53.2
344.077	-78.06
344.46	-54.56
344.843	-59.31
345.226	-52.53
345.61	-29.25
345.993	-2.36
346.376	-5.97
346.759	-8.91
347.142	34.02
347.525	32.22
347.908	58.43
348.291	83.74
348.674	94.36
349.057	116.28
349.44	112.21
349.823	163.51
350.206	155.6
350.588	195.83
350.971	206
351.354	203.74
351.737	224.08
352.119	234.7
352.502	256.62
352.884	272.21
353.267	312.66
353.65	298.65
354.032	288.48
354.414	311.98
354.797	318.76
355.179	337.29
355.562	331.19
355.944	341.59
356.326	339.55
356.709	326.9
357.091	324.41
357.473	343.17
357.855	333.23
358.238	331.87
358.62	306.11
359.002	328.71
359.384	339.55
359.766	319.89
360.148	325.77
360.53	343.39
360.912	331.42
361.294	342.49
361.676	333
362.057	354.47
362.439	332.77
362.821	329.84
363.203	338.88
363.584	325.54
363.966	326.22
364.348	333
364.729	352.21
365.111	312.21
365.493	318.76
365.874	317.41
366.256	321.93
366.637	308.14
367.019	316.95
367.4	304.75
367.781	319.67
368.163	330.74
368.544	312.66
368.925	322.6
369.306	313.57
369.688	310.63
370.069	317.86
370.45	304.3
370.831	301.81
371.212	307.01
371.593	296.39
371.974	307.01
372.355	312.44
372.736	321.93
373.117	337.29
373.498	311.08
373.879	327.12
374.26	305.66
374.641	295.03
375.021	333
375.402	338.2
375.783	307.46
376.163	339.78
376.544	332.55
376.925	333.45
377.305	333.9
377.686	322.83
378.066	334.36
378.447	319.89
378.827	323.96
379.208	329.84
379.588	334.13
379.968	313.11
380.349	322.15
380.729	329.61
381.109	327.58
381.489	324.64
381.87	322.38
382.25	343.39
382.63	322.83
383.01	347.46
383.39	333.23
383.77	347.69
384.15	347.91
384.53	358.08
384.91	353.34
385.29	349.27
385.67	341.36
386.049	347.01
386.429	370.29
386.809	359.89
387.189	364.64
387.568	358.08
387.948	358.76
388.328	357.63
388.707	347.24
389.087	370.74
389.466	372.09
389.846	333.9
390.225	374.81
390.605	373.9
390.984	368.93
391.363	376.84
391.743	386.33
392.122	363.51
392.501	377.52
392.881	397.4
393.26	388.59
393.639	364.41
394.018	385.2
394.397	375.26
394.776	386.78
395.155	392.89
395.534	402.38
395.913	372.09
396.292	369.61
396.671	374.58
397.05	403.73
397.429	413.45
397.808	401.47
398.186	401.25
398.565	388.37
398.944	393.34
399.323	411.64
399.701	402.6
400.08	397.63
400.458	410.51
400.837	431.08
401.215	413.9
401.594	413.9
401.972	426.33
402.351	420.91
402.729	434.69
403.107	405.31
403.486	421.81
403.864	438.99
404.242	426.1
404.62	419.78
404.999	431.98
405.377	429.04
405.755	434.47
406.133	421.58
406.511	426.1
406.889	431.08
407.267	439.44
407.645	471.98
408.023	452.32
408.401	445.54
408.779	456.39
409.156	448.93
409.534	456.61
409.912	470.85
410.29	497.52
410.667	462.26
411.045	491.41
411.422	470.85
411.8	461.58
412.178	474.01
412.555	491.41
412.933	487.12
413.31	491.19
413.687	506.1
414.065	504.29
414.442	514.46
414.819	507.01
415.197	527.8
415.574	508.36
415.951	522.83
416.328	515.82
416.705	519.21
417.082	541.81
417.46	534.58
417.837	525.54
418.214	539.77
418.591	533.67
418.967	565.76
419.344	563.5
419.721	566.89
420.098	562.6
420.475	562.15
420.852	560.79
421.228	579.32
421.605	551.98
421.982	555.37
422.358	585.87
422.735	567.12
423.111	603.05
423.488	580.45
423.864	574.8
424.241	586.78
424.617	609.15
424.994	591.3
425.37	625.2
425.746	619.55
426.123	619.32
426.499	602.82
426.875	642.82
427.251	636.04
427.627	620
428.003	639.88
428.379	639.66
428.756	632.88
429.132	642.6
429.507	652.31
429.883	665.65
430.259	670.84
430.635	672.43
431.011	673.78
431.387	669.26
431.763	711.97
432.138	715.59
432.514	705.19
432.89	729.37
433.265	725.31
433.641	704.74
434.016	719.66
434.392	748.13
434.767	752.88
435.143	742.03
435.518	768.92
435.894	752.2
436.269	770.05
436.644	781.12
437.02	780.9
437.395	798.75
437.77	790.61
438.145	818.41
438.52	799.88
438.895	820.67
439.271	841.23
439.646	843.72
440.021	838.3
440.395	837.85
440.77	851.4
441.145	862.25
441.52	849.6
441.895	873.78
442.27	880.78
442.645	878.52
443.019	869.48
443.394	863.61
443.769	880.56
444.143	906.54
444.518	883.72
444.892	881.46
445.267	899.31
445.641	927.33
446.016	915.36
446.39	912.65
446.764	935.47
447.139	916.04
447.513	933.66
447.887	951.97
448.262	981.34
448.636	960.33
449.01	973.21
449.384	984.51
449.758	975.92
450.132	978.41
450.506	987.22
450.88	1014.34
451.254	993.32
451.628	996.26
452.002	1010.04
452.376	1043.26
452.75	1043.04
453.123	1069.93
453.497	1098.4
453.871	1043.49
454.244	1111.51
454.618	1108.57
454.992	1130.94
455.365	1109.48
455.739	1136.14
456.112	1138.85
456.486	1156.93
456.859	1174.33
457.232	1192.86
457.606	1173.43
457.979	1192.64
458.352	1235.12
458.725	1247.1
459.099	1276.93
459.472	1285.07
459.845	1282.35
460.218	1312.86
460.591	1322.35
460.964	1330.04
461.337	1341.79
461.71	1373.65
462.083	1413.88
462.456	1431.95
462.829	1409.13
463.201	1428.11
463.574	1469.69
463.947	1492.97
464.32	1517.6
464.692	1536.36
465.065	1543.36
465.438	1532.52
465.81	1530.71
466.183	1582.23
466.555	1618.39
466.928	1629.46
467.3	1635.11
467.672	1653.19
468.045	1716.69
468.417	1749.91
468.789	1719.18
469.161	1797.37
469.534	1841.43
469.906	1848.44
470.278	1888.67
470.65	1930.7
471.022	1952.84
471.394	2024.71
471.766	2000.75
472.138	2073.52
472.51	2118.94
472.882	2127.75
473.253	2208.66
473.625	2227.87
473.997	2273.74
474.369	2347.18
474.74	2400.06
475.112	2424.24
475.484	2488.65
475.855	2529.78
476.227	2606.16
476.598	2682.09
476.97	2729.09
477.341	2789.43
477.713	2889.77
478.084	2917.11
478.455	3039.14
478.827	3053.38
479.198	3198.69
479.569	3216.77
479.94	3356.88
480.311	3374.95
480.682	3516.19
481.053	3573.37
481.424	3715.74
481.795	3795.73
482.166	3936.75
482.537	3954.6
482.908	4134.71
483.279	4200.69
483.65	4322.27
484.021	4468.71
484.391	4598.65
484.762	4667.58
485.133	4734.92
485.503	4878.87
485.874	5029.37
486.244	5103.72
486.615	5332.19
486.985	5411.51
487.356	5554.33
487.726	5659.64
488.097	5835.23
488.467	5931.27
488.837	6096.92
489.207	6266.63
489.578	6393.63
489.948	6538.49
490.318	6597.02
490.688	6732.83
491.058	6907.06
491.428	7131.24
491.798	7185.7
492.168	7389.76
492.538	7557.22
492.908	7681.28
493.278	7872.01
493.648	7961.95
494.017	8093.7
494.387	8129.63
494.757	8392.67
495.126	8475.61
495.496	8655.27
495.866	8747.24
496.235	8901.36
496.605	9054.35
496.974	9109.72
497.344	9308.58
497.713	9325.98
498.082	9543.38
498.452	9661.79
498.821	9791.73
499.19	9826.54
499.559	9990.82
499.928	10058.17
500.298	10192.85
500.667	10365.73
501.036	10403.24
501.405	10596.91
501.774	10675.33
502.143	10715.1
502.512	10826.96
502.88	10944.92
503.249	11007.75
503.618	11094.98
503.987	11265.14
504.356	11301.07
504.724	11357.57
505.093	11440.73
505.462	11559.6
505.83	11633.72
506.199	11845.92
506.567	11875.3
506.936	11954.84
507.304	12077.32
507.672	12149.86
508.041	12162.75
508.409	12370.2
508.777	12396.41
509.145	12460.14
509.514	12506.92
509.882	12577.88
510.25	12641.15
510.618	12664.65
510.986	12848.83
511.354	12917.98
511.722	13036.62
512.09	13124.53
512.458	13081.37
512.826	13174.92
513.193	13214.02
513.561	13202.04
513.929	13335.82
514.297	13454.01
514.664	13445.88
515.032	13567
515.4	13633.67
515.767	13629.37
516.135	13724.51
516.502	13555.93
516.869	13807.9
517.237	13776.94
517.604	13801.57
517.972	13897.84
518.339	13932.64
518.706	13981.68
519.073	14089.93
519.44	14103.03
519.808	14172.86
520.175	14122.69
520.542	14286.53
520.909	14330.15
521.276	14270.03
521.643	14385.74
522.009	14405.62
522.376	14489.24
522.743	14512.06
523.11	14609.23
523.477	14678.84
523.843	14725.16
524.21	14779.63
524.577	14794.31
524.943	14913.63
525.31	14945.72
525.676	14969.9
526.043	14998.15
526.409	15002.9
526.776	15145.72
527.142	15159.5
527.508	15148.2
527.874	15195.66
528.241	15269.1
528.607	15257.13
528.973	15301.42
529.339	15262.1
529.705	15325.6
530.071	15399.95
530.437	15348.42
530.803	15351.36
531.169	15400.17
531.535	15322.89
531.901	15359.5
532.267	15336.22
532.632	15414.64
532.998	15474.52
533.364	15397.01
533.73	15358.14
534.095	15479.95
534.461	15344.58
534.826	15454.18
535.192	15450.12
535.557	15527.18
535.923	15350.46
536.288	15492.83
536.653	15427.52
537.019	15386.84
537.384	15347.29
537.749	15321.08
538.114	15335.77
538.479	15269.78
538.845	15283.34
539.21	15266.84
539.575	15347.29
539.94	15230.91
540.305	15218.03
540.67	15226.85
541.034	15223.46
541.399	15207.64
541.764	15149.56
542.129	15168.09
542.494	15048.77
542.858	15070.69
543.223	14956.57
543.587	15027.98
543.952	14945.04
544.316	14944.59
544.681	14863.24
545.045	14912.5
545.41	14875.22
545.774	14797.25
546.138	14778.5
546.503	14879.06
546.867	14754.32
547.231	14840.19
547.595	14853.3
547.959	14760.42
548.324	14623.92
548.688	14724.94
549.052	14635.45
549.416	14633.87
549.779	14592.29
550.143	14553.64
550.507	14589.35
550.871	14504.38
551.235	14453.53
551.599	14601.78
551.962	14511.84
552.326	14362.01
552.689	14456.47
553.053	14331.95
553.417	14326.3
553.78	14415.57
554.143	14362.91
554.507	14396.81
554.87	14332.41
555.234	14380.09
555.597	14284.95
555.96	14309.58
556.323	14375.57
556.686	14226.19
557.05	14296.02
557.413	14314.33
557.776	14343.48
558.139	14250.15
558.502	14221.45
558.865	14257.61
559.228	14289.24
559.59	14337.6
559.953	14197.04
560.316	14312.29
560.679	14271.62
561.041	14311.16
561.404	14288.11
561.767	14389.58
562.129	14277.94
562.492	14431.84
562.854	14307.1
563.217	14305.74
563.579	14354.33
563.941	14424.83
564.304	14426.87
564.666	14419.18
565.028	14471.61
565.39	14448.79
565.753	14532.85
566.115	14524.26
566.477	14470.48
566.839	14478.84
567.201	14622.79
567.563	14552.51
567.925	14570.59
568.287	14575.56
568.648	14598.16
569.01	14663.47
569.372	14689.23
569.734	14582.79
570.095	14689.23
570.457	14695.33
570.819	14744.37
571.18	14714.54
571.542	14768.33
571.903	14798.61
572.265	14783.92
572.626	14732.62
572.987	14788.66
573.349	14860.53
573.71	14855.1
574.071	14812.62
574.432	14924.93
574.794	14931.94
575.155	14900.07
575.516	14862.79
575.877	14863.47
576.238	14898.04
576.599	14958.38
576.96	14907.53
577.32	14912.5
577.681	15005.38
578.042	14968.77
578.403	14948.21
578.763	14996.12
579.124	14929.9
579.485	14969
579.845	15041.09
580.206	14963.12
580.566	15002.67
580.927	14992.28
581.287	15136.68
581.648	14980.07
582.008	15047.87
582.368	14966.29
582.728	14945.72
583.089	14893.52
583.449	14986.17
583.809	14964.03
584.169	14978.49
584.529	14918.38
584.889	14987.53
585.249	14961.54
585.609	14816.01
585.969	14898.94
586.329	14966.97
586.688	14943.69
587.048	14976.46
587.408	14895.55
587.768	14860.53
588.127	14949.11
588.487	14753.86
588.846	14907.76
589.206	14770.81
589.565	14729.23
589.925	14790.25
590.284	14740.08
590.643	14771.72
591.003	14854.65
591.362	14853.52
591.721	14730.81
592.08	14805.16
592.44	14848.1
592.799	14803.35
593.158	14775.56
593.517	14818.04
593.876	14830.92
594.235	14639.74
594.593	14700.08
594.952	14779.17
595.311	14708.44
595.67	14673.64
596.029	14824.37
596.387	14746.18
596.746	14757.93
597.104	14725.84
597.463	14733.98
597.822	14795.22
598.18	14642.91
598.538	14733.75
598.897	14762.45
599.255	14629.35
599.613	14848.32
599.972	14731.72
600.33	14750.47
600.688	14761.09
601.046	14739.85
601.404	14820.75
601.762	14687.65
602.12	14819.85
602.478	14856.23
602.836	14686.97
603.194	14624.38
603.552	14729.01
603.91	14634.32
604.268	14778.27
604.625	14677.48
604.983	14852.62
605.341	14581.89
605.698	14729.91
606.056	14737.14
606.413	14685.62
606.771	14809.91
607.128	14802.9
607.485	14646.75
607.843	14703.47
608.2	14788.89
608.557	14836.8
608.914	14758.61
609.272	14817.14
609.629	14844.71
609.986	14839.06
610.343	14818.95
610.7	14912.05
611.057	14908.89
611.414	14826.18
611.771	14816.69
612.127	14925.16
612.484	14873.41
612.841	15018.04
613.198	14944.14
613.554	14933.52
613.911	14999.73
614.267	15057.13
614.624	14947.08
614.98	14963.58
615.337	15091.71
615.693	14971.71
616.05	15050.13
616.406	15018.26
616.762	15032.95
617.118	15020.98
617.475	14987.08
617.831	15063.23
618.187	15113.85
618.543	15003.57
618.899	15124.02
619.255	15131.93
619.611	15085.83
619.967	15124.25
620.323	15172.38
620.678	15170.12
621.034	15052.39
621.39	15181.65
621.746	15099.62
622.101	15212.83
622.457	15136
622.812	15199.28
623.168	15178.71
623.523	15158.82
623.879	15213.51
624.234	15200.86
624.589	15165.15
624.945	15199.95
625.3	15226.85
625.655	15138.71
626.01	15113.18
626.365	15179.61
626.72	15203.12
627.075	15122.89
627.43	15103.91
627.785	15086.06
628.14	15091.93
628.495	15193.17
628.85	15162.67
629.205	15054.42
629.559	15215.55
629.914	15079.96
630.269	15127.41
630.623	15133.97
630.978	14997.92
631.332	15126.74
631.687	15033.63
632.041	15074.08
632.396	15052.84
632.75	15018.49
633.104	15010.58
633.459	14939.17
633.813	14922.22
634.167	14941.88
634.521	14943.69
634.875	14938.27
635.229	14916.57
635.583	14799.74
635.937	14821.21
636.291	14766.97
636.645	14771.94
636.999	14762.22
637.352	14824.37
637.706	14787.53
638.06	14747.99
638.413	14680.19
638.767	14699.18
639.121	14681.1
639.474	14696.69
639.828	14667.09
640.181	14656.69
640.534	14665.73
640.888	14569.46
641.241	14556.35
641.594	14621.21
641.947	14582.79
642.301	14613.98
642.654	14619.63
643.007	14613.53
643.36	14595.22
643.713	14556.58
644.066	14681.32
644.419	14498.5
644.771	14419.41
645.124	14380.31
645.477	14277.94
645.83	14265.29
646.182	14141.22
646.535	14129.25
646.888	14195.01
647.24	14010.38
647.593	14096.48
647.945	14081.11
648.298	13991.4
648.65	14013.32
649.002	14015.58
649.355	14110.26
649.707	14080.43
650.059	14098.97
650.411	14292.41
650.763	14266.42
651.115	14372.86
651.467	14365.63
651.819	14422.8
652.171	14344.16
652.523	14303.71
652.875	14317.04
653.227	14196.82
653.578	14346.87
653.93	14267.32
654.282	14336.02
654.633	14186.19
654.985	14344.83
655.337	14319.98
655.688	14318.85
656.039	14396.58
656.391	14373.08
656.742	14267.77
657.094	14313.42
657.445	14344.83
657.796	14355.68
658.147	14246.98
658.498	14334.89
658.849	14322.01
659.2	14327.89
659.551	14326.53
659.902	14368.34
660.253	14428.22
660.604	14402.91
660.955	14324.72
661.306	14377.38
661.656	14414.21
662.007	14453.08
662.358	14330.37
662.708	14399.52
663.059	14428.45
663.409	14391.84
663.76	14418.05
664.11	14398.62
664.461	14373.99
664.811	14408.79
665.161	14405.4
665.511	14393.19
665.862	14394.32
666.212	14357.72
666.562	14413.08
666.912	14417.83
667.262	14354.78
667.612	14453.31
667.962	14366.3
668.312	14404.27
668.662	14375.57
669.011	14380.99
669.361	14356.36
669.711	14271.39
670.06	14382.12
670.41	14303.25
670.76	14317.72
671.109	14336.93
671.459	14316.59
671.808	14318.85
672.157	14351.61
672.507	14284.72
672.856	14279.53
673.205	14327.21
673.554	14335.57
673.904	14188
674.253	14355
674.602	14262.35
674.951	14084.05
675.3	14051.74
675.649	14196.36
675.998	14159.53
676.346	14194.1
676.695	14173.99
677.044	14114.11
677.393	14278.4
677.741	14174.44
678.09	14120.21
678.438	14048.8
678.787	14117.72
679.135	14051.06
679.484	13924.05
679.832	14030.72
680.181	13952.98
680.529	13979.87
680.877	13878.18
681.225	13917.73
681.573	13973.32
681.922	13813.32
682.27	13822.14
682.618	13858.29
682.966	13760.67
683.314	13836.6
683.661	13771.52
684.009	13774.23
684.357	13727.9
684.705	13643.38
685.053	13708.92
685.4	13641.35
685.748	13627.57
686.095	13648.58
686.443	13556.61
686.79	13489.94
687.138	13545.99
687.485	13576.04
687.832	13466.89
688.18	13401.13
688.527	13309.38
688.874	13383.28
689.221	13310.74
689.568	13243.85
689.915	13275.94
690.262	13205.88
690.609	13141.25
690.956	13144.64
691.303	13129.27
691.65	12990.52
691.997	13011.99
692.344	12810.41
692.69	12896.74
693.037	12919.34
693.383	12795.27
693.73	12861.48
694.077	12724.54
694.423	12667.14
694.769	12604.54
695.116	12663.3
695.462	12634.37
695.808	12530.65
696.155	12534.49
696.501	12418.33
696.847	12433.25
697.193	12322.97
697.539	12426.24
697.885	12248.39
698.231	12149.41
698.577	12173.59
698.923	12195.74
699.269	12150.09
699.614	12107.61
699.96	12081.39
700.306	12038.91
700.651	12007.5
700.997	11888.4
701.342	11856.54
701.688	11824.45
702.033	11764.56
702.379	11784.45
702.724	11756.43
703.069	11647.05
703.415	11574.74
703.76	11551.91
704.105	11631.01
704.45	11568.41
704.795	11482.76
705.14	11468.53
705.485	11417.68
705.83	11442.99
706.175	11426.72
706.52	11330.68
706.865	11266.5
707.209	11351.24
707.554	11257.68
707.899	11278.47
708.243	11247.06
708.588	11155.99
708.932	11113.28
709.277	11079.61
709.621	11062.44
709.966	11007.52
710.31	11039.61
710.654	10954.42
710.998	10975.66
711.342	10926.62
711.687	10907.18
712.031	10871.71
712.375	10778.6
712.719	10840.75
713.063	10789.22
713.407	10785.83
713.75	10716.46
714.094	10693.86
714.438	10708.32
714.782	10692.28
715.125	10608.89
715.469	10708.32
715.812	10550.58
716.156	10533.64
716.499	10595.33
716.843	10607.98
717.186	10472.62
717.53	10561.21
717.873	10568.21
718.216	10510.59
718.559	10502.22
718.902	10379.06
719.246	10379.29
719.589	10403.92
719.932	10346.3
720.275	10361.89
720.617	10344.04
720.96	10322.12
721.303	10332.51
721.646	10356.92
721.989	10293.42
722.331	10249.58
722.674	10269.69
723.016	10299.97
723.359	10287.09
723.701	10233.76
724.044	10159.86
724.386	10172.97
724.729	10191.5
725.071	10183.14
725.413	10160.76
725.755	10163.93
726.097	10119.86
726.439	10066.53
726.782	10110.82
727.124	10141.1
727.465	10166.87
727.807	10142.01
728.149	10053.42
728.491	10085.51
728.833	10099.3
729.175	10057.49
729.516	10040.32
729.858	10046.64
730.199	9964.16
730.541	10073.31
730.882	10038.73
731.224	10080.99
731.565	9967.77
731.906	10071.5
732.248	10000.54
732.589	9964.38
732.93	9958.74
733.271	9979.98
733.612	9989.47
733.953	10017.26
734.294	9932.75
734.635	9995.8
734.976	9982.69
735.317	9935.23
735.658	10011.16
735.999	10035.12
736.339	9958.51
736.68	10044.61
737.021	10043.7
737.361	10007.77
737.702	10030.82
738.042	10028.34
738.383	10013.65
738.723	10033.54
739.063	10008.23
739.404	10115.34
739.744	10066.3
740.084	10008.68
740.424	10067.43
740.764	10069.24
741.104	10114.89
741.444	10071.5
741.784	10112.18
742.124	10139.52
742.464	10154.21
742.804	10152.85
743.143	10148.11
743.483	10180.2
743.823	10130.26
744.162	10276.02
744.502	10271.5
744.841	10189.69
745.181	10302.46
745.52	10370.02
745.86	10388.1
746.199	10375.9
746.538	10415.9
746.877	10470.36
747.216	10528.89
747.556	10561.21
747.895	10570.24
748.234	10621.99
748.573	10631.71
748.911	10760.97
749.25	10831.93
749.589	10887.75
749.928	10978.37
750.267	11006.39
750.605	11064.24
750.944	11114.64
751.283	11105.37
751.621	11246.84
751.96	11333.16
752.298	11453.61
752.636	11575.19
752.975	11608.41
753.313	11666.26
753.651	11826.48
753.989	11847.73
754.327	12119.58
754.666	12066.93
755.004	12290.65
755.342	12327.03
755.679	12493.36
756.017	12633.02
756.355	12823.74
