Data from hue_330_FLMS001491_72.txt Node
Date: Mon Feb 06 15:45:52 GMT 2017
User: dcchb
Spectrometer: FLMS00149
Trigger mode: 0
Integration Time (sec): 2.000000E-2
Scans to average: 10
Electric dark correction enabled: true
Nonlinearity correction enabled: false
Boxcar width: 0
XAxis mode: Wavelengths
Number of Pixels in Spectrum: 2048
>>>>>Begin Spectral Data<<<<<
341.393	-28.18
341.776	-28.18
342.16	-28.18
342.543	-62.75
342.927	-80.83
343.31	-62.53
343.693	-81.74
344.077	-76.54
344.46	-69.53
344.843	-57.33
345.226	-30.44
345.61	-28.18
345.993	-31.12
346.376	-8.06
346.759	12.5
347.142	39.39
347.525	37.81
347.908	51.37
348.291	90.46
348.674	95.21
349.057	118.71
349.44	114.42
349.823	158.26
350.206	152.16
350.588	187.64
350.971	206.84
351.354	205.49
351.737	225.15
352.119	254.53
352.502	247.07
352.884	258.37
353.267	273.96
353.65	266.28
354.032	297.24
354.414	305.15
354.797	303.11
355.179	325.03
355.562	327.29
355.944	317.12
356.326	309.67
356.709	305.6
357.091	338.14
357.473	339.5
357.855	331.36
358.238	333.4
358.62	326.39
359.002	316.9
359.384	316.67
359.766	322.32
360.148	308.76
360.53	346.5
360.912	314.64
361.294	330.68
361.676	329.55
362.057	349.67
362.439	331.36
362.821	320.97
363.203	330.23
363.584	311.7
363.966	320.06
364.348	316.45
364.729	322.32
365.111	334.07
365.493	323.9
365.874	311.93
366.256	318.71
366.637	328.42
367.019	303.34
367.4	290.23
367.781	301.53
368.163	307.41
368.544	323.68
368.925	300.18
369.306	322.77
369.688	308.09
370.069	314.41
370.45	290.01
370.831	305.37
371.212	314.64
371.593	312.83
371.974	303.11
372.355	311.47
372.736	315.32
373.117	299.5
373.498	283.9
373.879	303.57
374.26	305.6
374.641	295.66
375.021	309.22
375.402	319.61
375.783	310.12
376.163	327.52
376.544	333.62
376.925	310.12
377.305	316.45
377.686	319.16
378.066	329.33
378.447	312.6
378.827	316.22
379.208	301.08
379.588	326.62
379.968	341.53
380.349	306.05
380.729	318.71
381.109	324.81
381.489	313.28
381.87	342.21
382.25	337.69
382.63	317.58
383.01	324.13
383.39	332.94
383.77	353.51
384.15	334.53
384.53	339.27
384.91	347.63
385.29	346.73
385.67	319.84
386.049	338.14
386.429	345.6
386.809	353.73
387.189	363.22
387.568	343.34
387.948	352.15
388.328	376.56
388.707	359.38
389.087	366.39
389.466	343.56
389.846	349.89
390.225	363.9
390.605	360.97
390.984	362.32
391.363	357.58
391.743	355.54
392.122	354.64
392.501	368.87
392.881	353.06
393.26	386.95
393.639	358.03
394.018	360.29
394.397	381.53
394.776	374.98
395.155	368.87
395.534	389.89
395.913	396.44
396.292	393.96
396.671	399.38
397.05	380.85
397.429	382.21
397.808	361.19
398.186	374.75
398.565	374.07
398.944	388.08
399.323	374.52
399.701	361.64
400.08	392.38
400.458	407.29
400.837	389.21
401.215	394.41
401.594	386.28
401.972	405.94
402.351	393.28
402.729	404.58
403.107	424.69
403.486	425.37
403.864	440.06
404.242	411.13
404.62	424.69
404.999	405.03
405.377	426.95
405.755	439.83
406.133	409.78
406.511	442.77
406.889	439.83
407.267	431.92
407.645	432.38
408.023	424.24
408.401	452.26
408.779	458.59
409.156	462.88
409.534	448.19
409.912	442.77
410.29	479.15
410.667	481.19
411.045	478.93
411.422	498.81
411.8	477.8
412.178	499.27
412.555	504.46
412.933	516.89
413.31	534.52
413.687	527.97
414.065	547.63
414.442	532.26
414.819	537.91
415.197	535.2
415.574	551.47
415.951	560.06
416.328	563.45
416.705	564.58
417.082	553.73
417.46	568.87
417.837	584.01
418.214	574.07
418.591	601.18
418.967	590.34
419.344	591.69
419.721	621.75
420.098	619.94
420.475	649.09
420.852	622.65
421.228	615.42
421.605	617.46
421.982	633.27
422.358	649.55
422.735	635.53
423.111	651.35
423.488	667.4
423.864	666.04
424.241	689.77
424.617	693.16
424.994	685.25
425.37	702.43
425.746	701.07
426.123	711.46
426.499	696.55
426.875	716.66
427.251	727.74
427.627	758.92
428.003	754.63
428.379	759.15
428.756	749.43
429.132	771.58
429.507	785.59
429.883	773.84
430.259	814.29
430.635	787.62
431.011	802.31
431.387	812.25
431.763	801.18
432.138	829.65
432.514	815.42
432.89	853.38
433.265	868.97
433.641	868.3
434.016	892.02
434.392	893.61
434.767	916.66
435.143	903.78
435.518	922.08
435.894	916.2
436.269	930.22
436.644	938.58
437.02	938.35
437.395	976.99
437.77	984.23
438.145	968.18
438.52	980.16
438.895	977.45
439.271	982.64
439.646	1008.63
440.021	1007.5
440.395	1024.9
440.77	1024.68
441.145	1045.69
441.52	1019.7
441.895	1052.25
442.27	1082.75
442.645	1054.28
443.019	1069.42
443.394	1054.05
443.769	1065.35
444.143	1074.39
444.518	1075.97
444.892	1071.45
445.267	1096.54
445.641	1098.12
446.016	1095.64
446.39	1108.29
446.764	1114.62
447.139	1114.62
447.513	1137.67
447.887	1102.87
448.262	1142.41
448.636	1154.16
449.01	1144.22
449.384	1164.56
449.758	1138.35
450.132	1175.18
450.506	1172.47
450.88	1184.9
451.254	1187.38
451.628	1205.24
452.002	1189.87
452.376	1195.97
452.75	1211.11
453.123	1181.73
453.497	1215.41
453.871	1252.02
454.244	1268.96
454.618	1226.71
454.992	1263.99
455.365	1251.56
455.739	1299.92
456.112	1320.71
456.486	1282.97
456.859	1311
457.232	1304.67
457.606	1333.37
457.979	1332.46
458.352	1347.61
458.725	1390.54
459.099	1402.07
459.472	1413.82
459.845	1405.01
460.218	1390.32
460.591	1424.21
460.964	1446.81
461.337	1434.61
461.71	1441.39
462.083	1492.23
462.456	1479.81
462.829	1475.74
463.201	1485.91
463.574	1509.86
463.947	1508.28
464.32	1539.69
464.692	1573.14
465.065	1561.39
465.438	1570.42
465.81	1561.39
466.183	1633.25
466.555	1638.9
466.928	1619.69
467.3	1623.53
467.672	1642.29
468.045	1692.23
468.417	1666.92
468.789	1718.44
469.161	1749.4
469.534	1747.82
469.906	1778.1
470.278	1815.84
470.65	1794.83
471.022	1841.38
471.394	1853.13
471.766	1920.25
472.138	1877.08
472.51	1908.27
472.882	1929.06
473.253	1955.05
473.625	1980.58
473.997	1990.07
474.369	2001.37
474.74	2012
475.112	2058.77
475.484	2073.46
475.855	2124.08
476.227	2111.43
476.598	2166.79
476.97	2176.51
477.341	2233.01
477.713	2258.54
478.084	2303.29
478.455	2326.34
478.827	2320.46
479.198	2423.96
479.569	2398.43
479.94	2474.36
480.311	2483.17
480.682	2531.08
481.053	2548.93
481.424	2542.15
481.795	2571.75
482.166	2638.65
482.537	2652.88
482.908	2688.59
483.279	2752.99
483.65	2735.59
484.021	2816.27
484.391	2855.81
484.762	2887
485.133	2896.72
485.503	2928.36
485.874	2978.07
486.244	3017.62
486.615	3044.74
486.985	3044.96
487.356	3127.67
487.726	3138.29
488.097	3155.92
488.467	3184.62
488.837	3284.28
489.207	3293.09
489.578	3329.93
489.948	3381.22
490.318	3411.28
490.688	3397.04
491.058	3437.49
491.428	3514.55
491.798	3538.96
492.168	3583.93
492.538	3580.32
492.908	3623.93
493.278	3704.38
493.648	3679.3
494.017	3710.93
494.387	3726.3
494.757	3768.33
495.126	3814.21
495.496	3787.32
495.866	3850.82
496.235	3881.78
496.605	3860.76
496.974	3904.15
497.344	3910.7
497.713	3957.25
498.082	3989.34
498.452	4013.75
498.821	4034.09
499.19	4040.87
499.559	4074.31
499.928	4060.98
500.298	4128.78
500.667	4119.51
501.036	4114.76
501.405	4194.08
501.774	4186.18
502.143	4216.23
502.512	4241.99
502.88	4249.45
503.249	4230.24
503.618	4282.44
503.987	4315.21
504.356	4325.15
504.724	4325.61
505.093	4353.85
505.462	4334.42
505.83	4410.58
506.199	4402.89
506.567	4394.53
506.936	4446.51
507.304	4492.16
507.672	4498.48
508.041	4451.25
508.409	4543.45
508.777	4503.46
509.145	4577.58
509.514	4538.03
509.882	4596.33
510.25	4620.29
510.618	4610.57
510.986	4667.07
511.354	4672.04
511.722	4712.04
512.09	4706.61
512.458	4694.64
512.826	4758.14
513.193	4756.78
513.561	4732.38
513.929	4822.54
514.297	4791.13
514.664	4823.9
515.032	4831.36
515.4	4825.03
515.767	4899.83
516.135	4884.69
516.502	4875.65
516.869	4926.49
517.237	4925.82
517.604	4845.14
517.972	4945.25
518.339	4926.72
518.706	5009.88
519.073	4990.9
519.44	5015.31
519.808	4999.49
520.175	5043.33
520.542	5033.61
520.909	5058.02
521.276	5024.57
521.643	5116.55
522.009	5137.34
522.376	5120.39
522.743	5173.49
523.11	5227.73
523.477	5253.72
523.843	5214.85
524.21	5265.47
524.577	5305.69
524.943	5326.48
525.31	5327.39
525.676	5418.46
526.043	5403.09
526.409	5415.07
526.776	5446.48
527.142	5428.63
527.508	5498.23
527.874	5542.98
528.241	5575.52
528.607	5559.92
528.973	5592.01
529.339	5642.63
529.705	5660.26
530.071	5696.87
530.437	5758.11
530.803	5740.03
531.169	5852.57
531.535	5782.97
531.901	5790.43
532.267	5813.93
532.632	5874.72
532.998	5886.92
533.364	5909.97
533.73	5891.22
534.095	5957.2
534.461	5995.39
534.826	6015.28
535.192	6047.14
535.557	6104.77
535.923	6064.77
536.288	6112.45
536.653	6149.29
537.019	6118.55
537.384	6174.6
537.749	6241.26
538.114	6196.97
538.479	6251.88
538.845	6245.56
539.21	6298.89
539.575	6293.69
539.94	6321.03
540.305	6321.49
540.67	6368.72
541.034	6426.34
541.399	6460.24
541.764	6425.44
542.129	6502.27
542.494	6508.37
542.858	6522.16
543.223	6541.37
543.587	6620.01
543.952	6615.72
544.316	6663.17
544.681	6692.55
545.045	6700.91
545.41	6777.97
545.774	6757.63
546.138	6791.53
546.503	6845.54
546.867	6861.59
547.231	6876.5
547.595	6876.05
547.959	6901.13
548.324	6919.66
548.688	6941.36
549.052	6970.73
549.416	6981.13
549.779	6995.37
550.143	7010.51
550.507	7082.6
550.871	7084.18
551.235	7088.02
551.599	7157.4
551.962	7114.91
552.326	7169.83
552.689	7264.29
553.053	7180.67
553.417	7231.52
553.78	7260.44
554.143	7236.26
554.507	7314.91
554.87	7281.24
555.234	7408.24
555.597	7343.38
555.96	7368.24
556.323	7362.81
556.686	7403.04
557.05	7448.91
557.413	7513.09
557.776	7461.8
558.139	7502.7
558.502	7567.1
558.865	7554
559.228	7576.59
559.59	7635.8
559.953	7648.23
560.316	7740.88
560.679	7721.68
561.041	7768.23
561.404	7800.77
561.767	7783.14
562.129	7740.88
562.492	7832.86
562.854	7892.74
563.217	7864.04
563.579	7905.85
563.941	7945.4
564.304	7969.8
564.666	7981.78
565.028	8023.14
565.39	7994.66
565.753	8090.71
566.115	8059.97
566.477	8118.5
566.839	8186.52
567.201	8212.96
567.563	8195.56
567.925	8216.13
568.287	8277.59
568.648	8317.14
569.01	8376.57
569.372	8423.58
569.734	8353.75
570.095	8466.51
570.457	8528.66
570.819	8562.33
571.18	8582.67
571.542	8569.11
571.903	8579.96
572.265	8698.6
572.626	8750.57
572.987	8763.23
573.349	8769.11
573.71	8803
574.071	8877.35
574.432	8947.18
574.794	9046.16
575.155	9108.31
575.516	9142.66
575.877	9178.81
576.238	9256.32
576.599	9315.98
576.96	9332.25
577.32	9470.1
577.681	9593.04
578.042	9636.43
578.403	9681.4
578.763	9873.48
579.124	9973.14
579.485	10125.23
579.845	10173.36
580.206	10196.19
580.566	10312.34
580.927	10447.48
581.287	10562.05
581.648	10755.04
582.008	10906.22
582.368	11063.28
582.728	11249.94
583.089	11389.6
583.449	11542.14
583.809	11651.52
584.169	11859.87
584.529	12046.99
584.889	12289.24
585.249	12417.82
585.609	12548.89
585.969	12891.48
586.329	13107.75
586.688	13277.69
587.048	13528.3
587.408	13744.79
587.768	13958.35
588.127	14225.01
588.487	14422.29
588.846	14703.19
589.206	14839.68
589.565	15105.89
589.925	15396.73
590.284	15714.91
590.643	15904.29
591.003	16227.21
591.362	16559.86
591.721	16798.5
592.08	17057.48
592.44	17238.94
592.799	17619.95
593.158	17901.29
593.517	18262.87
593.876	18420.15
594.235	18769.07
594.593	18936.3
594.952	19332.44
595.311	19588.93
595.67	19843.62
596.029	20351.85
596.387	20619.64
596.746	20937.83
597.104	21070.25
597.463	21274.31
597.822	21655.32
598.18	21891.7
598.538	22214.4
598.897	22588.63
599.255	22673.6
599.613	23272.91
599.972	23379.34
600.33	23644.42
600.688	23843.29
601.046	24232.65
601.404	24619.76
601.762	24756.71
602.12	25114.44
602.478	25446.63
602.836	25611.37
603.194	25791.48
603.552	26061.98
603.91	26222.88
604.268	26572.25
604.625	26692.25
604.983	27127.72
605.341	27138.57
605.698	27570.19
606.056	27796.18
606.413	28116.85
606.771	28423.28
607.128	28576.49
607.485	28868.46
607.843	28886.32
608.2	29242.69
608.557	29534.66
608.914	29564.49
609.272	29990.24
609.629	30057.13
609.986	30349.56
610.343	30500.74
610.7	30890.11
611.057	31022.98
611.414	31238.35
611.771	31366.48
612.127	31679.46
612.484	31715.62
612.841	32092.33
613.198	32093.69
613.554	32337.98
613.911	32376.62
614.267	32686.89
614.624	32899.32
614.98	33032.65
615.337	33250.27
615.693	33346.76
616.05	33549.47
616.406	33788.11
616.762	33784.27
617.118	34085.5
617.475	34149.23
617.831	34342.22
618.187	34479.84
618.543	34588.99
618.899	34725.94
619.255	34725.03
619.611	35015.65
619.967	35245.92
620.323	35360.04
620.678	35172.03
621.034	35247.73
621.39	35458.12
621.746	35601.85
622.101	36020.14
622.457	35784.89
622.812	35791.9
623.168	36130.42
623.523	36075.96
623.879	36388.04
624.234	36072.79
624.589	36413.12
624.945	36564.98
625.3	36600.69
625.655	36735.15
626.01	36782.15
626.365	36969.04
626.72	36909.83
627.075	36952.55
627.43	37082.49
627.785	36946.22
628.14	37141.69
628.495	37241.13
628.85	37306.66
629.205	37162.03
629.559	37394.34
629.914	37318.41
630.269	37425.53
630.623	37443.38
630.978	37277.28
631.332	37567.9
631.687	37538.52
632.041	37498.97
632.396	37755.01
632.75	37451.06
633.104	37623.49
633.459	37435.24
633.813	37501.68
634.167	37555.24
634.521	37564.05
634.875	37661
635.229	37582.36
635.583	37485.86
635.937	37499.42
636.291	37607.22
636.645	37602.47
636.999	37488.8
637.352	37597.73
637.706	37453.1
638.06	37723.82
638.413	37581.68
638.767	37588.69
639.121	37542.59
639.474	37372.42
639.828	37491.29
640.181	37608.57
640.534	37530.61
640.888	37427.11
641.241	37402.7
641.594	37454.9
641.947	37475.7
642.301	37446.77
642.654	37485.86
643.007	37514.11
643.36	37451.74
643.713	37310.95
644.066	37515.47
644.419	37391.18
644.771	37136.5
645.124	36880.91
645.477	36795.71
645.83	36640.01
646.182	36488.83
646.535	36361.6
646.888	36490.86
647.24	36250.42
647.593	36380.81
647.945	36423.07
648.298	36235.05
648.65	36229.63
649.002	36185.11
649.355	36202.73
649.707	36237.99
650.059	36386.23
650.411	36763.17
650.763	36862.83
651.115	37318.41
651.467	36984.86
651.819	37105.54
652.171	37126.78
652.523	37020.11
652.875	37028.7
653.227	36808.82
653.578	37048.36
653.93	37045.2
654.282	36946.22
654.633	36727.69
654.985	37002.26
655.337	36855.37
655.688	36969.49
656.039	37095.14
656.391	36683.63
656.742	36797.52
657.094	36732.44
657.445	36960.68
657.796	36812.66
658.147	36825.32
658.498	36852.21
658.849	36863.96
659.2	36726.56
659.551	36751.19
659.902	36978.53
660.253	36778.31
660.604	36820.8
660.955	36718.88
661.306	36850.4
661.656	36750.52
662.007	36677.07
662.358	36783.51
662.708	36688.82
663.059	36684.3
663.409	36579
663.76	36798.88
664.11	36747.13
664.461	36801.14
664.811	36802.49
665.161	36757.97
665.511	36649.73
665.862	36793
666.212	36772.89
666.562	36769.95
666.912	36806.56
667.262	36708.03
667.612	36559.79
667.962	36663.29
668.312	36568.15
668.662	36742.38
669.011	36637.53
669.361	36613.12
669.711	36647.92
670.06	36494.03
670.41	36399.34
670.76	36450.64
671.109	36548.49
671.459	36741.93
671.808	36447.02
672.157	36622.16
672.507	36359.34
672.856	36413.12
673.205	36494.93
673.554	36568.6
673.904	36442.95
674.253	36558.66
674.602	36312.34
674.951	35992.12
675.3	35836.87
675.649	36388.27
675.998	36308.04
676.346	36286.12
676.695	36421.26
677.044	36172
677.393	36357.53
677.741	36319.79
678.09	36227.37
678.438	36075.73
678.787	36183.75
679.135	36239.12
679.484	35938.11
679.832	36080.93
680.181	35817.21
680.529	35973.36
680.877	35963.19
681.225	35854.5
681.573	36113.92
681.922	35879.35
682.27	35677.32
682.618	35784.21
682.966	35639.81
683.314	35854.04
683.661	35641.62
684.009	35409.76
684.357	35477.56
684.705	35449.08
685.053	35379.03
685.4	35232.82
685.748	35140.16
686.095	35198.02
686.443	35097.45
686.79	35012.94
687.138	35122.08
687.485	35151.46
687.832	35033.95
688.18	34984.01
688.527	34794.86
688.874	34798.93
689.221	34662.66
689.568	34561.2
689.915	34546.51
690.262	34378.6
690.609	34376.12
690.956	34394.65
691.303	34338.83
691.65	34082.79
691.997	34181.77
692.344	33899.29
692.69	33869.46
693.037	33947.43
693.383	33539.3
693.73	33973.64
694.077	33635.57
694.423	33476.03
694.769	33455.46
695.116	33446.2
695.462	33357.16
695.808	33237.84
696.155	33477.16
696.501	33003.5
696.847	33128.69
697.193	32915.36
697.539	33075.13
697.885	32765.99
698.231	32814.8
698.577	32667.69
698.923	32620.68
699.269	32490.52
699.614	32417.3
699.96	32316.28
700.306	32380.24
700.651	32195.61
700.997	32144.08
701.342	32103.86
701.688	31985.67
702.033	31949.06
702.379	31806.01
702.724	31858.67
703.069	31842.4
703.415	31409.64
703.76	31519.02
704.105	31565.12
704.45	31476.98
704.795	31244.45
705.14	31256.88
705.485	31100.04
705.83	31079.25
706.175	31167.84
706.52	30924.23
706.865	30783.67
707.209	30836.32
707.554	30634.07
707.899	30767.62
708.243	30606.05
708.588	30538.48
708.932	30361.08
709.277	30391.81
709.621	30456.44
709.966	30160.18
710.31	30354.07
710.654	30059.85
710.998	30136.23
711.342	30055.1
711.687	29876.12
712.031	29883.13
712.375	29731.94
712.719	29858.27
713.063	29800.42
713.407	29919.96
713.75	29656.24
714.094	29709.12
714.438	29518.84
714.782	29600.42
715.125	29280.2
715.469	29403.82
715.812	29329.69
716.156	29151.62
716.499	29163.82
716.843	29116.59
717.186	28945.07
717.53	29158.85
717.873	29004.73
718.216	29022.81
718.559	28944.39
718.902	28649.03
719.246	28832.98
719.589	28684.51
719.932	28587.79
720.275	28557.29
720.617	28538.08
720.96	28522.26
721.303	28533.11
721.646	28525.87
721.989	28231.87
722.331	28353
722.674	28376.73
723.016	28310.51
723.359	28230.29
723.701	28155.94
724.044	28066.68
724.386	27929.96
724.729	28032.78
725.071	28001.59
725.413	27987.81
725.755	27946.91
726.097	27851.77
726.439	27675.73
726.782	27669.4
727.124	27772.9
727.465	27664.2
727.807	27658.1
728.149	27599.34
728.491	27535.17
728.833	27561.61
729.175	27419.91
729.516	27383.53
729.858	27305.79
730.199	27249.98
730.541	27333.14
730.882	27237.09
731.224	27371.33
731.565	27109.64
731.906	27237.09
732.248	26995.74
732.589	26894.28
732.93	26875.75
733.271	26844.56
733.612	26976.76
733.953	26907.61
734.294	26792.59
734.635	26817.67
734.976	26890.89
735.317	26609.99
735.658	26649.77
735.999	26620.61
736.339	26701.97
736.68	26774.51
737.021	26564.12
737.361	26466.72
737.702	26676.43
738.042	26545.14
738.383	26407.96
738.723	26531.12
739.063	26255.88
739.404	26402.09
739.744	26235.31
740.084	26241.87
740.424	26196.67
740.764	26170
741.104	26256.33
741.444	26056.56
741.784	26026.05
742.124	26107.41
742.464	25872.84
742.804	25967.75
743.143	25834.19
743.483	25857.92
743.823	25827.87
744.162	25861.99
744.502	25837.58
744.841	25680.07
745.181	25701.54
745.52	25633.75
745.86	25578.16
746.199	25590.13
746.538	25543.81
746.877	25587.65
747.216	25543.58
747.556	25443.47
747.895	25430.59
748.234	25240.76
748.573	25240.99
748.911	25151.05
749.25	25228.56
749.589	25126.42
749.928	25177.94
750.267	25086.87
750.605	25001.67
750.944	25011.84
751.283	24922.58
751.621	24954.22
751.96	24799.87
752.298	24814.79
752.636	24798.51
752.975	24646.65
753.313	24640.1
753.651	24622.93
753.989	24504.29
754.327	24596.49
754.666	24440.11
755.004	24394.01
755.342	24432.65
755.679	24366.89
756.017	24204.18
756.355	24343.61
756.693	24179.32
757.031	24210.28
757.368	24033.11
757.706	24001.93
758.044	23954.69
758.381	24007.8
758.719	23872.21
759.056	23848.03
759.394	23742.27
