Data from hue_36_FLMS001491_00049.txt Node
Date: Tue Feb 07 17:29:52 GMT 2017
User: dcchb
Spectrometer: FLMS00149
Trigger mode: 0
Integration Time (sec): 2.000000E-2
Scans to average: 10
Electric dark correction enabled: true
Nonlinearity correction enabled: false
Boxcar width: 0
XAxis mode: Wavelengths
Number of Pixels in Spectrum: 2048
>>>>>Begin Spectral Data<<<<<
341.393	-2.81
341.776	-2.81
342.16	-2.81
342.543	-47.78
342.927	-71.96
343.31	-77.84
343.693	-72.19
344.077	-57.05
344.46	-46.65
344.843	-49.82
345.226	-19.53
345.61	-21.34
345.993	-23.15
346.376	-11.4
346.759	-7.56
347.142	40.58
347.525	48.04
347.908	63.4
348.291	60.01
348.674	83.97
349.057	90.52
349.44	124.19
349.823	149.95
350.206	160.35
350.588	222.95
350.971	220.69
351.354	236.73
351.737	261.36
352.119	248.03
352.502	278.31
352.884	272.89
353.267	307.01
353.65	307.24
354.032	315.83
354.414	323.51
354.797	316.28
355.179	331.87
355.562	312.66
355.944	320.57
356.326	347.46
356.709	328.48
357.091	348.14
357.473	348.82
357.855	334.36
358.238	342.04
358.62	355.37
359.002	340.01
359.384	340.91
359.766	354.69
360.148	339.33
360.53	345.88
360.912	343.85
361.294	341.36
361.676	356.28
362.057	338.88
362.439	339.78
362.821	327.8
363.203	337.97
363.584	329.61
363.966	347.91
364.348	318.76
364.729	344.07
365.111	342.04
365.493	342.04
365.874	335.26
366.256	318.54
366.637	334.58
367.019	323.73
367.4	315.6
367.781	336.39
368.163	317.41
368.544	320.12
368.925	335.26
369.306	332.55
369.688	298.88
370.069	329.38
370.45	330.29
370.831	330.06
371.212	306.33
371.593	328.93
371.974	333.23
372.355	325.54
372.736	324.19
373.117	309.05
373.498	323.96
373.879	335.94
374.26	322.83
374.641	329.38
375.021	319.21
375.402	340.46
375.783	317.86
376.163	325.32
376.544	337.52
376.925	337.52
377.305	314.7
377.686	311.08
378.066	340.23
378.447	337.97
378.827	300.91
379.208	327.58
379.588	329.38
379.968	344.75
380.349	316.28
380.729	349.04
381.109	351.76
381.489	335.94
381.87	351.76
382.25	332.1
382.63	340.46
383.01	350.17
383.39	339.78
383.77	339.78
384.15	342.72
384.53	361.7
384.91	359.44
385.29	353.56
385.67	354.47
386.049	362.15
386.429	345.65
386.809	347.24
387.189	354.02
387.568	361.47
387.948	365.54
388.328	380
388.707	372.32
389.087	363.96
389.466	357.18
389.846	383.85
390.225	364.64
390.605	379.78
390.984	361.93
391.363	365.32
391.743	369.61
392.122	384.3
392.501	367.58
392.881	374.35
393.26	375.71
393.639	372.32
394.018	388.14
394.397	367.35
394.776	405.54
395.155	401.25
395.534	380.46
395.913	381.81
396.292	382.04
396.671	399.21
397.05	380.91
397.429	381.13
397.808	407.35
398.186	401.02
398.565	385.65
398.944	399.44
399.323	405.54
399.701	386.56
400.08	401.47
400.458	413.68
400.837	397.63
401.215	381.13
401.594	409.83
401.972	405.99
402.351	410.51
402.729	410.96
403.107	431.3
403.486	425.65
403.864	398.53
404.242	424.52
404.62	420.91
404.999	411.42
405.377	414.35
405.755	448.25
406.133	420.23
406.511	430.85
406.889	416.16
407.267	434.92
407.645	427.46
408.023	416.61
408.401	429.49
408.779	459.1
409.156	459.78
409.534	448.25
409.912	448.93
410.29	468.82
410.667	471.75
411.045	457.97
411.422	471.3
411.8	466.1
412.178	466.1
412.555	481.7
412.933	466.1
413.31	459.32
413.687	503.16
414.065	477.4
414.442	493.22
414.819	486.44
415.197	468.14
415.574	470.17
415.951	495.93
416.328	505.65
416.705	502.03
417.082	506.55
417.46	495.93
417.837	517.63
418.214	509.94
418.591	517.85
418.967	514.24
419.344	540.9
419.721	506.33
420.098	538.87
420.475	521.47
420.852	505.2
421.228	519.66
421.605	536.38
421.982	521.24
422.358	531.41
422.735	519.66
423.111	529.15
423.488	562.37
423.864	540.9
424.241	565.31
424.617	574.8
424.994	544.29
425.37	551.98
425.746	542.49
426.123	560.11
426.499	570.51
426.875	586.33
427.251	584.97
427.627	589.49
428.003	591.3
428.379	546.1
428.756	566.21
429.132	588.59
429.507	588.13
429.883	610.96
430.259	604.41
430.635	624.07
431.011	613.22
431.387	627.91
431.763	628.81
432.138	643.95
432.514	651.18
432.89	620.22
433.265	668.13
433.641	672.2
434.016	645.99
434.392	670.17
434.767	685.08
435.143	664.74
435.518	706.32
435.894	662.93
436.269	681.47
436.644	668.36
437.02	680.34
437.395	713.55
437.77	690.96
438.145	723.95
438.52	715.81
438.895	716.49
439.271	720.33
439.646	722.14
440.021	745.42
440.395	742.48
440.77	744.97
441.145	737.51
441.52	775.7
441.895	744.97
442.27	778.19
442.645	762.14
443.019	761.24
443.394	792.87
443.769	777.28
444.143	763.72
444.518	772.76
444.892	798.52
445.267	779.77
445.641	783.61
446.016	793.55
446.39	805.98
446.764	795.81
447.139	839.43
447.513	824.29
447.887	838.3
448.262	803.5
448.636	824.74
449.01	844.85
449.384	824.06
449.758	863.83
450.132	864.51
450.506	878.07
450.88	855.47
451.254	845.53
451.628	864.74
452.002	877.84
452.376	881.91
452.75	892.31
453.123	881.69
453.497	920.78
453.871	897.96
454.244	918.3
454.618	914.68
454.992	929.14
455.365	944.74
455.739	949.25
456.112	950.38
456.486	965.07
456.859	1009.14
457.232	978.18
457.606	981.8
457.979	1002.59
458.352	1020.21
458.725	1015.24
459.099	1045.52
459.472	1045.75
459.845	1045.52
460.218	1074.45
460.591	1101.57
460.964	1081.91
461.337	1094.79
461.71	1127.1
462.083	1131.85
462.456	1124.39
462.829	1142.7
463.201	1178.63
463.574	1158.97
463.947	1186.54
464.32	1226.08
464.692	1197.16
465.065	1243.48
465.438	1251.17
465.81	1232.41
466.183	1263.37
466.555	1298.4
466.928	1314.22
467.3	1312.86
467.672	1353.31
468.045	1334.1
468.417	1349.92
468.789	1365.51
469.161	1410.26
469.534	1429.02
469.906	1447.32
470.278	1464.5
470.65	1461.78
471.022	1513.31
471.394	1580.2
471.766	1577.03
472.138	1556.02
472.51	1610.71
472.882	1648.9
473.253	1700.2
473.625	1701.78
473.997	1756.24
474.369	1767.54
474.74	1785.39
475.112	1822.68
475.484	1855.9
475.855	1889.34
476.227	1938.38
476.598	1984.48
476.97	2012.05
477.341	2077.36
477.713	2098.38
478.084	2129.11
478.455	2210.92
478.827	2300.63
479.198	2311.7
479.569	2356.9
479.94	2463.11
480.311	2478.25
480.682	2551.02
481.053	2605.93
481.424	2716.21
481.795	2702.43
482.166	2823.56
482.537	2857.68
482.908	2979.71
483.279	2999.6
483.65	3079.37
484.021	3176.31
484.391	3232.36
484.762	3331.56
485.133	3422.41
485.503	3503.31
485.874	3593.93
486.244	3626.92
486.615	3750.09
486.985	3803.42
487.356	3966.35
487.726	3998.44
488.097	4147.36
488.467	4186.23
488.837	4321.37
489.207	4370.86
489.578	4554.58
489.948	4585.54
490.318	4703.28
490.688	4748.7
491.058	4813.56
491.428	4954.12
491.798	5035.93
492.168	5277.95
492.538	5305.52
492.908	5305.07
493.278	5486.99
493.648	5517.72
494.017	5699.41
494.387	5746.42
494.757	5904.38
495.126	5981.44
495.496	6031.38
495.866	6095.33
496.235	6183.24
496.605	6319.51
496.974	6357.93
497.344	6495.32
497.713	6565.6
498.082	6656.22
498.452	6764.24
498.821	6760.63
499.19	6845.6
499.559	6982.77
499.928	7102.77
500.298	7134.4
500.667	7251.46
501.036	7284
501.405	7347.73
501.774	7453.94
502.143	7507.27
502.512	7574.84
502.88	7677.67
503.249	7758.34
503.618	7813.71
503.987	7858.45
504.356	7968.73
504.724	8061.84
505.093	8142.96
505.462	8127.37
505.83	8162.62
506.199	8312.9
506.567	8470.64
506.936	8483.07
507.304	8600.8
507.672	8608.26
508.041	8707.02
508.409	8770.74
508.777	8839.22
509.145	8934.81
509.514	8956.95
509.882	9050.51
510.25	9029.72
510.618	9236.49
510.986	9227.68
511.354	9305.19
511.722	9342.25
512.09	9436.49
512.458	9431.29
512.826	9539.99
513.193	9617.05
513.561	9676.93
513.929	9739.76
514.297	9834.22
514.664	9924.39
515.032	9969.81
515.4	9993.31
515.767	10085.74
516.135	10183.36
516.502	10086.87
516.869	10270.82
517.237	10327.31
517.604	10279.86
517.972	10391.27
518.339	10418.61
518.706	10483.47
519.073	10527.99
519.44	10605.05
519.808	10700.18
520.175	10713.74
520.542	10866.06
520.909	10931.82
521.276	10901.08
521.643	11000.06
522.009	11107.86
522.376	11140.63
522.743	11184.92
523.11	11350.56
523.477	11375.42
523.843	11397.12
524.21	11614.29
524.577	11686.83
524.943	11768.86
525.31	11813.15
525.676	11858.57
526.043	11920.72
526.409	11995.07
526.776	12074.39
527.142	12162.52
527.508	12284.55
527.874	12329.75
528.241	12386.02
528.607	12403.87
528.973	12534.94
529.339	12492.91
529.705	12614.48
530.071	12741.49
530.437	12792.79
530.803	12828.04
531.169	12891.31
531.535	12979.22
531.901	12994.59
532.267	13044.3
532.632	13167.01
532.998	13237.29
533.364	13260.12
533.73	13237.97
534.095	13385.31
534.461	13471.86
534.826	13518.87
535.192	13550.28
535.557	13573.56
535.923	13663.27
536.288	13695.59
536.653	13849.48
537.019	13704.85
537.384	13791.4
537.749	13846.77
538.114	13968.35
538.479	13961.34
538.845	14086.99
539.21	14008.35
539.575	14115.46
539.94	14163.82
540.305	14324.72
540.67	14326.53
541.034	14343.93
541.399	14452.18
541.764	14489.92
542.129	14508.22
542.494	14558.39
542.858	14629.8
543.223	14654.88
543.587	14772.39
543.952	14777.59
544.316	14877.48
544.681	14864.37
545.045	14976.23
545.41	15061.65
545.774	15079.28
546.138	15137.13
546.503	15248.77
546.867	15228.65
547.231	15365.6
547.595	15419.61
547.959	15319.72
548.324	15503.22
548.688	15558.81
549.052	15503
549.416	15685.36
549.779	15683.33
550.143	15633.61
550.507	15825.93
550.871	15766.04
551.235	15818.02
551.599	15987.96
551.962	15975.53
552.326	15972.59
552.689	16129.42
553.053	16076.09
553.417	16168.29
553.78	16426.36
554.143	16281.96
554.507	16414.38
554.87	16441.73
555.234	16649.18
555.597	16410.32
555.96	16589.52
556.323	16648.73
556.686	16571.67
557.05	16710.2
557.413	16814.37
557.776	16849.4
558.139	17023.63
558.502	16979.79
558.865	17011.43
559.228	17204.42
559.59	17216.85
559.953	17291.88
560.316	17393.79
560.679	17374.81
561.041	17432.89
561.404	17557.86
561.767	17674.46
562.129	17581.13
562.492	17800.34
562.854	17751.75
563.217	17778.64
563.579	17813.22
563.941	17881.92
564.304	18000.78
564.666	18073.55
565.028	18095.24
565.39	18240.1
565.753	18308.35
566.115	18405.97
566.477	18407.55
566.839	18422.69
567.201	18676.92
567.563	18642.35
567.925	18819.97
568.287	18822.46
568.648	18929.35
569.01	18922.79
569.372	19077.82
569.734	19014.54
570.095	19231.03
570.457	19327.98
570.819	19231.03
571.18	19357.58
571.542	19440.97
571.903	19450.69
572.265	19647.97
572.626	19701.08
572.987	19765.26
573.349	19784.92
573.71	19884.8
574.071	19889.77
574.432	20118.02
574.794	20247.05
575.155	20310.55
575.516	20253.15
575.877	20478.46
576.238	20614.05
576.599	20714.84
576.96	20800.03
577.32	20894.72
577.681	21010.2
578.042	21132.9
578.403	21203.64
578.763	21339
579.124	21578.54
579.485	21727.69
579.845	21893.11
580.206	21889.72
580.566	22036.16
580.927	22121.35
581.287	22394.34
581.648	22421.23
582.008	22783.26
582.368	22788.45
582.728	22948.68
583.089	23156.81
583.449	23244.49
583.809	23524.71
584.169	23712.95
584.529	23805.6
584.889	24201.07
585.249	24231.13
585.609	24521.97
585.969	24744.79
586.329	24844.22
586.688	25139.35
587.048	25291.44
587.408	25458.44
587.768	25657.98
588.127	25971.42
588.487	26030.18
588.846	26351.3
589.206	26376.83
589.565	26721.01
589.925	27046.65
590.284	27212.74
590.643	27479.4
591.003	27745.39
591.362	28010.92
591.721	28107.86
592.08	28371.36
592.44	28630.79
592.799	28925.92
593.158	28967.95
593.517	29222.64
593.876	29483.42
594.235	29545.11
594.593	29937.65
594.952	30175.15
595.311	30387.35
595.67	30510.06
596.029	30977.39
596.387	31090.16
596.746	31284.05
597.104	31459.41
597.463	31579.41
597.822	31988.44
598.18	32096.91
598.538	32222.33
598.897	32653.05
599.255	32541.87
599.613	33191.57
599.972	33218.01
600.33	33579.81
600.688	33550.21
601.046	33801.05
601.404	34106.8
601.762	34206.23
602.12	34535.49
602.478	34672.44
602.836	34926.21
603.194	34754.92
603.552	35021.58
603.91	35020
604.268	35342.25
604.625	35532.75
604.983	35784.95
605.341	35765.06
605.698	36104.49
606.056	36271.72
606.413	36366.63
606.771	36598.03
607.128	36802.32
607.485	36704.7
607.843	36968.42
608.2	37198.25
608.557	37452.7
608.914	37382.42
609.272	37676.65
609.629	37820.6
609.986	38107.83
610.343	38037.55
610.7	38339.23
611.057	38491.32
611.414	38585.78
611.771	38565.89
612.127	38875.04
612.484	38967.01
612.841	39214.01
613.198	39208.59
613.554	39174.01
613.911	39488.13
614.267	39621.01
614.624	39690.61
614.98	39873.2
615.337	40067.1
615.693	40086.76
616.05	40006.53
616.406	40427.31
616.762	40294.89
617.118	40460.98
617.475	40590.47
617.831	40816.46
618.187	40756.57
618.543	40889
618.899	41076.11
619.255	41159.5
619.611	41001.99
619.967	41332.15
620.323	41377.57
620.678	41272.94
621.034	41413.95
621.39	41374.63
621.746	41309.32
622.101	41904.11
622.457	41686.49
622.812	41770.55
623.168	41942.75
623.523	41961.06
623.879	42199.02
624.234	41788.63
624.589	42102.07
624.945	42133.71
625.3	42137.55
625.655	42292.57
626.01	42319.24
626.365	42427.94
626.72	42404.44
627.075	42336.64
627.43	42289.86
627.785	42339.35
628.14	42573.47
628.495	42654.82
628.85	42417.77
629.205	42440.14
629.559	42649.4
629.914	42500.25
630.269	42586.8
630.623	42622.28
630.978	42436.98
631.332	42638.1
631.687	42762.17
632.041	42649.18
632.396	42753.58
632.75	42541.38
633.104	42644.2
633.459	42528.73
633.813	42531.89
634.167	42471.33
634.521	42527.82
634.875	42672
635.229	42653.92
635.583	42359.01
635.937	42480.59
636.291	42420.25
636.645	42596.97
636.999	42342.74
637.352	42481.04
637.706	42280.15
638.06	42481.72
638.413	42367.6
638.767	42312.46
639.121	42445.56
639.474	42205.57
639.828	42215.51
640.181	42336.64
640.534	42197.44
640.888	42190.88
641.241	42063.65
641.594	42179.58
641.947	42448.28
642.301	42115.4
642.654	42210.77
643.007	42187.72
643.36	42210.99
643.713	42135.52
644.066	42286.25
644.419	42130.09
644.771	41887.61
645.124	41437.23
645.477	41474.97
645.83	41238.82
646.182	41051.48
646.535	40765.16
646.888	40915.89
647.24	40823.46
647.593	41035.43
647.945	40978.71
648.298	40853.06
648.65	40769.22
649.002	40672.28
649.355	40729.45
649.707	40687.87
650.059	40768.77
650.411	41169.44
650.763	41340.96
651.115	41587.73
651.467	41581.86
651.819	41470.45
652.171	41393.61
652.523	41410.11
652.875	41331.47
653.227	41246.05
653.578	41379.83
653.93	41533.05
654.282	41212.15
654.633	41236.11
654.985	41322.43
655.337	41380.06
655.688	41203.34
656.039	41461.64
656.391	41209.21
656.742	41245.82
657.094	41291.24
657.445	41468.64
657.796	41263.22
658.147	41256.9
658.498	41167.63
658.849	41338.02
659.2	41270
659.551	41218.03
659.902	41396.55
660.253	41251.7
660.604	41331.02
660.955	41071.14
661.306	41381.41
661.656	41132.38
662.007	41226.39
662.358	41224.13
662.708	41070.91
663.059	41143.45
663.409	40912.95
663.76	41204.24
664.11	41151.81
664.461	41239.49
664.811	41191.59
665.161	41078.14
665.511	41109.55
665.862	41109.33
666.212	41142.77
666.562	41154.3
666.912	41034.75
667.262	41011.93
667.612	41030.01
667.962	41147.97
668.312	41046.51
668.662	41169.89
669.011	41011.7
669.361	40929.22
669.711	41088.31
670.06	40835.89
670.41	40754.54
670.76	40674.76
671.109	40919.28
671.459	40754.08
671.808	40703.69
672.157	40735.33
672.507	40628.89
672.856	40703.46
673.205	40693.75
673.554	40903.23
673.904	40787.53
674.253	40833.18
674.602	40788.89
674.951	40256.7
675.3	40008.79
675.649	40696.46
675.998	40688.32
676.346	40706.4
676.695	40796.34
677.044	40534.2
677.393	40497.14
677.741	40611.26
678.09	40525.16
678.438	40428.67
678.787	40465.05
679.135	40561.09
679.484	40204.95
679.832	40330.14
680.181	40237.94
680.529	40331.72
680.877	39932.86
681.225	40119.98
681.573	40370.37
681.922	39979.64
682.27	39818.06
682.618	40044.27
682.966	39927.89
683.314	39872.98
683.661	39897.61
684.009	39578.3
684.357	39642.25
684.705	39597.96
685.053	39694.22
685.4	39529.48
685.748	39349.37
686.095	39349.6
686.443	39227.57
686.79	39139.89
687.138	39323.16
687.485	39225.76
687.832	39142.37
688.18	39151.64
688.527	38929.5
688.874	38838.65
689.221	38790.52
689.568	38883.17
689.915	38726.57
690.262	38617.42
690.609	38587.14
690.956	38465.56
691.303	38314.15
691.65	38153.25
691.997	38188.5
692.344	37993.93
692.69	37916.87
693.037	37946.7
693.383	37669.87
693.73	37864.44
694.077	37616.99
694.423	37563.43
694.769	37458.58
695.116	37392.36
695.462	37391.69
695.808	37210.45
696.155	37241.18
696.501	37042.99
696.847	36954.86
697.193	36790.57
697.539	36966.61
697.885	36637.58
698.231	36633.51
698.577	36537.02
698.923	36587.41
699.269	36264.71
699.614	36111.95
699.96	36114.88
700.306	36132.74
700.651	36101.1
700.997	35804.61
701.342	35900.43
701.688	35800.77
702.033	35820.65
702.379	35573.66
702.724	35540.21
703.069	35700.21
703.415	35293.89
703.76	35259.31
704.105	35251.63
704.45	35238.07
704.795	34995.14
705.14	34900.23
705.485	34960.79
705.83	34652.78
706.175	34763.96
706.52	34550.86
706.865	34607.35
707.209	34494.14
707.554	34428.6
707.899	34487.58
708.243	34105.67
708.588	34180.92
708.932	33975.96
709.277	34146.57
709.621	34006.92
709.966	33743.65
710.31	33768.28
710.654	33573.48
710.998	33655.51
711.342	33619.13
711.687	33461.39
712.031	33413.94
712.375	33156.32
712.719	33428.85
713.063	33272.02
713.407	33420.72
713.75	33103.89
714.094	33171.46
714.438	32971.01
714.782	33064.79
715.125	32884.23
715.469	32889.43
715.812	32623.9
716.156	32581.64
716.499	32693.28
716.843	32645.6
717.186	32465.04
717.53	32658.03
717.873	32503
718.216	32386.39
718.559	32214.2
718.902	32083.58
719.246	32175.33
719.589	32053.97
719.932	32020.3
720.275	31957.48
720.617	31977.37
720.96	31896.92
721.303	31809.23
721.646	31740.76
721.989	31620.76
722.331	31794.09
722.674	31706.41
723.016	31570.82
723.359	31599.3
723.701	31535.12
724.044	31355.46
724.386	31221.23
724.729	31550.26
725.071	31302.58
725.413	31364.73
725.755	31175.58
726.097	31150.27
726.439	30938.3
726.782	31139.42
727.124	31144.62
727.465	30936.49
727.807	30861.91
728.149	30844.51
728.491	30667.57
728.833	30937.84
729.175	30728.36
729.516	30629.6
729.858	30649.72
730.199	30632.77
730.541	30514.13
730.882	30558.65
731.224	30552.32
731.565	30314.81
731.906	30489.72
732.248	30328.82
732.589	30254.02
732.93	30195.49
733.271	30211.54
733.612	30174.02
733.953	30228.94
734.294	30071.88
734.635	29895.84
734.976	30066
735.317	29849.06
735.658	29825.11
735.999	29710.31
736.339	29779.46
736.68	29903.3
737.021	29663.3
737.361	29653.58
737.702	29763.41
738.042	29669.4
738.383	29569.07
738.723	29736.97
739.063	29454.04
739.404	29505.34
739.744	29329.98
740.084	29406.36
740.424	29288.62
740.764	29252.69
741.104	29321.16
741.444	29168.85
741.784	29147.16
742.124	29166.37
742.464	29136.08
742.804	29148.97
743.143	29099.93
743.483	29064.45
743.823	28967.28
744.162	28786.04
744.502	28991.23
744.841	28734.29
745.181	28963.89
745.52	28781.74
745.86	28843.89
746.199	28834.62
746.538	28685.93
746.877	28791.91
747.216	28673.27
747.556	28645.25
747.895	28541.75
748.234	28518.02
748.573	28441.41
748.911	28379.27
749.25	28384.47
749.589	28240.29
749.928	28323.9
750.267	28346.27
750.605	28202.1
750.944	28247.07
751.283	28080.07
751.621	28062.21
751.96	27763.24
752.298	27981.76
752.636	28019.73
752.975	27752.62
753.313	27693.86
753.651	27774.54
753.989	27592.85
754.327	27592.85
754.666	27483.47
755.004	27656.58
755.342	27660.87
755.679	27449.35
756.017	27429.69
756.355	27443.93
756.693	27260.88
757.031	27289.13
757.368	27226.08
