Data from hue_260_FLMS001491_00013.txt Node
Date: Tue Feb 07 15:58:38 GMT 2017
User: dcchb
Spectrometer: FLMS00149
Trigger mode: 0
Integration Time (sec): 2.000000E-2
Scans to average: 10
Electric dark correction enabled: true
Nonlinearity correction enabled: false
Boxcar width: 0
XAxis mode: Wavelengths
Number of Pixels in Spectrum: 2048
>>>>>Begin Spectral Data<<<<<
341.393	-18.26
341.776	-18.26
342.16	-18.26
342.543	-60.75
342.927	-49.22
343.31	-62.1
343.693	-66.17
344.077	-59.84
344.46	-51.71
344.843	-71.59
345.226	-33.18
345.61	-19.17
345.993	-38.83
346.376	-3.12
346.759	8.4
347.142	31
347.525	46.14
347.908	51.57
348.291	62.41
348.674	94.05
349.057	112.13
349.44	107.16
349.823	124.56
350.206	135.18
350.588	164.56
350.971	214.73
351.354	210.21
351.737	220.15
352.119	244.1
352.502	236.65
352.884	274.84
353.267	263.99
353.65	289.75
354.032	277.55
354.414	299.02
354.797	301.28
355.179	317.32
355.562	318.45
355.944	326.36
356.326	309.86
356.709	310.32
357.091	339.02
357.473	328.17
357.855	322.75
358.238	322.07
358.62	338.56
359.002	324.1
359.384	336.08
359.766	332.69
360.148	333.59
360.53	343.99
360.912	343.31
361.294	317.77
361.676	324.1
362.057	326.14
362.439	304.22
362.821	318.45
363.203	298.57
363.584	314.16
363.966	297.89
364.348	305.35
364.729	321.62
365.111	302.86
365.493	294.72
365.874	296.31
366.256	306.7
366.637	310.77
367.019	297.44
367.4	326.81
367.781	284.78
368.163	296.08
368.544	301.05
368.925	299.47
369.306	316.64
369.688	278.45
370.069	297.44
370.45	300.15
370.831	309.64
371.212	310.32
371.593	317.77
371.974	312.35
372.355	303.09
372.736	296.53
373.117	308.51
373.498	311.45
373.879	306.25
374.26	308.73
374.641	303.54
375.021	293.14
375.402	324.33
375.783	327.04
376.163	324.78
376.544	315.51
376.925	327.27
377.305	316.64
377.686	334.27
378.066	326.81
378.447	318.45
378.827	315.29
379.208	306.93
379.588	350.99
379.968	329.07
380.349	338.56
380.729	341.28
381.109	325.01
381.489	318.9
381.87	342.41
382.25	338.79
382.63	335.63
383.01	329.75
383.39	331.33
383.77	333.37
384.15	328.62
384.53	318.23
384.91	343.76
385.29	355.06
385.67	368.85
386.049	372.69
386.429	333.14
386.809	346.7
387.189	355.74
387.568	351.67
387.948	355.74
388.328	355.51
388.707	372.01
389.087	363.2
389.466	354.84
389.846	363.2
390.225	358.68
390.605	352.35
390.984	370.2
391.363	390.99
391.743	359.58
392.122	344.44
392.501	358.68
392.881	366.13
393.26	379.69
393.639	366.81
394.018	386.02
394.397	382.86
394.776	373.14
395.155	405.91
395.534	402.97
395.913	378.79
396.292	416.75
396.671	381.28
397.05	400.48
397.429	379.47
397.808	382.63
398.186	399.81
398.565	407.26
398.944	385.34
399.323	394.38
399.701	398.45
400.08	397.77
400.458	418.11
400.837	394.38
401.215	424.66
401.594	416.3
401.972	422.18
402.351	409.52
402.729	436.64
403.107	451.56
403.486	443.42
403.864	425.12
404.242	431.44
404.62	427.6
404.999	432.12
405.377	432.12
405.755	446.81
406.133	449.75
406.511	467.15
406.889	468.5
407.267	455.62
407.645	479.13
408.023	463.98
408.401	455.4
408.779	473.02
409.156	501.72
409.534	499.24
409.912	508.96
410.29	493.81
410.667	501.5
411.045	491.33
411.422	545.11
411.8	530.2
412.178	563.87
412.555	525
412.933	545.56
413.31	547.15
413.687	572.91
414.065	564.77
414.442	613.36
414.819	581.5
415.197	590.76
415.574	583.53
415.951	599.12
416.328	612
416.705	587.82
417.082	615.39
417.46	637.54
417.837	671.21
418.214	645.68
418.591	655.62
418.967	682.51
419.344	642.74
419.721	692.23
420.098	652.45
420.475	690.87
420.852	694.49
421.228	678.44
421.605	696.97
421.982	718.22
422.358	749.63
422.735	751.44
423.111	746.69
423.488	756.86
423.864	778.33
424.241	790.08
424.617	803.64
424.994	823.75
425.37	821.72
425.746	825.56
426.123	854.03
426.499	835.73
426.875	832.56
427.251	885.89
427.627	884.76
428.003	891.77
428.379	900.13
428.756	925.89
429.132	922.96
429.507	955.27
429.883	936.29
430.259	952.56
430.635	970.19
431.011	971.99
431.387	979
431.763	1015.61
432.138	1021.71
432.514	1019.22
432.89	1033.46
433.265	1054.25
433.641	1093.8
434.016	1062.39
434.392	1108.26
434.767	1120.92
435.143	1118.43
435.518	1140.58
435.894	1169.05
436.269	1171.09
436.644	1195.27
437.02	1193.23
437.395	1230.29
437.77	1243.85
438.145	1255.6
438.52	1291.08
438.895	1291.31
439.271	1317.52
439.646	1337.18
440.021	1347.13
440.395	1354.13
440.77	1362.72
441.145	1377.41
441.52	1443.62
441.895	1433.23
442.27	1436.84
442.645	1418.54
443.019	1446.78
443.394	1454.92
443.769	1457.41
444.143	1474.13
444.518	1526.1
444.892	1503.28
445.267	1517.97
445.641	1541.24
446.016	1543.73
446.39	1562.04
446.764	1577.18
447.139	1559.78
447.513	1563.39
447.887	1600
448.262	1608.36
448.636	1609.49
449.01	1620.11
449.384	1633.9
449.758	1661.92
450.132	1680
450.506	1684.29
450.88	1711.41
451.254	1701.69
451.628	1720.68
452.002	1753.22
452.376	1749.37
452.75	1788.24
453.123	1775.14
453.497	1799.32
453.871	1800.45
454.244	1840.22
454.618	1835.25
454.992	1884.96
455.365	1903.5
455.739	1923.16
456.112	1910.73
456.486	1922.03
456.859	1950.73
457.232	2004.28
457.606	1996.6
457.979	1989.59
458.352	2047.67
458.725	2063.49
459.099	2063.94
459.472	2097.16
459.845	2137.61
460.218	2163.38
460.591	2219.42
460.964	2182.36
461.337	2246.99
461.71	2266.88
462.083	2291.96
462.456	2298.29
462.829	2308.91
463.201	2332.18
463.574	2330.83
463.947	2369.02
464.32	2409.47
464.692	2429.36
465.065	2480.88
465.438	2485.4
465.81	2505.29
466.183	2514.78
466.555	2572.18
466.928	2598.39
467.3	2579.18
467.672	2657.37
468.045	2728.56
468.417	2692.4
468.789	2722.46
469.161	2736.24
469.534	2791.83
469.906	2830.25
470.278	2851.27
470.65	2886.07
471.022	2902.56
471.394	3010.13
471.766	3035.89
472.138	3049.91
472.51	3064.37
472.882	3105.5
473.253	3143.69
473.625	3165.61
473.997	3228.43
474.369	3286.28
474.74	3246.96
475.112	3371.25
475.484	3404.92
475.855	3433.4
476.227	3448.54
476.598	3550.91
476.97	3543.9
477.341	3654.18
477.713	3684.01
478.084	3677.01
478.455	3796.33
478.827	3793.16
479.198	3886.95
479.569	3900.28
479.94	3999.26
480.311	4020.28
480.682	4093.49
481.053	4168.97
481.424	4240.61
481.795	4290.55
482.166	4333.49
482.537	4357.67
482.908	4402.19
483.279	4493.48
483.65	4525.35
484.021	4647.38
484.391	4664.33
484.762	4690.99
485.133	4767.6
485.503	4752.01
485.874	4914.49
486.244	4963.3
486.615	5007.14
486.985	5017.54
487.356	5135.95
487.726	5153.35
488.097	5195.39
488.467	5203.52
488.837	5323.52
489.207	5384.08
489.578	5461.37
489.948	5451.65
490.318	5509.5
490.688	5567.35
491.058	5649.61
491.428	5683.06
491.798	5764.41
492.168	5816.61
492.538	5892.32
492.908	5996.04
493.278	5897.74
493.648	5967.8
494.017	6033.1
494.387	6107
494.757	6137.51
495.126	6168.92
495.496	6154.91
495.866	6161.91
496.235	6239.2
496.605	6288.46
496.974	6351.29
497.344	6397.39
497.713	6428.57
498.082	6459.31
498.452	6487.78
498.821	6523.49
499.19	6587.89
499.559	6565.29
499.928	6575.24
500.298	6654.56
500.667	6649.81
501.036	6643.26
501.405	6705.63
501.774	6718.51
502.143	6831.5
502.512	6770.49
502.88	6868.79
503.249	6887.32
503.618	6866.3
503.987	6913.76
504.356	6904.04
504.724	6947.88
505.093	7014.1
505.462	6976.13
505.83	7003.7
506.199	7032.17
506.567	7188.1
506.936	7124.83
507.304	7138.16
507.672	7151.27
508.041	7155.79
508.409	7197.37
508.777	7236.01
509.145	7295.44
509.514	7181.32
509.882	7316.46
510.25	7299.51
510.618	7336.12
510.986	7302.22
511.354	7455.44
511.722	7468.32
512.09	7464.93
512.458	7463.35
512.826	7542.67
513.193	7480.07
513.561	7505.61
513.929	7606.85
514.297	7558.71
514.664	7631.03
515.032	7598.03
515.4	7615.44
515.767	7657.92
516.135	7696.34
516.502	7610.69
516.869	7751.03
517.237	7729.1
517.604	7727.07
517.972	7761.19
518.339	7801.87
518.706	7784.02
519.073	7727.97
519.44	7851.14
519.808	7829.22
520.175	7804.58
520.542	7890.68
520.909	7915.09
521.276	7913.73
521.643	7944.92
522.009	7934.75
522.376	7932.04
522.743	7986.5
523.11	8000.96
523.477	8058.81
523.843	8080.06
524.21	8077.8
524.577	8082.77
524.943	8162.54
525.31	8123.44
525.676	8219.26
526.043	8219.26
526.409	8270.11
526.776	8272.37
527.142	8218.81
527.508	8260.16
527.874	8296.32
528.241	8357.56
528.607	8337.22
528.973	8384.91
529.339	8354.85
529.705	8445.92
530.071	8426.26
530.437	8465.58
530.803	8488.41
531.169	8435.3
531.535	8448.41
531.901	8440.95
532.267	8444.11
532.632	8449.99
532.998	8414.06
533.364	8517.78
533.73	8468.97
534.095	8560.95
534.461	8518.46
534.826	8516.65
535.192	8498.35
535.557	8526.82
535.923	8504.68
536.288	8545.81
536.653	8483.21
537.019	8435.98
537.384	8529.08
537.749	8522.08
538.114	8513.04
538.479	8492.47
538.845	8504.68
539.21	8540.83
539.575	8538.57
539.94	8498.35
540.305	8534.28
540.67	8465.58
541.034	8540.16
541.399	8548.07
541.764	8482.98
542.129	8491.12
542.494	8460.16
542.858	8515.3
543.223	8504.9
543.587	8482.31
543.952	8489.08
544.316	8418.8
544.681	8429.88
545.045	8450.44
545.41	8492.47
545.774	8466.26
546.138	8485.92
546.503	8496.09
546.867	8475.98
547.231	8496.32
547.595	8538.12
547.959	8474.85
548.324	8436.66
548.688	8454.28
549.052	8436.2
549.416	8420.39
549.779	8443.44
550.143	8398.69
550.507	8449.76
550.871	8426.71
551.235	8399.6
551.599	8405.7
551.962	8423.32
552.326	8402.31
552.689	8439.59
553.053	8415.87
553.417	8349.65
553.78	8441.63
554.143	8373.38
554.507	8471.68
554.87	8366.6
555.234	8523.21
555.597	8424.23
555.96	8441.63
556.323	8479.37
556.686	8431.69
557.05	8439.37
557.413	8493.38
557.776	8471.23
558.139	8472.59
558.502	8515.98
558.865	8496.09
559.228	8495.19
559.59	8501.74
559.953	8576.31
560.316	8576.99
560.679	8576.54
561.041	8628.29
561.404	8624.22
561.767	8628.74
562.129	8549.87
562.492	8713.03
562.854	8630.32
563.217	8606.14
563.579	8668.74
563.941	8661.06
564.304	8724.33
564.666	8756.2
565.028	8714.39
565.39	8770.89
565.753	8767.5
566.115	8757.1
566.477	8763.65
566.839	8870.77
567.201	8872.58
567.563	8851.11
567.925	8922.52
568.287	8910.09
568.648	8893.14
569.01	8982.41
569.372	8978.56
569.734	8980.82
570.095	9088.84
570.457	9122.29
570.819	9091.1
571.18	9132.23
571.542	9179.01
571.903	9157.32
572.265	9114.6
572.626	9225.34
572.987	9181.72
573.349	9215.62
573.71	9233.7
574.071	9240.25
574.432	9337.2
574.794	9340.59
575.155	9312.11
575.516	9342.85
575.877	9307.59
576.238	9328.61
576.599	9402.28
576.96	9375.84
577.32	9436.86
577.681	9405.9
578.042	9487.93
578.403	9452.9
578.763	9552.33
579.124	9573.12
579.485	9496.06
579.845	9615.83
580.206	9572.67
580.566	9621.71
580.927	9644.53
581.287	9664.2
581.648	9629.85
582.008	9740.58
582.368	9631.43
582.728	9699.45
583.089	9742.16
583.449	9734.25
583.809	9789.16
584.169	9830.07
584.529	9834.59
584.889	9875.94
585.249	9772.21
585.609	9722.27
585.969	9847.47
586.329	9797.07
586.688	9856.96
587.048	9881.14
587.408	9844.53
587.768	9877.07
588.127	9932.44
588.487	9884.53
588.846	9953.9
589.206	9949.84
589.565	9919.33
589.925	9938.54
590.284	9985.99
590.643	9987.12
591.003	10026.67
591.362	10091.3
591.721	10042.94
592.08	10012.21
592.44	10061.25
592.799	10043.17
593.158	10056.73
593.517	10134.24
593.876	10096.05
594.235	10095.6
594.593	10081.59
594.952	10128.82
595.311	10082.49
595.67	10177.63
596.029	10235.93
596.387	10157.29
596.746	10254.69
597.104	10184.86
597.463	10186.44
597.822	10231.19
598.18	10144.41
598.538	10202.26
598.897	10212.2
599.255	10148.48
599.613	10268.92
599.972	10269.15
600.33	10266.67
600.688	10241.36
601.046	10232.32
601.404	10214.69
601.762	10326.1
602.12	10276.38
602.478	10304.18
602.836	10273.44
603.194	10323.39
603.552	10328.58
603.91	10247.91
604.268	10265.76
604.625	10356.15
604.983	10340.11
605.341	10260.79
605.698	10307.12
606.056	10323.61
606.413	10379.88
606.771	10382.14
607.128	10407.45
607.485	10358.87
607.843	10348.24
608.2	10391.86
608.557	10390.73
608.914	10383.27
609.272	10410.62
609.629	10504.85
609.986	10514.34
610.343	10473.44
610.7	10600.22
611.057	10464.4
611.414	10487.9
611.771	10534.68
612.127	10493.55
612.484	10585.53
612.841	10527.68
613.198	10534.91
613.554	10514.79
613.911	10530.61
614.267	10560.89
614.624	10545.3
614.98	10578.52
615.337	10676.15
615.693	10576.49
616.05	10600.22
616.406	10695.13
616.762	10676.6
617.118	10588.01
617.475	10682.93
617.831	10631.18
618.187	10695.35
618.543	10729.7
618.899	10764.28
619.255	10683.6
619.611	10641.57
619.967	10654.45
620.323	10709.82
620.678	10752.53
621.034	10636.82
621.39	10700.55
621.746	10658.07
622.101	10813.09
622.457	10702.36
622.812	10709.37
623.168	10807.44
623.523	10732.87
623.879	10835.01
624.234	10703.04
624.589	10797.27
624.945	10697.61
625.3	10697.16
625.655	10663.94
626.01	10733.09
626.365	10782.81
626.72	10738.97
627.075	10748.23
627.43	10740.55
627.785	10721.57
628.14	10671.4
628.495	10675.24
628.85	10645.64
629.205	10710.95
629.559	10751.4
629.914	10627.56
630.269	10642.93
630.623	10638.18
630.978	10585.75
631.332	10592.08
631.687	10606.77
632.041	10566.09
632.396	10564.96
632.75	10553.89
633.104	10536.26
633.459	10518.64
633.813	10507.11
634.167	10459.2
634.521	10445.87
634.875	10459.2
635.229	10411.75
635.583	10401.8
635.937	10428.69
636.291	10404.97
636.645	10344.63
636.999	10351.63
637.352	10378.3
637.706	10349.15
638.06	10450.16
638.413	10350.28
638.767	10373.78
639.121	10331.3
639.474	10321.8
639.828	10285.65
640.181	10321.58
640.534	10303.05
640.888	10336.49
641.241	10304.63
641.594	10315.93
641.947	10276.61
642.301	10272.31
642.654	10285.87
643.007	10186.89
643.36	10222.37
643.713	10244.52
644.066	10203.62
644.419	10152.32
644.771	10160.45
645.124	10009.72
645.477	10023.73
645.83	9959.1
646.182	9942.38
646.535	9915.94
646.888	9886.34
647.24	9863.74
647.593	9911.19
647.945	9915.04
648.298	9818.32
648.65	9853.12
649.002	9789.84
649.355	9851.76
649.707	9840.91
650.059	9894.7
650.411	9991.87
650.763	10014.47
651.115	10107.12
651.467	10123.84
651.819	10066.22
652.171	10061.25
652.523	10029.16
652.875	10082.04
653.227	9929.95
653.578	10085.88
653.93	10105.54
654.282	10034.81
654.633	9993.9
654.985	9995.26
655.337	10059.21
655.688	10052.43
656.039	10175.82
656.391	10052.43
656.742	10017.86
657.094	10007.91
657.445	10013.34
657.796	10029.16
658.147	10020.12
658.498	9985.77
658.849	10008.37
659.2	9936.5
659.551	10002.27
659.902	10055.15
660.253	9906.9
660.604	10022.83
660.955	10010.85
661.306	9994.58
661.656	9984.41
662.007	10031.42
662.358	10051.53
662.708	10008.37
663.059	10019.21
663.409	10014.02
663.76	10061.47
664.11	10056.73
664.461	10079.1
664.811	10025.77
665.161	10094.47
665.511	10096.05
665.862	10125.43
666.212	10100.12
666.562	10134.92
666.912	10070.74
667.262	10103.51
667.612	9964.75
667.962	10056.5
668.312	10048.37
668.662	10103.28
669.011	9969.5
669.361	10002.49
669.711	10086.33
670.06	9968.59
670.41	9945.09
670.76	9986.22
671.109	10017.41
671.459	9998.65
671.808	9918.43
672.157	10016.5
672.507	9916.17
672.856	9923.17
673.205	9856.73
673.554	9913.23
673.904	9897.86
674.253	9988.03
674.602	9893.57
674.951	9793.91
675.3	9736.51
675.649	9891.08
675.998	9836.17
676.346	9906
676.695	9929.5
677.044	9829.16
677.393	9838.65
677.741	9810.86
678.09	9793.68
678.438	9757.75
678.787	9838.43
679.135	9804.76
679.484	9691.09
679.832	9764.76
680.181	9701.26
680.529	9738.77
680.877	9643.4
681.225	9699
681.573	9723.63
681.922	9641.14
682.27	9641.6
682.618	9620.58
682.966	9687.25
683.314	9656.51
683.661	9466.23
684.009	9535.16
684.357	9516.18
684.705	9530.87
685.053	9489.06
685.4	9481.15
685.748	9388.95
686.095	9433.92
686.443	9320.48
686.79	9423.3
687.138	9400.25
687.485	9367.93
687.832	9350.76
688.18	9363.19
688.527	9329.74
688.874	9300.14
689.221	9268.27
689.568	9205.22
689.915	9281.15
690.262	9201.61
690.609	9143.3
690.956	9145.56
691.303	9116.41
691.65	9061.27
691.997	9020.6
692.344	8979.24
692.69	9016.75
693.037	8973.59
693.383	8829.64
693.73	8893.37
694.077	8854.27
694.423	8817.89
694.769	8747.16
695.116	8776.76
695.462	8738.12
695.808	8668.29
696.155	8790.09
696.501	8662.41
696.847	8649.76
697.193	8622.41
697.539	8634.39
697.885	8523.89
698.231	8496.99
698.577	8605.01
698.923	8497.67
699.269	8421.74
699.614	8358.47
699.96	8355.75
700.306	8372.03
700.651	8311.69
700.997	8253.84
701.342	8289.09
701.688	8253.84
702.033	8188.75
702.379	8181.75
702.724	8191.24
703.069	8150.11
703.415	8071.47
703.76	8094.52
704.105	8088.19
704.45	8035.99
704.795	7999.38
705.14	7972.26
705.485	7963
705.83	7941.3
706.175	8022.88
706.52	7890.46
706.865	7888.87
707.209	7887.07
707.554	7838.03
707.899	7863.79
708.243	7834.64
708.588	7743.34
708.932	7729.33
709.277	7710.12
709.621	7744.92
709.966	7635.77
710.31	7631.71
710.654	7597.81
710.998	7579.5
711.342	7634.64
711.687	7596.68
712.031	7594.64
712.375	7592.84
712.719	7509.22
713.063	7505.16
713.407	7558.49
713.75	7457.93
714.094	7483.46
714.438	7420.41
714.782	7467.64
715.125	7429
715.469	7463.12
715.812	7406.4
716.156	7403.92
716.499	7375.44
716.843	7401.2
717.186	7324.82
717.53	7335.89
717.873	7348.78
718.216	7350.58
718.559	7325.27
718.902	7294.54
719.246	7244.37
719.589	7228.55
719.932	7209.12
720.275	7251.15
720.617	7277.59
720.96	7229.68
721.303	7219.97
721.646	7226.52
721.989	7165.28
722.331	7213.19
722.674	7148.1
723.016	7145.84
723.359	7151.72
723.701	7212.28
724.044	7113.98
724.386	7128.67
724.729	7099.97
725.071	7089.8
725.413	7056.58
725.755	7063.81
726.097	7107.88
726.439	7023.59
726.782	7076.47
727.124	7114.88
727.465	7080.08
727.807	7103.58
728.149	7057.26
728.491	7024.72
728.833	7022.23
729.175	7067.43
729.516	6994.89
729.858	7041.21
730.199	7030.14
730.541	7081.89
730.882	6968.9
731.224	6988.79
731.565	6954.66
731.906	6959.86
732.248	7003.02
732.589	6972.74
732.93	6966.86
733.271	6979.29
733.612	6986.98
733.953	6948.11
734.294	6953.98
734.635	6979.52
734.976	6947.66
735.317	6951.27
735.658	6956.47
735.999	6995.34
736.339	6937.26
736.68	7016.13
737.021	6946.75
737.361	6988.33
737.702	7020.65
738.042	6909.47
738.383	6992.4
738.723	6970.48
739.063	7005.73
739.404	6996.47
739.744	6996.69
740.084	6968.9
740.424	7023.81
740.764	6999.41
741.104	7053.64
741.444	7015.68
741.784	6967.99
742.124	7058.61
742.464	7078.27
742.804	7073.3
743.143	7065.62
743.483	7152.17
743.823	7131.61
744.162	7085.51
744.502	7153.53
744.841	7098.61
745.181	7213.86
745.52	7188.33
745.86	7251.38
746.199	7196.69
746.538	7231.94
746.877	7305.16
747.216	7334.99
747.556	7356.91
747.895	7385.84
748.234	7376.12
748.573	7420.64
748.911	7499.51
749.25	7521.88
749.589	7575.89
749.928	7598.26
750.267	7670.8
750.605	7734.75
750.944	7796.67
751.283	7799.16
751.621	7903.11
751.96	7914.41
752.298	8061.75
752.636	8092.03
752.975	8129.55
753.313	8240.73
753.651	8316.66
753.989	8394.62
754.327	8487.95
754.666	8515.52
755.004	8598.46
755.342	8727.27
755.679	8842.75
756.017	8839.58
756.355	9021.05
756.693	9137.66
757.031	9319.8
757.368	9367.71
757.706	9442.73
758.044	9553.46
758.381	9657.19
758.719	9758.43
759.056	9881.14
759.394	9924.98
759.731	10121.81
760.068	10198.64
760.405	10320.67
760.743	10436.38
761.08	10564.74
761.417	10677.5
761.754	10768.57
762.091	10952.07
762.428	11054.21
762.765	11084.27
763.102	11263.02
763.438	11435
763.775	11494.43
764.112	11695.33
764.449	11780.75
764.785	11866.4
765.122	12021.87
765.458	12073.4
