Data from hue_290_FLMS001491_00085.txt Node
Date: Tue Feb 07 15:53:24 GMT 2017
User: dcchb
Spectrometer: FLMS00149
Trigger mode: 0
Integration Time (sec): 2.000000E-2
Scans to average: 10
Electric dark correction enabled: true
Nonlinearity correction enabled: false
Boxcar width: 0
XAxis mode: Wavelengths
Number of Pixels in Spectrum: 2048
>>>>>Begin Spectral Data<<<<<
341.393	-0.66
341.776	-0.66
342.16	-0.66
342.543	-54.45
342.927	-54.45
343.31	-60.78
343.693	-68.01
344.077	-56.26
344.46	-53.54
344.843	-58.06
345.226	-52.87
345.61	-31.62
345.993	-17.39
346.376	-16.26
346.759	9.51
347.142	16.74
347.525	48.15
347.908	69.16
348.291	83.4
348.674	91.99
349.057	95.83
349.44	129.73
349.823	140.8
350.206	164.3
350.588	195.04
350.971	199.1
351.354	216.28
351.737	236.17
352.119	236.17
352.502	267.8
352.884	276.39
353.267	282.72
353.65	298.31
354.032	293.79
354.414	291.76
354.797	312.1
355.179	315.26
355.562	314.13
355.944	339.44
356.326	330.17
356.709	340.8
357.091	313.45
357.473	313
357.855	327.69
358.238	343.28
358.62	339.89
359.002	350.29
359.384	340.57
359.766	323.4
360.148	336.5
360.53	324.3
360.912	329.72
361.294	342.83
361.676	327.01
362.057	343.96
362.439	345.77
362.821	312.1
363.203	342.15
363.584	340.8
363.966	312.77
364.348	296.05
364.729	325.66
365.111	307.12
365.493	307.8
365.874	316.62
366.256	323.4
366.637	304.86
367.019	304.64
367.4	327.46
367.781	328.37
368.163	314.58
368.544	307.35
368.925	298.99
369.306	334.69
369.688	310.29
370.069	298.09
370.45	323.62
370.831	300.57
371.212	300.8
371.593	306.22
371.974	316.16
372.355	306.45
372.736	310.74
373.117	310.51
373.498	324.07
373.879	320.68
374.26	308.48
374.641	307.12
375.021	326.79
375.402	310.97
375.783	338.76
376.163	332.43
376.544	329.27
376.925	320.91
377.305	319.33
377.686	318.65
378.066	347.12
378.447	330.63
378.827	319.55
379.208	343.96
379.588	335.6
379.968	308.71
380.349	332.21
380.729	349.38
381.109	341.93
381.489	342.6
381.87	345.99
382.25	358.65
382.63	358.42
383.01	353.45
383.39	334.92
383.77	344.41
384.15	345.99
384.53	320.01
384.91	345.77
385.29	342.15
385.67	363.17
386.049	366.56
386.429	349.16
386.809	366.33
387.189	349.61
387.568	347.8
387.948	355.03
388.328	375.37
388.707	371.76
389.087	359.78
389.466	365.65
389.846	341.93
390.225	387.35
390.605	376.28
390.984	380.8
391.363	362.49
391.743	374.69
392.122	381.7
392.501	373.79
392.881	379.89
393.26	399.33
393.639	396.39
394.018	389.16
394.397	372.66
394.776	386.9
395.155	398.42
395.534	374.24
395.913	385.77
396.292	377.18
396.671	383.96
397.05	407.01
397.429	382.38
397.808	399.55
398.186	377.63
398.565	398.42
398.944	396.84
399.323	402.94
399.701	405.2
400.08	419.89
400.458	434.58
400.837	421.92
401.215	422.6
401.594	450.85
401.972	392.09
402.351	436.16
402.729	429.16
403.107	433.68
403.486	432.55
403.864	463.28
404.242	453.79
404.62	443.62
404.999	442.94
405.377	444.97
405.755	457.4
406.133	446.1
406.511	470.74
406.889	460.12
407.267	456.27
407.645	492.43
408.023	479.78
408.401	499.66
408.779	518.64
409.156	514.12
409.534	482.94
409.912	502.37
410.29	503.73
410.667	562.94
411.045	534.46
411.422	534.92
411.8	541.69
412.178	557.29
412.555	564.97
412.933	572.2
413.31	587.8
413.687	602.03
414.065	577.63
414.442	595.03
414.819	615.82
415.197	602.71
415.574	624.18
415.951	617.63
416.328	624.63
416.705	643.39
417.082	648.36
417.46	655.59
417.837	666.44
418.214	656.04
418.591	681.35
418.967	682.26
419.344	694.01
419.721	702.14
420.098	685.42
420.475	706.44
420.852	740.33
421.228	716.38
421.605	738.07
421.982	747.79
422.358	745.08
422.735	759.09
423.111	758.86
423.488	783.72
423.864	775.59
424.241	820.11
424.617	802.25
424.994	828.01
425.37	849.48
425.746	841.57
426.123	822.82
426.499	850.39
426.875	870.27
427.251	880.67
427.627	898.75
428.003	907.79
428.379	885.19
428.756	933.32
429.132	914.79
429.507	924.28
429.883	943.94
430.259	961.8
430.635	973.55
431.011	973.1
431.387	967.22
431.763	1006.54
432.138	1014.22
432.514	1003.83
432.89	1016.71
433.265	1050.16
433.641	1040.66
434.016	1056.94
434.392	1103.26
434.767	1109.36
435.143	1096.93
435.518	1099.87
435.894	1156.82
436.269	1145.07
436.644	1180.32
437.02	1157.95
437.395	1204.05
437.77	1216.25
438.145	1205.86
438.52	1231.39
438.895	1219.19
439.271	1244.73
439.646	1262.13
440.021	1289.7
440.395	1291.96
440.77	1281.11
441.145	1278.17
441.52	1312.52
441.895	1329.24
442.27	1315.46
442.645	1352.75
443.019	1335.8
443.394	1356.36
443.769	1365.4
444.143	1336.7
444.518	1392.07
444.892	1347.1
445.267	1378.96
445.641	1402.46
446.016	1377.61
446.39	1398.62
446.764	1405.17
447.139	1406.53
447.513	1399.98
447.887	1434.78
448.262	1419.86
448.636	1457.15
449.01	1436.13
449.384	1442.24
449.758	1475.23
450.132	1477.04
450.506	1506.87
450.88	1519.75
451.254	1485.62
451.628	1493.76
452.002	1519.3
452.376	1517.49
452.75	1550.93
453.123	1543.02
453.497	1575.11
453.871	1601.55
454.244	1611.72
454.618	1588.22
454.992	1616.92
455.365	1628.67
455.739	1638.62
456.112	1644.72
456.486	1643.81
456.859	1684.94
457.232	1676.58
457.606	1698.5
457.979	1705.05
458.352	1736.47
458.725	1701.44
459.099	1769.01
459.472	1782.34
459.845	1781.44
460.218	1799.97
460.591	1802.45
460.964	1851.26
461.337	1838.61
461.71	1896.91
462.083	1898.04
462.456	1855.11
462.829	1864.6
463.201	1929.68
463.574	1925.84
463.947	1944.82
464.32	1966.06
464.692	1986.85
465.065	1986.85
465.438	1993.63
465.81	2035.44
466.183	2046.06
466.555	2039.73
466.928	2100.75
467.3	2086.29
467.672	2108.43
468.045	2152.5
468.417	2160.86
468.789	2147.75
469.161	2182.56
469.534	2191.14
469.906	2223.46
470.278	2256.68
470.65	2306.85
471.022	2310.46
471.394	2347.3
471.766	2349.78
472.138	2353.85
472.51	2392.27
472.882	2426.84
473.253	2414.64
473.625	2456.22
473.997	2501.64
474.369	2498.25
474.74	2546.61
475.112	2549.1
475.484	2554.3
475.855	2622.54
476.227	2645.37
476.598	2712.94
476.97	2717
477.341	2795.42
477.713	2809.66
478.084	2775.08
478.455	2891.46
478.827	2851.69
479.198	2952.25
479.569	2940.95
479.94	2971.91
480.311	3000.84
480.682	3089.2
481.053	3129.88
481.424	3126.26
481.795	3150.21
482.166	3209.42
482.537	3258.46
482.908	3270.21
483.279	3314.05
483.65	3331.68
484.021	3413.03
484.391	3392.24
484.762	3417.1
485.133	3441.96
485.503	3489.87
485.874	3553.59
486.244	3549.75
486.615	3617.55
486.985	3676.08
487.356	3670.2
487.726	3729.63
488.097	3795.85
488.467	3781.16
488.837	3831.1
489.207	3821.83
489.578	3909.06
489.948	3957.65
490.318	3999.23
490.688	3967.82
491.058	4037.87
491.428	4077.2
491.798	4073.35
492.168	4149.28
492.538	4177.76
492.908	4212.11
493.278	4257.3
493.648	4257.76
494.017	4300.24
494.387	4338.88
494.757	4323.97
495.126	4380.24
495.496	4412.55
495.866	4393.8
496.235	4413.68
496.605	4497.07
496.974	4446.45
497.344	4530.97
497.713	4496.85
498.082	4561.93
498.452	4614.13
498.821	4617.52
499.19	4642.15
499.559	4641.7
499.928	4646.22
500.298	4677.86
500.667	4721.7
501.036	4702.49
501.405	4744.52
501.774	4803.73
502.143	4771.19
502.512	4842.82
502.88	4841.92
503.249	4875.14
503.618	4843.95
503.987	4848.25
504.356	4879.66
504.724	4931.18
505.093	4907
505.462	4917.85
505.83	4931.86
506.199	4985.65
506.567	5039.2
506.936	5007.57
507.304	5068.81
507.672	5105.19
508.041	5075.59
508.409	5144.96
508.777	5109.71
509.145	5126.21
509.514	5152.87
509.882	5184.51
510.25	5187
510.618	5195.36
510.986	5171.4
511.354	5241.68
511.722	5296.6
512.09	5322.13
512.458	5293.66
512.826	5341.12
513.193	5353.32
513.561	5356.71
513.929	5395.58
514.297	5434.67
514.664	5394.67
515.032	5433.54
515.4	5488.91
515.767	5488.01
516.135	5509.02
516.502	5456.59
516.869	5517.84
517.237	5547.66
517.604	5458.85
517.972	5590.83
518.339	5591.28
518.706	5530.04
519.073	5570.26
519.44	5605.97
519.808	5670.6
520.175	5672.63
520.542	5728
520.909	5708.34
521.276	5656.14
521.643	5761.22
522.009	5781.11
522.376	5840.99
522.743	5789.92
523.11	5859.52
523.477	5843.25
523.843	5918.5
524.21	5965.28
524.577	5983.13
524.943	5923.25
525.31	6025.62
525.676	5996.01
526.043	6078.5
526.409	6107.42
526.776	6105.16
527.142	6131.38
527.508	6133.64
527.874	6210.25
528.241	6194.65
528.607	6247.76
528.973	6262.9
529.339	6260.64
529.705	6322.56
530.071	6355.33
530.437	6354.88
530.803	6385.83
531.169	6406.63
531.535	6393.74
531.901	6457.25
532.267	6450.24
532.632	6474.42
532.998	6530.01
533.364	6565.27
533.73	6533.18
534.095	6614.08
534.461	6606.17
534.826	6635.32
535.192	6638.26
535.557	6683
535.923	6678.71
536.288	6681.65
536.653	6729.78
537.019	6706.28
537.384	6825.82
537.749	6784.47
538.114	6730.68
538.479	6777.24
538.845	6844.35
539.21	6826.05
539.575	6845.26
539.94	6849.78
540.305	6858.14
540.67	6899.27
541.034	6952.37
541.399	6956.22
541.764	6948.31
542.129	6984.01
542.494	7040.73
542.858	7009.32
543.223	7048.42
543.587	7071.69
543.952	7066.27
544.316	7093.84
544.681	7133.84
545.045	7134.52
545.41	7164.8
545.774	7130
546.138	7187.4
546.503	7188.98
546.867	7172.71
547.231	7313.49
547.595	7294.74
547.959	7311.69
548.324	7279.6
548.688	7377.9
549.052	7336.54
549.416	7352.36
549.779	7384.23
550.143	7374.51
550.507	7392.14
550.871	7445.02
551.235	7408.18
551.599	7506.26
551.962	7498.8
552.326	7461.06
552.689	7506.71
553.053	7468.52
553.417	7561.17
553.78	7592.13
554.143	7561.17
554.507	7631.45
554.87	7621.06
555.234	7681.85
555.597	7656.99
555.96	7606.59
556.323	7681.85
556.686	7708.96
557.05	7705.35
557.413	7765.91
557.776	7765.91
558.139	7855.4
558.502	7772.24
558.865	7836.64
559.228	7843.88
559.59	7847.04
559.953	7844.1
560.316	7953.48
560.679	7927.72
561.041	7980.14
561.404	7978.11
561.767	8041.16
562.129	8021.27
562.492	8075.28
562.854	8052.01
563.217	8067.37
563.579	8101.5
563.941	8155.51
564.304	8196.18
564.666	8239.12
565.028	8182.4
565.39	8239.12
565.753	8321.38
566.115	8305.56
566.477	8259.91
566.839	8338.78
567.201	8359.57
567.563	8438.21
567.925	8437.31
568.287	8481.6
568.648	8449.51
569.01	8498.55
569.372	8597.3
569.734	8552.78
570.095	8527.47
570.457	8650.86
570.819	8647.24
571.18	8638.21
571.542	8701.48
571.903	8708.26
572.265	8774.25
572.626	8846.79
572.987	8848.14
573.349	8886.33
573.71	8969.04
574.071	8868.48
574.432	9008.36
574.794	9018.08
575.155	9044.75
575.516	9106.67
575.877	9087.46
576.238	9212.2
576.599	9298.53
576.96	9299.66
577.32	9358.19
577.681	9292.88
578.042	9535.36
578.403	9535.13
578.763	9505.53
579.124	9601.8
579.485	9678.63
579.845	9799.3
580.206	9798.4
580.566	9816.71
580.927	9971.73
581.287	10033.42
581.648	10059.86
582.008	10196.13
582.368	10272.96
582.728	10380.76
583.089	10359.29
583.449	10485.16
583.809	10551.6
584.169	10738.71
584.529	10820.52
584.889	10927.18
585.249	10969.9
585.609	11051.02
585.969	11206.05
586.329	11336.67
586.688	11422.54
587.048	11500.95
587.408	11575.75
587.768	11764.9
588.127	11796.09
588.487	12015.52
588.846	12199.92
589.206	12207.83
589.565	12353.81
589.925	12472.91
590.284	12609.63
590.643	12754.26
591.003	12922.84
591.362	13057.75
591.721	13194.02
592.08	13368.25
592.44	13485.08
592.799	13568.7
593.158	13686.89
593.517	13872.87
593.876	13998.06
594.235	14058.85
594.593	14229.02
594.952	14403.7
595.311	14430.6
595.67	14524.83
596.029	14953.97
596.387	14996.91
596.746	15096.11
597.104	15174.98
597.463	15303.57
597.822	15439.38
598.18	15454.75
598.538	15639.6
598.897	15809.77
599.255	15875.75
599.613	16146.71
599.972	16146.48
600.33	16244.11
600.688	16366.36
601.046	16510.09
601.404	16690.42
601.762	16722.51
602.12	16887.93
602.478	16974.71
602.836	17080.69
603.194	17091.99
603.552	17169.73
603.91	17258.32
604.268	17454.7
604.625	17361.59
604.983	17650.4
605.341	17595.48
605.698	17827.34
606.056	18012.87
606.413	18013.55
606.771	18164.06
607.128	18202.02
607.485	18108.69
607.843	18246.99
608.2	18536.25
608.557	18610.37
608.914	18587.1
609.272	18662.12
609.629	18818.28
609.986	18972.85
610.343	18897.37
610.7	19031.38
611.057	19170.58
611.414	19258.72
611.771	19225.05
612.127	19354.99
612.484	19298.94
612.841	19545.26
613.198	19441.76
613.554	19447.19
613.911	19630.01
614.267	19721.3
614.624	19695.54
614.98	19690.34
615.337	19963.33
615.693	19875.2
616.05	19996.32
616.406	20101.41
616.762	20097.11
617.118	20102.99
617.475	20148.86
617.831	20264.79
618.187	20258.92
618.543	20342.53
618.899	20510.66
619.255	20515.18
619.611	20427.05
619.967	20592.24
620.323	20663.65
620.678	20578.91
621.034	20622.07
621.39	20611.22
621.746	20689.19
622.101	20937.77
622.457	20752.91
622.812	20772.35
623.168	20887.6
623.523	21012.34
623.879	21001.72
624.234	20827.49
624.589	20987.71
624.945	21006.24
625.3	21018.9
625.655	20986.81
626.01	21079.91
626.365	21080.14
626.72	21003.98
627.075	21097.99
627.43	21224.09
627.785	21043.98
628.14	21229.29
628.495	21192.45
628.85	21078.1
629.205	21021.16
629.559	21133.7
629.914	21130.31
630.269	21065.22
630.623	21104.77
630.978	21146.35
631.332	21185.22
631.687	21059.8
632.041	21103.87
632.396	21150.64
632.75	21116.97
633.104	21119.01
633.459	20980.93
633.813	21057.77
634.167	21092.79
634.521	20957.88
634.875	21171.21
635.229	21041.72
635.583	20948.16
635.937	20995.17
636.291	20951.1
636.645	20951.33
636.999	20904.32
637.352	20990.87
637.706	20876.75
638.06	21028.61
638.413	20836.3
638.767	20850.09
639.121	20892.12
639.474	20832.46
639.828	20807.83
640.181	20925.57
640.534	20860.93
640.888	20821.16
641.241	20784.55
641.594	20771.67
641.947	20792.46
642.301	20809.18
642.654	20797.89
643.007	20804.66
643.36	20742.97
643.713	20791.78
644.066	20899.8
644.419	20613.94
644.771	20626.14
645.124	20341.4
645.477	20414.17
645.83	20220.27
646.182	20243.32
646.535	20215.3
646.888	20333.26
647.24	20051.01
647.593	20207.84
647.945	20115.42
648.298	20093.27
648.65	19966.04
649.002	20116.32
649.355	20117.45
649.707	20074.97
650.059	20248.97
650.411	20533.03
650.763	20564.22
651.115	20700.94
651.467	20616.42
651.819	20554.5
652.171	20546.82
652.523	20507.95
652.875	20465.01
653.227	20494.62
653.578	20676.31
653.93	20721.96
654.282	20530.77
654.633	20480.15
654.985	20571.68
655.337	20644.9
655.688	20629.75
656.039	20629.98
656.391	20494.16
656.742	20488.74
657.094	20559.02
657.445	20556.54
657.796	20600.6
658.147	20586.59
658.498	20525.58
658.849	20646.02
659.2	20578
659.551	20582.07
659.902	20650.09
660.253	20536.65
660.604	20599.47
660.955	20502.53
661.306	20608.74
661.656	20591.11
662.007	20615.29
662.358	20560.15
662.708	20550.89
663.059	20578.91
663.409	20524.9
663.76	20672.69
664.11	20596.08
664.461	20710.2
664.811	20619.81
665.161	20584.11
665.511	20535.97
665.862	20634.73
666.212	20687.83
666.562	20716.76
666.912	20647.38
667.262	20641.51
667.612	20716.53
667.962	20757.43
668.312	20688.74
668.662	20767.83
669.011	20695.06
669.361	20695.06
669.711	20647.15
670.06	20566.7
670.41	20597.21
670.76	20433.83
671.109	20616.65
671.459	20709.98
671.808	20530.77
672.157	20563.77
672.507	20425.47
672.856	20460.95
673.205	20498.01
673.554	20540.72
673.904	20516.08
674.253	20603.54
674.602	20518.57
674.951	20349.31
675.3	20127.85
675.649	20475.41
675.998	20423.43
676.346	20369.2
676.695	20399.25
677.044	20255.07
677.393	20301.18
677.741	20393.38
678.09	20345.24
678.438	20288.97
678.787	20362.87
679.135	20196.55
679.484	20081.75
679.832	20272.7
680.181	20145.02
680.529	20150.44
680.877	20117.9
681.225	20128.98
681.573	20179.14
681.922	19987.29
682.27	19935.08
682.618	19950.45
682.966	19968.3
683.314	19966.04
683.661	19874.52
684.009	19858.25
684.357	19775.77
684.705	19739.16
685.053	19748.2
685.4	19659.38
685.748	19646.5
686.095	19589.78
686.443	19512.72
686.79	19530.12
687.138	19453.97
687.485	19518.6
687.832	19464.14
688.18	19440.63
688.527	19299.85
688.874	19270.02
689.221	19289.45
689.568	19244.93
689.915	19098.5
690.262	19156.35
690.609	19064.6
690.956	19008.78
691.303	19023.02
691.65	18866.86
691.997	18806.53
692.344	18648.56
692.69	18672.97
693.037	18666.64
693.383	18595.91
693.73	18538.74
694.077	18371.96
694.423	18440.21
694.769	18406.76
695.116	18365.86
695.462	18254.68
695.808	18291.96
696.155	18187.33
696.501	18079.99
696.847	18136.94
697.193	17856.72
697.539	18025.75
697.885	17878.41
698.231	17724.97
698.577	17760.45
698.923	17821.69
699.269	17583.73
699.614	17548.93
699.96	17610.4
700.306	17488.59
700.651	17469.84
700.997	17376.28
701.342	17311.42
701.688	17295.15
702.033	17164.31
702.379	17248.15
702.724	17197.75
703.069	17195.95
703.415	16896.52
703.76	17039.79
704.105	16939.23
704.45	16948.95
704.795	16844.32
705.14	16685.9
705.485	16705.79
705.83	16732.68
706.175	16656.53
706.52	16619.69
706.865	16539.24
707.209	16506.92
707.554	16293.82
707.899	16424.89
708.243	16315.29
708.588	16330.21
708.932	16202.3
709.277	16149.65
709.621	16148.52
709.966	16022.42
710.31	16076.43
710.654	15958.69
710.998	15964.57
711.342	16002.76
711.687	15880.05
712.031	15824
712.375	15757.34
712.719	15775.87
713.063	15762.99
713.407	15766.15
713.75	15713.27
714.094	15704.46
714.438	15591.24
714.782	15552.83
715.125	15508.98
715.469	15614.74
715.812	15501.3
716.156	15386.73
716.499	15416.11
716.843	15428.76
717.186	15336.79
717.53	15414.98
717.873	15421.76
718.216	15345.37
718.559	15306.05
718.902	15309.22
719.246	15235.09
719.589	15178.6
719.932	15144.25
720.275	15175.66
720.617	15170.46
720.96	15202.78
721.303	15137.24
721.646	15232.61
721.989	15086.85
722.331	15100.41
722.674	15058.15
723.016	15064.25
723.359	14980.64
723.701	15001.65
724.044	14843.47
724.386	14854.31
724.729	14905.84
725.071	14912.16
725.413	14888.21
725.755	14887.98
726.097	14816.57
726.439	14760.08
726.782	14787.2
727.124	14863.13
727.465	14774.09
727.807	14771.6
728.149	14775.44
728.491	14715.11
728.833	14680.98
729.175	14783.81
729.516	14721.43
729.858	14692.51
730.199	14735.67
730.541	14696.8
730.882	14686.86
731.224	14668.78
731.565	14604.83
731.906	14589.46
732.248	14605.51
732.589	14608.22
732.93	14567.99
733.271	14571.38
733.612	14621.55
733.953	14627.43
734.294	14580.2
734.635	14563.92
734.976	14611.38
735.317	14484.15
735.658	14468.11
735.999	14564.6
736.339	14522.12
736.68	14586.3
737.021	14490.25
737.361	14471.95
737.702	14617.03
738.042	14537.03
738.383	14525.28
738.723	14643.92
739.063	14520.76
739.404	14544.72
739.744	14590.14
740.084	14476.92
740.424	14563.7
740.764	14529.8
741.104	14640.08
741.444	14580.87
741.784	14638.73
742.124	14628.78
742.464	14636.01
742.804	14648.22
743.143	14624.04
743.483	14671.27
743.823	14638.95
744.162	14700.19
744.502	14672.17
744.841	14687.76
745.181	14817.48
745.52	14808.21
745.86	14930.02
746.199	14838.49
746.538	14906.97
746.877	14985.16
747.216	15026.74
747.556	15020.86
747.895	15102.22
748.234	15099.28
748.573	15184.47
748.911	15170.46
749.25	15266.73
749.589	15294.75
749.928	15422.66
750.267	15564.58
750.605	15494.75
750.944	15526.61
751.283	15628.53
751.621	15769.99
751.96	15735.42
752.298	15761.18
752.636	15914.17
752.975	15888.64
753.313	16036.88
753.651	16221.51
753.989	16122.08
754.327	16279.13
754.666	16296.08
755.004	16569.75
755.342	16686.81
755.679	16636.41
756.017	16733.36
756.355	16907.82
756.693	16928.83
757.031	17023.52
757.368	17070.98
757.706	17269.84
758.044	17294.47
758.381	17393.68
758.719	17567.91
759.056	17640
759.394	17789.15
759.731	17762.26
