Data from hue_32_FLMS001491_00010.txt Node
Date: Tue Feb 07 17:22:51 GMT 2017
User: dcchb
Spectrometer: FLMS00149
Trigger mode: 0
Integration Time (sec): 2.000000E-2
Scans to average: 10
Electric dark correction enabled: true
Nonlinearity correction enabled: false
Boxcar width: 0
XAxis mode: Wavelengths
Number of Pixels in Spectrum: 2048
>>>>>Begin Spectral Data<<<<<
341.393	-20.54
341.776	-20.54
342.16	-20.54
342.543	-55.56
342.927	-82
343.31	-63.25
343.693	-64.38
344.077	-53.53
344.46	-66.64
344.843	-54.89
345.226	-34.55
345.61	-24.15
345.993	-25.73
346.376	-8.11
346.759	-16.92
347.142	23.08
347.525	36.41
347.908	65.11
348.291	75.73
348.674	80.03
349.057	131.78
349.44	146.01
349.823	138.1
350.206	153.47
350.588	201.15
350.971	219.46
351.354	229.63
351.737	248.16
352.119	267.82
352.502	278.89
352.884	281.83
353.267	270.3
353.65	280.7
354.032	287.93
354.414	313.01
354.797	321.15
355.179	317.76
355.562	325.9
355.944	334.71
356.326	342.84
356.709	322.96
357.091	338.78
357.473	349.62
357.855	349.17
358.238	364.54
358.62	333.58
359.002	354.37
359.384	342.17
359.766	355.05
360.148	352.56
360.53	331.77
360.912	352.56
361.294	331.09
361.676	334.71
362.057	331.77
362.439	338.78
362.821	335.16
363.203	322.96
363.584	335.84
363.966	319.79
364.348	310.98
364.729	327.48
365.111	331.09
365.493	322.73
365.874	324.54
366.256	326.8
366.637	305.1
367.019	303.52
367.4	327.03
367.781	318.89
368.163	321.6
368.544	318.66
368.925	298.78
369.306	295.84
369.688	306.23
370.069	299.91
370.45	328.61
370.831	304.65
371.212	339.45
371.593	311.21
371.974	319.79
372.355	316.86
372.736	318.89
373.117	322.96
373.498	310.98
373.879	312.79
374.26	320.7
374.641	323.41
375.021	325.44
375.402	327.03
375.783	340.58
376.163	338.78
376.544	319.12
376.925	336.06
377.305	315.27
377.686	315.5
378.066	320.7
378.447	342.39
378.827	322.96
379.208	330.19
379.588	340.13
379.968	337.87
380.349	335.16
380.729	327.7
381.109	354.82
381.489	335.84
381.87	351.21
382.25	349.17
382.63	344.43
383.01	350.53
383.39	332.22
383.77	352.56
384.15	357.98
384.53	374.48
384.91	364.09
385.29	348.04
385.67	362.5
386.049	356.18
386.429	366.57
386.809	345.33
387.189	336.06
387.568	370.19
387.948	362.05
388.328	372.45
388.707	356.63
389.087	367.25
389.466	361.37
389.846	364.99
390.225	372
390.605	348.72
390.984	361.6
391.363	358.21
391.743	353.69
392.122	380.58
392.501	365.44
392.881	384.42
393.26	358.21
393.639	371.09
394.018	392.56
394.397	383.07
394.776	384.2
395.155	395.95
395.534	381.71
395.913	380.13
396.292	371.54
396.671	396.63
397.05	386.46
397.429	396.63
397.808	376.29
398.186	388.04
398.565	383.07
398.944	411.77
399.323	397.53
399.701	400.7
400.08	385.55
400.458	394.14
400.837	411.77
401.215	386.46
401.594	391.66
401.972	406.57
402.351	391.43
402.729	409.06
403.107	409.96
403.486	422.84
403.864	411.32
404.242	413.58
404.62	424.88
404.999	427.59
405.377	412.67
405.755	423.75
406.133	423.97
406.511	454.93
406.889	451.54
407.267	429.17
407.645	428.94
408.023	449.28
408.401	430.3
408.779	445.89
409.156	448.6
409.534	466
409.912	442.28
410.29	459.45
410.667	475.04
411.045	461.71
411.422	468.49
411.8	455.84
412.178	475.5
412.555	475.95
412.933	465.78
413.31	477.76
413.687	496.29
414.065	488.83
414.442	483.63
414.819	506.91
415.197	503.74
415.574	500.13
415.951	496.51
416.328	485.44
416.705	505.1
417.082	511.88
417.46	497.42
417.837	510.75
418.214	517.08
418.591	532.9
418.967	504.87
419.344	538.77
419.721	539.22
420.098	527.7
420.475	520.01
420.852	545.32
421.228	553.23
421.605	544.19
421.982	530.18
422.358	533.35
422.735	562.27
423.111	556.17
423.488	546.91
423.864	576.51
424.241	578.09
424.617	586.45
424.994	575.38
425.37	584.87
425.746	555.72
426.123	570.18
426.499	575.61
426.875	583.29
427.251	598.43
427.627	609.73
428.003	607.92
428.379	604.53
428.756	605.44
429.132	590.52
429.507	637.07
429.883	633.91
430.259	644.31
430.635	643.18
431.011	628.26
431.387	659.67
431.763	645.44
432.138	642.05
432.514	678.2
432.89	669.16
433.265	684.53
433.641	692.44
434.016	678.88
434.392	675.49
434.767	714.36
435.143	705.55
435.518	699.9
435.894	755.94
436.269	722.04
436.644	729.27
437.02	719.33
437.395	732.44
437.77	741.7
438.145	751.65
438.52	740.8
438.895	760.01
439.271	764.08
439.646	775.15
440.021	769.27
440.395	749.16
440.77	765.66
441.145	768.6
441.52	794.13
441.895	783.96
442.27	788.48
442.645	794.13
443.019	812.89
443.394	810.85
443.769	813.57
444.143	814.92
444.518	809.72
444.892	815.83
445.267	835.71
445.641	834.81
446.016	822.83
446.39	831.87
446.764	833.68
447.139	828.26
447.513	862.6
447.887	868.25
448.262	860.34
448.636	857.41
449.01	885.88
449.384	853.57
449.758	901.47
450.132	895.6
450.506	902.6
450.88	926.56
451.254	902.15
451.628	937.18
452.002	908.48
452.376	920.46
452.75	907.8
453.123	951.87
453.497	953.22
453.871	956.16
454.244	976.5
454.618	985.54
454.992	968.82
455.365	1001.13
455.739	1019.66
456.112	1000.91
456.486	1023.73
456.859	1046.55
457.232	1039.55
457.606	1045.88
457.979	1072.32
458.352	1094.46
458.725	1076.84
459.099	1082.26
459.472	1115.25
459.845	1104.41
460.218	1140.79
460.591	1137.85
460.964	1155.25
461.337	1195.48
461.71	1212.88
462.083	1179.21
462.456	1204.29
462.829	1191.18
463.201	1240.67
463.574	1234.57
463.947	1238.19
464.32	1270.5
464.692	1294.46
465.065	1285.64
465.438	1294.23
465.81	1357.73
466.183	1315.25
466.555	1364.74
466.928	1378.3
467.3	1373.1
467.672	1437.73
468.045	1477.5
468.417	1442.48
468.789	1454.91
469.161	1470.05
469.534	1505.53
469.906	1536.71
470.278	1575.13
470.65	1567.22
471.022	1612.64
471.394	1621.23
471.766	1641.12
472.138	1669.59
472.51	1706.65
472.882	1753.88
473.253	1783.94
473.625	1791.85
473.997	1827.32
474.369	1839.75
474.74	1879.75
475.112	1922.92
475.484	1961.56
475.855	2000.65
476.227	2019.64
476.598	2058.51
476.97	2101.67
477.341	2178.73
477.713	2212.63
478.084	2220.08
478.455	2283.13
478.827	2305.73
479.198	2398.61
479.569	2450.13
479.94	2553.41
480.311	2555.44
480.682	2618.26
481.053	2694.42
481.424	2767.87
481.795	2768.99
482.166	2845.38
482.537	2946.17
482.908	2994.98
483.279	3053.28
483.65	3110.68
484.021	3224.12
484.391	3288.98
484.762	3320.39
485.133	3412.59
485.503	3490.56
485.874	3590.89
486.244	3606.26
486.615	3724.68
486.985	3808.29
487.356	3877.89
487.726	3919.25
488.097	4054.16
488.467	4087.6
488.837	4168.05
489.207	4294.6
489.578	4320.82
489.948	4452.11
490.318	4501.15
490.688	4540.7
491.058	4636.29
491.428	4776.85
491.798	4843.74
492.168	4945.89
492.538	5004.87
492.908	5084.19
493.278	5157.41
493.648	5307.01
494.017	5308.59
494.387	5436.5
494.757	5512.2
495.126	5605.76
495.496	5645.08
495.866	5791.29
496.235	5831.29
496.605	5906.31
496.974	5971.17
497.344	6044.16
497.713	6094.33
498.082	6174.56
498.452	6248.9
498.821	6353.53
499.19	6397.83
499.559	6481.67
499.928	6532.06
500.298	6593.3
500.667	6705.16
501.036	6704.03
501.405	6881.66
501.774	6827.65
502.143	6924.82
502.512	7032.84
502.88	7084.59
503.249	7070.35
503.618	7160.74
503.987	7225.37
504.356	7286.16
504.724	7338.59
505.093	7407.29
505.462	7400.51
505.83	7499.49
506.199	7570
506.567	7711.92
506.936	7714.4
507.304	7789.65
507.672	7916.2
508.041	7874.17
508.409	7948.07
508.777	8079.14
509.145	8081.85
509.514	8101.96
509.882	8240.72
510.25	8261.73
510.618	8270.77
510.986	8375.18
511.354	8405.68
511.722	8505.12
512.09	8570.88
512.458	8560.03
512.826	8674.83
513.193	8712.34
513.561	8755.96
513.929	8811.1
514.297	8883.41
514.664	8938.55
515.032	9007.02
515.4	9033.46
515.767	9102.61
516.135	9096.96
516.502	9124.99
516.869	9233.46
517.237	9284.98
517.604	9255.6
517.972	9392.55
518.339	9480.91
518.706	9421.48
519.073	9528.59
519.44	9524.52
519.808	9655.14
520.175	9602.49
520.542	9730.17
520.909	9781.69
521.276	9712.32
521.643	9898.3
522.009	9924.06
522.376	10041.57
522.743	10083.83
523.11	10136.48
523.477	10243.37
523.843	10261.91
524.21	10361.79
524.577	10419.42
524.943	10430.71
525.31	10492.41
525.676	10619.41
526.043	10614.89
526.409	10656.25
526.776	10853.98
527.142	10873.87
527.508	10885.39
527.874	10981.89
528.241	11039.51
528.607	11093.52
528.973	11259.85
529.339	11075.9
529.705	11267.53
530.071	11330.8
530.437	11454.42
530.803	11519.95
531.169	11532.38
531.535	11510.91
531.901	11562.21
532.267	11625.71
532.632	11710.23
532.998	11712.04
533.364	11827.51
533.73	11859.83
534.095	11925.36
534.461	11933.5
534.826	12000.62
535.192	12089.2
535.557	12175.98
535.923	12170.56
536.288	12250.78
536.653	12353.83
537.019	12285.35
537.384	12325.35
537.749	12437.22
538.114	12453.03
538.479	12507.04
538.845	12594.27
539.21	12510.89
539.575	12628.4
539.94	12724.89
540.305	12760.14
540.67	12788.84
541.034	12888.95
541.399	12876.3
541.764	12996.3
542.129	13013.02
542.494	13052.11
542.858	13088.72
543.223	13100.93
543.587	13217.53
543.952	13171.66
544.316	13241.49
544.681	13259.57
545.045	13424.31
545.41	13397.19
545.774	13486.91
546.138	13583.85
546.503	13602.83
546.867	13595.38
547.231	13775.94
547.595	13737.75
547.959	13791.76
548.324	13878.76
548.688	13831.98
549.052	13944.07
549.416	13987.46
549.779	14022.71
550.143	14063.16
550.507	14040.79
550.871	14195.14
551.235	14234.46
551.599	14245.53
551.962	14240.33
552.326	14337.28
552.689	14437.16
553.053	14358.07
553.417	14437.84
553.78	14529.82
554.143	14545.18
554.507	14644.16
554.87	14626.99
555.234	14760.32
555.597	14772.3
555.96	14879.86
556.323	14876.25
556.686	14798.51
557.05	15010.26
557.413	15005.96
557.776	15093.87
558.139	15149.23
558.502	15202.79
558.865	15212.51
559.228	15289.12
559.59	15360.53
559.953	15342.45
560.316	15464.71
560.679	15620.86
561.041	15581.77
561.404	15688.88
561.767	15761.87
562.129	15764.59
562.492	15864.7
562.854	15873.06
563.217	15822.44
563.579	15975.88
563.941	15988.53
564.304	16017.01
564.666	16121.19
565.028	16171.58
565.39	16178.59
565.753	16278.24
566.115	16345.59
566.477	16378.13
566.839	16444.57
567.201	16617.67
567.563	16536.99
567.925	16713.49
568.287	16722.98
568.648	16758.01
569.01	16833.71
569.372	17035.51
569.734	16948.28
570.095	17109.41
570.457	17179.24
570.819	17247.94
571.18	17270.99
571.542	17382.62
571.903	17424.88
572.265	17464.65
572.626	17574.03
572.987	17583.75
573.349	17626.91
573.71	17739
574.071	17849.95
574.432	17922.95
574.794	18068.25
575.155	18175.37
575.516	18073.9
575.877	18364.74
576.238	18370.17
576.599	18509.82
576.96	18610.61
577.32	18760.89
577.681	18854.67
578.042	18937.38
578.403	19090.15
578.763	19159.75
579.124	19307.32
579.485	19555.22
579.845	19636.35
580.206	19838.83
580.566	19872.27
580.927	20039.95
581.287	20321.3
581.648	20392.71
582.008	20686.94
582.368	20814.4
582.728	20896.88
583.089	21108.63
583.449	21214.39
583.809	21530.76
584.169	21675.39
584.529	21827.02
584.889	22173.46
585.249	22280.35
585.609	22455.93
585.969	22807.56
586.329	22924.85
586.688	23157.39
587.048	23400.32
587.408	23546.98
587.768	23760.99
588.127	24068.55
588.487	24202.1
588.846	24548.99
589.206	24683
589.565	24871.01
589.925	25312.13
590.284	25541.5
590.643	25715.74
591.003	26077.99
591.362	26381.26
591.721	26536.51
592.08	26910.96
592.44	27139.43
592.799	27378.74
593.158	27515.46
593.517	27956.13
593.876	28217.14
594.235	28403.35
594.593	28641.99
594.952	28958.14
595.311	29161.97
595.67	29420.95
596.029	29797.44
596.387	30036.53
596.746	30396.29
597.104	30421.6
597.463	30696.17
597.822	31127.57
598.18	31106.33
598.538	31511.52
598.897	31791.06
599.255	31822.92
599.613	32509.91
599.972	32508.1
600.33	32857.24
600.688	32837.36
601.046	33309.21
601.404	33631.69
601.762	33685.47
602.12	34063.09
602.478	34122.75
602.836	34355.06
603.194	34487.03
603.552	34606.8
603.91	34659.91
604.268	35201.81
604.625	35253.79
604.983	35621.69
605.341	35723.16
605.698	36045.18
606.056	36212.41
606.413	36328.56
606.771	36539.63
607.128	36783.47
607.485	36712.74
607.843	37115.21
608.2	37279.73
608.557	37588.87
608.914	37546.39
609.272	37774.63
609.629	38052.14
609.986	38177.1
610.343	38251.45
610.7	38573.7
611.057	38587.94
611.414	38816.63
611.771	39040.13
612.127	39262.5
612.484	39262.05
612.841	39438.09
613.198	39480.35
613.554	39718.31
613.911	39875.14
614.267	40132.98
614.624	40008.92
614.98	40165.53
615.337	40474.9
615.693	40504.95
616.05	40721.22
616.406	40922.12
616.762	40843.7
617.118	41021.77
617.475	40953.98
617.831	41188.32
618.187	41320.52
618.543	41528.43
618.899	41763.45
619.255	41740.17
619.611	41692.04
619.967	41943.56
620.323	42086.83
620.678	42067.4
621.034	42035.53
621.39	42185.36
621.746	42191.46
622.101	42764.1
622.457	42390.33
622.812	42517.55
623.168	42615.18
623.523	42717.78
623.879	42819.92
624.234	42483.2
624.589	42876.41
624.945	43036.64
625.3	43138.1
625.655	43085.68
626.01	43138.78
626.365	43282.05
626.72	43209.06
627.075	43082.06
627.43	43214.71
627.785	43181.94
628.14	43268.95
628.495	43383.52
628.85	43374.48
629.205	43297.42
629.559	43537.64
629.914	43357.98
630.269	43545.32
630.623	43412.9
630.978	43405.21
631.332	43477.08
631.687	43657.19
632.041	43543.29
632.396	43566.79
632.75	43365.89
633.104	43601.59
633.459	43369.74
633.813	43493.57
634.167	43724.3
634.521	43445.21
634.875	43647.47
635.229	43419.9
635.583	43370.19
635.937	43445.44
636.291	43449.06
636.645	43410.86
636.999	43344.88
637.352	43492.67
637.706	43363.18
638.06	43398.44
638.413	43276.18
638.767	43306.69
639.121	43454.25
639.474	43091.55
639.828	43215.84
640.181	43228.95
640.534	43241.6
640.888	43093.13
641.241	42995.51
641.594	43182.4
641.947	43154.83
642.301	43180.81
642.654	43092.45
643.007	43209.97
643.36	43130.19
643.713	43077.31
644.066	43089.29
644.419	43032.12
644.771	42833.93
645.124	42426.71
645.477	42325.47
645.83	42045.25
646.182	41805.93
646.535	41864.24
646.888	41923.22
647.24	41610.46
647.593	41951.92
647.945	41800.29
648.298	41709.21
648.65	41639.39
649.002	41597.35
649.355	41751.25
649.707	41702.21
650.059	41929.77
650.411	42402.98
650.763	42307.16
651.115	42755.97
651.467	42670.32
651.819	42665.57
652.171	42499.25
652.523	42433.94
652.875	42511.9
653.227	42328.63
653.578	42601.85
653.93	42452.92
654.282	42337.67
654.633	42289.54
654.985	42352.13
655.337	42312.14
655.688	42302.19
656.039	42468.29
656.391	42193.04
656.742	42250.22
657.094	42285.47
657.445	42313.94
657.796	42099.94
658.147	42256.54
658.498	42210.22
658.849	42281.4
659.2	42105.36
659.551	42101.07
659.902	42138.13
660.253	42189.2
660.604	42273.72
660.955	42034.86
661.306	42198.47
661.656	42115.76
662.007	42168.86
662.358	42246.6
662.708	42097.45
663.059	42194.85
663.409	42062.65
663.76	42159.37
664.11	42188.98
664.461	42176.09
664.811	42147.39
665.161	42076.89
665.511	42104.46
665.862	42065.81
666.212	42132.48
666.562	42123.89
666.912	41937.68
667.262	42080.96
667.612	41931.58
667.962	42066.49
668.312	41956.89
668.662	42092.71
669.011	41942.2
669.361	42017.68
669.711	41915.08
670.06	41866.72
670.41	41800.74
670.76	41880.73
671.109	42055.87
671.459	41864.69
671.808	41879.15
672.157	41942.88
672.507	41545.83
672.856	41697.91
673.205	41772.72
673.554	41809.78
673.904	41695.2
674.253	41829.89
674.602	41699.95
674.951	41232.39
675.3	41069.91
675.649	41621.53
675.998	41687.75
676.346	41530.91
676.695	41625.6
677.044	41441.42
677.393	41527.98
677.741	41657.24
678.09	41459.73
678.438	41403.69
678.787	41583.34
679.135	41499.28
679.484	41164.37
679.832	41442.1
680.181	41169.79
680.529	41402.33
680.877	41026.97
681.225	40986.07
681.573	41258.15
681.922	40987.65
682.27	40863.13
682.618	40804.38
682.966	40712.86
683.314	40818.62
683.661	40816.36
684.009	40635.8
684.357	40547.66
684.705	40497.04
685.053	40703.36
685.4	40424.73
685.748	40340.44
686.095	40363.71
686.443	40389.25
686.79	40132.98
687.138	40096.83
687.485	40164.62
687.832	40040.56
688.18	40125.3
688.527	39789.49
688.874	39806.67
689.221	39741.81
689.568	39677.18
689.915	39605.31
690.262	39510.4
690.609	39520.8
690.956	39349.28
691.303	39362.84
691.65	39192.9
691.997	39253.46
692.344	38944.77
692.69	38758.11
693.037	38920.59
693.383	38565.12
693.73	38750.42
694.077	38585
694.423	38507.49
694.769	38498.23
695.116	38237.67
695.462	38310.66
695.808	37966.94
696.155	38220.94
696.501	37860.05
696.847	38029.08
697.193	37782.76
697.539	37909.77
697.885	37548.42
698.231	37698.02
698.577	37442.89
698.923	37376.9
699.269	37297.8
699.614	37090.58
699.96	37038.15
700.306	37045.83
700.651	36982.33
700.997	36686.07
701.342	36690.59
701.688	36582.34
702.033	36501.89
702.379	36451.05
702.724	36353.2
703.069	36436.81
703.415	36154.33
703.76	36033.88
704.105	36140.55
704.45	36039.53
704.795	35801.8
705.14	35711.18
705.485	35716.38
705.83	35467.34
706.175	35576.95
706.52	35494.46
706.865	35304.64
707.209	35288.37
707.554	35204.75
707.899	35235.03
708.243	35078.2
708.588	35002.05
708.932	34833.01
709.277	34794.59
709.621	34846.34
709.966	34656.74
710.31	34704.65
710.654	34475.05
710.998	34552.11
711.342	34346.02
711.687	34392.57
712.031	34182.63
712.375	34035.07
712.719	34161.84
713.063	34101.28
713.407	34227.83
713.75	33975.18
714.094	34032.58
714.438	33764.11
714.782	33688.86
715.125	33583.33
715.469	33769.08
715.812	33474.4
716.156	33440.28
716.499	33454.74
716.843	33472.82
717.186	33237.35
717.53	33402.99
717.873	33268.31
718.216	33235.09
718.559	33110.34
718.902	32990.12
719.246	32899.28
719.589	32803.01
719.932	32726.85
720.275	32765.49
720.617	32723.24
720.96	32693.18
721.303	32674.88
721.646	32673.07
721.989	32503.13
722.331	32593.75
722.674	32400.08
723.016	32557.82
723.359	32409.35
723.701	32398.5
724.044	32100.65
724.386	32015.68
724.729	32139.3
725.071	32110.14
725.413	31967.78
725.755	31953.54
726.097	31883.26
726.439	31688.01
726.782	31695.01
727.124	31914.67
727.465	31702.02
727.807	31725.3
728.149	31611.17
728.491	31411.86
728.833	31508.58
729.175	31456.38
729.516	31433.1
729.858	31368.47
730.199	31379.99
730.541	31238.08
730.882	31264.29
731.224	31311.07
731.565	31129.38
731.906	31078.53
732.248	31204.41
732.589	30925.77
732.93	30997.63
733.271	30978.2
733.612	30920.35
733.953	31021.13
734.294	30707.92
734.635	30760.12
734.976	30779.78
735.317	30543.86
735.658	30686
735.999	30517.64
736.339	30492.11
736.68	30577.08
737.021	30537.98
737.361	30379.79
737.702	30398.33
738.042	30303.64
738.383	30205.56
738.723	30381.83
739.063	30270.64
739.404	30247.37
739.744	30086.47
740.084	29943.42
740.424	30061.16
740.764	30059.12
741.104	30061.61
741.444	29889.41
741.784	29850.99
742.124	29862.07
742.464	29761.05
742.804	29737.55
743.143	29768.29
743.483	29701.39
743.823	29559.25
744.162	29655.29
744.502	29561.28
744.841	29503.21
745.181	29715.63
745.52	29354.51
745.86	29559.7
746.199	29324.68
746.538	29331.69
746.877	29500.04
747.216	29440.38
747.556	29323.1
747.895	29358.8
748.234	29171.46
748.573	29145.25
748.911	29182.99
749.25	29069.32
749.589	28879.04
749.928	29029.32
750.267	28999.04
750.605	28914.75
750.944	28834.52
751.283	28730.35
751.621	28874.75
751.96	28656
752.298	28560.63
752.636	28646.73
752.975	28462.33
753.313	28358.6
753.651	28440.86
753.989	28380.52
754.327	28199.06
754.666	28185.5
755.004	28260.53
755.342	28128.33
755.679	28068.89
756.017	28006.75
756.355	28154.32
756.693	27924.72
757.031	27987.99
757.368	27729.47
