Data from hue_200_FLMS001491_00018.txt Node
Date: Tue Feb 07 16:42:53 GMT 2017
User: dcchb
Spectrometer: FLMS00149
Trigger mode: 0
Integration Time (sec): 2.000000E-2
Scans to average: 10
Electric dark correction enabled: true
Nonlinearity correction enabled: false
Boxcar width: 0
XAxis mode: Wavelengths
Number of Pixels in Spectrum: 2048
>>>>>Begin Spectral Data<<<<<
341.393	-8.62
341.776	-8.62
342.16	-8.62
342.543	-60.14
342.927	-70.99
343.31	-64.43
343.693	-66.24
344.077	-63.98
344.46	-72.34
344.843	-42.74
345.226	-28.95
345.61	-51.1
345.993	-13.14
346.376	-15.4
346.759	-1.84
347.142	39.52
347.525	40.65
347.908	56.47
348.291	70.93
348.674	89.23
349.057	123.36
349.44	136.69
349.823	150.7
350.206	151.61
350.588	198.84
350.971	201.1
351.354	239.06
351.737	222.79
352.119	254.65
352.502	274.09
352.884	283.13
353.267	279.29
353.65	297.14
354.032	263.92
354.414	304.37
354.797	324.03
355.179	329.91
355.562	310.7
355.944	342.11
356.326	332.62
356.709	337.82
357.091	348.21
357.473	321.77
357.855	329.68
358.238	338.49
358.62	351.83
359.002	342.34
359.384	332.39
359.766	323.81
360.148	349.79
360.53	324.71
360.912	325.61
361.294	325.16
361.676	340.98
362.057	333.52
362.439	333.75
362.821	336.46
363.203	330.13
363.584	321.77
363.966	292.39
364.348	311.38
364.729	327.19
365.111	316.35
365.493	321.55
365.874	323.13
366.256	318.16
366.637	314.77
367.019	307.53
367.4	317.25
367.781	307.53
368.163	316.8
368.544	317.93
368.925	296.46
369.306	317.7
369.688	297.59
370.069	327.65
370.45	327.87
370.831	318.61
371.212	312.28
371.593	333.3
371.974	313.41
372.355	315.67
372.736	312.96
373.117	325.84
373.498	340.75
373.879	308.44
374.26	322.68
374.641	310.92
375.021	323.13
375.402	322.45
375.783	319.96
376.163	341.21
376.544	317.93
376.925	325.61
377.305	324.71
377.686	339.4
378.066	320.42
378.447	327.19
378.827	346.4
379.208	322.9
379.588	338.04
379.968	339.4
380.349	336.46
380.729	323.81
381.109	337.59
381.489	349.57
381.87	342.79
382.25	339.4
382.63	329
383.01	342.56
383.39	320.19
383.77	337.36
384.15	338.04
384.53	346.63
384.91	345.27
385.29	337.82
385.67	365.39
386.049	354.99
386.429	373.97
386.809	370.36
387.189	336.91
387.568	364.48
387.948	338.04
388.328	348.21
388.707	365.61
389.087	345.95
389.466	371.94
389.846	375.56
390.225	377.81
390.605	368.32
390.984	364.93
391.363	366.29
391.743	375.33
392.122	374.88
392.501	367.87
392.881	370.81
393.26	357.25
393.639	392.5
394.018	377.14
394.397	381.66
394.776	386.85
395.155	386.85
395.534	396.8
395.913	379.62
396.292	409.23
396.671	397.25
397.05	414.65
397.429	393.41
397.808	399.74
398.186	396.8
398.565	391.15
398.944	408.55
399.323	406.06
399.701	410.58
400.08	402.45
400.458	409
400.837	435.89
401.215	435.21
401.594	435.67
401.972	420.98
402.351	446.51
402.729	397.25
403.107	437.7
403.486	441.77
403.864	435.89
404.242	448.32
404.62	454.88
404.999	455.55
405.377	462.56
405.755	432.95
406.133	473.41
406.511	459.85
406.889	474.99
407.267	494.2
407.645	493.74
408.023	497.59
408.401	518.15
408.779	491.48
409.156	501.2
409.534	518.6
409.912	549.56
410.29	535.1
410.667	546.4
411.045	569.45
411.422	558.15
411.8	570.13
412.178	557.92
412.555	572.39
412.933	600.18
413.31	609
413.687	600.86
414.065	601.31
414.442	625.27
414.819	633.18
415.197	654.42
415.574	648.99
415.951	681.08
416.328	685.15
416.705	663.46
417.082	681.99
417.46	708.65
417.837	703.23
418.214	698.03
418.591	722.21
418.967	721.99
419.344	711.82
419.721	764.25
420.098	755.43
420.475	779.39
420.852	773.51
421.228	809.22
421.605	828.42
421.982	807.18
422.358	841.31
422.735	851.47
423.111	872.49
423.488	888.76
423.864	915.88
424.241	949.1
424.617	944.13
424.994	950
425.37	954.07
425.746	986.61
426.123	978.03
426.499	1020.74
426.875	1022.32
427.251	1043.79
427.627	1074.07
428.003	1092.37
428.379	1076.55
428.756	1098.47
429.132	1084.01
429.507	1128.98
429.883	1128.76
430.259	1165.36
430.635	1151.13
431.011	1164.69
431.387	1186.16
431.763	1208.08
432.138	1215.53
432.514	1233.61
432.89	1269.77
433.265	1309.54
433.641	1303.89
434.016	1324.68
434.392	1392.48
434.767	1419.82
435.143	1415.08
435.518	1432.93
435.894	1442.65
436.269	1486.94
436.644	1517.45
437.02	1540.72
437.395	1560.38
437.77	1571.91
438.145	1622.08
438.52	1654.17
438.895	1669.08
439.271	1696.88
439.646	1735.07
440.021	1733.26
440.395	1766.48
440.77	1744.11
441.145	1782.3
441.52	1861.62
441.895	1862.3
442.27	1901.16
442.645	1891.22
443.019	1909.75
443.394	1961.5
443.769	1951.33
444.143	1969.41
444.518	2019.35
444.892	2001.73
445.267	2001.28
445.641	2062.06
446.016	2043.53
446.39	2075.4
446.764	2123.98
447.139	2062.29
447.513	2127.6
447.887	2145.9
448.262	2148.62
448.636	2159.91
449.01	2182.97
449.384	2238.78
449.758	2255.96
450.132	2279.46
450.506	2309.52
450.88	2284.88
451.254	2319.91
451.628	2353.13
452.002	2392.23
452.376	2381.83
452.75	2411.66
453.123	2419.12
453.497	2450.3
453.871	2507.7
454.244	2548.83
454.618	2527.36
454.992	2587.47
455.365	2610.3
455.739	2636.96
456.112	2702.05
456.486	2709.51
456.859	2738.2
457.232	2797.19
457.606	2782.5
457.979	2785.66
458.352	2872.44
458.725	2919.89
459.099	2932.32
459.472	2993.11
459.845	2981.36
460.218	2971.87
460.591	3048.48
460.964	3010.29
461.337	3079.89
461.71	3154.01
462.083	3216.84
462.456	3216.61
462.829	3230.4
463.201	3283.28
463.574	3322.82
463.947	3345.65
464.32	3416.15
464.692	3438.3
465.065	3475.13
465.438	3529.14
465.81	3550.84
466.183	3612.08
466.555	3698.18
466.928	3631.97
467.3	3702.7
467.672	3772.08
468.045	3867.44
468.417	3835.58
468.789	3887.1
469.161	3944.73
469.534	3992.18
469.906	4112.63
470.278	4076.7
470.65	4110.37
471.022	4199.64
471.394	4268.33
471.766	4353.3
472.138	4346.98
472.51	4478.95
472.882	4556.46
473.253	4525.73
473.625	4586.07
473.997	4667.42
474.369	4742.45
474.74	4778.15
475.112	4886.85
475.484	4902.67
475.855	5037.35
476.227	5030.35
476.598	5147.86
476.97	5220.85
477.341	5335.42
477.713	5361.41
478.084	5388.3
478.455	5529.32
478.827	5615.87
479.198	5746.04
479.569	5734.96
479.94	5915.07
480.311	5951
480.682	6115.97
481.053	6182.18
481.424	6257.21
481.795	6298.56
482.166	6425.79
482.537	6464.66
482.908	6562.06
483.279	6654.49
483.65	6721.83
484.021	6866.01
484.391	6924.31
484.762	6944.65
485.133	6994.14
485.503	7150.97
485.874	7235.26
486.244	7345.54
486.615	7438.42
486.985	7505.76
487.356	7661.47
487.726	7676.61
488.097	7824.4
488.467	7834.12
488.837	8016.94
489.207	8046.31
489.578	8198.4
489.948	8229.81
490.318	8312.52
490.688	8314.33
491.058	8468.45
491.428	8515
491.798	8649.69
492.168	8776.01
492.538	8769.01
492.908	8929.45
493.278	8987.53
493.648	8947.76
494.017	9102.56
494.387	9090.58
494.757	9202.44
495.126	9261.42
495.496	9271.14
495.866	9346.62
496.235	9376.45
496.605	9463.68
496.974	9475.88
497.344	9634.07
497.713	9582.54
498.082	9609.66
498.452	9727.17
498.821	9726.04
499.19	9727.17
499.559	9811.24
499.928	9817.11
500.298	9926.72
500.667	9928.75
501.036	9978.47
501.405	10026.37
501.774	9997.22
502.143	10097.79
502.512	10081.97
502.88	10166.71
503.249	10239.93
503.618	10209.65
503.987	10270.89
504.356	10289.64
504.724	10324.67
505.093	10358.12
505.462	10328.74
505.83	10417.32
506.199	10434.5
506.567	10593.59
506.936	10534.16
507.304	10595.4
507.672	10569.19
508.041	10615.06
508.409	10720.37
508.777	10752.68
509.145	10790.65
509.514	10771.89
509.882	10767.82
510.25	10764.89
510.618	10801.04
510.986	10777.09
511.354	10845.11
511.722	10893.92
512.09	10994.26
512.458	10916.29
512.826	10989.74
513.193	10902.28
513.561	11030.42
513.929	11034.26
514.297	11065.44
514.664	11159.45
515.032	11086.01
515.4	11194.25
515.767	11124.65
516.135	11209.17
516.502	11119
516.869	11273.35
517.237	11175.95
517.604	11159.9
517.972	11283.06
518.339	11240.81
518.706	11235.16
519.073	11192.67
519.44	11253.69
519.808	11332.78
520.175	11282.61
520.542	11393.34
520.909	11421.14
521.276	11299.79
521.643	11396.96
522.009	11365.32
522.376	11412.1
522.743	11419.56
523.11	11434.93
523.477	11479.44
523.843	11488.03
524.21	11556.05
524.577	11561.48
524.943	11536.84
525.31	11527.58
525.676	11629.27
526.043	11617.52
526.409	11575.49
526.776	11666.33
527.142	11639.44
527.508	11677.18
527.874	11628.59
528.241	11667.91
528.607	11542.27
528.973	11728.25
529.339	11605.54
529.705	11603.73
530.071	11631.98
530.437	11664.98
530.803	11653.45
531.169	11522.83
531.535	11506.11
531.901	11568.26
532.267	11476.28
532.632	11494.58
532.998	11501.59
533.364	11465.88
533.73	11390.86
534.095	11448.94
534.461	11392.67
534.826	11509.27
535.192	11376.17
535.557	11415.26
535.923	11301.14
536.288	11312.67
536.653	11266.79
537.019	11211.65
537.384	11247.13
537.749	11215.95
538.114	11184.76
538.479	11142.96
538.845	11099.79
539.21	11029.96
539.575	11019.12
539.94	11007.37
540.305	10978.21
540.67	10790.42
541.034	10848.73
541.399	10876.97
541.764	10788.61
542.129	10747.49
542.494	10727.37
542.858	10680.37
543.223	10641.05
543.587	10636.53
543.952	10555.4
544.316	10561.28
544.681	10460.94
545.045	10463.88
545.41	10359.47
545.774	10383.2
546.138	10367.38
546.503	10278.35
546.867	10229.76
547.231	10314.5
547.595	10233.83
547.959	10225.92
548.324	10061.4
548.688	10062.53
549.052	9987.96
549.416	10002.42
549.779	10013.27
550.143	9892.14
550.507	9923.33
550.871	9943.89
551.235	9817.34
551.599	9846.04
551.962	9796.55
552.326	9689.89
552.689	9804.69
553.053	9670.45
553.417	9626.16
553.78	9682.88
554.143	9583.22
554.507	9636.1
554.87	9590.45
555.234	9609.66
555.597	9452.6
555.96	9486.95
556.323	9445.6
556.686	9378.26
557.05	9472.49
557.413	9384.81
557.776	9348.88
558.139	9386.84
558.502	9352.95
558.865	9326.96
559.228	9315.21
559.59	9315.88
559.953	9242.21
560.316	9329.44
560.679	9295.32
561.041	9272.95
561.404	9277.92
561.767	9252.84
562.129	9181.2
562.492	9202.44
562.854	9241.54
563.217	9155.21
563.579	9210.58
563.941	9179.84
564.304	9178.04
564.666	9245.6
565.028	9236.79
565.39	9193.63
565.753	9193.85
566.115	9159.73
566.477	9219.39
566.839	9127.64
567.201	9198.15
567.563	9237.69
567.925	9222.55
568.287	9206.28
568.648	9175.55
569.01	9234.08
569.372	9283.8
569.734	9236.79
570.095	9200.18
570.457	9146.4
570.819	9252.16
571.18	9172.84
571.542	9186.17
571.903	9241.08
572.265	9182.33
572.626	9262.78
572.987	9282.89
573.349	9232.95
573.71	9277.69
574.071	9261.42
574.432	9272.04
574.794	9280.41
575.155	9274.3
575.516	9238.37
575.877	9239.95
576.238	9228.66
576.599	9295.77
576.96	9306.17
577.32	9204.93
577.681	9316.11
578.042	9310.01
578.403	9255.32
578.763	9216.9
579.124	9281.31
579.485	9282.44
579.845	9318.82
580.206	9254.42
580.566	9256.45
580.927	9306.62
581.287	9289.67
581.648	9263.91
582.008	9225.72
582.368	9240.18
582.728	9252.61
583.089	9231.14
583.449	9269.11
583.809	9243.34
584.169	9307.3
584.529	9185.72
584.889	9259.62
585.249	9240.63
585.609	9176.23
585.969	9270.01
586.329	9145.27
586.688	9194.08
587.048	9252.84
587.408	9132.84
587.768	9151.14
588.127	9209.9
588.487	9051.71
588.846	9158.6
589.206	9127.42
589.565	9095.55
589.925	9142.78
590.284	9179.62
590.643	9157.7
591.003	9145.95
591.362	9144.59
591.721	9169.67
592.08	9128.09
592.44	9122.67
592.799	9132.39
593.158	9100.07
593.517	9101.65
593.876	9103.91
594.235	9053.29
594.593	9039.06
594.952	9094.42
595.311	9029.56
595.67	9095.33
596.029	9137.36
596.387	9100.07
596.746	9067.98
597.104	9029.11
597.463	9038.83
597.822	9076.34
598.18	9077.47
598.538	9075.67
598.897	9108.88
599.255	8918.38
599.613	9105.04
599.972	9038.15
600.33	9016.46
600.688	9039.51
601.046	9065.04
601.404	9036.8
601.762	9009.9
602.12	9133.97
602.478	9003.8
602.836	9089.45
603.194	8985.27
603.552	8995.67
603.91	8974.2
604.268	8981.43
604.625	8998.83
604.983	8992.05
605.341	8953.18
605.698	8989.79
606.056	9030.69
606.413	8967.65
606.771	8966.97
607.128	9035.21
607.485	9026.18
607.843	8956.8
608.2	9038.83
608.557	9018.94
608.914	9013.29
609.272	9071.37
609.629	9049.45
609.986	9091.94
610.343	9062.33
610.7	9074.99
611.057	9014.88
611.414	9084.48
611.771	9027.98
612.127	9134.42
612.484	9128.77
612.841	9122.22
613.198	9095.55
613.554	9107.08
613.911	9127.64
614.267	9119.28
614.624	9086.51
614.98	9121.99
615.337	9101.43
615.693	9151.6
616.05	9106.62
616.406	9151.82
616.762	9132.84
617.118	9157.25
617.475	9152.5
617.831	9121.09
618.187	9184.36
618.543	9161.09
618.899	9275.43
619.255	9117.92
619.611	9208.32
619.967	9238.37
620.323	9217.81
620.678	9194.98
621.034	9236.79
621.39	9217.81
621.746	9189.33
622.101	9256.45
622.457	9139.84
622.812	9184.59
623.168	9240.63
623.523	9170.8
623.879	9205.15
624.234	9144.82
624.589	9171.93
624.945	9225.04
625.3	9169.67
625.655	9172.61
626.01	9161.76
626.365	9209.67
626.72	9137.13
627.075	9141.88
627.43	9175.55
627.785	9154.53
628.14	9174.87
628.495	9114.99
628.85	9114.99
629.205	9086.29
629.559	9106.4
629.914	9141.65
630.269	9114.08
630.623	9079.28
630.978	9093.97
631.332	9136.23
631.687	9136.68
632.041	9033.86
632.396	9153.86
632.75	9007.19
633.104	9078.15
633.459	9015.55
633.813	8980.98
634.167	8990.24
634.521	9014.2
634.875	8967.42
635.229	8926.06
635.583	8911.6
635.937	8905.5
636.291	8927.19
636.645	8941.43
636.999	8858.04
637.352	8877.48
637.706	8900.08
638.06	8948.66
638.413	8902.34
638.767	8807.2
639.121	8818.27
639.474	8802
639.828	8817.82
640.181	8815.11
640.534	8854.2
640.888	8776.69
641.241	8785.28
641.594	8709.35
641.947	8769.23
642.301	8742.34
642.654	8698.05
643.007	8796.12
643.36	8711.16
643.713	8717.93
644.066	8704.6
644.419	8655.56
644.771	8652.4
645.124	8562.01
645.477	8568.56
645.83	8494.44
646.182	8529.46
646.535	8423.03
646.888	8459.18
647.24	8463.48
647.593	8432.07
647.945	8477.94
648.298	8409.02
648.65	8412.86
649.002	8422.8
649.355	8474.55
649.707	8463.25
650.059	8471.16
650.411	8613.53
650.763	8588.9
651.115	8658.73
651.467	8579.18
651.819	8599.75
652.171	8645.17
652.523	8571.5
652.875	8592.97
653.227	8557.71
653.578	8645.85
653.93	8608.56
654.282	8600.88
654.633	8594.1
654.985	8636.13
655.337	8581.44
655.688	8598.84
656.039	8648.56
656.391	8570.82
656.742	8625.28
657.094	8600.88
657.445	8651.27
657.796	8656.92
658.147	8638.61
658.498	8612.17
658.849	8577.37
659.2	8616.69
659.551	8605.85
659.902	8672.74
660.253	8689.91
660.604	8682.23
660.955	8677.94
661.306	8706.86
661.656	8697.37
662.007	8701.44
662.358	8712.74
662.708	8667.77
663.059	8676.81
663.409	8644.49
663.76	8763.81
664.11	8741.21
664.461	8697.37
664.811	8769.68
665.161	8716.58
665.511	8735.56
665.862	8719.06
666.212	8727.2
666.562	8741.89
666.912	8715
667.262	8717.03
667.612	8695.34
667.962	8735.11
668.312	8703.92
668.662	8782.79
669.011	8713.64
669.361	8706.86
669.711	8739.18
670.06	8720.19
670.41	8675.68
670.76	8695.11
671.109	8665.51
671.459	8715.9
671.808	8668.44
672.157	8659.63
672.507	8628.9
672.856	8608.78
673.205	8644.94
673.554	8634.32
673.904	8578.05
674.253	8645.62
674.602	8604.49
674.951	8530.14
675.3	8464.38
675.649	8584.83
675.998	8614.43
676.346	8591.16
676.695	8615.56
677.044	8553.65
677.393	8617.82
677.741	8558.62
678.09	8538.05
678.438	8516.58
678.787	8525.4
679.135	8465.29
679.484	8431.84
679.832	8530.82
680.181	8406.3
680.529	8486.08
680.877	8442.46
681.225	8441.33
681.573	8395.23
681.922	8365.18
682.27	8318.85
682.618	8353.65
682.966	8351.39
683.314	8339.87
683.661	8295.57
684.009	8268.91
684.357	8256.03
684.705	8241.79
685.053	8251.05
685.4	8214.45
685.748	8196.14
686.095	8150.72
686.443	8114.79
686.79	8129.02
687.138	8112.53
687.485	8124.5
687.832	8038.4
688.18	8074.34
688.527	8041.12
688.874	8018.07
689.221	8021.46
689.568	7935.58
689.915	7947.33
690.262	7975.81
690.609	7929.03
690.956	7913.66
691.303	7858.52
691.65	7769.03
691.997	7778.98
692.344	7752.08
692.69	7705.76
693.037	7740.79
693.383	7651.75
693.73	7695.14
694.077	7600
694.423	7600.45
694.769	7621.24
695.116	7534.01
695.462	7520
695.808	7496.5
696.155	7544.41
696.501	7429.83
696.847	7470.51
697.193	7387.57
697.539	7424.64
697.885	7382.83
698.231	7344.19
698.577	7297.63
698.923	7317.97
699.269	7216.05
699.614	7189.39
699.96	7159.33
700.306	7153.68
700.651	7179.22
700.997	7093.12
701.342	7108.26
701.688	7058.54
702.033	7071.2
702.379	7076.62
702.724	7030.75
703.069	6945.33
703.415	6860.36
703.76	6922.73
704.105	6914.82
704.45	6942.84
704.795	6837.76
705.14	6804.54
705.485	6844.09
705.83	6779.91
706.175	6763.64
706.52	6747.14
706.865	6735.84
707.209	6668.95
707.554	6652.9
707.899	6682.28
708.243	6678.89
708.588	6651.32
708.932	6598.89
709.277	6549.4
709.621	6570.87
709.966	6494.72
710.31	6593.47
710.654	6490.42
710.998	6496.3
711.342	6492.46
711.687	6452.91
712.031	6437.99
712.375	6406.58
712.719	6450.42
713.063	6362.06
713.407	6412.91
713.75	6385.57
714.094	6412.23
714.438	6331.78
714.782	6366.13
715.125	6296.98
715.469	6376.53
715.812	6273.71
716.156	6293.37
716.499	6279.35
716.843	6271.67
717.186	6272.35
717.53	6255.4
717.873	6240.94
718.216	6176.98
718.559	6238.23
718.902	6186.7
719.246	6163.43
719.589	6132.24
719.932	6162.52
720.275	6201.16
720.617	6221.73
720.96	6160.71
721.303	6197.1
721.646	6129.08
721.989	6129.75
722.331	6185.12
722.674	6092.01
723.016	6139.92
723.359	6127.49
723.701	6134.95
724.044	6079.36
724.386	6089.53
724.729	6097.66
725.071	6040.04
725.413	6132.69
725.755	6053.15
726.097	6057.67
726.439	6078.91
726.782	6067.16
727.124	6086.82
727.465	6041.62
727.807	5986.03
728.149	6032.81
728.491	6054.05
728.833	6114.16
729.175	5988.51
729.516	6028.06
729.858	6066.03
730.199	5995.75
730.541	6029.42
730.882	5999.59
731.224	6036.88
731.565	6045.01
731.906	6001.62
732.248	6052.47
732.589	6027.84
732.93	5964.33
733.271	6015.86
733.612	6027.38
733.953	6018.34
734.294	6038.68
734.635	5999.14
734.976	6016.76
735.317	6021.28
735.658	6038.01
735.999	6014.05
736.339	6027.16
736.68	6054.5
737.021	6052.47
737.361	6046.14
737.702	6077.55
738.042	6087.5
738.383	6067.61
738.723	6085.24
739.063	6095.4
739.404	6079.13
739.744	6091.79
740.084	6045.46
740.424	6119.36
740.764	6108.29
741.104	6102.86
741.444	6151.45
741.784	6132.01
742.124	6162.3
742.464	6226.93
742.804	6210.2
743.143	6226.7
743.483	6221.28
743.823	6266.47
744.162	6237.77
744.502	6346.02
744.841	6313.93
745.181	6400.26
745.52	6419.01
745.86	6438.45
746.199	6472.57
746.538	6523.42
746.877	6532.46
747.216	6605.22
747.556	6621.04
747.895	6674.15
748.234	6756.18
748.573	6752.34
748.911	6790.3
749.25	6912.11
749.589	6969.51
749.928	7042.5
750.267	7108.49
750.605	7091.54
750.944	7153.91
751.283	7265.09
751.621	7377.63
751.96	7502.6
752.298	7543.28
752.636	7645.65
752.975	7687.68
753.313	7790.73
753.651	7926.99
753.989	7996.6
754.327	8095.58
754.666	8180.77
755.004	8308.91
755.342	8421.67
755.679	8516.36
756.017	8679.74
756.355	8864.37
756.693	8945.73
757.031	9054.87
757.368	9273.4
757.706	9369.44
758.044	9570.79
758.381	9722.43
758.719	9787.96
759.056	9981.18
759.394	10161.74
759.731	10272.02
760.068	10455.74
760.405	10590.65
760.743	10747.49
761.08	10932.34
761.417	11030.42
761.754	11191.77
762.091	11451.2
762.428	11607.35
762.765	11730.51
763.102	11935.7
763.438	12066.32
763.775	12300.89
764.112	12459.31
764.449	12643.71
764.785	12786.98
765.122	12821.56
765.458	13034.88
765.795	13177.7
766.131	13424.25
766.467	13559.39
