Data from hue_60_FLMS001491_81.txt Node
Date: Mon Feb 06 15:18:02 GMT 2017
User: dcchb
Spectrometer: FLMS00149
Trigger mode: 0
Integration Time (sec): 2.000000E-2
Scans to average: 10
Electric dark correction enabled: true
Nonlinearity correction enabled: false
Boxcar width: 0
XAxis mode: Wavelengths
Number of Pixels in Spectrum: 2048
>>>>>Begin Spectral Data<<<<<
341.393	-19.28
341.776	-19.28
342.16	-19.28
342.543	-53.18
342.927	-82.33
343.31	-66.06
343.693	-66.51
344.077	-66.28
344.46	-56.11
344.843	-68.54
345.226	-38.04
345.61	-57.02
345.993	-32.61
346.376	11
346.759	18.23
347.142	22.98
347.525	51.23
347.908	43.32
348.291	72.02
348.674	108.85
349.057	123.54
349.44	110.21
349.823	126.48
350.206	164.9
350.588	194.27
350.971	198.12
351.354	220.26
351.737	232.47
352.119	258.91
352.502	250.77
352.884	280.83
353.267	276.53
353.65	313.59
354.032	298
354.414	283.76
354.797	315.85
355.179	291.9
355.562	326.02
355.944	321.95
356.326	336.19
356.709	342.97
357.091	341.16
357.473	353.82
357.855	326.7
358.238	313.37
358.62	356.53
359.002	353.14
359.384	345.23
359.766	356.53
360.148	360.15
360.53	333.48
360.912	337.55
361.294	328.73
361.676	337.32
362.057	349.98
362.439	326.02
362.821	334.16
363.203	328.73
363.584	319.02
363.966	334.84
364.348	325.34
364.729	351.33
365.111	335.29
365.493	308.62
365.874	334.61
366.256	308.85
366.637	323.54
367.019	319.24
367.4	338.9
367.781	314.5
368.163	328.28
368.544	308.62
368.925	315.63
369.306	317.44
369.688	313.14
370.069	311.79
370.45	319.92
370.831	326.47
371.212	302.52
371.593	306.59
371.974	327.15
372.355	331.22
372.736	308.17
373.117	328.51
373.498	317.44
373.879	320.15
374.26	318.34
374.641	303.2
375.021	307.94
375.402	326.47
375.783	328.06
376.163	309.75
376.544	322.41
376.925	312.92
377.305	319.47
377.686	330.54
378.066	337.77
378.447	329.41
378.827	322.63
379.208	336.19
379.588	333.03
379.968	309.53
380.349	339.81
380.729	350.2
381.109	347.49
381.489	330.09
381.87	339.36
382.25	343.88
382.63	342.97
383.01	351.56
383.39	364.44
383.77	332.8
384.15	353.59
384.53	349.98
384.91	362.18
385.29	345.23
385.67	347.94
386.049	349.98
386.429	351.33
386.809	365.8
387.189	356.53
387.568	349.75
387.948	340.03
388.328	363.54
388.707	365.34
389.087	372.57
389.466	370.32
389.846	350.65
390.225	358.11
390.605	351.78
390.984	360.6
391.363	363.54
391.743	344.33
392.122	342.07
392.501	347.94
392.881	376.64
393.26	354.5
393.639	353.37
394.018	370.09
394.397	352.69
394.776	363.31
395.155	391.33
395.534	361.05
395.913	366.02
396.292	387.94
396.671	377.77
397.05	384.1
397.429	392.91
397.808	399.24
398.186	375.06
398.565	399.24
398.944	382.52
399.323	386.59
399.701	396.08
400.08	367.38
400.458	404.21
400.837	387.72
401.215	409.41
401.594	403.53
401.972	401.5
402.351	409.86
402.729	390.2
403.107	389.75
403.486	411.9
403.864	389.52
404.242	410.54
404.62	416.64
404.999	415.96
405.377	418.22
405.755	409.18
406.133	409.41
406.511	410.99
406.889	405.12
407.267	424.1
407.645	428.84
408.023	411.44
408.401	403.99
408.779	420.48
409.156	441.5
409.534	464.32
409.912	417.55
410.29	451.44
410.667	442.63
411.045	443.31
411.422	444.89
411.8	435.62
412.178	456.41
412.555	443.08
412.933	458.22
413.31	465.91
413.687	467.94
414.065	446.47
414.442	451.89
414.819	469.3
415.197	461.61
415.574	456.41
415.951	487.15
416.328	448.05
416.705	466.36
417.082	463.19
417.46	491.67
417.837	505.68
418.214	501.61
418.591	499.13
418.967	486.47
419.344	495.96
419.721	500.71
420.098	474.95
420.475	488.73
420.852	494.61
421.228	511.78
421.605	509.97
421.982	502.74
422.358	512.68
422.735	504.55
423.111	499.58
423.488	498.9
423.864	513.14
424.241	531.44
424.617	521.72
424.994	544.77
425.37	546.58
425.746	528.73
426.123	549.29
426.499	528.05
426.875	541.38
427.251	562.63
427.627	555.4
428.003	569.41
428.379	573.02
428.756	573.7
429.132	574.83
429.507	568.5
429.883	585.45
430.259	580.03
430.635	606.69
431.011	583.19
431.387	580.48
431.763	580.25
432.138	606.69
432.514	594.72
432.89	584.32
433.265	595.85
433.641	626.35
434.016	620.93
434.392	647.37
434.767	633.36
435.143	626.58
435.518	630.42
435.894	660.7
436.269	634.71
436.644	649.18
437.02	650.31
437.395	677.65
437.77	666.8
438.145	665.9
438.52	649.86
438.895	693.24
439.271	698.89
439.646	702.96
440.021	705.45
440.395	694.83
440.77	703.64
441.145	701.61
441.52	698.89
441.895	691.21
442.27	726.46
442.645	707.48
443.019	726.24
443.394	698.22
443.769	697.31
444.143	720.36
444.518	739.12
444.892	745.67
445.267	741.83
445.641	752.23
446.016	747.25
446.39	752.45
446.764	771.89
447.139	776.86
447.513	759.91
447.887	779.57
448.262	772.11
448.636	774.37
449.01	770.53
449.384	770.98
449.758	781.6
450.132	818.44
450.506	796.97
450.88	839.91
451.254	800.81
451.628	827.03
452.002	817.99
452.376	820.92
452.75	850.98
453.123	851.66
453.497	842.39
453.871	874.71
454.244	881.71
454.618	882.17
454.992	882.62
455.365	893.01
455.739	905.67
456.112	906.35
456.486	928.27
456.859	909.51
457.232	923.52
457.606	897.53
457.979	916.29
458.352	975.95
458.725	956.29
459.099	983.18
459.472	997.19
459.845	998.32
460.218	1007.81
460.591	1038.55
460.964	1033.35
461.337	1052.11
461.71	1062.05
462.083	1052.56
462.456	1060.24
462.829	1075.83
463.201	1100.92
463.574	1105.66
463.947	1138.2
464.32	1132.1
464.692	1165.77
465.065	1150.18
465.438	1200.12
465.81	1223.63
466.183	1256.17
466.555	1244.42
466.928	1253.91
467.3	1234.93
467.672	1294.58
468.045	1313.12
468.417	1302.49
468.789	1340.46
469.161	1349.05
469.534	1376.84
469.906	1407.58
470.278	1430.85
470.65	1482.15
471.022	1492.77
471.394	1529.15
471.766	1553.79
472.138	1558.53
472.51	1599.66
472.882	1646.21
473.253	1688.02
473.625	1729.6
473.997	1753.33
474.369	1772.09
474.74	1785.42
475.112	1875.36
475.484	1885.76
475.855	1967.56
476.227	1981.57
476.598	2071.74
476.97	2067.22
477.341	2186.09
477.713	2219.08
478.084	2259.76
478.455	2275.8
478.827	2372.07
479.198	2481.22
479.569	2514.21
479.94	2626.3
480.311	2652.06
480.682	2757.6
481.053	2844.15
481.424	2930.02
481.795	2995.1
482.166	3095.67
482.537	3169.34
482.908	3307.87
483.279	3348.77
483.65	3478.26
484.021	3571.13
484.391	3673.28
484.762	3760.73
485.133	3863.33
485.503	3968.64
485.874	4062.42
486.244	4225.58
486.615	4357.33
486.985	4445.91
487.356	4595.74
487.726	4718.45
488.097	4859.91
488.467	4957.77
488.837	5082.28
489.207	5223.97
489.578	5415.61
489.948	5515.26
490.318	5686.56
490.688	5784.64
491.058	5962.48
491.428	6108.47
491.798	6243.83
492.168	6469.36
492.538	6568.12
492.908	6706.87
493.278	6908.22
493.648	6943.93
494.017	7127.43
494.387	7346.18
494.757	7448.55
495.126	7662.1
495.496	7805.6
495.866	7898.7
496.235	8079.94
496.605	8300.05
496.974	8355.64
497.344	8525.35
497.713	8737.55
498.082	8832.92
498.452	9023.42
498.821	9150.88
499.19	9241.27
499.559	9485.33
499.928	9578.21
500.298	9746.11
500.667	9997.18
501.036	9946.33
501.405	10211.86
501.774	10268.13
502.143	10546.54
502.512	10576.15
502.88	10753.54
503.249	10808.01
503.618	11016.59
503.987	11085.97
504.356	11230.37
504.724	11475.56
505.093	11617.03
505.462	11636.69
505.83	11844.82
506.199	11988.99
506.567	12221.3
506.936	12251.81
507.304	12423.11
507.672	12598.69
508.041	12682.08
508.409	12822.87
508.777	13007.05
509.145	13200.49
509.514	13206.36
509.882	13440.03
510.25	13512.12
510.618	13633.7
510.986	13762.51
511.354	13862.62
511.722	14084.53
512.09	14381.92
512.458	14281.14
512.826	14507.12
513.193	14634.8
513.561	14786.66
513.929	14837.73
514.297	15050.16
514.664	15231.17
515.032	15276.82
515.4	15413.31
515.767	15540.54
516.135	15683.36
516.502	15648.78
516.869	15950.24
517.237	16138.49
517.604	16096.68
517.972	16327.86
518.339	16462.77
518.706	16503.45
519.073	16645.37
519.44	16752.94
519.808	16997.9
520.175	16902.08
520.542	17312.69
520.909	17320.38
521.276	17434.5
521.643	17712.01
522.009	17829.97
522.376	17908.39
522.743	18027.93
523.11	18237.64
523.477	18335.27
523.843	18541.36
524.21	18740.68
524.577	18970.96
524.943	18986.1
525.31	19138.64
525.676	19224.06
526.043	19500.89
526.409	19558.29
526.776	19699.07
527.142	19862.01
527.508	20004.6
527.874	20156.46
528.241	20307.87
528.607	20319.85
528.973	20546.28
529.339	20533.4
529.705	20905.14
530.071	20856.78
530.437	21011.81
530.803	21153.05
531.169	21372.25
531.535	21306.94
531.901	21447.73
532.267	21413.38
532.632	21670.77
532.998	21784.89
533.364	21912.12
533.73	22008.16
534.095	22230.53
534.461	22239.8
534.826	22309.63
535.192	22451.09
535.557	22552.1
535.923	22683.85
536.288	22692.67
536.653	22854.47
537.019	22882.04
537.384	22999.78
537.749	23067.12
538.114	23105.08
538.479	23284.74
538.845	23429.82
539.21	23248.13
539.575	23385.3
539.94	23483.83
540.305	23674.56
540.67	23564.28
541.034	23767.67
541.399	23842.47
541.764	23953.65
542.129	23904.16
542.494	24058.28
542.858	24195.68
543.223	24252.63
543.587	24372.85
543.952	24313.19
544.316	24510.02
544.681	24325.84
545.045	24536.69
545.41	24651.03
545.774	24755.44
546.138	24761.76
546.503	24939.84
546.867	24964.24
547.231	25201.98
547.595	25130.12
547.959	25136.9
548.324	25331.69
548.688	25418.7
549.052	25408.75
549.416	25470.45
549.779	25480.39
550.143	25594.51
550.507	25778.23
550.871	25896.65
551.235	25879.7
551.599	26074.05
551.962	26113.37
552.326	26179.13
552.689	26363.3
553.053	26298.45
553.417	26413.47
553.78	26740.47
554.143	26644.43
554.507	26768.27
554.87	26857.3
555.234	27105.43
555.597	27006
555.96	27194.47
556.323	27301.58
556.686	27288.25
557.05	27488.92
557.413	27565.98
557.776	27667
558.139	27811.85
558.502	27908.12
558.865	27794.68
559.228	28180.66
559.59	28198.96
559.953	28267.66
560.316	28663.58
560.679	28648.44
561.041	28693.41
561.404	28896.34
561.767	29041.88
562.129	29035.1
562.492	29335.88
562.854	29251.59
563.217	29292.94
563.579	29495.43
563.941	29654.52
564.304	29776.55
564.666	29956.66
565.028	29978.8
565.39	30096.54
565.753	30351.45
566.115	30355.74
566.477	30579.24
566.839	30697.43
567.201	30791.66
567.563	30907.14
567.925	31061.26
568.287	31015.61
568.648	31135.38
569.01	31320.46
569.372	31534.69
569.734	31513.23
570.095	31610.17
570.457	31825.99
570.819	31860.11
571.18	31868.02
571.542	32048.13
571.903	32094
572.265	32358.17
572.626	32301.45
572.987	32440.66
573.349	32431.84
573.71	32521.56
574.071	32703.93
574.432	32726.98
574.794	33029.57
575.155	33082.9
575.516	32981.66
575.877	33000.87
576.238	33104.14
576.599	33346.17
576.96	33369
577.32	33364.48
577.681	33493.51
578.042	33576.22
578.403	33563.79
578.763	33589.1
579.124	33604.47
579.485	33920.39
579.845	33915.87
580.206	33893.73
580.566	33872.03
580.927	33968.08
581.287	34045.36
581.648	34006.49
582.008	34066.38
582.368	34071.12
582.728	34060.73
583.089	34132.82
583.449	34207.39
583.809	34188.41
584.169	34351.79
584.529	34306.82
584.889	34521.96
585.249	34321.51
585.609	34141.63
585.969	34517.89
586.329	34392.02
586.688	34418.91
587.048	34461.4
587.408	34401.06
587.768	34372.13
588.127	34411.91
588.487	34428.63
588.846	34569.87
589.206	34372.81
589.565	34454.62
589.925	34604.67
590.284	34493.71
590.643	34614.84
591.003	34728.28
591.362	34785
591.721	34784.1
592.08	34808.96
592.44	34834.49
592.799	34752.69
593.158	34889.18
593.517	34795.4
593.876	34918.56
594.235	34880.59
594.593	34909.75
594.952	34915.4
595.311	34765.79
595.67	34927.37
596.029	35146.12
596.387	35144.54
596.746	35159.23
597.104	34958.11
597.463	34978.9
597.822	35177.54
598.18	35041.27
598.538	34988.84
598.897	35200.81
599.255	34938.22
599.613	35552.44
599.972	35365.78
600.33	35480.58
600.688	35275.84
601.046	35431.31
601.404	35619.33
601.762	35515.15
602.12	35641.25
602.478	35710.85
602.836	35634.02
603.194	35506.11
603.552	35710.4
603.91	35599.9
604.268	35910.62
604.625	35701.82
604.983	35929.15
605.341	35865.2
605.698	35898.19
606.056	36115.36
606.413	36034.46
606.771	36210.05
607.128	36118.08
607.485	35948.59
607.843	36013.67
608.2	36353.1
608.557	36476.03
608.914	36312.87
609.272	36591.74
609.629	36527.78
609.986	36713.09
610.343	36605.52
610.7	36915.34
611.057	36931.16
611.414	36819.98
611.771	36926.87
612.127	36991.73
612.484	37178.84
612.841	37196.69
613.198	37142.91
613.554	37054.32
613.911	37329.34
614.267	37346.74
614.624	37284.15
614.98	37384.48
615.337	37645.72
615.693	37589
616.05	37510.58
616.406	37636.68
616.762	37412.96
617.118	37599.62
617.475	37612.5
617.831	37805.94
618.187	37813.62
618.543	37958.25
618.899	38162.09
619.255	38171.58
619.611	38026.95
619.967	38351.24
620.323	38329.09
620.678	38127.51
621.034	38150.34
621.39	38228.98
621.746	38135.42
622.101	38708.74
622.457	38165.71
622.812	38380.62
623.168	38482.99
623.523	38402.08
623.879	38508.07
624.234	38310.11
624.589	38395.76
624.945	38603.89
625.3	38643.43
625.655	38663.77
626.01	38662.42
626.365	38610.67
626.72	38606.15
627.075	38602.08
627.43	38619.25
627.785	38418.81
628.14	38633.04
628.495	38732.47
628.85	38633.49
629.205	38562.98
629.559	38793.94
629.914	38663.77
630.269	38701.51
630.623	38659.25
630.978	38581.51
631.332	38711.45
631.687	38768.85
632.041	38657.44
632.396	38699.25
632.75	38478.69
633.104	38578.8
633.459	38495.87
633.813	38380.84
634.167	38494.74
634.521	38316.21
634.875	38597.33
635.229	38461.06
635.583	38280.5
635.937	38414.29
636.291	38420.16
636.645	38409.09
636.999	38247.74
637.352	38305.59
637.706	38203.44
638.06	38406.6
638.413	38243.22
638.767	38228.75
639.121	38154.63
639.474	38073.96
639.828	38001.42
640.181	38106.27
640.534	38134.29
640.888	38085.03
641.241	37878.93
641.594	37898.59
641.947	38019.49
642.301	38031.47
642.654	37921.42
643.007	37998.93
643.36	37968.42
643.713	37883.91
644.066	37907.63
644.419	37688.43
644.771	37534.76
645.124	37237.82
645.477	37095.68
645.83	36956.7
646.182	36711.96
646.535	36708.79
646.888	36794.89
647.24	36475.35
647.593	36770.26
647.945	36624.73
648.298	36566.2
648.65	36459.76
649.002	36369.82
649.355	36520.1
649.707	36550.61
650.059	36583.83
650.411	37031.27
650.763	37155.56
651.115	37410.47
651.467	37313.07
651.819	37279.18
652.171	37207.09
652.523	37209.8
652.875	37113.3
653.227	37041.67
653.578	37314.43
653.93	37163.7
654.282	37123.25
654.633	37001.67
654.985	37036.7
655.337	36986.75
655.688	37115.34
656.039	37126.41
656.391	36802.8
656.742	36863.37
657.094	36866.53
657.445	37102
657.796	36933.2
658.147	36914.44
658.498	36840.99
658.849	36870.15
659.2	36875.8
659.551	36632.64
659.902	36847.1
660.253	36824.72
660.604	36832.18
660.955	36712.86
661.306	36942.69
661.656	36706.76
662.007	36832.41
662.358	36810.94
662.708	36715.12
663.059	36849.81
663.409	36458.63
663.76	36759.64
664.11	36593.54
664.461	36886.64
664.811	36752.18
665.161	36658.63
665.511	36699.98
665.862	36731.84
666.212	36824.72
666.562	36718.06
666.912	36737.49
667.262	36597.61
667.612	36599.42
667.962	36647.78
668.312	36675.12
668.662	36798.28
669.011	36696.14
669.361	36600.1
669.711	36489.37
670.06	36461.34
670.41	36478.07
670.76	36337.51
671.109	36548.12
671.459	36511.06
671.808	36477.39
672.157	36530.72
672.507	36291.86
672.856	36340.89
673.205	36432.64
673.554	36481.46
673.904	36341.12
674.253	36589.93
674.602	36385.87
674.951	35753.57
675.3	35603.51
675.649	36175.25
675.998	36175.7
676.346	36211.63
676.695	36379.31
677.044	36009.6
677.393	36096.61
677.741	36094.35
678.09	36084.63
678.438	35835.6
678.787	36032.2
679.135	35989.27
679.484	35820.91
679.832	35872.88
680.181	35693.68
680.529	35794.47
680.877	35706.79
681.225	35693
681.573	35888.25
681.922	35586.11
682.27	35492.33
682.618	35494.36
682.966	35495.04
683.314	35562.61
683.661	35467.25
684.009	35370.75
684.357	35226.12
684.705	35252.79
685.053	35187.25
685.4	35092.34
685.748	35056.41
686.095	35097.76
686.443	35024.09
686.79	34904.55
687.138	35019.57
687.485	34911.55
687.832	34840.82
688.18	34852.35
688.527	34711.79
688.874	34611.9
689.221	34533.26
689.568	34437.22
689.915	34451.23
690.262	34394.05
690.609	34270.67
690.956	34198.35
691.303	34070.22
691.65	33974.86
691.997	33942.09
692.344	33793.39
692.69	33844.69
693.037	33769.21
693.383	33523.12
693.73	33627.29
694.077	33528.77
694.423	33412.61
694.769	33287.42
695.116	33207.42
695.462	33196.12
695.808	33125.16
696.155	33096.69
696.501	32906.63
696.847	32993.19
697.193	32654.89
697.539	32865.05
697.885	32594.1
698.231	32577.6
698.577	32559.98
698.923	32490.37
699.269	32194.79
699.614	32165.64
699.96	32226.43
700.306	32085.64
700.651	32033.44
700.997	31782.82
701.342	31813.56
701.688	31690.62
702.033	31667.35
702.379	31737.17
702.724	31503.51
703.069	31619.66
703.415	31183.06
703.76	31294.7
704.105	31399.78
704.45	31145.55
704.795	30930.64
705.14	30941.71
705.485	30912.79
705.83	30718.44
706.175	30846.8
706.52	30753.02
706.865	30572.01
707.209	30558.67
707.554	30464.89
707.899	30532.46
708.243	30287.49
708.588	30243.2
708.932	30159.81
709.277	30137.44
709.621	30075.52
709.966	29921.18
710.31	30096.09
710.654	29800.28
710.998	29740.84
711.342	29781.07
711.687	29699.94
712.031	29518.02
712.375	29445.03
712.719	29502.88
713.063	29483.67
713.407	29484.35
713.75	29322.32
714.094	29333.85
714.438	29296.11
714.782	29341.08
715.125	29014.31
715.469	29182.89
715.812	28934.08
716.156	28914.42
716.499	28887.76
716.843	28784.48
717.186	28662.45
717.53	28828.32
717.873	28780.64
718.216	28732.51
718.559	28649.35
718.902	28338.85
719.246	28577.48
719.589	28423.81
719.932	28365.74
720.275	28201.45
720.617	28376.36
720.96	28182.01
721.303	28261.79
721.646	28186.76
721.989	27999.19
722.331	28062.47
722.674	28066.31
723.016	28007.78
723.359	27929.14
723.701	27956.93
724.044	27721.91
724.386	27619.32
724.729	27768.69
725.071	27733.89
725.413	27661.57
725.755	27651.86
726.097	27476.04
726.439	27342.49
726.782	27434.46
727.124	27494.12
727.465	27395.37
727.807	27302.49
728.149	27339.1
728.491	27217.74
728.833	27234.47
729.175	27054.59
729.516	27038.77
729.858	27017.75
730.199	27006.22
730.541	27079.22
730.882	26975.27
731.224	27128.03
731.565	26779.79
731.906	26828.6
732.248	26885.55
732.589	26774.37
732.93	26663.64
733.271	26729.17
733.612	26624.77
733.953	26714.03
734.294	26557.65
734.635	26466.35
734.976	26453.7
735.317	26481.27
735.658	26446.47
735.999	26346.58
736.339	26401.04
736.68	26342.74
737.021	26347.94
737.361	26134.84
737.702	26264.32
738.042	26127.6
738.383	26069.53
738.723	26238.34
739.063	26138
739.404	26113.59
739.744	26041.28
740.084	25967.38
740.424	25896.88
740.764	25791.12
741.104	25980.49
741.444	25783.66
741.784	25785.92
742.124	25785.01
742.464	25745.02
742.804	25625.24
743.143	25588.64
743.483	25706.15
743.823	25471.35
744.162	25369.66
744.502	25509.99
744.841	25385.7
745.181	25473.16
745.52	25314.97
745.86	25332.6
746.199	25263.9
746.538	25248.31
746.877	25311.81
747.216	25251.02
747.556	25113.39
747.895	25213.28
748.234	25050.57
748.573	24996.11
748.911	24954.3
749.25	24961.53
749.589	24744.14
749.928	24771.26
750.267	24891.93
750.605	24750.47
750.944	24685.61
751.283	24573.75
751.621	24642.45
751.96	24468.21
752.298	24575.55
752.636	24499.4
752.975	24325.17
753.313	24327.88
753.651	24439.29
753.989	24242.91
754.327	24218.73
754.666	24113.65
755.004	24159.75
755.342	24193.87
755.679	24105.06
756.017	23935.57
756.355	23942.12
756.693	23910.04
