Data from hue_210_FLMS001491_00089.txt Node
Date: Tue Feb 07 16:41:53 GMT 2017
User: dcchb
Spectrometer: FLMS00149
Trigger mode: 0
Integration Time (sec): 2.000000E-2
Scans to average: 10
Electric dark correction enabled: true
Nonlinearity correction enabled: false
Boxcar width: 0
XAxis mode: Wavelengths
Number of Pixels in Spectrum: 2048
>>>>>Begin Spectral Data<<<<<
341.393	-12.32
341.776	-12.32
342.16	-12.32
342.543	-46.67
342.927	-79.88
343.31	-77.85
343.693	-66.78
344.077	-84.18
344.46	-57.51
344.843	-70.85
345.226	-44.18
345.61	-24.29
345.993	-3.73
346.376	-9.6
346.759	20.45
347.142	16.16
347.525	23.84
347.908	90.28
348.291	67
348.674	101.81
349.057	119.43
349.44	113.1
349.823	149.49
350.206	187.9
350.588	203.27
350.971	222.93
351.354	211.18
351.737	212.31
352.119	258.86
352.502	264.74
352.884	274.46
353.267	297.51
353.65	298.64
354.032	281.01
354.414	306.77
354.797	296.38
355.179	300.22
355.562	309.26
355.944	311.52
356.326	329.82
356.709	353.32
357.091	339.31
357.473	333.89
357.855	335.92
358.238	338.41
358.62	341.57
359.002	333.89
359.384	326.21
359.766	319.88
360.148	330.5
360.53	341.12
360.912	339.77
361.294	330.27
361.676	351.52
362.057	321.91
362.439	308.58
362.821	325.75
363.203	336.38
363.584	315.81
363.966	307.68
364.348	321.23
364.729	318.52
365.111	317.17
365.493	321.23
365.874	347.22
366.256	304.51
366.637	312.87
367.019	327.79
367.4	322.59
367.781	298.86
368.163	312.42
368.544	325.3
368.925	317.39
369.306	343.15
369.688	326.21
370.069	307.45
370.45	328.92
370.831	302.03
371.212	308.35
371.593	331.86
371.974	325.08
372.355	302.03
372.736	295.47
373.117	320.1
373.498	318.3
373.879	315.58
374.26	322.14
374.641	311.52
375.021	297.28
375.402	324.62
375.783	296.6
376.163	329.6
376.544	309.71
376.925	316.94
377.305	313.33
377.686	323.72
378.066	332.31
378.447	337.28
378.827	331.18
379.208	332.08
379.588	335.92
379.968	332.53
380.349	322.36
380.729	350.39
381.109	339.77
381.489	345.41
381.87	332.76
382.25	340.67
382.63	344.28
383.01	357.17
383.39	353.78
383.77	326.66
384.15	349.03
384.53	348.35
384.91	347.22
385.29	358.52
385.67	363.04
386.049	363.04
386.429	381.57
386.809	344.51
387.189	365.53
387.568	330.73
387.948	364.4
388.328	365.3
388.707	338.86
389.087	352.65
389.466	369.37
389.846	377.5
390.225	366.21
390.605	378.86
390.984	355.13
391.363	374.34
391.743	389.71
392.122	372.53
392.501	387
392.881	386.54
393.26	398.97
393.639	392.87
394.018	392.19
394.397	377.05
394.776	382.02
395.155	396.03
395.534	405.75
395.913	398.07
396.292	423.6
396.671	389.48
397.05	413.21
397.429	401.01
397.808	403.27
398.186	398.97
398.565	413.21
398.944	410.05
399.323	407.11
399.701	429.48
400.08	421.8
400.458	425.19
400.837	424.96
401.215	430.84
401.594	422.47
401.972	434.9
402.351	426.09
402.729	434.23
403.107	456.6
403.486	426.54
403.864	442.81
404.242	444.17
404.62	451.63
404.999	465.19
405.377	454.11
405.755	443.49
406.133	474.45
406.511	463.15
406.889	478.74
407.267	488.69
407.645	494.11
408.023	491.85
408.401	505.86
408.779	485.52
409.156	499.08
409.534	500.89
409.912	528.01
410.29	543.38
410.667	546.31
411.045	550.61
411.422	588.12
411.8	543.83
412.178	563.26
412.555	564.84
412.933	578.4
413.31	600.55
413.687	600.78
414.065	627.89
414.442	609.14
414.819	612.07
415.197	643.71
415.574	627.67
415.951	676.03
416.328	658.63
416.705	658.17
417.082	676.71
417.46	694.33
417.837	681.23
418.214	706.08
418.591	699.3
418.967	714.44
419.344	751.73
419.721	724.61
420.098	767.78
420.475	775.23
420.852	769.58
421.228	772.75
421.605	793.54
421.982	784.95
422.358	808
422.735	833.99
423.111	849.36
423.488	861.11
423.864	890.49
424.241	877.15
424.617	894.55
424.994	915.12
425.37	907.43
425.746	947.43
426.123	981.78
426.499	956.02
426.875	973.19
427.251	991.95
427.627	976.36
428.003	1017.94
428.379	1033.76
428.756	1070.82
429.132	1054.32
429.507	1078.5
429.883	1085.51
430.259	1130.03
430.635	1092.51
431.011	1110.37
431.387	1163.7
431.763	1185.84
432.138	1187.43
432.514	1199.4
432.89	1211.83
433.265	1240.53
433.641	1259.74
434.016	1253.87
434.392	1288.44
434.767	1326.41
435.143	1368.21
435.518	1351.26
435.894	1385.84
436.269	1415.67
436.644	1447.98
437.02	1473.52
437.395	1457.93
437.77	1479.4
438.145	1536.12
438.52	1567.3
438.895	1551.71
439.271	1573.4
439.646	1636
440.021	1626.96
440.395	1668.54
440.77	1643.01
441.145	1646.4
441.52	1716
441.895	1737.24
442.27	1774.08
442.645	1751.93
443.019	1777.92
443.394	1787.18
443.769	1820.63
444.143	1814.53
444.518	1855.88
444.892	1870.8
445.267	1888.42
445.641	1908.09
446.016	1887.3
446.39	1932.49
446.764	1953.51
447.139	1947.63
447.513	1974.52
447.887	2002.77
448.262	2015.65
448.636	1964.13
449.01	2047.74
449.384	2040.29
449.758	2069.66
450.132	2112.37
450.506	2111.02
450.88	2115.99
451.254	2131.13
451.628	2123.9
452.002	2164.58
452.376	2196.21
452.75	2202.09
453.123	2257.68
453.497	2260.17
453.871	2277.79
454.244	2310.79
454.618	2345.14
454.992	2351.01
455.365	2365.02
455.739	2425.36
456.112	2438.47
456.486	2450.9
456.859	2440.27
457.232	2533.61
457.606	2510.1
457.979	2529.99
458.352	2612.02
458.725	2624.9
459.099	2664.22
459.472	2708.97
459.845	2719.82
460.218	2738.8
460.591	2759.36
460.964	2748.52
461.337	2810.89
461.71	2882.52
462.083	2878
462.456	2939.47
462.829	2926.59
463.201	2978.57
463.574	2985.35
463.947	3021.28
464.32	3109.86
464.692	3110.09
465.065	3131.78
465.438	3159.58
465.81	3231.21
466.183	3220.59
466.555	3321.83
466.928	3297.2
467.3	3294.94
467.672	3344.43
468.045	3474.37
468.417	3499.68
468.789	3488.61
469.161	3578.1
469.534	3607.02
469.906	3650.86
470.278	3670.3
470.65	3702.39
471.022	3788.71
471.394	3827.13
471.766	3880.01
472.138	3926.11
472.51	3987.13
472.882	4066.45
473.253	4100.57
473.625	4131.08
473.997	4182.15
474.369	4204.52
474.74	4263.05
475.112	4383.73
475.484	4412.88
475.855	4519.32
476.227	4515.7
476.598	4607
476.97	4663.95
477.341	4728.8
477.713	4819.2
478.084	4832.08
478.455	4946.42
478.827	4955.01
479.198	5107.32
479.569	5117.72
479.94	5211.28
480.311	5231.16
480.682	5399.29
481.053	5479.52
481.424	5548.44
481.795	5586.18
482.166	5665.95
482.537	5726.06
482.908	5842.22
483.279	5877.47
483.65	5963.35
484.021	6094.87
484.391	6122.89
484.762	6148.88
485.133	6254.86
485.503	6295.77
485.874	6425.48
486.244	6473.62
486.615	6599.94
486.985	6639.26
487.356	6748.86
487.726	6768.75
488.097	6874.96
488.467	6925.58
488.837	7007.84
489.207	7151.79
489.578	7180.49
489.948	7261.62
490.318	7328.51
490.688	7386.59
491.058	7456.87
491.428	7520.82
491.798	7594.49
492.168	7695.28
492.538	7793.81
492.908	7852.34
493.278	7954.25
493.648	7908.83
494.017	8050.97
494.387	8097.53
494.757	8124.19
495.126	8245.32
495.496	8203.74
495.866	8242.38
496.235	8331.87
496.605	8380.91
496.974	8460.91
497.344	8513.56
497.713	8524.18
498.082	8544.3
498.452	8594.24
498.821	8664.29
499.19	8631.75
499.559	8802.82
499.928	8791.75
500.298	8827.23
500.667	8859.99
501.036	8851.63
501.405	8875.81
501.774	8889.14
502.143	8984.06
502.512	8982.48
502.88	9118.29
503.249	9076.48
503.618	9030.84
503.987	9100.66
504.356	9108.8
504.724	9188.12
505.093	9174.34
505.462	9228.34
505.83	9294.33
506.199	9245.75
506.567	9380.43
506.936	9402.35
507.304	9483.93
507.672	9453.2
508.041	9514.89
508.409	9524.16
508.777	9606.41
509.145	9675.11
509.514	9623.14
509.882	9630.37
510.25	9609.35
510.618	9707.43
510.986	9782
511.354	9687.77
511.722	9809.12
512.09	9827.65
512.458	9726.64
512.826	9856.58
513.193	9868.33
513.561	9877.59
513.929	9848.44
514.297	9918.95
514.664	10017.25
515.032	9895.45
515.4	10033.3
515.767	9975.44
516.135	10095.67
516.502	9939.74
516.869	10118.72
517.237	10153.29
517.604	9989.91
517.972	10126.85
518.339	10155.1
518.706	10086.85
519.073	10151.94
519.44	10111.71
519.808	10155.33
520.175	10137.7
520.542	10332.5
520.909	10266.51
521.276	10169.79
521.643	10296.34
522.009	10319.84
522.376	10345.15
522.743	10311.71
523.11	10369.11
523.477	10445.04
523.843	10453.85
524.21	10413.4
524.577	10475.32
524.943	10506.05
525.31	10480.97
525.676	10456.79
526.043	10494.75
526.409	10486.62
526.776	10642.77
527.142	10544.24
527.508	10528.2
527.874	10590.79
528.241	10677.12
528.607	10567.74
528.973	10652.94
529.339	10600.96
529.705	10613.62
530.071	10686.39
530.437	10632.15
530.803	10684.13
531.169	10749.66
531.535	10562.55
531.901	10594.86
532.267	10680.06
532.632	10629.89
532.998	10678.48
533.364	10678.48
533.73	10647.06
534.095	10635.77
534.461	10635.09
534.826	10645.03
535.192	10584.92
535.557	10537.69
535.923	10466.73
536.288	10559.38
536.653	10584.47
537.019	10477.8
537.384	10408.65
537.749	10465.15
538.114	10487.97
538.479	10447.75
538.845	10456.79
539.21	10395.32
539.575	10391.7
539.94	10331.82
540.305	10316.23
540.67	10233.52
541.034	10347.41
541.399	10325.49
541.764	10219.51
542.129	10259.05
542.494	10252.5
542.858	10132.5
543.223	10202.1
543.587	10145.16
543.952	10085.95
544.316	10079.62
544.681	10053.86
545.045	10026.74
545.41	10076.01
545.774	10113.29
546.138	10007.31
546.503	9924.15
546.867	9958.5
547.231	10001.21
547.595	9969.12
547.959	9924.6
548.324	9910.81
548.688	9852.96
549.052	9812.06
549.416	9820.19
549.779	9802.79
550.143	9770.48
550.507	9751.95
550.871	9699.52
551.235	9660.42
551.599	9664.27
551.962	9663.59
552.326	9672.18
552.689	9605.74
553.053	9588.11
553.417	9576.36
553.78	9640.31
554.143	9516.7
554.507	9575.91
554.87	9601.89
555.234	9610.93
555.597	9488.9
555.96	9458.4
556.323	9427.21
556.686	9507.21
557.05	9523.93
557.413	9479.86
557.776	9520.77
558.139	9539.75
558.502	9528.9
558.865	9453.2
559.228	9497.49
559.59	9500.43
559.953	9439.19
560.316	9552.86
560.679	9491.16
561.041	9574.55
561.404	9497.72
561.767	9484.84
562.129	9474.67
562.492	9487.77
562.854	9477.38
563.217	9494.33
563.579	9512.86
563.941	9503.82
564.304	9549.01
564.666	9595.57
565.028	9595.34
565.39	9500.2
565.753	9569.58
566.115	9562.8
566.477	9555.79
566.839	9570.71
567.201	9616.36
567.563	9627.88
567.925	9659.07
568.287	9623.59
568.648	9658.39
569.01	9710.82
569.372	9655.45
569.734	9673.08
570.095	9716.47
570.457	9748.11
570.819	9725.28
571.18	9662.91
571.542	9756.01
571.903	9781.78
572.265	9741.78
572.626	9756.24
572.987	9800.31
573.349	9814.54
573.71	9817.48
574.071	9876.92
574.432	9938.38
574.794	9953.98
575.155	9928.67
575.516	9847.31
575.877	9892.51
576.238	9923.02
576.599	9955.78
576.96	9938.16
577.32	10016.35
577.681	9981.09
578.042	10065.61
578.403	10005.27
578.763	10034.43
579.124	10062.9
579.485	10052.5
579.845	10113.75
580.206	10047.08
580.566	10046.18
580.927	10066.74
581.287	10083.92
581.648	10091.83
582.008	10129.79
582.368	10211.82
582.728	10234.42
583.089	10108.1
583.449	10080.98
583.809	10128.21
584.169	10189.9
584.529	10215.44
584.889	10199.62
585.249	10153.29
585.609	10183.35
585.969	10256.57
586.329	10228.32
586.688	10245.72
587.048	10268.77
587.408	10208.88
587.768	10203.91
588.127	10229
588.487	10174.76
588.846	10251.59
589.206	10231.03
589.565	10212.27
589.925	10267.64
590.284	10270.58
590.643	10221.99
591.003	10290.01
591.362	10283.46
591.721	10276
592.08	10243.46
592.44	10265.83
592.799	10301.76
593.158	10260.63
593.517	10267.87
593.876	10302.21
594.235	10361.87
594.593	10313.06
594.952	10364.13
595.311	10300.86
595.67	10357.13
596.029	10395.32
596.387	10390.12
596.746	10403.23
597.104	10328.2
597.463	10354.64
597.822	10345.38
598.18	10387.86
598.538	10323.68
598.897	10381.08
599.255	10333.17
599.613	10396.9
599.972	10325.27
600.33	10419.73
600.688	10365.94
601.046	10364.13
601.404	10379.73
601.762	10384.47
602.12	10404.81
602.478	10426.51
602.836	10399.84
603.194	10371.82
603.552	10464.24
603.91	10348.77
604.268	10420.86
604.625	10378.15
604.983	10409.56
605.341	10359.39
605.698	10481.19
606.056	10501.08
606.413	10372.5
606.771	10511.93
607.128	10444.58
607.485	10484.81
607.843	10456.56
608.2	10484.13
608.557	10495.88
608.914	10492.49
609.272	10553.28
609.629	10589.67
609.986	10630.79
610.343	10578.59
610.7	10629.89
611.057	10603.68
611.414	10650.91
611.771	10576.56
612.127	10661.3
612.484	10606.16
612.841	10615.2
613.198	10627.63
613.554	10587.86
613.911	10674.41
614.267	10701.3
614.624	10618.14
614.98	10615.88
615.337	10725.48
615.693	10695.2
616.05	10716.89
616.406	10739.04
616.762	10770.68
617.118	10673.73
617.475	10653.62
617.831	10735.2
618.187	10721.64
618.543	10746.05
618.899	10737.46
619.255	10825.14
619.611	10740.17
619.967	10736.33
620.323	10779.94
620.678	10782.88
621.034	10744.92
621.39	10736.78
621.746	10713.96
622.101	10817.46
622.457	10722.09
622.812	10723.67
623.168	10751.69
623.523	10727.74
623.879	10854.29
624.234	10822.88
624.589	10761.41
624.945	10737.68
625.3	10795.76
625.655	10739.94
626.01	10741.07
626.365	10786.5
626.72	10774.07
627.075	10669.21
627.43	10686.39
627.785	10728.19
628.14	10704.92
628.495	10747.18
628.85	10706.27
629.205	10728.19
629.559	10806.83
629.914	10685.26
630.269	10684.35
630.623	10650.45
630.978	10649.55
631.332	10711.92
631.687	10646.16
632.041	10586.28
632.396	10701.07
632.75	10612.26
633.104	10587.41
633.459	10587.18
633.813	10559.61
634.167	10518.03
634.521	10578.14
634.875	10533.17
635.229	10546.5
635.583	10537.46
635.937	10478.48
636.291	10451.59
636.645	10488.2
636.999	10494.98
637.352	10423.34
637.706	10378.37
638.06	10410.23
638.413	10392.61
638.767	10431.48
639.121	10432.38
639.474	10331.37
639.828	10318.03
640.181	10383.12
640.534	10399.39
640.888	10313.74
641.241	10222.22
641.594	10275.32
641.947	10319.62
642.301	10235.32
642.654	10334.98
643.007	10288.2
643.36	10307.64
643.713	10225.38
644.066	10243.91
644.419	10219.96
644.771	10172.73
645.124	10057.48
645.477	10088.89
645.83	10067.87
646.182	9995.33
646.535	9895.67
646.888	9924.37
647.24	9859.51
647.593	9856.13
647.945	9936.12
648.298	9818.84
648.65	9835.11
649.002	9881.89
649.355	9930.02
649.707	9873.75
650.059	9959.63
650.411	10082.56
650.763	10062.45
651.115	10123.24
651.467	10150.58
651.819	10162.11
652.171	10135.89
652.523	10045.27
652.875	10131.6
653.227	10023.35
653.578	10137.25
653.93	10098.6
654.282	10054.76
654.633	9997.36
654.985	10028.55
655.337	10069.68
655.688	10114.2
656.039	10168.43
656.391	10052.5
656.742	10022.9
657.094	10065.39
657.445	10067.87
657.796	10090.7
658.147	10020.41
658.498	10015.89
658.849	10018.83
659.2	10101.32
659.551	10093.18
659.902	10127.3
660.253	10061.32
660.604	10060.64
660.955	10024.71
661.306	10136.57
661.656	10058.61
662.007	10097.25
662.358	10101.32
662.708	10110.58
663.059	10087.98
663.409	10063.8
663.76	10121.65
664.11	10155.78
664.461	10110.58
664.811	10126.4
665.161	10109.23
665.511	10073.07
665.862	10090.02
666.212	10098.83
666.562	10137.7
666.912	10125.5
667.262	10111.03
667.612	10125.95
667.962	10156.91
668.312	10122.78
668.662	10210.92
669.011	10097.7
669.361	10059.74
669.711	10073.75
670.06	10057.25
670.41	10068.1
670.76	10057.48
671.109	10044.14
671.459	10103.12
671.808	10007.99
672.157	10026.74
672.507	10031.71
672.856	9908.1
673.205	10015.22
673.554	10034.43
673.904	10043.24
674.253	10061.77
674.602	10034.88
674.951	9819.06
675.3	9872.4
675.649	10001.88
675.998	9898.61
676.346	10016.57
676.695	9980.87
677.044	9831.94
677.393	9969.79
677.741	9961.66
678.09	9863.13
678.438	9881.89
678.787	9859.29
679.135	9861.77
679.484	9858.16
679.832	9895.22
680.181	9854.32
680.529	9841.21
680.877	9800.31
681.225	9793.75
681.573	9871.94
681.922	9791.49
682.27	9785.62
682.618	9731.38
682.966	9706.07
683.314	9671.72
683.661	9699.74
684.009	9706.07
684.357	9564.83
684.705	9620.88
685.053	9529.13
685.4	9575.68
685.748	9541.11
686.095	9491.16
686.443	9454.55
686.79	9419.53
687.138	9401.22
687.485	9388.57
687.832	9397.61
688.18	9466.3
688.527	9387.89
688.874	9331.39
689.221	9286.65
689.568	9315.35
689.915	9293.43
690.262	9267.67
690.609	9215.24
690.956	9191.28
691.303	9185.41
691.65	9079.2
691.997	9131.4
692.344	9092.08
692.69	8984.51
693.037	9029.03
693.383	8978.63
693.73	8999.2
694.077	8951.74
694.423	8972.53
694.769	8910.61
695.116	8817.51
695.462	8829.49
695.808	8808.92
696.155	8870.61
696.501	8714.23
696.847	8687.57
697.193	8658.64
697.539	8705.87
697.885	8596.95
698.231	8585.88
698.577	8574.8
698.923	8536.84
699.269	8487.57
699.614	8454.81
699.96	8445.77
700.306	8477.86
700.651	8355.37
700.997	8381.81
701.342	8308.37
701.688	8304.53
702.033	8290.74
702.379	8225.43
702.724	8252.1
703.069	8197.19
703.415	8141.82
703.76	8098.21
704.105	8106.57
704.45	8063.86
704.795	8029.73
705.14	8005.1
705.485	8101.82
705.83	7981.82
706.175	8032.9
706.52	7939.79
706.865	7891.2
707.209	7886.69
707.554	7930.07
707.899	7883.97
708.243	7822.73
708.588	7804.88
708.932	7760.81
709.277	7698.67
709.621	7706.35
709.966	7677.88
710.31	7730.98
710.654	7599.01
710.998	7651.44
711.342	7669.29
711.687	7606.01
712.031	7539.58
712.375	7557.65
712.719	7605.56
713.063	7586.81
713.407	7545.68
713.75	7483.53
714.094	7504.32
714.438	7448.28
714.782	7536.41
715.125	7490.76
715.469	7438.56
715.812	7406.7
716.156	7342.74
716.499	7361.5
716.843	7415.74
717.186	7369.86
717.53	7354.72
717.873	7367.83
718.216	7334.38
718.559	7291.45
718.902	7269.3
719.246	7271.56
719.589	7218.68
719.932	7240.6
720.275	7245.57
720.617	7229.08
720.96	7245.35
721.303	7196.31
721.646	7260.71
721.989	7202.41
722.331	7245.57
722.674	7136.2
723.016	7206.03
723.359	7136.65
723.701	7188.4
724.044	7118.34
724.386	7105.91
724.729	7127.61
725.071	7126.71
725.413	7122.64
725.755	7068.18
726.097	7132.13
726.439	7015.52
726.782	7043.09
727.124	7091
727.465	7079.47
727.807	7077.22
728.149	7064.33
728.491	6976.43
728.833	7058.01
729.175	7044.45
729.516	7027.27
729.858	7034.05
730.199	7057.33
730.541	6988.4
730.882	7036.76
731.224	7030.21
731.565	6990.66
731.906	6992.92
732.248	6956.54
732.589	6911.34
732.93	6991.12
733.271	7037.44
733.612	6992.47
733.953	7044.45
734.294	6986.82
734.635	6987.5
734.976	7056.42
735.317	6981.85
735.658	6996.99
735.999	6968.52
736.339	7001.28
736.68	7035.86
737.021	6962.42
737.361	6945.02
737.702	7031.11
738.042	6991.12
738.383	7046.26
738.723	7019.14
739.063	7078.8
739.404	7052.13
739.744	7017.78
740.084	6978.23
740.424	7127.16
740.764	7033.15
741.104	7074.5
741.444	7105.91
741.784	7016.88
742.124	7048.06
742.464	7128.74
742.804	7134.39
743.143	7147.95
743.483	7181.17
743.823	7189.08
744.162	7177.78
744.502	7219.58
744.841	7253.93
745.181	7306.81
745.52	7310.88
745.86	7413.25
746.199	7320.82
746.538	7364.44
746.877	7406.47
747.216	7506.36
747.556	7564.43
747.895	7570.99
748.234	7571.89
748.573	7653.7
748.911	7675.84
749.25	7730.53
749.589	7697.31
749.928	7835.61
750.267	7902.28
750.605	7966.91
750.944	8052.78
751.283	8045.55
751.621	8152.22
751.96	8272.89
752.298	8306.11
752.636	8417.74
752.975	8433.79
753.313	8551.98
753.651	8720.34
753.989	8752.65
754.327	8831.97
754.666	8959.65
755.004	9016.6
755.342	9182.24
755.679	9299.76
756.017	9385.4
756.355	9580.43
756.693	9608
757.031	9849.57
757.368	9941.32
757.706	10003.92
758.044	10156.46
758.381	10330.91
758.719	10371.37
759.056	10601.87
759.394	10721.19
759.731	10812.71
760.068	11092.02
760.405	11160.05
760.743	11334.05
761.08	11526.36
761.417	11619.02
761.754	11850.87
762.091	12005.9
762.428	12153.47
