Data from hue_250_FLMS001491_00028.txt Node
Date: Tue Feb 07 16:00:46 GMT 2017
User: dcchb
Spectrometer: FLMS00149
Trigger mode: 0
Integration Time (sec): 2.000000E-2
Scans to average: 10
Electric dark correction enabled: true
Nonlinearity correction enabled: false
Boxcar width: 0
XAxis mode: Wavelengths
Number of Pixels in Spectrum: 2048
>>>>>Begin Spectral Data<<<<<
341.393	0.83
341.776	0.83
342.16	0.83
342.543	-66.06
342.927	-72.61
343.31	-59.73
343.693	-78.94
344.077	-64.93
344.46	-59.96
344.843	-59.73
345.226	-37.36
345.61	-18.15
345.993	-13.4
346.376	-12.95
346.759	10.55
347.142	26.6
347.525	35.63
347.908	44.67
348.291	86.93
348.674	95.29
349.057	105.46
349.44	108.4
349.823	139.36
350.206	169.87
350.588	155.41
350.971	200.15
351.354	206.03
351.737	229.98
352.119	235.63
352.502	248.96
352.884	266.82
353.267	282.63
353.65	266.59
354.032	277.21
354.414	289.41
354.797	285.57
355.179	322.41
355.562	321.5
355.944	318.34
356.326	321.95
356.709	307.49
357.091	328.51
357.473	354.95
357.855	335.97
358.238	324.67
358.62	335.97
359.002	324.44
359.384	330.09
359.766	324.44
360.148	323.99
360.53	338.68
360.912	325.34
361.294	319.69
361.676	308.62
362.057	327.15
362.439	321.73
362.821	331.22
363.203	314.05
363.584	309.53
363.966	318.57
364.348	329.19
364.729	318.57
365.111	310.43
365.493	302.07
365.874	331.22
366.256	323.99
366.637	327.83
367.019	298.68
367.4	316.53
367.781	302.29
368.163	274.95
368.544	275.63
368.925	305.91
369.306	305.01
369.688	303.42
370.069	310.2
370.45	293.71
370.831	309.3
371.212	321.73
371.593	293.71
371.974	314.05
372.355	305.01
372.736	302.07
373.117	323.08
373.498	297.77
373.879	294.61
374.26	293.71
374.641	296.87
375.021	295.97
375.402	307.27
375.783	324.21
376.163	326.93
376.544	326.93
376.925	310.2
377.305	310.43
377.686	300.26
378.066	328.73
378.447	319.24
378.827	329.41
379.208	329.41
379.588	313.82
379.968	311.79
380.349	316.98
380.729	316.76
381.109	338.23
381.489	330.77
381.87	320.82
382.25	326.93
382.63	350.2
383.01	327.15
383.39	343.42
383.77	361.05
384.15	328.73
384.53	336.87
384.91	335.06
385.29	345.23
385.67	362.18
386.049	346.13
386.429	340.26
386.809	354.95
387.189	358.11
387.568	346.36
387.948	325.34
388.328	365.12
388.707	353.14
389.087	353.14
389.466	372.12
389.846	368.51
390.225	364.21
390.605	352.01
390.984	380.48
391.363	368.73
391.743	377.55
392.122	381.39
392.501	359.47
392.881	387.04
393.26	368.96
393.639	368.06
394.018	381.84
394.397	373.93
394.776	406.7
395.155	389.98
395.534	392.91
395.913	398.34
396.292	406.02
396.671	376.64
397.05	401.27
397.429	393.37
397.808	396.53
398.186	403.08
398.565	402.86
398.944	393.37
399.323	405.12
399.701	428.39
400.08	413.25
400.458	413.48
400.837	422.74
401.215	410.77
401.594	429.97
401.972	417.55
402.351	409.64
402.729	413.48
403.107	431.33
403.486	433.82
403.864	444.21
404.242	441.73
404.62	427.26
404.999	449.64
405.377	459.35
405.755	436.08
406.133	471.78
406.511	454.15
406.889	470.88
407.267	473.59
407.645	477.88
408.023	459.35
408.401	485.34
408.779	487.83
409.156	498.67
409.534	505.45
409.912	514.04
410.29	505
410.667	516.75
411.045	525.34
411.422	530.76
411.8	509.97
412.178	510.65
412.555	556.3
412.933	570.99
413.31	550.88
413.687	577.99
414.065	569.18
414.442	574.83
414.819	599.91
415.197	603.3
415.574	603.3
415.951	607.6
416.328	613.92
416.705	610.99
417.082	624.55
417.46	629.07
417.837	649.18
418.214	676.52
418.591	631.78
418.967	666.58
419.344	659.35
419.721	663.41
420.098	672.91
420.475	673.13
420.852	697.99
421.228	697.76
421.605	692.79
421.982	706.8
422.358	732.11
422.735	747.03
423.111	736.41
423.488	750.87
423.864	746.58
424.241	779.12
424.617	779.8
424.994	794.94
425.37	793.81
425.746	794.26
426.123	798.78
426.499	808.04
426.875	833.81
427.251	848.95
427.627	872.22
428.003	859.12
428.379	876.29
428.756	878.78
429.132	880.58
429.507	907.93
429.883	930.3
430.259	928.94
430.635	948.61
431.011	946.35
431.387	946.12
431.763	956.06
432.138	987.93
432.514	1007.59
432.89	979.34
433.265	1020.92
433.641	1029.73
434.016	1055.72
434.392	1050.07
434.767	1101.14
435.143	1077.19
435.518	1104.08
435.894	1127.13
436.269	1174.59
436.644	1149.96
437.02	1177.07
437.395	1201.93
437.77	1227.02
438.145	1216.17
438.52	1248.26
438.895	1248.71
439.271	1248.48
439.646	1306.56
440.021	1300.46
440.395	1315.6
440.77	1305.21
441.145	1314.47
441.52	1351.31
441.895	1386.11
442.27	1366.22
442.645	1370.06
443.019	1394.24
443.394	1417.97
443.769	1464.98
444.143	1410.74
444.518	1431.53
444.892	1409.38
445.267	1474.47
445.641	1445.99
446.016	1469.5
446.39	1497.52
446.764	1507.91
447.139	1496.84
447.513	1545.88
447.887	1517.63
448.262	1550.4
448.636	1568.48
449.01	1586.78
449.384	1586.33
449.758	1586.33
450.132	1607.12
450.506	1603.28
450.88	1616.38
451.254	1641.02
451.628	1652.09
452.002	1686.66
452.376	1676.04
452.75	1692.99
453.123	1701.13
453.497	1770.28
453.871	1711.07
454.244	1779.32
454.618	1785.65
454.992	1808.7
455.365	1783.61
455.739	1841.24
456.112	1849.15
456.486	1865.87
456.859	1857.06
457.232	1937.96
457.606	1915.59
457.979	1943.16
458.352	1991.29
458.725	1998.75
459.099	2024.06
459.472	2051.85
459.845	2057.28
460.218	2090.95
460.591	2087.78
460.964	2107.22
461.337	2158.52
461.71	2161.91
462.083	2205.07
462.456	2224.05
462.829	2208.23
463.201	2247.55
463.574	2250.94
463.947	2276.03
464.32	2334.56
464.692	2355.57
465.065	2351.96
465.438	2391.5
465.81	2449.58
466.183	2424.05
466.555	2461.33
466.928	2469.92
467.3	2489.81
467.672	2552.63
468.045	2625.17
468.417	2627.66
468.789	2628.33
469.161	2667.2
469.534	2697.03
469.906	2737.48
470.278	2767.54
470.65	2770.93
471.022	2848.89
471.394	2857.71
471.766	2887.31
472.138	2953.07
472.51	2984.48
472.882	3042.34
473.253	3102.67
473.625	3082.33
473.997	3135.67
474.369	3173.41
474.74	3177.47
475.112	3200.75
475.484	3254.31
475.855	3306.06
476.227	3360.07
476.598	3487.75
476.97	3477.13
477.341	3530.23
477.713	3577.01
478.084	3574.3
478.455	3692.49
478.827	3705.37
479.198	3802.09
479.569	3821.98
479.94	3869.43
480.311	3933.61
480.682	4026.26
481.053	4092.48
481.424	4098.35
481.795	4173.6
482.166	4220.16
482.537	4238.69
482.908	4323.21
483.279	4372.24
483.65	4435.52
484.021	4544.67
484.391	4550.54
484.762	4591.67
485.133	4647.26
485.503	4654.5
485.874	4750.31
486.244	4824.66
486.615	4883.87
486.985	4896.52
487.356	5005
487.726	5043.19
488.097	5059.68
488.467	5148.27
488.837	5219.68
489.207	5267.36
489.578	5366.34
489.948	5376.51
490.318	5436.85
490.688	5457.19
491.058	5470.07
491.428	5561.59
491.798	5651.08
492.168	5736.73
492.538	5761.81
492.908	5807.01
493.278	5854.24
493.648	5863.28
494.017	5959.55
494.387	6009.04
494.757	6027.57
495.126	6041.13
495.496	6026.89
495.866	6134.23
496.235	6169.26
496.605	6206.77
496.974	6235.92
497.344	6263.95
497.713	6335.36
498.082	6364.96
498.452	6372.19
498.821	6431.85
499.19	6464.39
499.559	6502.81
499.928	6570.15
500.298	6543.03
500.667	6627.55
501.036	6618.51
501.405	6726.53
501.774	6623.26
502.143	6687.89
502.512	6709.58
502.88	6796.36
503.249	6760.66
503.618	6736.7
503.987	6793.88
504.356	6835.68
504.724	6872.97
505.093	6873.87
505.462	6852.4
505.83	6974.89
506.199	7029.58
506.567	7070.25
506.936	7024.15
507.304	7129.23
507.672	7126.52
508.041	7114.32
508.409	7190.25
508.777	7199.74
509.145	7262.11
509.514	7250.36
509.882	7218.95
510.25	7313.41
510.618	7301.21
510.986	7302.34
511.354	7409.9
511.722	7407.19
512.09	7434.99
512.458	7411.71
512.826	7550.24
513.193	7564.48
513.561	7473.18
513.929	7581.42
514.297	7585.04
514.664	7672.5
515.032	7630.46
515.4	7667.3
515.767	7709.78
516.135	7665.04
516.502	7685.6
516.869	7740.74
517.237	7761.53
517.604	7777.8
517.972	7787.07
518.339	7830.91
518.706	7846.73
519.073	7868.42
519.44	7885.6
519.808	7869.78
520.175	7883.79
520.542	7975.31
520.909	8016.22
521.276	8008.08
521.643	8007.4
522.009	8052.15
522.376	8013.05
522.743	8114.97
523.11	8105.25
523.477	8168.75
523.843	8211.92
524.21	8223.67
524.577	8247.62
524.943	8263.44
525.31	8311.35
525.676	8349.09
526.043	8384.12
526.409	8369.65
526.776	8385.47
527.142	8426.37
527.508	8440.84
527.874	8458.01
528.241	8531.68
528.607	8489.42
528.973	8514.51
529.339	8483.32
529.705	8606.26
530.071	8587.05
530.437	8568.74
530.803	8651.91
531.169	8656.2
531.535	8602.87
531.901	8695.52
532.267	8622.98
532.632	8713.15
532.998	8704.33
533.364	8696.2
533.73	8742.07
534.095	8764.9
534.461	8753.15
534.826	8759.7
535.192	8756.08
535.557	8772.35
535.923	8724.45
536.288	8740.49
536.653	8809.42
537.019	8747.72
537.384	8672.24
537.749	8776.87
538.114	8787.27
538.479	8742.3
538.845	8860.26
539.21	8787.04
539.575	8779.59
539.94	8771
540.305	8773.26
540.67	8821.39
541.034	8731.68
541.399	8792.47
541.764	8763.99
542.129	8868.4
542.494	8843.99
542.858	8758.12
543.223	8797.66
543.587	8866.36
543.952	8786.59
544.316	8791.34
544.681	8798.79
545.045	8808.96
545.41	8813.26
545.774	8876.08
546.138	8822.07
546.503	8805.57
546.867	8784.11
547.231	8922.86
547.595	8852.8
547.959	8842.41
548.324	8816.65
548.688	8804.44
549.052	8776.2
549.416	8854.61
549.779	8793.37
550.143	8817.55
550.507	8862.07
550.871	8888.74
551.235	8827.49
551.599	8840.15
551.962	8844.44
552.326	8805.12
552.689	8886.25
553.053	8841.05
553.417	8883.99
553.78	8986.36
554.143	8881.96
554.507	8952.46
554.87	8913.82
555.234	8931.67
555.597	8861.39
555.96	8947.49
556.323	9000.82
556.686	8958.79
557.05	8990.2
557.413	9034.72
557.776	9001.95
558.139	9057.09
558.502	9005.12
558.865	9013.48
559.228	9013.03
559.59	9066.13
559.953	9074.49
560.316	9174.15
560.679	9136.41
561.041	9147.03
561.404	9203.08
561.767	9165.56
562.129	9231.1
562.492	9299.8
562.854	9255.51
563.217	9232.23
563.579	9319.68
563.941	9382.06
564.304	9371.43
564.666	9426.8
565.028	9382.96
565.39	9461.38
565.753	9422.73
566.115	9436.52
566.477	9535.27
566.839	9490.53
567.201	9615.27
567.563	9549.06
567.925	9544.09
568.287	9589.51
568.648	9617.08
569.01	9628.38
569.372	9649.39
569.734	9652.33
570.095	9743.85
570.457	9712.22
570.819	9739.33
571.18	9803.29
571.542	9811.2
571.903	9759.22
572.265	9916.05
572.626	9900.69
572.987	9898.88
573.349	9981.59
573.71	9963.06
574.071	10006.22
574.432	9998.99
574.794	10108.59
575.155	10097.07
575.516	9970.06
575.877	10070.85
576.238	10127.57
576.599	10115.14
576.96	10187.01
577.32	10192.88
577.681	10214.8
578.042	10228.59
578.403	10244.63
578.763	10227.68
579.124	10262.48
579.485	10306.55
579.845	10367.11
580.206	10341.58
580.566	10381.58
580.927	10381.13
581.287	10377.06
581.648	10432.2
582.008	10422.48
582.368	10494.79
582.728	10516.26
583.089	10459.32
583.449	10512.2
583.809	10511.07
584.169	10610.95
584.529	10489.6
584.889	10630.16
585.249	10515.13
585.609	10556.71
585.969	10584.06
586.329	10545.41
586.688	10558.97
587.048	10616.6
587.408	10623.38
587.768	10613.66
588.127	10705.18
588.487	10622.47
588.846	10659.54
589.206	10707.67
589.565	10714.22
589.925	10690.5
590.284	10667.9
590.643	10775.24
591.003	10769.59
591.362	10783.6
591.721	10718.97
592.08	10766.43
592.44	10813.2
592.799	10803.94
593.158	10801.45
593.517	10739.31
593.876	10805.52
594.235	10822.7
594.593	10793.77
594.952	10878.74
595.311	10794.45
595.67	10865.63
596.029	10899.08
596.387	10859.3
596.746	10910.6
597.104	10876.71
597.463	10894.11
597.822	10932.3
598.18	10883.71
598.538	10952.41
598.897	10975.91
599.255	10880.1
599.613	11023.59
599.972	10959.19
600.33	10949.47
600.688	10942.92
601.046	11007.32
601.404	11087.32
601.762	11072.41
602.12	11074.44
602.478	11041.67
602.836	11057.27
603.194	10982.01
603.552	11081.22
603.91	11008
604.268	11037.61
604.625	11052.97
604.983	11137.94
605.341	11117.83
605.698	11109.69
606.056	11145.17
606.413	11078.51
606.771	11096.36
607.128	11184.27
607.485	11090.94
607.843	11076.7
608.2	11160.09
608.557	11180.88
608.914	11151.95
609.272	11236.7
609.629	11179.07
609.986	11255
610.343	11192.4
610.7	11322.34
611.057	11281.67
611.414	11260.88
611.771	11285.06
612.127	11269.69
612.484	11304.26
612.841	11338.16
613.198	11258.16
613.554	11308.33
613.911	11413.87
614.267	11334.77
614.624	11339.07
614.98	11361.21
615.337	11351.72
615.693	11335.45
616.05	11387.88
616.406	11436.01
616.762	11463.36
617.118	11448.44
617.475	11425.62
617.831	11432.4
618.187	11473.98
618.543	11518.27
618.899	11484.37
619.255	11447.99
619.611	11514.43
619.967	11536.12
620.323	11565.28
620.678	11506.29
621.034	11499.97
621.39	11473.98
621.746	11459.29
622.101	11584.03
622.457	11498.38
622.812	11527.54
623.168	11547.42
623.523	11546.29
623.879	11540.87
624.234	11467.42
624.589	11494.77
624.945	11492.51
625.3	11530.47
625.655	11516.24
626.01	11490.93
626.365	11544.94
626.72	11484.37
627.075	11482.34
627.43	11493.64
627.785	11385.17
628.14	11451.15
628.495	11463.58
628.85	11431.95
629.205	11378.61
629.559	11518.72
629.914	11388.56
630.269	11448.67
630.623	11318.05
630.978	11392.17
631.332	11416.58
631.687	11393.3
632.041	11412.96
632.396	11349.24
632.75	11336.58
633.104	11291.16
633.459	11282.12
633.813	11237.37
634.167	11192.86
634.521	11241.44
634.875	11262.01
635.229	11248.22
635.583	11222.01
635.937	11204.61
636.291	11230.14
636.645	11282.57
636.999	11209.35
637.352	11219.97
637.706	11155.34
638.06	11188.34
638.413	11106.08
638.767	11112.86
639.121	11137.72
639.474	11085.97
639.828	11068.11
640.181	11098.39
640.534	11083.25
640.888	11100.43
641.241	11015.46
641.594	10941.34
641.947	11072.86
642.301	11009.36
642.654	10957.16
643.007	10924.61
643.36	10906.76
643.713	10946.08
644.066	10975.01
644.419	10976.36
644.771	10865.86
645.124	10685.98
645.477	10766.88
645.83	10604.17
646.182	10578.18
646.535	10595.36
646.888	10613.89
647.24	10470.84
647.593	10593.1
647.945	10617.05
648.298	10505.42
648.65	10445.98
649.002	10483.5
649.355	10567.34
649.707	10541.12
650.059	10620.44
650.411	10720.1
650.763	10730.49
651.115	10857.05
651.467	10731.17
651.819	10740.21
652.171	10680.33
652.523	10807.1
652.875	10745.64
653.227	10655.69
653.578	10768.46
653.93	10739.76
654.282	10733.43
654.633	10667.45
654.985	10681.91
655.337	10737.27
655.688	10749.93
656.039	10785.41
656.391	10629.93
656.742	10640.33
657.094	10706.54
657.445	10667.9
657.796	10694.79
658.147	10694.79
658.498	10690.72
658.849	10729.36
659.2	10681.46
659.551	10721.23
659.902	10728.23
660.253	10718.74
660.604	10682.13
660.955	10672.87
661.306	10672.42
661.656	10686.2
662.007	10719.65
662.358	10633.1
662.708	10696.15
663.059	10651.63
663.409	10642.14
663.76	10833.99
664.11	10724.39
664.461	10729.82
664.811	10671.51
665.161	10678.07
665.511	10718.52
665.862	10698.86
666.212	10709.48
666.562	10681.46
666.912	10710.38
667.262	10709.03
667.612	10641.68
667.962	10676.03
668.312	10690.95
668.662	10673.77
669.011	10657.5
669.361	10654.56
669.711	10607.33
670.06	10638.29
670.41	10589.93
670.76	10537.73
671.109	10620.22
671.459	10618.86
671.808	10632.87
672.157	10622.02
672.507	10499.31
672.856	10554.45
673.205	10570.95
673.554	10661.12
673.904	10646.2
674.253	10556.94
674.602	10605.07
674.951	10387.45
675.3	10351.3
675.649	10551.97
675.998	10509.03
676.346	10424.51
676.695	10550.16
677.044	10435.14
677.393	10529.82
677.741	10439.2
678.09	10486.43
678.438	10435.81
678.787	10471.07
679.135	10410.05
679.484	10367.79
679.832	10398.3
680.181	10300
680.529	10333.89
680.877	10315.14
681.225	10360.79
681.573	10286.21
681.922	10268.13
682.27	10258.19
682.618	10225.88
682.966	10135.71
683.314	10202.82
683.661	10255.03
684.009	10125.31
684.357	10129.83
684.705	10066.78
685.053	10127.12
685.4	10069.5
685.748	10026.11
686.095	10060.68
686.443	9980.91
686.79	9977.07
687.138	10026.11
687.485	9977.97
687.832	9944.75
688.18	9986.11
688.527	9904.3
688.874	9931.19
689.221	9855.72
689.568	9772.78
689.915	9743.85
690.262	9883.29
690.609	9748.83
690.956	9747.24
691.303	9726.91
691.65	9616.85
691.997	9660.47
692.344	9589.06
692.69	9587.47
693.037	9556.06
693.383	9517.87
693.73	9526.91
694.077	9437.87
694.423	9465.67
694.769	9406.91
695.116	9398.78
695.462	9371.21
695.808	9318.33
696.155	9372.79
696.501	9323.98
696.847	9328.72
697.193	9171.21
697.539	9192.23
697.885	9154.49
698.231	9124.66
698.577	9106.81
698.923	9042.86
699.269	9053.25
699.614	8941.16
699.96	8879.7
700.306	8979.58
700.651	8940.71
700.997	8888.06
701.342	8941.62
701.688	8806.25
702.033	8842.41
702.379	8806.7
702.724	8755.63
703.069	8822.3
703.415	8669.08
703.76	8646.71
704.105	8655.3
704.45	8582.3
704.795	8605.35
705.14	8534.62
705.485	8549.54
705.83	8534.85
706.175	8503.21
706.52	8493.72
706.865	8453.04
707.209	8363.78
707.554	8439.03
707.899	8409.2
708.243	8342.31
708.588	8349.31
708.932	8287.17
709.277	8289.2
709.621	8317
709.966	8231.35
710.31	8208.53
710.654	8185.7
710.998	8238.13
711.342	8138.92
711.687	8208.3
712.031	8142.99
712.375	8116.55
712.719	8156.55
713.063	8108.42
713.407	8132.6
713.75	8071.36
714.094	8027.97
714.438	7997.91
714.782	7992.71
715.125	7979.38
715.469	7999.27
715.812	7959.27
716.156	7924.92
716.499	7940.51
716.843	7921.75
717.186	7926.73
717.53	7903.68
717.873	7887.41
718.216	7905.03
718.559	7856.9
718.902	7771.48
719.246	7829.33
719.589	7768.54
719.932	7768.09
720.275	7777.13
720.617	7792.49
720.96	7814.19
721.303	7749.56
721.646	7737.58
721.989	7682.44
722.331	7714.53
722.674	7724.25
723.016	7716.79
723.359	7675.66
723.701	7687.18
724.044	7663.91
724.386	7622.33
724.729	7689.67
725.071	7633.85
725.413	7610.58
725.755	7652.61
726.097	7580.97
726.439	7530.35
726.782	7493.74
727.124	7640.18
727.465	7549.79
727.807	7532.16
728.149	7489
728.491	7470.47
728.833	7577.13
729.175	7474.31
729.516	7515.44
729.858	7498.72
730.199	7474.76
730.541	7465.5
730.882	7498.94
731.224	7500.3
731.565	7431.15
731.906	7498.04
732.248	7429.56
732.589	7431.82
732.93	7470.92
733.271	7418.94
733.612	7440.64
733.953	7486.06
734.294	7422.33
734.635	7463.24
734.976	7454.2
735.317	7433.86
735.658	7424.59
735.999	7453.52
736.339	7441.77
736.68	7437.25
737.021	7401.09
737.361	7376.23
737.702	7416.23
738.042	7418.27
738.383	7414.2
738.723	7464.37
739.063	7401.32
739.404	7445.61
739.744	7466.63
740.084	7460.3
740.424	7421.66
740.764	7393.86
741.104	7471.6
741.444	7399.73
741.784	7401.09
742.124	7483.57
742.464	7491.94
742.804	7473.86
743.143	7449.45
743.483	7471.6
743.823	7517.25
744.162	7520.18
744.502	7443.8
744.841	7460.52
745.181	7539.39
745.52	7571.71
745.86	7593.85
746.199	7573.29
746.538	7564.25
746.877	7642.89
747.216	7710.91
747.556	7651.93
747.895	7707.75
748.234	7725.83
748.573	7776
748.911	7740.97
749.25	7840.63
749.589	7838.59
749.928	7938.25
750.267	7933.73
750.605	8008.08
750.944	8028.64
751.283	8091.02
751.621	8117.46
751.96	8170.34
752.298	8159.49
752.636	8269.32
752.975	8274.97
753.313	8318.35
753.651	8471.12
753.989	8539.59
754.327	8581.17
754.666	8624.11
755.004	8680.38
755.342	8841.96
755.679	8913.59
756.017	8877.66
756.355	8992.01
756.693	9114.27
757.031	9175.51
757.368	9245.11
757.706	9327.59
758.044	9407.14
758.381	9549.51
758.719	9598.77
759.056	9714.02
759.394	9779.33
759.731	9890.97
760.068	10006.9
760.405	10062.26
760.743	10135.48
761.08	10233.56
761.417	10285.53
761.754	10472.2
762.091	10531.86
762.428	10671.06
762.765	10716.94
763.102	10848.68
