Data from hue_220_FLMS001491_00032.txt Node
Date: Tue Feb 07 16:39:22 GMT 2017
User: dcchb
Spectrometer: FLMS00149
Trigger mode: 0
Integration Time (sec): 2.000000E-2
Scans to average: 10
Electric dark correction enabled: true
Nonlinearity correction enabled: false
Boxcar width: 0
XAxis mode: Wavelengths
Number of Pixels in Spectrum: 2048
>>>>>Begin Spectral Data<<<<<
341.393	-5.08
341.776	-5.08
342.16	-5.08
342.543	-56.38
342.927	-83.27
343.31	-69.49
343.693	-56.61
344.077	-69.04
344.46	-52.32
344.843	-54.8
345.226	-43.5
345.61	-43.05
345.993	-19.32
346.376	-12.99
346.759	14.58
347.142	14.58
347.525	47.34
347.908	54.57
348.291	81.92
348.674	86.44
349.057	121.69
349.44	131.63
349.823	138.64
350.206	160.33
350.588	184.29
350.971	187.68
351.354	208.47
351.737	225.87
352.119	239.65
352.502	251.41
352.884	257.06
353.267	281.46
353.65	288.02
354.032	283.95
354.414	273.55
354.797	316.04
355.179	320.56
355.562	326.21
355.944	320.1
356.326	314.23
356.709	330.27
357.091	327.79
357.473	312.42
357.855	321.69
358.238	335.47
358.62	353.55
359.002	353.1
359.384	339.54
359.766	315.58
360.148	300.9
360.53	325.3
360.912	330.73
361.294	324.85
361.676	317.84
362.057	304.06
362.439	324.17
362.821	293.44
363.203	303.16
363.584	318.52
363.966	317.84
364.348	324.4
364.729	319.43
365.111	322.59
365.493	296.83
365.874	315.81
366.256	307.68
366.637	303.61
367.019	308.13
367.4	295.25
367.781	315.81
368.163	318.52
368.544	303.38
368.925	309.26
369.306	311.97
369.688	298.18
370.069	294.79
370.45	299.99
370.831	311.07
371.212	314.46
371.593	300.44
371.974	309.71
372.355	308.58
372.736	318.07
373.117	315.81
373.498	304.29
373.879	295.92
374.26	319.43
374.641	303.61
375.021	309.03
375.402	294.57
375.783	293.89
376.163	298.64
376.544	328.92
376.925	297.73
377.305	306.09
377.686	333.21
378.066	310.16
378.447	331.18
378.827	327.79
379.208	325.08
379.588	303.38
379.968	309.03
380.349	330.73
380.729	320.78
381.109	320.78
381.489	325.53
381.87	321.01
382.25	342.48
382.63	341.12
383.01	334.57
383.39	315.36
383.77	330.73
384.15	305.64
384.53	335.7
384.91	337.96
385.29	316.49
385.67	342.7
386.049	331.4
386.429	337.73
386.809	341.8
387.189	334.34
387.568	356.94
387.948	338.64
388.328	348.58
388.707	353.55
389.087	342.25
389.466	360.1
389.846	369.82
390.225	350.84
390.605	354.23
390.984	361.23
391.363	344.28
391.743	366.88
392.122	370.95
392.501	342.93
392.881	366.43
393.26	378.18
393.639	347.9
394.018	378.41
394.397	371.18
394.776	379.99
395.155	373.21
395.534	374.79
395.913	389.26
396.292	376.37
396.671	361.69
397.05	371.18
397.429	371.4
397.808	393.32
398.186	390.84
398.565	361.91
398.944	399.42
399.323	386.32
399.701	396.49
400.08	409.82
400.458	395.13
400.837	403.04
401.215	403.04
401.594	384.96
401.972	402.14
402.351	419.99
402.729	432.64
403.107	412.53
403.486	423.15
403.864	405.3
404.242	423.6
404.62	427.45
404.999	412.98
405.377	428.35
405.755	455.47
406.133	432.87
406.511	424.96
406.889	455.92
407.267	464.73
407.645	465.86
408.023	465.19
408.401	454.11
408.779	495.47
409.156	465.19
409.534	474.9
409.912	516.71
410.29	504.73
410.667	499.53
411.045	519.42
411.422	509.7
411.8	522.81
412.178	532.98
412.555	545.64
412.933	537.5
413.31	560.32
413.687	579.98
414.065	539.53
414.442	568.91
414.819	603.49
415.197	615.01
415.574	590.83
415.951	589.48
416.328	605.75
416.705	606.2
417.082	616.14
417.46	647.1
417.837	660.21
418.214	623.15
418.591	656.37
418.967	663.6
419.344	664.28
419.721	702.69
420.098	677.16
420.475	681.45
420.852	701.56
421.228	717.83
421.605	721
421.982	759.19
422.358	754.9
422.735	761.45
423.111	773.65
423.488	765.97
423.864	792.86
424.241	809.81
424.617	833.54
424.994	844.16
425.37	842.35
425.746	863.37
426.123	866.08
426.499	863.82
426.875	862.46
427.251	898.62
427.627	920.99
428.003	937.49
428.379	937.72
428.756	936.81
429.132	937.49
429.507	972.06
429.883	951.5
430.259	1025.62
430.635	998.73
431.011	1013.42
431.387	1031.72
431.763	1046.41
432.138	1050.48
432.514	1064.72
432.89	1067.66
433.265	1093.42
433.641	1120.76
434.016	1132.51
434.392	1151.27
434.767	1186.97
435.143	1188.56
435.518	1214.77
435.894	1223.58
436.269	1256.35
436.644	1272.85
437.02	1283.47
437.395	1281.21
437.77	1321.89
438.145	1382.22
438.52	1393.3
438.895	1379.29
439.271	1399.17
439.646	1450.02
440.021	1460.41
440.395	1454.76
440.77	1471.03
441.145	1489.57
441.52	1518.94
441.895	1545.16
442.27	1553.52
442.645	1561.88
443.019	1578.38
443.394	1590.35
443.769	1599.62
444.143	1616.12
444.518	1642.78
444.892	1649.34
445.267	1667.41
445.641	1655.89
446.016	1690.46
446.39	1693.18
446.764	1725.94
447.139	1701.09
447.513	1741.54
447.887	1731.14
448.262	1755.55
448.636	1757.13
449.01	1784.02
449.384	1782.21
449.758	1791.03
450.132	1826.28
450.506	1858.6
450.88	1869.67
451.254	1860.86
451.628	1868.99
452.002	1903.34
452.376	1933.62
452.75	1924.36
453.123	1940.17
453.497	1971.13
453.871	2008.87
454.244	2023.34
454.618	2026.05
454.992	2048.19
455.365	2045.26
455.739	2097.46
456.112	2097.68
456.486	2116.67
456.859	2122.09
457.232	2176.1
457.606	2156.21
457.979	2207.29
458.352	2280.28
458.725	2292.71
459.099	2224.01
459.472	2321.41
459.845	2333.84
460.218	2380.62
460.591	2382.2
460.964	2395.98
461.337	2437.11
461.71	2525.47
462.083	2525.47
462.456	2514.62
462.829	2508.52
463.201	2558.46
463.574	2568.18
463.947	2628.52
464.32	2651.79
464.692	2660.16
465.065	2677.56
465.438	2685.69
465.81	2773.37
466.183	2768.4
466.555	2830.32
466.928	2862.18
467.3	2833.26
467.672	2908.74
468.045	2957.1
468.417	2945.57
468.789	2995.29
469.161	2996.64
469.534	3056.53
469.906	3111.22
470.278	3119.13
470.65	3161.61
471.022	3257.88
471.394	3271.21
471.766	3320.7
472.138	3306.69
472.51	3397.54
472.882	3401.15
473.253	3479.8
473.625	3506.69
473.997	3556.18
474.369	3564.99
474.74	3625.1
475.112	3679.56
475.484	3708.94
475.855	3762.27
476.227	3790.07
476.598	3901.03
476.97	3898.77
477.341	3975.15
477.713	4015.83
478.084	4065.09
478.455	4106.45
478.827	4158.65
479.198	4310.06
479.569	4286.55
479.94	4378.98
480.311	4405.65
480.682	4483.61
481.053	4597.28
481.424	4636.6
481.795	4646.77
482.166	4696.71
482.537	4732.19
482.908	4875.69
483.279	4875.24
483.65	4969.47
484.021	5032.75
484.391	5063.93
484.762	5142.8
485.133	5153.2
485.503	5203.14
485.874	5368.33
486.244	5311.84
486.615	5450.82
486.985	5525.17
487.356	5574.88
487.726	5648.33
488.097	5682.22
488.467	5700.75
488.837	5784.59
489.207	5851.94
489.578	5932.39
489.948	6011.03
490.318	6034.08
490.688	6088.09
491.058	6137.35
491.428	6258.71
491.798	6266.39
492.168	6375.54
492.538	6411.24
492.908	6394.97
493.278	6526.04
493.648	6435.42
494.017	6547.51
494.387	6603.1
494.757	6672.25
495.126	6741.86
495.496	6739.14
495.866	6733.72
496.235	6806.26
496.605	6856.43
496.974	6886.71
497.344	6936.88
497.713	6929.2
498.082	6920.38
498.452	7068.18
498.821	7064.79
499.19	7030.89
499.559	7172.58
499.928	7158.34
500.298	7129.64
500.667	7180.49
501.036	7237.89
501.405	7249.41
501.774	7287.15
502.143	7301.16
502.512	7324.67
502.88	7391.33
503.249	7349.3
503.618	7413.03
503.987	7433.36
504.356	7460.71
504.724	7481.5
505.093	7490.99
505.462	7430.2
505.83	7505.68
506.199	7513.59
506.567	7657.76
506.936	7597.43
507.304	7580.03
507.672	7679.69
508.041	7647.14
508.409	7724.66
508.777	7712
509.145	7774.6
509.514	7755.16
509.882	7802.17
510.25	7788.61
510.618	7841.26
510.986	7856.63
511.354	7867.48
511.722	7914.48
512.09	7993.8
512.458	7929.4
512.826	7936.63
513.193	7948.83
513.561	7940.24
513.929	7979.11
514.297	8045.78
514.664	8031.99
515.032	8009.62
515.4	8063.86
515.767	8027.92
516.135	8006
516.502	8002.84
516.869	8042.84
517.237	8108.15
517.604	8062.27
517.972	8122.84
518.339	8135.27
518.706	8058.21
519.073	8074.02
519.44	8129.16
519.808	8116.74
520.175	8094.82
520.542	8166.45
520.909	8157.86
521.276	8154.93
521.643	8222.5
522.009	8186.79
522.376	8232.66
522.743	8235.6
523.11	8224.08
523.477	8270.4
523.843	8231.53
524.21	8335.04
524.577	8343.62
524.943	8312.89
525.31	8322.38
525.676	8361.93
526.043	8348.59
526.409	8356.73
526.776	8388.82
527.142	8417.29
527.508	8391.3
527.874	8457.29
528.241	8402.38
528.607	8384.07
528.973	8445.31
529.339	8344.07
529.705	8394.69
530.071	8399.67
530.437	8439.89
530.803	8529.83
531.169	8418.87
531.535	8425.65
531.901	8383.4
532.267	8415.71
532.632	8408.25
532.998	8368.48
533.364	8274.92
533.73	8328.03
534.095	8415.48
534.461	8300.23
534.826	8381.36
535.192	8427.24
535.557	8343.4
535.923	8386.79
536.288	8337.75
536.653	8329.61
537.019	8263.4
537.384	8259.56
537.749	8245.77
538.114	8257.3
538.479	8203.06
538.845	8194.93
539.21	8146.79
539.575	8169.84
539.94	8099.56
540.305	8155.15
540.67	8122.84
541.034	8120.8
541.399	8102.5
541.764	8089.39
542.129	8016.85
542.494	7997.42
542.858	8037.19
543.223	7970.75
543.587	8007.59
543.952	7950.86
544.316	7958.1
544.681	7820.02
545.045	7912.9
545.41	7866.35
545.774	7845.33
546.138	7862.51
546.503	7817.08
546.867	7797.42
547.231	7909.51
547.595	7760.36
547.959	7797.65
548.324	7730.53
548.688	7639.46
549.052	7744.77
549.416	7674.94
549.779	7627.71
550.143	7662.96
550.507	7670.42
550.871	7579.12
551.235	7595.62
551.599	7596.3
551.962	7595.17
552.326	7451.44
552.689	7552.23
553.053	7451.44
553.417	7447.37
553.78	7549.07
554.143	7457.54
554.507	7428.39
554.87	7466.81
555.234	7483.08
555.597	7387.49
555.96	7376.64
556.323	7414.83
556.686	7386.13
557.05	7372.35
557.413	7354.72
557.776	7380.94
558.139	7359.24
558.502	7338.45
558.865	7358.56
559.228	7384.55
559.59	7403.08
559.953	7309.75
560.316	7387.72
560.679	7324.21
561.041	7313.59
561.404	7328.96
561.767	7376.42
562.129	7379.35
562.492	7362.86
562.854	7302.75
563.217	7329.64
563.579	7351.33
563.941	7346.81
564.304	7358.79
564.666	7321.73
565.028	7354.04
565.39	7406.7
565.753	7422.29
566.115	7363.76
566.477	7422.52
566.839	7387.94
567.201	7440.14
567.563	7472.68
567.925	7462.74
568.287	7501.16
568.648	7407.83
569.01	7492.35
569.372	7528.28
569.734	7475.62
570.095	7504.55
570.457	7580.7
570.819	7483.53
571.18	7501.16
571.542	7572.34
571.903	7570.08
572.265	7623.42
572.626	7592.68
572.987	7652.57
573.349	7588.84
573.71	7637.43
574.071	7632.45
574.432	7645.34
574.794	7715.39
575.155	7677.43
575.516	7640.36
575.877	7650.53
576.238	7736.63
576.599	7775.28
576.96	7738.67
577.32	7759.23
577.681	7751.1
578.042	7775.95
578.403	7771.43
578.763	7818.66
579.124	7875.61
579.485	7812.34
579.845	7836.29
580.206	7836.29
580.566	7850.08
580.927	7898.66
581.287	7933.46
581.648	7874.93
582.008	7933.01
582.368	7950.86
582.728	8009.85
583.089	8023.4
583.449	7992.9
583.809	8010.3
584.169	8035.83
584.529	8012.56
584.889	8100.01
585.249	8052.56
585.609	8024.31
585.969	8068.6
586.329	8090.97
586.688	8107.47
587.048	8149.96
587.408	8090.75
587.768	8071.99
588.127	8149.28
588.487	8163.97
588.846	8159.67
589.206	8144.76
589.565	8217.98
589.925	8256.39
590.284	8206.9
590.643	8187.47
591.003	8289.39
591.362	8265.88
591.721	8270.86
592.08	8275.15
592.44	8260.69
592.799	8253
593.158	8284.41
593.517	8311.08
593.876	8323.06
594.235	8331.42
594.593	8352.66
594.952	8379.33
595.311	8320.8
595.67	8376.84
596.029	8394.47
596.387	8409.61
596.746	8415.48
597.104	8437.18
597.463	8386.79
597.822	8391.98
598.18	8436.95
598.538	8417.52
598.897	8443.51
599.255	8417.97
599.613	8527.8
599.972	8461.81
600.33	8458.2
600.688	8450.51
601.046	8498.42
601.404	8501.13
601.762	8525.31
602.12	8583.16
602.478	8522.6
602.836	8543.17
603.194	8571.19
603.552	8506.56
603.91	8531.41
604.268	8591.07
604.625	8544.52
604.983	8561.24
605.341	8485.77
605.698	8595.82
606.056	8607.8
606.413	8627.91
606.771	8555.59
607.128	8651.41
607.485	8628.36
607.843	8653.9
608.2	8634.69
608.557	8632.43
608.914	8596.72
609.272	8631.07
609.629	8685.08
609.986	8720.79
610.343	8624.52
610.7	8741.58
611.057	8732.99
611.414	8689.15
611.771	8709.26
612.127	8763.95
612.484	8712.88
612.841	8686.66
613.198	8701.58
613.554	8658.87
613.911	8751.75
614.267	8698.64
614.624	8781.13
614.98	8818.86
615.337	8791.07
615.693	8770.96
616.05	8811.41
616.406	8841.24
616.762	8878.52
617.118	8801.92
617.475	8864.51
617.831	8846.89
618.187	8821.12
618.543	8834.91
618.899	8894.57
619.255	8918.97
619.611	8891.63
619.967	8841.01
620.323	8948.58
620.678	8867.9
621.034	8904.51
621.39	8906.55
621.746	8860.67
622.101	8938.64
622.457	8944.96
622.812	8933.66
623.168	8919.65
623.523	8947.67
623.879	8905.64
624.234	8884.17
624.589	8940.67
624.945	8846.66
625.3	8944.06
625.655	8979.99
626.01	8897.05
626.365	8947.67
626.72	8877.17
627.075	8895.25
627.43	8876.72
627.785	8922.82
628.14	8912.42
628.495	8871.29
628.85	8927.79
629.205	8836.72
629.559	8889.6
629.914	8861.35
630.269	8872.42
630.623	8854.12
630.978	8794.23
631.332	8865.19
631.687	8816.83
632.041	8852.31
632.396	8879.43
632.75	8776.38
633.104	8821.12
633.459	8793.78
633.813	8742.93
634.167	8735.48
634.521	8732.99
634.875	8706.55
635.229	8772.54
635.583	8735.93
635.937	8700.68
636.291	8710.17
636.645	8701.13
636.999	8674.69
637.352	8664.74
637.706	8702.48
638.06	8623.84
638.413	8561.7
638.767	8641.24
639.121	8576.84
639.474	8573.45
639.828	8591.53
640.181	8563.96
640.534	8550.85
640.888	8557.85
641.241	8542.26
641.594	8511.3
641.947	8627.23
642.301	8573.45
642.654	8566.67
643.007	8542.94
643.36	8521.02
643.713	8512.21
644.066	8580
644.419	8495.48
644.771	8409.38
645.124	8363.73
645.477	8405.54
645.83	8357.41
646.182	8295.26
646.535	8285.54
646.888	8286.22
647.24	8236.96
647.593	8284.41
647.945	8292.32
648.298	8281.25
648.65	8200.12
649.002	8185.43
649.355	8310.4
649.707	8266.56
650.059	8338.65
650.411	8324.87
650.763	8398.54
651.115	8474.69
651.467	8447.35
651.819	8355.83
652.171	8463.17
652.523	8436.5
652.875	8431.53
653.227	8488.25
653.578	8469.27
653.93	8437.86
654.282	8424.75
654.633	8389.95
654.985	8436.28
655.337	8393.56
655.688	8401.7
656.039	8493.67
656.391	8406.67
656.742	8429.27
657.094	8406.22
657.445	8437.63
657.796	8474.24
658.147	8354.02
658.498	8457.52
658.849	8461.59
659.2	8465.65
659.551	8431.98
659.902	8472.21
660.253	8476.5
660.604	8454.58
660.955	8449.16
661.306	8496.61
661.656	8512.21
662.007	8494.35
662.358	8505.65
662.708	8495.71
663.059	8516.73
663.409	8497.74
663.76	8441.7
664.11	8497.74
664.461	8497.74
664.811	8478.99
665.161	8500.23
665.511	8554.46
665.862	8542.26
666.212	8546.55
666.562	8514.92
666.912	8499.55
667.262	8500.23
667.612	8464.52
667.962	8548.36
668.312	8514.47
668.662	8572.32
669.011	8506.56
669.361	8493.45
669.711	8507.69
670.06	8485.54
670.41	8456.84
670.76	8441.47
671.109	8541.36
671.459	8524.63
671.808	8463.39
672.157	8501.36
672.507	8380.91
672.856	8394.47
673.205	8483.05
673.554	8486.44
673.904	8407.58
674.253	8478.53
674.602	8459.1
674.951	8351.53
675.3	8262.04
675.649	8405.54
675.998	8428.82
676.346	8450.06
676.695	8420.68
677.044	8410.29
677.393	8404.64
677.741	8342.49
678.09	8391.98
678.438	8386.33
678.787	8307.69
679.135	8394.24
679.484	8290.52
679.832	8319.89
680.181	8251.42
680.529	8274.25
680.877	8234.92
681.225	8228.6
681.573	8258.65
681.922	8189.95
682.27	8145.44
682.618	8207.58
682.966	8167.36
683.314	8201.48
683.661	8147.92
684.009	8085.1
684.357	8074.93
684.705	8049.84
685.053	8085.32
685.4	7982.05
685.748	8003.52
686.095	7988.15
686.443	7965.33
686.79	7983.41
687.138	7964.88
687.485	7936.4
687.832	7891.66
688.18	7903.86
688.527	7874.48
688.874	7842.62
689.221	7848.95
689.568	7820.92
689.915	7829.29
690.262	7783.19
690.609	7746.58
690.956	7720.81
691.303	7682.85
691.65	7651.21
691.997	7650.76
692.344	7586.13
692.69	7556.07
693.037	7557.88
693.383	7467.94
693.73	7494.83
694.077	7487.6
694.423	7487.37
694.769	7509.52
695.116	7431.1
695.462	7486.24
695.808	7322.63
696.155	7427.04
696.501	7262.75
696.847	7293.93
697.193	7229.75
697.539	7283.54
697.885	7228.4
698.231	7213.03
698.577	7196.08
698.923	7149.53
699.269	7085.8
699.614	7025.24
699.96	7093.94
700.306	7039.93
700.651	7027.27
700.997	6985.24
701.342	6964
701.688	6968.97
702.033	6973.26
702.379	6874.96
702.724	6923.55
703.069	6878.12
703.415	6831.57
703.76	6887.84
704.105	6805.36
704.45	6781.86
704.795	6775.53
705.14	6731.91
705.485	6724.23
705.83	6689.88
706.175	6675.19
706.52	6631.35
706.865	6602.43
707.209	6603.1
707.554	6590
707.899	6587.96
708.243	6521.98
708.588	6494.41
708.932	6442.2
709.277	6533.95
709.621	6514.29
709.966	6461.19
710.31	6417.12
710.654	6380.51
710.998	6381.19
711.342	6364.92
711.687	6353.62
712.031	6385.26
712.375	6297.35
712.719	6326.27
713.063	6314.07
713.407	6285.15
713.75	6295.54
714.094	6308.65
714.438	6242.66
714.782	6201.53
715.125	6204.7
715.469	6235.2
715.812	6206.5
716.156	6149.1
716.499	6162.21
716.843	6121.08
717.186	6181.87
717.53	6185.94
717.873	6168.09
718.216	6140.74
718.559	6097.35
718.902	6026.17
719.246	6069.56
719.589	6074.3
719.932	6040.63
720.275	6074.98
720.617	6002.67
720.96	6034.53
721.303	6048.09
721.646	6077.92
721.989	5994.31
722.331	6042.67
722.674	6050.8
723.016	6027.98
723.359	6032.72
723.701	6036.79
724.044	6016.68
724.386	5956.79
724.729	5948.43
725.071	5975.1
725.413	6007.86
725.755	6038.6
726.097	5944.59
726.439	5975.32
726.782	5990.01
727.124	5964.48
727.465	5914.76
727.807	6031.37
728.149	5891.48
728.491	5938.49
728.833	5963.8
729.175	5916.34
729.516	5915.21
729.858	5934.65
730.199	5986.62
730.541	5945.27
730.882	5938.71
731.224	5957.24
731.565	5918.38
731.906	5959.96
732.248	5938.49
732.589	5870.02
732.93	5878.15
733.271	5959.73
733.612	5910.92
733.953	5939.62
734.294	5900.52
734.635	5929.22
734.976	5898.94
735.317	5927.19
735.658	5939.84
735.999	5939.84
736.339	5926.28
736.68	5935.1
737.021	5983.68
737.361	5907.3
737.702	6004.93
738.042	5968.32
738.383	5993.85
738.723	5955.44
739.063	5993.63
739.404	6006.51
739.744	6002.67
740.084	6018.71
740.424	6024.14
740.764	6015.55
741.104	6063.68
741.444	5991.14
741.784	6009.22
742.124	6075.89
742.464	6099.61
742.804	6129.44
743.143	6102.55
743.483	6183.91
743.823	6155.21
744.162	6173.96
744.502	6226.62
744.841	6284.02
745.181	6262.1
745.52	6292.6
745.86	6332.15
746.199	6391.81
746.538	6373.05
746.877	6411.02
747.216	6437.46
747.556	6527.85
747.895	6522.2
748.234	6589.32
748.573	6653.05
748.911	6636.55
749.25	6740.95
749.589	6776.21
749.928	6868.41
750.267	6910.44
750.605	6954.28
750.944	7060.27
751.283	7102.53
751.621	7207.83
751.96	7323.76
752.298	7358.34
752.636	7427.49
752.975	7573.02
753.313	7610.76
753.651	7786.35
753.989	7793.13
754.327	7923.97
754.666	8010.98
755.004	8164.87
755.342	8296.17
755.679	8360.8
756.017	8446.22
756.355	8617.06
756.693	8768.24
757.031	8918.3
757.368	8954.68
757.706	9163.49
758.044	9252.98
758.381	9392.86
758.719	9577.94
759.056	9730.25
759.394	9940.42
759.731	9906.07
760.068	10169.11
760.405	10260.63
760.743	10462.21
761.08	10568.65
761.417	10741.75
761.754	10928.41
762.091	11051.35
762.428	11216.99
762.765	11324.11
763.102	11589.64
763.438	11700.6
763.775	11804.77
764.112	12106.91
764.449	12290.41
764.785	12409.05
765.122	12530.4
765.458	12689.04
765.795	12774.47
766.131	13011.97
766.467	13167
766.804	13242.7
767.14	13383.94
767.476	13539.42
767.812	13602.92
768.148	13955
768.485	13947.09
768.821	14062.57
