Data from hue_350_FLMS001491_71.txt Node
Date: Mon Feb 06 15:38:29 GMT 2017
User: dcchb
Spectrometer: FLMS00149
Trigger mode: 0
Integration Time (sec): 2.000000E-2
Scans to average: 10
Electric dark correction enabled: true
Nonlinearity correction enabled: false
Boxcar width: 0
XAxis mode: Wavelengths
Number of Pixels in Spectrum: 2048
>>>>>Begin Spectral Data<<<<<
341.393	-9.08
341.776	-9.08
342.16	-9.08
342.543	-55.86
342.927	-79.14
343.31	-50.44
343.693	-73.94
344.077	-75.75
344.46	-62.41
344.843	-54.05
345.226	-44.33
345.61	-50.89
345.993	-16.31
346.376	-11.79
346.759	-5.01
347.142	45.61
347.525	44.02
347.908	77.02
348.291	72.27
348.674	91.71
349.057	114.3
349.44	114.08
349.823	148.43
350.206	136.9
350.588	183.68
350.971	199.05
351.354	217.35
351.737	234.98
352.119	250.35
352.502	248.76
352.884	270.01
353.267	255.32
353.65	268.65
354.032	305.71
354.414	280.4
354.797	286.5
355.179	299.38
355.562	325.37
355.944	323.79
356.326	307.07
356.709	327.18
357.091	330.12
357.473	307.07
357.855	326.5
358.238	335.99
358.62	321.76
359.002	338.93
359.384	330.34
359.766	323.56
360.148	326.95
360.53	344.58
360.912	335.99
361.294	338.25
361.676	318.59
362.057	332.6
362.439	319.05
362.821	325.6
363.203	303.45
363.584	325.37
363.966	307.52
364.348	302.55
364.729	332.6
365.111	301.42
365.493	306.39
365.874	324.92
366.256	299.38
366.637	275.2
367.019	331.47
367.4	306.62
367.781	302.1
368.163	280.63
368.544	304.36
368.925	313.4
369.306	291.25
369.688	305.03
370.069	308.88
370.45	307.97
370.831	284.92
371.212	301.64
371.593	301.64
371.974	300.06
372.355	304.58
372.736	301.87
373.117	299.16
373.498	311.14
373.879	296.67
374.26	304.13
374.641	305.26
375.021	299.16
375.402	315.66
375.783	296
376.163	318.82
376.544	325.6
376.925	331.7
377.305	314.98
377.686	276.33
378.066	305.71
378.447	310.46
378.827	338.93
379.208	326.05
379.588	309.55
379.968	319.5
380.349	328.76
380.729	321.53
381.109	310.23
381.489	338.03
381.87	338.25
382.25	343.68
382.63	348.42
383.01	328.99
383.39	329.21
383.77	313.4
384.15	326.5
384.53	317.92
384.91	334.41
385.29	328.08
385.67	345.49
386.049	325.82
386.429	329.21
386.809	345.26
387.189	339.16
387.568	335.32
387.948	314.98
388.328	347.07
388.707	326.73
389.087	325.6
389.466	357.69
389.846	334.19
390.225	352.49
390.605	340.74
390.984	350.68
391.363	350.46
391.743	375.99
392.122	345.94
392.501	341.87
392.881	368.76
393.26	348.65
393.639	370.34
394.018	356.11
394.397	368.31
394.776	370.34
395.155	362.66
395.534	352.72
395.913	358.14
396.292	353.39
396.671	380.29
397.05	352.94
397.429	368.54
397.808	362.66
398.186	360.4
398.565	359.95
398.944	373.06
399.323	367.63
399.701	389.33
400.08	385.03
400.458	385.71
400.837	380.06
401.215	382.77
401.594	367.86
401.972	383.68
402.351	374.64
402.729	380.74
403.107	393.62
403.486	373.96
403.864	399.27
404.242	390
404.62	362.21
404.999	397.24
405.377	406.5
405.755	417.8
406.133	406.73
406.511	393.39
406.889	394.52
407.267	414.41
407.645	388.2
408.023	410.34
408.401	405.14
408.779	415.77
409.156	425.03
409.534	416.22
409.912	411.47
410.29	410.34
410.667	424.35
411.045	429.1
411.422	432.49
411.8	417.8
412.178	433.39
412.555	446.5
412.933	442.88
413.31	456.22
413.687	436.33
414.065	446.95
414.442	457.8
414.819	458.25
415.197	466.61
415.574	460.96
415.951	472.49
416.328	475.88
416.705	465.71
417.082	489.44
417.46	470.68
417.837	476.1
418.214	474.3
418.591	485.59
418.967	484.46
419.344	499.38
419.721	506.16
420.098	501.41
420.475	502.32
420.852	511.58
421.228	497.35
421.605	510.45
421.982	520.4
422.358	518.81
422.735	514.97
423.111	510
423.488	529.44
423.864	537.34
424.241	502.77
424.617	519.04
424.994	523.11
425.37	521.75
425.746	547.06
426.123	551.36
426.499	547.97
426.875	550.9
427.251	566.95
427.627	558.36
428.003	572.37
428.379	574.18
428.756	564.24
429.132	593.39
429.507	586.16
429.883	570.79
430.259	604.01
430.635	597.23
431.011	617.34
431.387	626.38
431.763	611.24
432.138	622.54
432.514	629.09
432.89	618.7
433.265	639.26
433.641	634.07
434.016	643.1
434.392	660.51
434.767	646.27
435.143	656.89
435.518	678.13
435.894	681.52
436.269	686.72
436.644	678.36
437.02	685.14
437.395	726.49
437.77	692.59
438.145	681.75
438.52	698.02
438.895	717
439.271	702.31
439.646	718.36
440.021	737.11
440.395	726.04
440.77	740.28
441.145	715.19
441.52	748.86
441.895	760.16
442.27	743.44
442.645	737.57
443.019	742.54
443.394	753.61
443.769	757.45
444.143	756.1
444.518	752.93
444.892	763.1
445.267	771.91
445.641	798.13
446.016	778.47
446.39	770.33
446.764	776.43
447.139	798.58
447.513	800.61
447.887	794.96
448.262	812.37
448.636	797.9
449.01	817.34
449.384	794.74
449.758	797
450.132	841.97
450.506	833.16
450.88	827.51
451.254	850.1
451.628	834.51
452.002	845.59
452.376	851.01
452.75	831.35
453.123	863.44
453.497	859.14
453.871	845.13
454.244	863.21
454.618	879.71
454.992	931.46
455.365	903.66
455.739	917.9
456.112	926.03
456.486	895.53
456.859	959.03
457.232	956.09
457.606	941.85
457.979	981.17
458.352	962.42
458.725	974.85
459.099	961.97
459.472	992.02
459.845	1013.26
460.218	1015.07
460.591	1011.46
460.964	1010.1
461.337	1018.91
461.71	1054.39
462.083	1052.81
462.456	1060.49
462.829	1069.08
463.201	1086.93
463.574	1113.37
463.947	1113.37
464.32	1157.89
464.692	1098.69
465.065	1139.81
465.438	1161.28
465.81	1159.93
466.183	1172.81
466.555	1167.84
466.928	1197.21
467.3	1187.95
467.672	1209.64
468.045	1217.1
468.417	1218.23
468.789	1232.02
469.161	1244.22
469.534	1291.9
469.906	1303.88
470.278	1312.69
470.65	1304.33
471.022	1310.43
471.394	1386.81
471.766	1366.7
472.138	1377.55
472.51	1429.07
472.882	1449.19
473.253	1476.3
473.625	1491.67
473.997	1515.62
474.369	1501.39
474.74	1519.69
475.112	1544.1
475.484	1567.6
475.855	1607.37
476.227	1594.94
476.598	1678.56
476.97	1686.47
477.341	1698.9
477.713	1709.74
478.084	1738.67
478.455	1776.86
478.827	1804.43
479.198	1849.63
479.569	1848.95
479.94	1925.78
480.311	1913.81
480.682	1942.73
481.053	2013.69
481.424	2025.44
481.795	2074.25
482.166	2055.04
482.537	2093.69
482.908	2162.61
483.279	2161.26
483.65	2205.78
484.021	2249.84
484.391	2221.14
484.762	2298.43
485.133	2329.84
485.503	2337.98
485.874	2397.18
486.244	2413.68
486.615	2469.27
486.985	2498.2
487.356	2557.4
487.726	2575.03
488.097	2603.5
488.467	2657.06
488.837	2692.99
489.207	2710.62
489.578	2742.94
489.948	2767.34
490.318	2832.2
490.688	2800.34
491.058	2867
491.428	2883.95
491.798	2950.84
492.168	3040.78
492.538	3040.1
492.908	3032.19
493.278	3096.37
493.648	3083.94
494.017	3140.44
494.387	3171.63
494.757	3197.84
495.126	3259.76
495.496	3245.52
495.866	3259.98
496.235	3300.21
496.605	3310.83
496.974	3325.07
497.344	3358.97
497.713	3377.5
498.082	3408.46
498.452	3484.61
498.821	3471.96
499.19	3504.27
499.559	3492.07
499.928	3485.52
500.298	3567.55
500.667	3614.55
501.036	3572.29
501.405	3623.37
501.774	3656.36
502.143	3660.2
502.512	3648.9
502.88	3695.68
503.249	3722.35
503.618	3667.43
503.987	3723.93
504.356	3712.63
504.724	3749.24
505.093	3791.5
505.462	3784.26
505.83	3813.87
506.199	3823.81
506.567	3899.52
506.936	3871.49
507.304	3896.35
507.672	3897.03
508.041	3921.21
508.409	3987.65
508.777	3952.85
509.145	4014.32
509.514	4008.21
509.882	4008.21
510.25	4029.91
510.618	4049.34
510.986	4053.64
511.354	4076.91
511.722	4141.77
512.09	4137.02
512.458	4131.15
512.826	4193.75
513.193	4180.41
513.561	4215.21
513.929	4166.63
514.297	4221.09
514.664	4216.34
515.032	4286.17
515.4	4307.41
515.767	4293.4
516.135	4330.24
516.502	4276.91
516.869	4377.92
517.237	4323.91
517.604	4325.95
517.972	4372.5
518.339	4402.78
518.706	4404.81
519.073	4381.09
519.44	4401.65
519.808	4447.98
520.175	4476
520.542	4555.32
520.909	4532.27
521.276	4530.46
521.643	4502.89
522.009	4559.84
522.376	4560.74
522.743	4564.13
523.11	4626.5
523.477	4616.79
523.843	4678.03
524.21	4694.3
524.577	4740.85
524.943	4735.65
525.31	4803.9
525.676	4813.16
526.043	4795.31
526.409	4864.69
526.776	4916.66
527.142	4930.45
527.508	4881.41
527.874	4945.14
528.241	4972.93
528.607	4977.91
528.973	5048.19
529.339	5009.77
529.705	5084.57
530.071	5047.06
530.437	5133.38
530.803	5097.45
531.169	5163.89
531.535	5225.58
531.901	5183.55
532.267	5211.12
532.632	5228.07
532.998	5261.51
533.364	5316.65
533.73	5326.37
534.095	5326.37
534.461	5329.76
534.826	5356.2
535.192	5395.97
535.557	5435.75
535.923	5420.83
536.288	5435.75
536.653	5508.29
537.019	5494.05
537.384	5495.63
537.749	5538.34
538.114	5568.85
538.479	5535.86
538.845	5587.38
539.21	5602.3
539.575	5621.5
539.94	5653.82
540.305	5680.03
540.67	5702.18
541.034	5690.43
541.399	5715.74
541.764	5767.26
542.129	5757.32
542.494	5834.38
542.858	5823.08
543.223	5871.44
543.587	5880.71
543.952	5884.1
544.316	5921.61
544.681	5948.95
545.045	5955.06
545.41	5991.44
545.774	6007.26
546.138	6032.12
546.503	6031.44
546.867	5983.76
547.231	6106.01
547.595	6118.89
547.959	6146.24
548.324	6170.19
548.688	6189.4
549.052	6177.87
549.416	6244.77
549.779	6277.76
550.143	6259.23
550.507	6310.53
550.871	6372.9
551.235	6306.01
551.599	6345.33
551.962	6379.9
552.326	6404.31
552.689	6380.35
553.053	6370.86
553.417	6412.67
553.78	6493.35
554.143	6499.9
554.507	6475.49
554.87	6515.94
555.234	6548.26
555.597	6555.04
555.96	6572.67
556.323	6594.59
556.686	6592.78
557.05	6655.15
557.413	6655.6
557.776	6681.14
558.139	6722.04
558.502	6785.99
558.865	6755.26
559.228	6799.1
559.59	6817.41
559.953	6830.29
560.316	6860.57
560.679	6846.56
561.041	6896.05
561.404	6882.26
561.767	6945.76
562.129	6894.47
562.492	7003.62
562.854	7050.17
563.217	7042.94
563.579	7086.78
563.941	7066.21
564.304	7091.52
564.666	7145.76
565.028	7153.89
565.39	7123.84
565.753	7228.47
566.115	7218.3
566.477	7239.77
566.839	7317.73
567.201	7330.16
567.563	7341.01
567.925	7359.31
568.287	7382.81
568.648	7403.83
569.01	7450.84
569.372	7498.07
569.734	7479.76
570.095	7522.7
570.457	7518.63
570.819	7534.22
571.18	7642.92
571.542	7678.85
571.903	7665.52
572.265	7661.9
572.626	7789.81
572.987	7779.19
573.349	7846.76
573.71	7879.07
574.071	7912.29
574.432	7962.46
574.794	8073.19
575.155	8051.95
575.516	8077.49
575.877	8178.27
576.238	8224.6
576.599	8326.52
576.96	8354.31
577.32	8413.75
577.681	8467.08
578.042	8623.46
578.403	8646.28
578.763	8686.06
579.124	8858.93
579.485	8892.15
579.845	8951.81
580.206	9038.36
580.566	9156.55
580.927	9319.26
581.287	9464.57
581.648	9494.62
582.008	9632.47
582.368	9739.81
582.728	9902.75
583.089	9941.84
583.449	10183.87
583.809	10249.41
584.169	10448.95
584.529	10545.67
584.889	10740.24
585.249	10891.65
585.609	11018.88
585.969	11293.9
586.329	11394.23
586.688	11700.67
587.048	11856.82
587.408	11989.25
587.768	12235.12
588.127	12472.85
588.487	12595.33
588.846	13015.66
589.206	13071.25
589.565	13314.86
589.925	13658.81
590.284	13832.81
590.643	14136.54
591.003	14350.09
591.362	14667.82
591.721	14868.27
592.08	15047.7
592.44	15339.89
592.799	15646.1
593.158	15904.85
593.517	16130.61
593.876	16461.9
594.235	16667.54
594.593	16949.79
594.952	17248.54
595.311	17471.36
595.67	17924.68
596.029	18233.6
596.387	18376.42
596.746	18820.25
597.104	18913.81
597.463	19340.01
597.822	19642.38
598.18	19822.26
598.538	20091.63
598.897	20515.35
599.255	20678.51
599.613	21130.25
599.972	21225.84
600.33	21585.38
600.688	21813.17
601.046	22141.97
601.404	22452.02
601.762	22698.57
602.12	23061.72
602.478	23281.83
602.836	23554.82
603.194	23835.04
603.552	24134.01
603.91	24276.61
604.268	24613.32
604.625	24765.63
604.983	25189.8
605.341	25191.16
605.698	25632.73
606.056	25927.86
606.413	26097.35
606.771	26426.61
607.128	26696.88
607.485	26741.85
607.843	27092.58
608.2	27508.61
608.557	27702.73
608.914	27763.3
609.272	28192.89
609.629	28322.38
609.986	28690.28
610.343	28585.87
610.7	29137.04
611.057	29271.05
611.414	29455.23
611.771	29615
612.127	29931.37
612.484	30126.4
612.841	30371.36
613.198	30325.26
613.554	30594.18
613.911	31072.59
614.267	30995.3
614.624	31184.45
614.98	31482.75
615.337	31691.78
615.693	31720.03
616.05	31965.22
616.406	32269.84
616.762	32240.47
617.118	32352.55
617.475	32428.48
617.831	32738.98
618.187	32947.57
618.543	33159.54
618.899	33317.05
619.255	33428.91
619.611	33518.85
619.967	33813.76
620.323	33941.21
620.678	33870.48
621.034	33870.48
621.39	34068.21
621.746	34117.25
622.101	34675.88
622.457	34355.21
622.812	34546.17
623.168	34610.57
623.523	34865.93
623.879	34990
624.234	34883.11
624.589	35098.47
624.945	35260.95
625.3	35324.23
625.655	35286.26
626.01	35485.8
626.365	35546.82
626.72	35512.7
627.075	35669.98
627.43	35716.08
627.785	35683.99
628.14	35911.56
628.495	35989.07
628.85	35984.32
629.205	35965.57
629.559	36310.42
629.914	35961.95
630.269	36169.85
630.623	35946.58
630.978	36068.39
631.332	36143.64
631.687	36396.74
632.041	36195.62
632.396	36472.9
632.75	36250.08
633.104	36375.95
633.459	36269.96
633.813	36193.13
634.167	36465.21
634.521	36393.13
634.875	36410.07
635.229	36514.03
635.583	36175.28
635.937	36335.05
636.291	36363.3
636.645	36380.7
636.999	36359
637.352	36561.26
637.706	36339.12
638.06	36426.12
638.413	36378.66
638.767	36325.1
639.121	36399.45
639.474	36309.96
639.828	36425.44
640.181	36412.33
640.534	36328.27
640.888	36392.22
641.241	36223.64
641.594	36295.95
641.947	36603.06
642.301	36372.56
642.654	36431.09
643.007	36374.59
643.36	36326.23
643.713	36201.49
644.066	36320.13
644.419	36185.9
644.771	36017.54
645.124	35724.22
645.477	35552.02
645.83	35388.18
646.182	35423.66
646.535	35214.4
646.888	35393.83
647.24	35121.29
647.593	35452.13
647.945	35234.96
648.298	35267.5
648.65	35086.72
649.002	35086.27
649.355	35246.26
649.707	35091.24
650.059	35310.44
650.411	35641.96
650.763	35726.7
651.115	36064.32
651.467	35928.5
651.819	35897.54
652.171	35997.88
652.523	35900.48
652.875	35968.05
653.227	35653.94
653.578	36061.61
653.93	36030.65
654.282	35778
654.633	35860.03
654.985	35847.15
655.337	35847.15
655.688	35904.32
656.039	35983.87
656.391	35685.57
656.742	35770.32
657.094	35826.36
657.445	35716.53
657.796	35794.72
658.147	35651.22
658.498	35740.49
658.849	35815.97
659.2	35806.02
659.551	35552.02
659.902	35683.54
660.253	35542.98
660.604	35615.29
660.955	35606.25
661.306	35756.98
661.656	35653.48
662.007	35620.49
662.358	35689.41
662.708	35717.89
663.059	35608.51
663.409	35423.66
663.76	35695.06
664.11	35574.39
664.461	35564.45
664.811	35563.99
665.161	35622.75
665.511	35599.93
665.862	35558.57
666.212	35695.74
666.562	35669.98
666.912	35493.49
667.262	35591.34
667.612	35480.61
667.962	35494.17
668.312	35444.9
668.662	35556.54
669.011	35588.4
669.361	35589.76
669.711	35497.1
670.06	35481.28
670.41	35426.6
670.76	35469.99
671.109	35439.93
671.459	35333.94
671.808	35365.58
672.157	35511.11
672.507	35247.84
672.856	35230.22
673.205	35314.51
673.554	35429.08
673.904	35285.58
674.253	35605.8
674.602	35274.96
674.951	34804.47
675.3	34685.6
675.649	35219.6
675.998	35147.51
676.346	35050.79
676.695	35374.62
677.044	34966.95
677.393	35203.78
677.741	35217.11
678.09	35039.49
678.438	34928.76
678.787	34945.71
679.135	35108.19
679.484	34874.52
679.832	34964.24
680.181	34820.51
680.529	34949.77
680.877	34829.32
681.225	34732.15
681.573	35071.35
681.922	34720.17
682.27	34627.75
682.618	34671.36
682.966	34598.82
683.314	34781.64
683.661	34539.61
684.009	34370.13
684.357	34324.48
684.705	34301.2
685.053	34477.92
685.4	34281.77
685.748	34006.52
686.095	34224.37
686.443	34177.82
686.79	33868.9
687.138	34009.91
687.485	33962.45
687.832	33846.07
688.18	33896.69
688.527	33681.11
688.874	33627.77
689.221	33692.63
689.568	33474.56
689.915	33486.53
690.262	33383.49
690.609	33376.48
690.956	33259.42
691.303	33324.05
691.65	33084.29
691.997	32986.43
692.344	32904.18
692.69	32718.87
693.037	32877.06
693.383	32634.58
693.73	32759.77
694.077	32602.04
694.423	32616.28
694.769	32495.6
695.116	32488.37
695.462	32314.81
695.808	32301.71
696.155	32375.83
696.501	32012.68
696.847	32032.79
697.193	31797.99
697.539	31999.34
697.885	31663.76
698.231	31566.59
698.577	31611.1
698.923	31539.24
699.269	31536.98
699.614	31324.33
699.96	31296.31
700.306	31349.87
700.651	31171.12
700.997	31159.14
701.342	31021.74
701.688	31027.62
702.033	30816.1
702.379	30794.4
702.724	30699.94
703.069	30774.29
703.415	30474.18
703.76	30369.33
704.105	30443.68
704.45	30384.24
704.795	30244.36
705.14	30106.96
705.485	30049.11
705.83	30024.48
706.175	30132.95
706.52	29934.76
706.865	29871.49
707.209	29811.83
707.554	29664.04
707.899	29709.91
708.243	29581.55
708.588	29567.77
708.932	29469.01
709.277	29295.68
709.621	29340.2
709.966	29190.15
710.31	29227.21
710.654	28942.7
710.998	29002.81
711.342	29101.34
711.687	29086.88
712.031	28770.73
712.375	28744.74
712.719	28832.19
713.063	28609.15
713.407	28739.77
713.75	28602.82
714.094	28652.76
714.438	28547.68
714.782	28485.31
715.125	28377.06
715.469	28401.7
715.812	28297.74
716.156	28134.81
716.499	28104.53
716.843	28265.66
717.186	28078.54
717.53	28155.15
717.873	28093
718.216	28020.69
718.559	27943.4
718.902	27683.07
719.246	27799.9
719.589	27666.8
719.932	27580.25
720.275	27585
720.617	27549.29
720.96	27521.95
721.303	27495.51
721.646	27548.84
721.989	27331.67
722.331	27417.54
722.674	27377.77
723.016	27324.44
723.359	27332.57
723.701	27300.48
724.044	27058.91
724.386	26908.18
724.729	27136.65
725.071	27119.7
725.413	27088.51
725.755	26940.72
726.097	26982.07
726.439	26792.93
726.782	26788.63
727.124	26891.91
727.465	26774.17
727.807	26654.85
728.149	26612.59
728.491	26462.54
728.833	26727.84
729.175	26350.45
729.516	26355.87
729.858	26412.6
730.199	26309.1
730.541	26332.82
730.882	26404.69
731.224	26387.96
731.565	26287.4
731.906	26280.85
732.248	26137.35
732.589	25955.21
732.93	25870.01
733.271	25952.95
733.612	26083.57
733.953	25921.54
734.294	26004.02
734.635	25794.31
734.976	25880.63
735.317	25694.2
735.658	25757.02
735.999	25720.64
736.339	25778.04
736.68	25679.73
737.021	25702.78
737.361	25589.57
737.702	25712.95
738.042	25578.95
738.383	25518.61
738.723	25608.55
739.063	25555.22
739.404	25489
739.744	25419.18
740.084	25347.09
740.424	25374.21
740.764	25284.26
741.104	25344.83
741.444	25174.44
741.784	25122.01
742.124	25175.34
742.464	25184.61
742.804	25072.97
743.143	25116.36
743.483	25115.68
743.823	24909.36
744.162	24910.49
744.502	24953.65
744.841	24804.73
745.181	24925.63
745.52	24782.58
745.86	24716.14
746.199	24614.45
746.538	24692.42
746.877	24693.32
747.216	24769.93
747.556	24648.58
747.895	24709.82
748.234	24439.32
748.573	24522.7
748.911	24481.12
749.25	24430.5
749.589	24327.91
749.928	24383.72
750.267	24381.46
750.605	24310.5
750.944	24249.94
751.283	24212.65
751.621	24127.91
751.96	24095.82
752.298	24062.38
752.636	24085.43
752.975	23903.74
753.313	23892.66
753.651	23950.29
753.989	23899.67
754.327	23835.94
754.666	23641.37
755.004	23737.64
755.342	23778.99
755.679	23672.33
756.017	23575.16
756.355	23528.38
756.693	23521.37
757.031	23480.47
757.368	23362.73
757.706	23322.06
758.044	23270.98
758.381	23326.8
758.719	23129.52
759.056	23152.8
759.394	23140.59
759.731	22920.26
760.068	22891.11
760.405	22895.17
760.743	22772.01
761.08	22768.62
761.417	22662.86
