Data from hue_140_FLMS001491_00049.txt Node
Date: Tue Feb 07 16:55:59 GMT 2017
User: dcchb
Spectrometer: FLMS00149
Trigger mode: 0
Integration Time (sec): 2.000000E-2
Scans to average: 10
Electric dark correction enabled: true
Nonlinearity correction enabled: false
Boxcar width: 0
XAxis mode: Wavelengths
Number of Pixels in Spectrum: 2048
>>>>>Begin Spectral Data<<<<<
341.393	-8.32
341.776	-8.32
342.16	-8.32
342.543	-59.39
342.927	-69.79
343.31	-79.05
343.693	-79.96
344.077	-61.2
344.46	-52.61
344.843	-45.38
345.226	-44.25
345.61	-24.36
345.993	-2.44
346.376	-29.56
346.759	22.64
347.142	17.9
347.525	47.72
347.908	55.41
348.291	70.77
348.674	94.73
349.057	109.64
349.44	127.04
349.823	155.97
350.206	161.85
350.588	196.87
350.971	197.55
351.354	230.32
351.737	235.74
352.119	233.93
352.502	260.37
352.884	273.71
353.267	281.84
353.65	306.25
354.032	295.85
354.414	298.79
354.797	305.35
355.179	325.46
355.562	325.46
355.944	312.8
356.326	337.89
356.709	339.47
357.091	343.08
357.473	358.45
357.855	344.21
358.238	351.45
358.62	355.06
359.002	344.21
359.384	363.87
359.766	335.63
360.148	339.02
360.53	342.86
360.912	334.27
361.294	345.8
361.676	330.88
362.057	351.45
362.439	325.01
362.821	328.4
363.203	337.21
363.584	325.68
363.966	303.31
364.348	314.38
364.729	317.1
365.111	307.38
365.493	312.35
365.874	324.78
366.256	323.42
366.637	311.67
367.019	328.4
367.4	318.23
367.781	317.55
368.163	334.95
368.544	332.91
368.925	322.07
369.306	337.21
369.688	318.23
370.069	320.71
370.45	322.29
370.831	316.87
371.212	322.52
371.593	305.8
371.974	314.84
372.355	327.94
372.736	325.23
373.117	337.66
373.498	313.71
373.879	322.52
374.26	326.81
374.641	330.66
375.021	335.17
375.402	330.43
375.783	319.36
376.163	314.16
376.544	337.89
376.925	336.08
377.305	331.79
377.686	326.36
378.066	338.34
378.447	332.69
378.827	336.76
379.208	336.3
379.588	342.63
379.968	320.71
380.349	341.5
380.729	327.72
381.109	352.58
381.489	335.63
381.87	339.69
382.25	340.37
382.63	348.06
383.01	330.66
383.39	336.3
383.77	331.79
384.15	355.74
384.53	358.23
384.91	326.14
385.29	320.49
385.67	359.81
386.049	359.58
386.429	339.92
386.809	328.17
387.189	356.19
387.568	356.42
387.948	381.05
388.328	386.25
388.707	350.09
389.087	357.55
389.466	371.78
389.846	341.28
390.225	354.16
390.605	372.46
390.984	365.91
391.363	360.26
391.743	375.17
392.122	358
392.501	368.17
392.881	405.23
393.26	394.83
393.639	376.98
394.018	378.56
394.397	388.73
394.776	405.91
395.155	381.05
395.534	369.07
395.913	375.4
396.292	372.46
396.671	389.86
397.05	392.8
397.429	393.7
397.808	385.57
398.186	398.45
398.565	384.89
398.944	401.16
399.323	411.11
399.701	385.79
400.08	404.55
400.458	384.44
400.837	420.14
401.215	406.59
401.594	413.82
401.972	421.05
402.351	392.8
402.729	433.7
403.107	411.78
403.486	404.78
403.864	417.88
404.242	405.68
404.62	425.34
404.999	426.7
405.377	415.62
405.755	435.74
406.133	411.56
406.511	421.5
406.889	431.44
407.267	433.7
407.645	430.31
408.023	450.2
408.401	435.96
408.779	453.82
409.156	462.4
409.534	455.4
409.912	456.98
410.29	452.46
410.667	454.95
411.045	469.63
411.422	463.08
411.8	466.24
412.178	475.51
412.555	492.91
412.933	455.85
413.31	487.04
413.687	503.53
414.065	459.69
414.442	493.36
414.819	486.81
415.197	497.43
415.574	481.39
415.951	499.69
416.328	509.18
416.705	499.92
417.082	518.9
417.46	496.75
417.837	515.28
418.214	514.38
418.591	488.62
418.967	519.35
419.344	498.11
419.721	509.18
420.098	520.71
420.475	537.43
420.852	527.03
421.228	517.54
421.605	537.2
421.982	543.08
422.358	534.04
422.735	533.36
423.111	549.63
423.488	543.98
423.864	557.99
424.241	561.61
424.617	538.79
424.994	559.58
425.37	573.36
425.746	571.55
426.123	583.08
426.499	579.01
426.875	574.49
427.251	581.72
427.627	581.27
428.003	599.12
428.379	598.44
428.756	613.81
429.132	604.55
429.507	622.85
429.883	628.5
430.259	613.59
430.635	617.65
431.011	631.66
431.387	637.99
431.763	647.71
432.138	656.07
432.514	651.1
432.89	670.08
433.265	659.69
433.641	671.21
434.016	665.56
434.392	684.77
434.767	684.54
435.143	691.32
435.518	685.67
435.894	710.98
436.269	713.92
436.644	710.98
437.02	723.64
437.395	732.23
437.77	739.91
438.145	737.88
438.52	725
438.895	713.47
439.271	750.76
439.646	752.11
440.021	777.2
440.395	762.06
440.77	750.31
441.145	792.11
441.52	770.64
441.895	784.88
442.27	803.19
442.645	785.78
443.019	799.8
443.394	804.09
443.769	825.78
444.143	806.57
444.518	817.2
444.892	812.22
445.267	839.34
445.641	817.42
446.016	836.63
446.39	822.39
446.764	855.16
447.139	838.21
447.513	830.08
447.887	856.52
448.262	851.09
448.636	832.11
449.01	856.07
449.384	873.24
449.758	882.73
450.132	904.2
450.506	895.16
450.88	887.93
451.254	888.15
451.628	914.37
452.002	897.87
452.376	942.84
452.75	941.49
453.123	938.77
453.497	956.63
453.871	960.24
454.244	963.18
454.618	979.68
454.992	983.75
455.365	1008.15
455.739	1018.32
456.112	1015.61
456.486	1032.11
456.859	1053.8
457.232	1059
457.606	1067.58
457.979	1081.14
458.352	1076.4
458.725	1088.15
459.099	1105.32
459.472	1126.57
459.845	1135.15
460.218	1142.16
460.591	1133.12
460.964	1155.27
461.337	1155.04
461.71	1202.04
462.083	1217.41
462.456	1213.57
462.829	1250.63
463.201	1267.81
463.574	1254.02
463.947	1249.05
464.32	1309.16
464.692	1286.79
465.065	1334.02
465.438	1321.59
465.81	1350.74
466.183	1362.94
466.555	1393.23
466.928	1434.35
467.3	1411.76
467.672	1439.1
468.045	1499.66
468.417	1508.93
468.789	1503.05
469.161	1552.32
469.534	1584.41
469.906	1588.93
470.278	1602.49
470.65	1621.92
471.022	1636.38
471.394	1715.48
471.766	1732.65
472.138	1740.34
472.51	1765.19
472.882	1820.33
473.253	1865.76
473.625	1903.95
473.997	1941.01
474.369	1982.36
474.74	2014.23
475.112	2071.4
475.484	2117.05
475.855	2132.19
476.227	2201.79
476.598	2240.44
476.97	2297.61
477.341	2386.65
477.713	2419.87
478.084	2467.77
478.455	2550.03
478.827	2590.26
479.198	2706.86
479.569	2711.84
479.94	2814.43
480.311	2878.16
480.682	2936.46
481.053	3053.52
481.424	3122.45
481.795	3176
482.166	3264.14
482.537	3333.74
482.908	3449.9
483.279	3544.58
483.65	3653.28
484.021	3728.76
484.391	3843.78
484.762	3910.45
485.133	3963.78
485.503	4182.08
485.874	4264.34
486.244	4340.49
486.615	4484.22
486.985	4560.37
487.356	4745.23
487.726	4766.02
488.097	4968.95
488.467	5013.7
488.837	5186.8
489.207	5279.9
489.578	5450.52
489.948	5579.1
490.318	5668.59
490.688	5750.17
491.058	5910.85
491.428	6061.13
491.798	6156.72
492.168	6372.76
492.538	6430.16
492.908	6573.88
493.278	6627.21
493.648	6762.12
494.017	6886.19
494.387	6995.79
494.757	7125.05
495.126	7286.18
495.496	7386.74
495.866	7458.6
496.235	7696.56
496.605	7761.19
496.974	7913.05
497.344	7976.78
497.713	8098.13
498.082	8189.66
498.452	8335.19
498.821	8397.56
499.19	8463.55
499.559	8658.12
499.928	8708.74
500.298	8830.09
500.667	8915.29
501.036	8928.62
501.405	9159.12
501.774	9223.08
502.143	9263.98
502.512	9323.41
502.88	9508.49
503.249	9466.91
503.618	9607.47
503.987	9644.08
504.356	9676.62
504.724	9842.72
505.093	9887.92
505.462	9976.28
505.83	10028.03
506.199	10148.48
506.567	10305.31
506.936	10254.01
507.304	10395.25
507.672	10441.12
508.041	10517.51
508.409	10580.56
508.777	10667.78
509.145	10782.81
509.514	10746.88
509.882	10808.35
510.25	10929.47
510.618	10945.52
510.986	11045.85
511.354	11095.8
511.722	11166.98
512.09	11193.87
512.458	11203.36
512.826	11256.47
513.193	11322.46
513.561	11296.47
513.929	11360.65
514.297	11515.45
514.664	11536.46
515.032	11516.12
515.4	11681.09
515.767	11661.43
516.135	11726.29
516.502	11648.55
516.869	11814.2
517.237	11841.54
517.604	11768.32
517.972	11885.83
518.339	11901.42
518.706	11926.28
519.073	11944.36
519.44	11989.78
519.808	12038.6
520.175	11949.78
520.542	12142.55
520.909	12207.18
521.276	12121.53
521.643	12230.68
522.009	12201.53
522.376	12262.77
522.743	12306.61
523.11	12313.39
523.477	12445.59
523.843	12449.21
524.21	12490.56
524.577	12478.36
524.943	12545.25
525.31	12618.47
525.676	12655.53
526.043	12682.42
526.409	12695.98
526.776	12720.84
527.142	12657.56
527.508	12739.37
527.874	12770.1
528.241	12729.65
528.607	12732.36
528.973	12780.72
529.339	12717.9
529.705	12784.79
530.071	12847.84
530.437	12855.98
530.803	12820.5
531.169	12938.23
531.535	12834.28
531.901	12762.87
532.267	12793.83
532.632	12774.17
532.998	12785.92
533.364	12751.35
533.73	12788.86
534.095	12868.63
534.461	12795.41
534.826	12886.26
535.192	12834.06
535.557	12856.2
535.923	12710.67
536.288	12776.88
536.653	12735.75
537.019	12680.16
537.384	12676.77
537.749	12688.07
538.114	12630.44
538.479	12560.84
538.845	12608.07
539.21	12593.61
539.575	12534.4
539.94	12485.82
540.305	12519.26
540.67	12490.56
541.034	12419.6
541.399	12388.42
541.764	12339.38
542.129	12381.19
542.494	12296.89
542.858	12273.84
543.223	12314.97
543.587	12307.29
543.952	12201.53
544.316	12224.13
544.681	12200.63
545.045	12204.24
545.41	12176.67
545.774	12168.08
546.138	12058.93
546.503	12074.98
546.867	12030.01
547.231	11966.06
547.595	11918.6
547.959	11994.53
548.324	11881.99
548.688	11857.36
549.052	11844.93
549.416	11870.69
549.779	11733.29
550.143	11740.75
550.507	11729.23
550.871	11713.63
551.235	11769.45
551.599	11755.67
551.962	11621.88
552.326	11699.62
552.689	11730.81
553.053	11618.72
553.417	11559.06
553.78	11711.37
554.143	11570.59
554.507	11581.21
554.87	11595.44
555.234	11599.96
555.597	11494.43
555.96	11484.71
556.323	11475.45
556.686	11420.53
557.05	11481.32
557.413	11445.17
557.776	11502.79
558.139	11419.18
558.502	11494.43
558.865	11454.43
559.228	11453.53
559.59	11407.43
559.953	11436.13
560.316	11490.59
560.679	11500.3
561.041	11524.26
561.404	11540.98
561.767	11536.91
562.129	11488.78
562.492	11598.38
562.854	11475.22
563.217	11487.65
563.579	11529.23
563.941	11493.53
564.304	11540.3
564.666	11644.71
565.028	11637.48
565.39	11575.78
565.753	11526.07
566.115	11617.59
566.477	11600.64
566.839	11694.65
567.201	11680.19
567.563	11623.92
567.925	11641.54
568.287	11657.59
568.648	11625.73
569.01	11739.39
569.372	11834.53
569.734	11670.7
570.095	11677.7
570.457	11774.2
570.819	11814.65
571.18	11740.98
571.542	11825.27
571.903	11767.19
572.265	11776.68
572.626	11761.77
572.987	11856.68
573.349	11813.29
573.71	11855.78
574.071	11900.29
574.432	11973.51
574.794	11961.31
575.155	11894.19
575.516	11889.67
575.877	11907.3
576.238	11907.98
576.599	12016.45
576.96	11911.82
577.32	11974.19
577.681	12004.92
578.042	12020.74
578.403	11987.3
578.763	11915.89
579.124	11919.73
579.485	12051.25
579.845	12016
580.206	12016.45
580.566	12059.61
580.927	11973.96
581.287	12021.87
581.648	11891.26
582.008	12000.86
582.368	11935.77
582.728	11953.85
583.089	12011.25
583.449	11925.83
583.809	11961.54
584.169	11956.11
584.529	11952.04
584.889	11978.03
585.249	11939.84
585.609	11907.3
585.969	11907.98
586.329	11892.16
586.688	11902.55
587.048	11880.63
587.408	11908.2
587.768	11906.4
588.127	11888.09
588.487	11820.97
588.846	11872.27
589.206	11809
589.565	11827.75
589.925	11904.14
590.284	11859.39
590.643	11811.48
591.003	11847.87
591.362	11861.43
591.721	11819.39
592.08	11814.87
592.44	11831.14
592.799	11839.96
593.158	11782.33
593.517	11808.09
593.876	11819.39
594.235	11761.77
594.593	11783.46
594.952	11819.17
595.311	11751.82
595.67	11778.94
596.029	11825.95
596.387	11746.17
596.746	11801.54
597.104	11769.68
597.463	11773.74
597.822	11841.31
598.18	11699.85
598.538	11808.55
598.897	11712.05
599.255	11731.94
599.613	11818.71
599.972	11794.53
600.33	11872.27
600.688	11665.95
601.046	11748.43
601.404	11755.21
601.762	11780.75
602.12	11846.74
602.478	11840.86
602.836	11763.57
603.194	11721.32
603.552	11817.13
603.91	11739.39
604.268	11772.61
604.625	11761.09
604.983	11769.45
605.341	11693.29
605.698	11746.17
606.056	11851.26
606.413	11771.94
606.771	11776.46
607.128	11849.67
607.485	11789.34
607.843	11790.69
608.2	11774.87
608.557	11859.62
608.914	11884.93
609.272	11943.68
609.629	11848.77
609.986	11897.81
610.343	11933.06
610.7	11925.6
611.057	11883.35
611.414	11864.82
611.771	11944.36
612.127	11956.11
612.484	11965.38
612.841	12032.04
613.198	11926.73
613.554	11939.62
613.911	11970.8
614.267	12000.63
614.624	11931.93
614.98	11990.46
615.337	12044.7
615.693	12045.15
616.05	11971.03
616.406	12046.51
616.762	12061.42
617.118	11993.17
617.475	12022.33
617.831	12070.01
618.187	12078.59
618.543	12122.21
618.899	12146.16
619.255	12182.32
619.611	12139.16
619.967	12201.3
620.323	12198.37
620.678	12116.79
621.034	12105.94
621.39	12101.87
621.746	12091.25
622.101	12258.93
622.457	12184.13
622.812	12234.07
623.168	12128.31
623.523	12127.86
623.879	12102.77
624.234	12131.7
624.589	12098.71
624.945	12185.94
625.3	12168.54
625.655	12145.71
626.01	12131.7
626.365	12122.66
626.72	12100.74
627.075	12104.81
627.43	12117.01
627.785	12076.11
628.14	12142.77
628.495	12147.29
628.85	12125.37
629.205	12092.15
629.559	12192.94
629.914	12095.77
630.269	12044.47
630.623	12004.7
630.978	12051.25
631.332	12031.14
631.687	12036.11
632.041	11974.19
632.396	12056
632.75	12004.7
633.104	12029.33
633.459	11966.73
633.813	11962.67
634.167	11848.54
634.521	11956.11
634.875	11887.87
635.229	11892.39
635.583	11838.15
635.937	11869.56
636.291	11852.39
636.645	11891.26
636.999	11792.27
637.352	11793.18
637.706	11792.05
638.06	11788.43
638.413	11724.71
638.767	11795.66
639.121	11790.69
639.474	11666.85
639.828	11751.37
640.181	11712.28
640.534	11764.48
640.888	11741.2
641.241	11670.02
641.594	11686.51
641.947	11652.62
642.301	11670.02
642.654	11680.41
643.007	11655.78
643.36	11604.71
643.713	11590.92
644.066	11732.84
644.419	11627.99
644.771	11504.37
645.124	11483.58
645.477	11431.83
645.83	11255.11
646.182	11288.11
646.535	11313.19
646.888	11249.92
647.24	11192.52
647.593	11306.86
647.945	11218.05
648.298	11239.07
648.65	11223.93
649.002	11235.23
649.355	11157.49
649.707	11292.85
650.059	11330.37
650.411	11428.22
650.763	11350.25
651.115	11529.46
651.467	11528.33
651.819	11521.32
652.171	11531.72
652.523	11524.94
652.875	11409.23
653.227	11354.77
653.578	11599.06
653.93	11482.45
654.282	11444.94
654.633	11334.66
654.985	11485.16
655.337	11469.57
655.688	11462.11
656.039	11517.48
656.391	11427.31
656.742	11397.26
657.094	11429.12
657.445	11459.4
657.796	11462.11
658.147	11428.44
658.498	11450.59
658.849	11437.26
659.2	11381.21
659.551	11437.71
659.902	11517.48
660.253	11393.42
660.604	11513.86
660.955	11403.81
661.306	11470.93
661.656	11472.28
662.007	11444.04
662.358	11478.61
662.708	11475.45
663.059	11469.35
663.409	11383.7
663.76	11451.72
664.11	11460.31
664.461	11527.65
664.811	11524.49
665.161	11526.07
665.511	11422.79
665.862	11508.67
666.212	11545.73
666.562	11491.72
666.912	11375.34
667.262	11573.3
667.612	11462.11
667.962	11499.4
668.312	11433.64
668.662	11529.46
669.011	11523.58
669.361	11431.15
669.711	11420.76
670.06	11432.06
670.41	11430.7
670.76	11363.36
671.109	11422.11
671.459	11416.92
671.808	11353.87
672.157	11420.08
672.507	11295.56
672.856	11411.04
673.205	11406.75
673.554	11413.08
673.904	11413.75
674.253	11416.47
674.602	11407.65
674.951	11171.27
675.3	11195.45
675.649	11418.27
675.998	11347.99
676.346	11319.52
676.695	11399.74
677.044	11286.3
677.393	11229.35
677.741	11412.85
678.09	11249.46
678.438	11241.33
678.787	11246.3
679.135	11251.5
679.484	11113.87
679.832	11137.15
680.181	11112.74
680.529	11176.92
680.877	11097.83
681.225	11096.25
681.573	11244.49
681.922	11109.58
682.27	11062.35
682.618	10974.44
682.966	10945.29
683.314	11042.24
683.661	10981
684.009	10925.18
684.357	10924.05
684.705	10914.78
685.053	10935.57
685.4	10871.17
685.748	10886.76
686.095	10776.93
686.443	10755.24
686.79	10733.09
687.138	10816.48
687.485	10724.51
687.832	10709.37
688.18	10793.66
688.527	10648.35
688.874	10665.3
689.221	10623.27
689.568	10566.09
689.915	10572.42
690.262	10555.92
690.609	10478.18
690.956	10511.18
691.303	10486.77
691.65	10433.44
691.997	10368.81
692.344	10315.03
692.69	10343.27
693.037	10327.45
693.383	10226.67
693.73	10283.61
694.077	10217.4
694.423	10184.18
694.769	10171.3
695.116	10211.3
695.462	10085.43
695.808	10033
696.155	10125.65
696.501	9999.1
696.847	9966.79
697.193	9886.34
697.539	9921.82
697.885	9788.71
698.231	9844.98
698.577	9770.86
698.923	9771.54
699.269	9739.45
699.614	9656.74
699.96	9635.5
700.306	9624.87
700.651	9543.52
700.997	9562.95
701.342	9570.86
701.688	9581.49
702.033	9524.31
702.379	9454.94
702.724	9396.18
703.069	9435.95
703.415	9325.9
703.76	9289.97
704.105	9278.44
704.45	9289.97
704.795	9261.04
705.14	9260.36
705.485	9250.42
705.83	9181.5
706.175	9159.12
706.52	9094.49
706.865	9106.47
707.209	9096.07
707.554	9099.01
707.899	9030.09
708.243	8979.02
708.588	8951.45
708.932	8905.34
709.277	8885.68
709.621	8938.34
709.966	8791.45
710.31	8872.13
710.654	8802.3
710.998	8786.03
711.342	8802.07
711.687	8786.93
712.031	8706.03
712.375	8743.32
712.719	8661.51
713.063	8650.44
713.407	8676.42
713.75	8600.95
714.094	8664.22
714.438	8591.45
714.782	8576.77
715.125	8586.94
715.469	8579.25
715.812	8493.38
716.156	8547.39
716.499	8491.57
716.843	8480.05
717.186	8454.51
717.53	8457.67
717.873	8492.93
718.216	8460.38
718.559	8393.95
718.902	8374.06
719.246	8361.86
719.589	8353.27
719.932	8381.29
720.275	8333.61
720.617	8290.9
720.96	8337.45
721.303	8371.8
721.646	8372.93
721.989	8320.28
722.331	8272.14
722.674	8289.09
723.016	8327.51
723.359	8316.89
723.701	8229.2
724.044	8274.18
724.386	8218.81
724.729	8240.96
725.071	8202.76
725.413	8289.77
725.755	8168.87
726.097	8175.65
726.439	8112.37
726.782	8107.85
727.124	8164.35
727.465	8181.07
727.807	8141.52
728.149	8146.27
728.491	8127.74
728.833	8118.92
729.175	8168.19
729.516	8113.73
729.858	8118.02
730.199	8113.05
730.541	8155.76
730.882	8115.54
731.224	8110.79
731.565	8071.69
731.906	8105.14
732.248	8090.23
732.589	8105.59
732.93	8070.79
733.271	8003.67
733.612	8150.34
733.953	8106.27
734.294	8100.62
734.635	8095.65
734.976	8121.41
735.317	8021.3
735.658	8037.35
735.999	8058.59
736.339	8073.95
736.68	8109.89
737.021	8099.72
737.361	8068.53
737.702	8118.25
738.042	8108.3
738.383	8101.3
738.723	8153.05
739.063	8028.76
739.404	8121.41
739.744	8086.38
740.084	8098.81
740.424	8147.62
740.764	8093.61
741.104	8169.32
741.444	8151.01
741.784	8154.63
742.124	8190.11
742.464	8214.29
742.804	8226.49
743.143	8208.19
743.483	8232.59
743.823	8230.56
744.162	8257.68
744.502	8389.43
744.841	8296.77
745.181	8386.94
745.52	8403.89
745.86	8468.75
746.199	8445.92
746.538	8478.46
746.877	8539.7
747.216	8598.91
747.556	8627.61
747.895	8658.35
748.234	8732.02
748.573	8722.52
748.911	8826.25
749.25	8835.97
749.589	8849.08
749.928	8958
750.267	8987.38
750.605	9065.57
750.944	9146.69
751.283	9122.97
751.621	9307.59
751.96	9296.97
752.298	9419.68
752.636	9492.22
752.975	9486.35
753.313	9662.39
753.651	9760.46
753.989	9838.43
754.327	9956.39
754.666	9948.48
755.004	10144.41
755.342	10311.86
755.679	10335.36
756.017	10461.69
756.355	10591.63
756.693	10723.83
757.031	10801.11
757.368	10937.83
757.706	11070.94
758.044	11165.4
758.381	11342.34
758.719	11507.54
759.056	11646.52
759.394	11783.91
759.731	11967.86
