Data from hue_20_FLMS001491_58.txt Node
Date: Mon Feb 06 15:34:20 GMT 2017
User: dcchb
Spectrometer: FLMS00149
Trigger mode: 0
Integration Time (sec): 2.000000E-2
Scans to average: 10
Electric dark correction enabled: true
Nonlinearity correction enabled: false
Boxcar width: 0
XAxis mode: Wavelengths
Number of Pixels in Spectrum: 2048
>>>>>Begin Spectral Data<<<<<
341.393	-12.03
341.776	-12.03
342.16	-12.03
342.543	-69.43
342.927	-56.33
343.31	-59.26
343.693	-50.68
344.077	-66.72
344.46	-76.89
344.843	-60.62
345.226	-39.83
345.61	-28.98
345.993	-12.94
346.376	4.92
346.759	-10
347.142	46.04
347.525	29.77
347.908	68.19
348.291	67.96
348.674	77
349.057	112.03
349.44	139.83
349.823	140.05
350.206	145.02
350.588	198.36
350.971	218.69
351.354	225.02
351.737	240.16
352.119	246.94
352.502	261.18
352.884	273.38
353.267	288.75
353.65	282.65
354.032	293.72
354.414	321.07
354.797	313.16
355.179	305.02
355.562	300.73
355.944	311.35
356.326	322.19
356.709	321.07
357.091	341.86
357.473	350.67
357.855	337.11
358.238	367.62
358.62	335.3
359.002	328.75
359.384	343.89
359.766	337.11
360.148	350.89
360.53	344.57
360.912	346.15
361.294	323.78
361.676	339.14
362.057	328.75
362.439	345.7
362.821	335.53
363.203	337.79
363.584	321.29
363.966	337.56
364.348	330.33
364.729	312.25
365.111	333.04
365.493	307.05
365.874	314.96
366.256	326.49
366.637	314.96
367.019	324
367.4	304.79
367.781	331.46
368.163	288.3
368.544	308.18
368.925	319.26
369.306	313.61
369.688	310.9
370.069	303.66
370.45	309.31
370.831	301.63
371.212	305.02
371.593	325.81
371.974	313.61
372.355	327.84
372.736	301.18
373.117	326.71
373.498	317.22
373.879	311.57
374.26	327.62
374.641	294.85
375.021	301.63
375.402	313.61
375.783	314.51
376.163	320.61
376.544	341.18
376.925	316.55
377.305	316.77
377.686	324.45
378.066	321.29
378.447	317.45
378.827	315.64
379.208	325.13
379.588	332.59
379.968	324.68
380.349	328.3
380.729	340.05
381.109	342.76
381.489	342.99
381.87	339.6
382.25	349.31
382.63	352.02
383.01	339.6
383.39	349.76
383.77	347.96
384.15	355.41
384.53	351.57
384.91	357.45
385.29	326.04
385.67	357.22
386.049	317.68
386.429	372.59
386.809	366.26
387.189	354.96
387.568	337.79
387.948	379.82
388.328	359.26
388.707	349.76
389.087	364
389.466	379.59
389.846	378.01
390.225	373.27
390.605	356.77
390.984	378.24
391.363	385.47
391.743	357.45
392.122	385.92
392.501	368.3
392.881	402.64
393.26	386.83
393.639	372.82
394.018	365.36
394.397	372.82
394.776	405.36
395.155	386.37
395.534	380.72
395.913	406.71
396.292	394.06
396.671	392.02
397.05	406.03
397.429	414.4
397.808	420.27
398.186	400.16
398.565	411.91
398.944	402.42
399.323	397.9
399.701	403.1
400.08	400.61
400.458	413.04
400.837	411.23
401.215	425.7
401.594	427.5
401.972	424.34
402.351	432.7
402.729	427.5
403.107	421.18
403.486	413.72
403.864	418.69
404.242	424.34
404.62	434.28
404.999	439.71
405.377	435.41
405.755	413.94
406.133	440.84
406.511	427.05
406.889	443.1
407.267	446.71
407.645	435.64
408.023	451.23
408.401	454.62
408.779	455.75
409.156	467.73
409.534	455.3
409.912	444.68
410.29	456.88
410.667	475.19
411.045	480.83
411.422	468.63
411.8	480.83
412.178	462.08
412.555	479.93
412.933	483.77
413.31	492.36
413.687	499.59
414.065	516.54
414.442	529.42
414.819	495.07
415.197	505.92
415.574	497.11
415.951	518.35
416.328	516.09
416.705	515.86
417.082	535.75
417.46	537.56
417.837	537.1
418.214	531.23
418.591	535.97
418.967	529.65
419.344	538.69
419.721	524.22
420.098	543.88
420.475	552.02
420.852	556.77
421.228	558.35
421.605	549.53
421.982	585.01
422.358	572.36
422.735	549.53
423.111	573.49
423.488	594.5
423.864	566.03
424.241	556.99
424.617	569.65
424.994	580.95
425.37	600.38
425.746	594.96
426.123	589.31
426.499	602.87
426.875	619.81
427.251	616.2
427.627	599.02
428.003	638.12
428.379	635.18
428.756	632.02
429.132	648.51
429.507	635.41
429.883	655.07
430.259	686.71
430.635	644.9
431.011	686.03
431.387	693.03
431.763	723.54
432.138	693.03
432.514	678.12
432.89	682.41
433.265	697.33
433.641	712.24
434.016	698.68
434.392	718.34
434.767	732.35
435.143	731.68
435.518	730.55
435.894	734.61
436.269	742.3
436.644	757.44
437.02	739.81
437.395	739.81
437.77	751.79
438.145	787.27
438.52	773.48
438.895	789.98
439.271	792.47
439.646	787.27
440.021	797.66
440.395	802.86
440.77	802.63
441.145	827.04
441.52	823.2
441.895	839.02
442.27	818
442.645	836.76
443.019	843.09
443.394	816.19
443.769	857.77
444.143	848.73
444.518	833.59
444.892	830.88
445.267	860.26
445.641	885.12
446.016	863.42
446.39	891.22
446.764	864.33
447.139	879.69
447.513	914.5
447.887	900.48
448.262	911.56
448.636	874.95
449.01	936.42
449.384	912.01
449.758	931.44
450.132	943.87
450.506	953.59
450.88	949.98
451.254	944.1
451.628	959.47
452.002	987.26
452.376	974.16
452.75	975.51
453.123	975.51
453.497	1014.83
453.871	1004.21
454.244	1035.4
454.618	1039.24
454.992	1040.37
455.365	1067.94
455.739	1050.99
456.112	1081.5
456.486	1070.42
456.859	1087.6
457.232	1106.58
457.606	1070.65
457.979	1119.46
458.352	1115.17
458.725	1162.85
459.099	1138.9
459.472	1155.39
459.845	1161.49
460.218	1213.7
460.591	1202.85
460.964	1199.23
461.337	1236.97
461.71	1246.46
462.083	1249.4
462.456	1232.23
462.829	1260.48
463.201	1280.81
463.574	1284.43
463.947	1307.48
464.32	1344.99
464.692	1321.72
465.065	1341.38
465.438	1376.86
465.81	1395.84
466.183	1389.96
466.555	1417.31
466.928	1433.58
467.3	1433.13
467.672	1426.8
468.045	1504.54
468.417	1511.54
468.789	1523.07
469.161	1537.76
469.534	1564.87
469.906	1553.57
470.278	1605.78
470.65	1637.19
471.022	1640.13
471.394	1635.38
471.766	1694.14
472.138	1718.32
472.51	1745.43
472.882	1770.07
473.253	1766.22
473.625	1775.94
473.997	1847.58
474.369	1850.52
474.74	1882.61
475.112	1957.18
475.484	1953.11
475.855	2052.77
476.227	1986.78
476.598	2073.79
476.97	2068.59
477.341	2137.97
477.713	2159.89
478.084	2157.4
478.455	2235.59
478.827	2248.02
479.198	2328.24
479.569	2345.42
479.94	2359.66
480.311	2421.12
480.682	2474.23
481.053	2511.06
481.424	2537.28
481.795	2562.36
482.166	2647.78
482.537	2683.04
482.908	2726.2
483.279	2745.41
483.65	2836.48
484.021	2843.94
484.391	2884.16
484.762	2968
485.133	2947.21
485.503	3034.67
485.874	3106.53
486.244	3115.57
486.615	3230.14
486.985	3249.58
487.356	3339.52
487.726	3328.67
488.097	3378.39
488.467	3410.7
488.837	3497.7
489.207	3538.83
489.578	3594.43
489.948	3659.96
490.318	3697.25
490.688	3707.19
491.058	3749.68
491.428	3836.68
491.798	3885.72
492.168	3922.78
492.538	3937.02
492.908	3959.61
493.278	4062.44
493.648	4110.57
494.017	4154.18
494.387	4173.17
494.757	4231.02
495.126	4252.26
495.496	4264.92
495.866	4315.31
496.235	4372.71
496.605	4378.81
496.974	4438.24
497.344	4530.9
497.713	4458.36
498.082	4540.84
498.452	4623.32
498.821	4625.58
499.19	4659.48
499.559	4693.38
499.928	4736.09
500.298	4718.46
500.667	4785.35
501.036	4815.86
501.405	4850.44
501.774	4851.34
502.143	4895.86
502.512	4936.31
502.88	4980.38
503.249	5001.39
503.618	5031.22
503.987	4999.81
504.356	5073.48
504.724	5106.25
505.093	5115.29
505.462	5141.96
505.83	5202.07
506.199	5228.73
506.567	5258.34
506.936	5305.57
507.304	5308.5
507.672	5364.32
508.041	5356.86
508.409	5349.18
508.777	5445
509.145	5459.01
509.514	5433.02
509.882	5461.95
510.25	5477.31
510.618	5556.86
510.986	5562.96
511.354	5610.87
511.722	5620.13
512.09	5672.56
512.458	5704.43
512.826	5739
513.193	5738.78
513.561	5801.6
513.929	5869.17
514.297	5895.83
514.664	5924.53
515.032	5861.48
515.4	5956.17
515.767	5957.53
516.135	6009.05
516.502	5992.55
516.869	6075.04
517.237	6068.94
517.604	6097.18
517.972	6151.42
518.339	6142.83
518.706	6240.23
519.073	6195.26
519.44	6263.06
519.808	6315.26
520.175	6253.56
520.542	6392.54
520.909	6350.51
521.276	6429.83
521.643	6405.65
522.009	6478.42
522.376	6510.28
522.743	6503.73
523.11	6577.85
523.477	6666.21
523.843	6650.62
524.21	6688.36
524.577	6706.89
524.943	6770.84
525.31	6794.57
525.676	6872.76
526.043	6875.24
526.409	6938.74
526.776	7003.83
527.142	7049.7
527.508	7016.71
527.874	7113.88
528.241	7120.21
528.607	7191.84
528.973	7210.6
529.339	7232.75
529.705	7230.04
530.071	7322.69
530.437	7350.26
530.803	7403.14
531.169	7456.02
531.535	7466.87
531.901	7510.71
532.267	7528.11
532.632	7571.27
532.998	7573.98
533.364	7647.65
533.73	7639.97
534.095	7735.33
534.461	7714.54
534.826	7770.13
535.192	7885.84
535.557	7867.99
535.923	7856.69
536.288	7872.28
536.653	7984.59
537.019	7922
537.384	8065.27
537.749	8045.61
538.114	8086.06
538.479	8031.82
538.845	8129
539.21	8117.24
539.575	8123.57
539.94	8159.73
540.305	8312.72
540.67	8216.22
541.034	8312.95
541.399	8322.21
541.764	8364.02
542.129	8378.48
542.494	8491.47
542.858	8481.53
543.223	8440.85
543.587	8517.46
543.952	8467.29
544.316	8599.04
544.681	8501.87
545.045	8675.65
545.41	8600.85
545.774	8652.82
546.138	8758.13
546.503	8713.39
546.867	8771.92
547.231	8860.28
547.595	8876.55
547.959	8913.61
548.324	8951.8
548.688	8895.53
549.052	8978.24
549.416	8973.27
549.779	8987.28
550.143	9027.05
550.507	9095.07
550.871	9084
551.235	9112.02
551.599	9250.1
551.962	9202.19
552.326	9284.22
552.689	9293.48
553.053	9272.47
553.417	9264.33
553.78	9401.73
554.143	9412.35
554.507	9464.55
554.87	9467.94
555.234	9516.98
555.597	9521.95
555.96	9540.71
556.323	9579.58
556.686	9601.95
557.05	9628.62
557.413	9707.48
557.776	9678.79
558.139	9769.63
558.502	9782.51
558.865	9729.86
559.228	9988.38
559.59	9942.73
559.953	9945.22
560.316	10053.46
560.679	10056.63
561.041	10108.83
561.404	10162.84
561.767	10177.98
562.129	10161.26
562.492	10238.77
562.854	10295.94
563.217	10229.05
563.579	10252.78
563.941	10380.69
564.304	10365.09
564.666	10447.13
565.028	10477.63
565.39	10579.1
565.753	10562.83
566.115	10571.42
566.477	10608.03
566.839	10628.82
567.201	10655.93
567.563	10657.52
567.925	10757.4
568.287	10820.9
568.648	10875.59
569.01	10885.08
569.372	10947.9
569.734	10958.07
570.095	11049.6
570.457	11089.82
570.819	11109.26
571.18	11165.75
571.542	11238.52
571.903	11171.4
572.265	11243.04
572.626	11307.67
572.987	11423.6
573.349	11411.39
573.71	11534.56
574.071	11538.85
574.432	11648.9
574.794	11754.66
575.155	11729.35
575.516	11773.87
575.877	11825.85
576.238	11872.17
576.599	12049.12
576.96	11993.07
577.32	12013.64
577.681	12217.7
578.042	12259.96
578.403	12354.42
578.763	12374.53
579.124	12529.33
579.485	12586.73
579.845	12732.49
580.206	12803.67
580.566	12852.03
580.927	12925.25
581.287	13139.26
581.648	13163.89
582.008	13294.96
582.368	13495.86
582.728	13608.63
583.089	13759.81
583.449	13778.79
583.809	13951.44
584.169	14183.07
584.529	14211.1
584.889	14533.35
585.249	14685.66
585.609	14742.61
585.969	14981.02
586.329	15102.37
586.688	15399.31
587.048	15508.24
587.408	15778.06
587.768	15909.58
588.127	16206.97
588.487	16396.35
588.846	16650.58
589.206	16815.55
589.565	17104.58
589.925	17471.12
590.284	17550.22
590.643	17879.7
591.003	18136.19
591.362	18418.89
591.721	18617.53
592.08	18818.66
592.44	19127.8
592.799	19368.25
593.158	19611.63
593.517	19883.71
593.876	20259.98
594.235	20573.87
594.593	20651.15
594.952	21034.19
595.311	21252.27
595.67	21585.82
596.029	21926.6
596.387	22285.46
596.746	22672.12
597.104	22829.4
597.463	23023.97
597.822	23452.66
598.18	23749.15
598.538	23974.45
598.897	24342.13
599.255	24446.31
599.613	25085.16
599.972	25205.16
600.33	25478.37
600.688	25820.28
601.046	26056.89
601.404	26572.13
601.762	26679.47
602.12	27103.41
602.478	27385.89
602.836	27605.09
603.194	27680.12
603.552	28037.17
603.91	28189.71
604.268	28650.94
604.625	28756.93
604.983	29198.5
605.341	29334.31
605.698	29737.01
606.056	30024.01
606.413	30129.32
606.771	30508.07
607.128	30819.7
607.485	30901.96
607.843	31137.43
608.2	31616.06
608.557	31835.72
608.914	31983.06
609.272	32359.32
609.629	32580.78
609.986	32968.79
610.343	33002.24
610.7	33533.53
611.057	33303.47
611.414	33680.87
611.771	33903.46
612.127	34182.55
612.484	34303
612.841	34649.43
613.198	34634.51
613.554	34829.08
613.911	35370.54
614.267	35386.58
614.624	35545.68
614.98	35648.95
615.337	36102.27
615.693	36189.5
616.05	36181.59
616.406	36535.93
616.762	36495.71
617.118	36745.42
617.475	36806.89
617.831	37071.51
618.187	37184.28
618.543	37405.51
618.899	37698.16
619.255	37686.86
619.611	37784.94
619.967	38036.01
620.323	38301.08
620.678	38274.87
621.034	38199.17
621.39	38386.28
621.746	38444.36
622.101	38895.19
622.457	38734.07
622.812	38949.43
623.168	39246.14
623.523	39282.75
623.879	39451.79
624.234	39184.22
624.589	39466.7
624.945	39580.6
625.3	39769.07
625.655	39775.17
626.01	39804.09
626.365	39870.76
626.72	39962.06
627.075	39934.26
627.43	40097.19
627.785	40108.95
628.14	40258.32
628.495	40273.23
628.85	40218.1
629.205	40139.68
629.559	40526.79
629.914	40341.48
630.269	40615.15
630.623	40568.14
630.978	40342.16
631.332	40553.45
631.687	40710.96
632.041	40626.67
632.396	40709.83
632.75	40576.05
633.104	40803.39
633.459	40593
633.813	40736.73
634.167	40823.28
634.521	40659.89
634.875	40807.91
635.229	40871.19
635.583	40661.93
635.937	40718.42
636.291	40740.34
636.645	40748.02
636.999	40806.33
637.352	40821.02
637.706	40538.54
638.06	40727.01
638.413	40545.09
638.767	40622.38
639.121	40704.64
639.474	40474.81
639.828	40510.29
640.181	40568.37
640.534	40690.63
640.888	40598.65
641.241	40483.62
641.594	40464.64
641.947	40528.14
642.301	40491.08
642.654	40706.44
643.007	40663.73
643.36	40553.68
643.713	40594.58
644.066	40776.95
644.419	40451.99
644.771	40249.96
645.124	39855.39
645.477	39845.45
645.83	39545.8
646.182	39446.36
646.535	39438.68
646.888	39567.94
647.24	39313.49
647.593	39408.62
647.945	39421.96
648.298	39238.46
648.65	39143.1
649.002	39167.95
649.355	39262.19
649.707	39225.58
650.059	39313.49
650.411	39907.59
650.763	39824.43
651.115	40397.3
651.467	40090.41
651.819	39995.5
652.171	40041.83
652.523	40003.19
652.875	40033.24
653.227	39801.38
653.578	40170.19
653.93	40026.91
654.282	39814.04
654.633	39743.53
654.985	39993.92
655.337	40027.14
655.688	39963.64
656.039	40005.67
656.391	39744.21
656.742	39711.44
657.094	39770.42
657.445	39897.88
657.796	39791.89
658.147	39808.61
658.498	39765.23
658.849	39844.32
659.2	39754.6
659.551	39718
659.902	39853.58
660.253	39804.09
660.604	39605.91
660.955	39594.83
661.306	39767.71
661.656	39791.44
662.007	39586.7
662.358	39653.59
662.708	39612.46
663.059	39607.72
663.409	39524.33
663.76	39761.16
664.11	39635.96
664.461	39816.3
664.811	39727.94
665.161	39685.68
665.511	39523.88
665.862	39655.62
666.212	39729.75
666.562	39670.31
666.912	39722.51
667.262	39539.47
667.612	39449.53
667.962	39518.68
668.312	39441.62
668.662	39554.84
669.011	39567.49
669.361	39420.6
669.711	39392.81
670.06	39387.16
670.41	39297.89
670.76	39263.32
671.109	39476.42
671.459	39381.05
671.808	39416.53
672.157	39397.33
672.507	39119.59
672.856	39307.84
673.205	39199.82
673.554	39378.8
673.904	39226.26
674.253	39476.87
674.602	39280.72
674.951	38869.88
675.3	38707.4
675.649	39153.72
675.998	39111.91
676.346	39236.88
676.695	39401.85
677.044	38806.38
677.393	38999.82
677.741	39161.85
678.09	39096.99
678.438	38906.27
678.787	38979.94
679.135	39067.84
679.484	38812.93
679.832	38902.42
680.181	38677.12
680.529	38756.66
680.877	38715.76
681.225	38551.47
681.573	38757.57
681.922	38529.1
682.27	38512.83
682.618	38471.02
682.966	38402.32
683.314	38418.82
683.661	38237.36
684.009	38228.32
684.357	38112.84
684.705	38011.15
685.053	38122.1
685.4	38114.2
685.748	37790.59
686.095	37834.43
686.443	37705.39
686.79	37724.83
687.138	37891.15
687.485	37700.42
687.832	37575.68
688.18	37716.69
688.527	37390.15
688.874	37429.47
689.221	37302.01
689.568	37198.06
689.915	37178.85
690.262	37174.11
690.609	37119.19
690.956	36888.92
691.303	36907.9
691.65	36762.37
691.997	36742.48
692.344	36561.02
692.69	36599.66
693.037	36511.53
693.383	36057.75
693.73	36303.85
694.077	36098.66
694.423	36156.96
694.769	35873.58
695.116	35797.42
695.462	35900.47
695.808	35744.09
696.155	35845.55
696.501	35576.64
696.847	35496.19
697.193	35297.55
697.539	35601.04
697.885	35175.06
698.231	35136.87
698.577	35174.84
698.923	35129.87
699.269	34920.83
699.614	34698.24
699.96	34547.06
700.306	34670.67
700.651	34430.22
700.997	34345.93
701.342	34393.84
701.688	34333.28
702.033	34254.64
702.379	34191.59
702.724	34023.23
703.069	34090.12
703.415	33871.37
703.76	33758.38
704.105	33804.48
704.45	33653.07
704.795	33487.65
705.14	33462.11
705.485	33433.41
705.83	33242.23
706.175	33188.68
706.52	33180.09
706.865	33042.69
707.209	32942.13
707.554	32964.73
707.899	33073.65
708.243	32892.64
708.588	32747.11
708.932	32618.97
709.277	32536.72
709.621	32526.09
709.966	32295.82
710.31	32406.78
710.654	32076.39
710.998	32226.21
711.342	32250.85
711.687	32188.48
712.031	31908.26
712.375	31887.01
712.719	31942.83
713.063	31824.64
713.407	31981.93
713.75	31629.39
714.094	31688.83
714.438	31592.11
714.782	31687.47
715.125	31267.14
715.469	31487.7
715.812	31433.47
716.156	31179.46
716.499	31201.83
716.843	31216.52
717.186	31036.87
717.53	31231.21
717.873	31148.73
718.216	31038.22
718.559	30999.35
718.902	30738.57
719.246	30767.95
719.589	30722.07
719.932	30478.69
720.275	30658.8
720.617	30658.57
720.96	30541.06
721.303	30476.2
721.646	30560.72
721.989	30337
722.331	30317.56
722.674	30280.28
723.016	30399.14
723.359	30235.98
723.701	30263.55
724.044	29994.41
724.386	29878.93
724.729	30054.97
725.071	29884.36
725.413	29887.52
725.755	29878.48
726.097	29796.22
726.439	29633.29
726.782	29684.13
727.124	29683.46
727.465	29601.88
727.807	29572.27
728.149	29441.66
728.491	29488.89
728.833	29512.39
729.175	29342.67
729.516	29274.43
729.858	29189.23
730.199	29313.3
730.541	29109.01
730.882	29187.2
731.224	29273.75
731.565	28984.27
731.906	29061.78
732.248	28981.1
732.589	28985.17
732.93	28862.46
733.271	28831.05
733.612	28862.46
733.953	28805.29
734.294	28702.47
734.635	28609.13
734.976	28801.67
735.317	28588.34
735.658	28575.46
735.999	28555.58
736.339	28400.78
736.68	28586.31
737.021	28392.19
737.361	28268.13
737.702	28461.57
738.042	28398.29
738.383	28206.89
738.723	28313.1
739.063	28258.18
739.404	28268.35
739.744	28202.82
740.084	28083.27
740.424	28166.43
740.764	28052.09
741.104	28146.32
741.444	27955.14
741.784	27909.94
742.124	27909.49
742.464	27908.36
742.804	27847.12
743.143	27711.08
743.483	27860.68
743.823	27616.84
744.162	27551.31
744.502	27692.1
744.841	27627.92
745.181	27609.61
745.52	27451.2
745.86	27537.07
746.199	27495.49
746.538	27436.51
746.877	27349.28
747.216	27335.27
747.556	27223.18
747.895	27268.15
748.234	27182.28
748.573	27217.08
748.911	27137.08
749.25	27130.3
749.589	26910.87
749.928	26992.45
750.267	27058.67
750.605	26885.11
750.944	26968.05
751.283	26755.62
751.621	26823.42
751.96	26701.16
752.298	26732.57
752.636	26726.02
752.975	26560.15
753.313	26540.26
753.651	26597.44
753.989	26415.75
754.327	26393.6
754.666	26260.27
755.004	26389.76
755.342	26365.58
755.679	26286.94
756.017	26146.83
756.355	26297.11
756.693	26098.69
757.031	26115.64
757.368	25907.06
757.706	25938.92
758.044	25761.53
758.381	25951.8
758.719	25854.4
759.056	25854.4
759.394	25655.99
