Data from hue_30_FLMS001491_96.txt Node
Date: Mon Feb 06 15:06:25 GMT 2017
User: dcchb
Spectrometer: FLMS00149
Trigger mode: 0
Integration Time (sec): 2.000000E-2
Scans to average: 10
Electric dark correction enabled: true
Nonlinearity correction enabled: false
Boxcar width: 0
XAxis mode: Wavelengths
Number of Pixels in Spectrum: 2048
>>>>>Begin Spectral Data<<<<<
341.393	-15.04
341.776	-15.04
342.16	-15.04
342.543	-63.85
342.927	-85.1
343.31	-62.05
343.693	-87.36
344.077	-65.21
344.46	-57.75
344.843	-46.45
345.226	-30.86
345.61	-38.32
345.993	-32.44
346.376	-16.17
346.759	7.78
347.142	27.89
347.525	42.81
347.908	58.85
348.291	85.75
348.674	101.34
349.057	112.19
349.44	123.71
349.823	141.34
350.206	148.12
350.588	185.4
350.971	236.7
351.354	241.45
351.737	246.87
352.119	236.25
352.502	251.17
352.884	273.09
353.267	288
353.65	281.9
354.032	284.61
354.414	317.15
354.797	319.19
355.179	322.12
355.562	323.71
355.944	345.85
356.326	324.84
356.709	360.99
357.091	336.36
357.473	352.86
357.855	332.52
358.238	343.59
358.62	334.55
359.002	331.84
359.384	342.91
359.766	345.4
360.148	326.19
360.53	350.15
360.912	326.87
361.294	341.11
361.676	324.61
362.057	311.28
362.439	327.32
362.821	344.04
363.203	332.75
363.584	331.62
363.966	331.39
364.348	306.31
364.729	337.04
365.111	324.61
365.493	308.57
365.874	325.29
366.256	323.93
366.637	312.63
367.019	297.49
367.4	314.21
367.781	323.25
368.163	331.16
368.544	313.76
368.925	316.7
369.306	303.14
369.688	315.8
370.069	324.16
370.45	306.98
370.831	327.32
371.212	317.15
371.593	313.31
371.974	306.08
372.355	284.61
372.736	321.45
373.117	304.05
373.498	327.1
373.879	321.67
374.26	318.06
374.641	323.25
375.021	318.96
375.402	320.99
375.783	330.94
376.163	313.76
376.544	331.84
376.925	330.26
377.305	326.42
377.686	303.14
378.066	325.51
378.447	335.46
378.827	330.49
379.208	334.55
379.588	335.46
379.968	332.97
380.349	315.34
380.729	330.26
381.109	339.75
381.489	322.35
381.87	332.52
382.25	333.65
382.63	332.07
383.01	328.23
383.39	341.11
383.77	319.64
384.15	341.56
384.53	359.41
384.91	337.94
385.29	351.28
385.67	317.15
386.049	320.54
386.429	337.72
386.809	342.91
387.189	342.24
387.568	356.93
387.948	357.83
388.328	352.63
388.707	337.27
389.087	360.77
389.466	364.61
389.846	356.25
390.225	344.72
390.605	359.86
390.984	355.8
391.363	351.73
391.743	359.41
392.122	367.55
392.501	358.06
392.881	377.49
393.26	363.48
393.639	365.74
394.018	370.71
394.397	372.52
394.776	369.58
395.155	372.74
395.534	375
395.913	376.59
396.292	382.24
396.671	362.35
397.05	373.87
397.429	365.74
397.808	361.22
398.186	373.65
398.565	361.22
398.944	376.59
399.323	378.17
399.701	384.72
400.08	379.52
400.458	379.98
400.837	378.17
401.215	384.04
401.594	394.89
401.972	390.82
402.351	396.7
402.729	375.91
403.107	394.66
403.486	395.12
403.864	400.99
404.242	410.48
404.62	416.59
404.999	393.99
405.377	381.33
405.755	424.49
406.133	403.25
406.511	416.36
406.889	405.29
407.267	397.6
407.645	397.15
408.023	426.98
408.401	406.42
408.779	424.72
409.156	418.17
409.534	425.62
409.912	444.61
410.29	428.34
410.667	426.98
411.045	429.69
411.422	419.07
411.8	444.83
412.178	470.14
412.555	438.73
412.933	452.52
413.31	452.06
413.687	442.12
414.065	461.1
414.442	458.39
414.819	469.24
415.197	449.8
415.574	452.52
415.951	468.79
416.328	471.72
416.705	458.39
417.082	470.82
417.46	465.62
417.837	474.66
418.214	475.34
418.591	480.54
418.967	484.83
419.344	473.08
419.721	521.22
420.098	499.52
420.475	494.55
420.852	505.4
421.228	510.14
421.605	506.53
421.982	499.52
422.358	504.72
422.735	516.47
423.111	513.31
423.488	517.83
423.864	513.31
424.241	510.14
424.617	504.04
424.994	528.67
425.37	530.71
425.746	525.73
426.123	527.77
426.499	548.11
426.875	559.86
427.251	552.85
427.627	555.34
428.003	558.5
428.379	569.58
428.756	570.48
429.132	566.64
429.507	580.42
429.883	573.64
430.259	566.64
430.635	577.48
431.011	562.12
431.387	584.94
431.763	598.28
432.138	616.35
432.514	590.59
432.89	628.33
433.265	621.78
433.641	593.98
434.016	631.72
434.392	586.52
434.767	634.21
435.143	638.73
435.518	647.77
435.894	635.34
436.269	649.35
436.644	639.86
437.02	655
437.395	641.66
437.77	647.99
438.145	675.56
438.52	672.4
438.895	663.13
439.271	665.39
439.646	683.92
440.021	679.18
440.395	683.7
440.77	709.23
441.145	702.45
441.52	709.91
441.895	720.08
442.27	688.89
442.645	707.2
443.019	724.83
443.394	711.94
443.769	714.66
444.143	719.18
444.518	732.73
444.892	720.53
445.267	733.19
445.641	727.54
446.016	727.54
446.39	732.28
446.764	755.11
447.139	747.2
447.513	749.01
447.887	762.11
448.262	781.1
448.636	742.23
449.01	750.14
449.384	769.8
449.758	784.49
450.132	781.32
450.506	775.45
450.88	822.9
451.254	789.68
451.628	804.37
452.002	802.34
452.376	807.31
452.75	790.36
453.123	802.56
453.497	819.29
453.871	826.29
454.244	862.9
454.618	859.96
454.992	867.65
455.365	862.9
455.739	898.83
456.112	888.21
456.486	904.71
456.859	904.71
457.232	921.66
457.606	884.82
457.979	921.2
458.352	956.23
458.725	938.83
459.099	936.8
459.472	948.77
459.845	963.92
460.218	966.4
460.591	981.09
460.964	987.42
461.337	996.68
461.71	994.87
462.083	1022.44
462.456	1054.08
462.829	1044.37
463.201	1050.01
463.574	1045.27
463.947	1085.04
464.32	1078.04
464.692	1066.29
465.065	1093.18
465.438	1114.42
465.81	1133.85
466.183	1123.23
466.555	1144.48
466.928	1167.98
467.3	1161.2
467.672	1170.24
468.045	1208.2
468.417	1234.42
468.789	1217.69
469.161	1275.77
469.534	1259.95
469.906	1304.47
470.278	1290.01
470.65	1312.83
471.022	1320.74
471.394	1334.08
471.766	1346.05
472.138	1376.56
472.51	1406.84
472.882	1454.98
473.253	1468.76
473.625	1465.82
473.997	1492.04
474.369	1521.41
474.74	1544.92
475.112	1586.05
475.484	1608.87
475.855	1654.07
476.227	1642.77
476.598	1710.11
476.97	1709.21
477.341	1737.45
477.713	1778.58
478.084	1795.53
478.455	1851.35
478.827	1914.85
479.198	1956.88
479.569	1953.49
479.94	1997.79
480.311	2019.03
480.682	2073.94
481.053	2113.72
481.424	2153.94
481.795	2231.9
482.166	2225.8
482.537	2300.15
482.908	2342.41
483.279	2406.14
483.65	2462.41
484.021	2502.18
484.391	2530.65
484.762	2567.04
485.133	2596.41
485.503	2660.37
485.874	2743.08
486.244	2764.09
486.615	2864.88
486.985	2904.88
487.356	2928.61
487.726	3017.19
488.097	3073.46
488.467	3093.35
488.837	3174.25
489.207	3211.77
489.578	3276.85
489.948	3346
490.318	3368.82
490.688	3412.44
491.058	3524.07
491.428	3555.49
491.798	3649.49
492.168	3690.4
492.538	3694.47
492.908	3776.72
493.278	3870.73
493.648	3874.57
494.017	3941.24
494.387	3969.49
494.757	4014.46
495.126	4124.51
495.496	4101.01
495.866	4167.45
496.235	4211.29
496.605	4238.18
496.974	4297.39
497.344	4347.33
497.713	4367.67
498.082	4447.21
498.452	4547.32
498.821	4519.98
499.19	4603.59
499.559	4585.97
499.928	4655.8
500.298	4716.13
500.667	4756.13
501.036	4777.83
501.405	4807.43
501.774	4849.69
502.143	4851.72
502.512	4908.9
502.88	4998.84
503.249	5002
503.618	5010.81
503.987	5081.55
504.356	5114.31
504.724	5127.2
505.093	5151.6
505.462	5202.45
505.83	5254.2
506.199	5255.1
506.567	5347.75
506.936	5324.93
507.304	5443.35
507.672	5419.62
508.041	5443.57
508.409	5517.47
508.777	5528.09
509.145	5536.9
509.514	5606.05
509.882	5622.78
510.25	5668.2
510.618	5697.12
510.986	5687.86
511.354	5723.79
511.722	5821.41
512.09	5823.45
512.458	5772.6
512.826	5911.81
513.193	5868.65
513.561	5931.02
513.929	5954.97
514.297	5977.12
514.664	5999.49
515.032	6052.37
515.4	6071.35
515.767	6075.65
516.135	6122.42
516.502	6101.86
516.869	6208.52
517.237	6272.02
517.604	6171.46
517.972	6300.5
518.339	6335.75
518.706	6301.4
519.073	6302.98
519.44	6345.92
519.808	6406.94
520.175	6377.56
520.542	6452.58
520.909	6549.31
521.276	6541.17
521.643	6577.55
522.009	6587.04
522.376	6625.69
522.743	6634.05
523.11	6698.68
523.477	6765.12
523.843	6803.99
524.21	6809.19
524.577	6875.85
524.943	6952.46
525.31	6953.36
525.676	6981.84
526.043	7008.28
526.409	7085.34
526.776	7100.48
527.142	7123.08
527.508	7143.87
527.874	7188.61
528.241	7245.33
528.607	7279.23
528.973	7347.93
529.339	7337.99
529.705	7373.01
530.071	7459.79
530.437	7482.16
530.803	7497.53
531.169	7506.57
531.535	7559.67
531.901	7660.24
532.267	7693.46
532.632	7711.31
532.998	7669.95
533.364	7766.45
533.73	7726
534.095	7817.29
534.461	7824.75
534.826	7931.19
535.192	7954.92
535.557	8053.67
535.923	7949.04
536.288	8061.36
536.653	8064.07
537.019	8022.49
537.384	8105.87
537.749	8128.25
538.114	8168.47
538.479	8114.46
538.845	8194.23
539.21	8188.81
539.575	8321.69
539.94	8242.37
540.305	8398.07
540.67	8370.5
541.034	8401.69
541.399	8451.4
541.764	8477.62
542.129	8472.87
542.494	8462.93
542.858	8608.01
543.223	8570.72
543.587	8632.64
543.952	8625.86
544.316	8711.73
544.681	8693.88
545.045	8760.55
545.41	8850.49
545.774	8838.06
546.138	8853.88
546.503	8909.02
546.867	8894.1
547.231	9000.77
547.595	9046.19
547.959	8998.73
548.324	9052.29
548.688	9143.14
549.052	9136.58
549.416	9144.49
549.779	9133.19
550.143	9195.79
550.507	9208.9
550.871	9232.85
551.235	9279.85
551.599	9377.48
551.962	9376.58
552.326	9428.33
552.689	9446.18
553.053	9424.26
553.417	9460.87
553.78	9572.05
554.143	9484.6
554.507	9567.3
554.87	9658.83
555.234	9690.92
555.597	9604.82
555.96	9739.05
556.323	9733.85
556.686	9787.86
557.05	9800.29
557.413	9789.45
557.776	9802.1
558.139	9871.25
558.502	9918.93
558.865	9920.74
559.228	9976.11
559.59	9999.61
559.953	10053.39
560.316	10143.56
560.679	10101.3
561.041	10232.15
561.404	10243.22
561.767	10274.18
562.129	10195.99
562.492	10353.27
562.854	10329.09
563.217	10336.1
563.579	10400.05
563.941	10440.05
564.304	10491.8
564.666	10599.82
565.028	10529.09
565.39	10592.59
565.753	10713.04
566.115	10573.15
566.477	10787.61
566.839	10717.11
567.201	10820.83
567.563	10837.33
567.925	10842.75
568.287	10936.31
568.648	10931.56
569.01	11035.29
569.372	11058.34
569.734	11051.11
570.095	11137.21
570.457	11200.26
570.819	11190.31
571.18	11226.7
571.542	11287.03
571.903	11335.85
572.265	11438.89
572.626	11459.46
572.987	11479.8
573.349	11504.2
573.71	11674.82
574.071	11621.94
574.432	11755.27
574.794	11902.84
575.155	11797.08
575.516	11953.46
575.877	12018.54
576.238	12093.79
576.599	12107.35
576.96	12253.11
577.32	12317.29
577.681	12416.04
578.042	12540.33
578.403	12589.82
578.763	12682.93
579.124	12796.37
579.485	12950.04
579.845	13104.16
580.206	13180.32
580.566	13318.62
580.927	13401.33
581.287	13568.56
581.648	13656.69
582.008	13814.42
582.368	13898.94
582.728	14140.29
583.089	14333.28
583.449	14398.82
583.809	14575.76
584.169	14863.89
584.529	14911.8
584.889	15147.95
585.249	15212.81
585.609	15462.52
585.969	15701.38
586.329	15880.13
586.688	16081.48
587.048	16337.3
587.408	16446.45
587.768	16696.83
588.127	16907.22
588.487	17072.19
588.846	17520.09
589.206	17564.16
589.565	17795.56
589.925	18209.11
590.284	18319.84
590.643	18628.54
591.003	18871.69
591.362	19150.56
591.721	19311.23
592.08	19588.96
592.44	19843.87
592.799	20211.32
593.158	20342.39
593.517	20634.58
593.876	20911.19
594.235	21104.63
594.593	21425.52
594.952	21747.1
595.311	21890.82
595.67	22197.93
596.029	22633.85
596.387	22861.87
596.746	23143.45
597.104	23218.02
597.463	23484.68
597.822	23794.73
598.18	23982.07
598.538	24110.43
598.897	24553.35
599.255	24592.67
599.613	25158.31
599.972	25236.72
600.33	25538.64
600.688	25705.64
601.046	25938.63
601.404	26349.24
601.762	26438.27
602.12	26726.63
602.478	27042.33
602.836	27162.77
603.194	27252.72
603.552	27478.02
603.91	27763.21
604.268	28048.63
604.625	28191.22
604.983	28496.98
605.341	28488.62
605.698	28800.02
606.056	29061.48
606.413	29250.4
606.771	29508.02
607.128	29586.44
607.485	29677.96
607.843	29791.63
608.2	30256.25
608.557	30548.22
608.914	30497.6
609.272	30806.07
609.629	31006.97
609.986	31256.68
610.343	31405.37
610.7	31626.61
611.057	31732.37
611.414	31760.85
611.771	32058.92
612.127	32282.87
612.484	32368.74
612.841	32473.82
613.198	32659.13
613.554	32711.78
613.911	32926.92
614.267	33073.58
614.624	33245.33
614.98	33391.76
615.337	33537.97
615.693	33604.19
616.05	33667.24
616.406	33997.4
616.762	34022.93
617.118	33967.12
617.475	34183.38
617.831	34373.43
618.187	34497.04
618.543	34665.63
618.899	34857.94
619.255	34859.3
619.611	34913.98
619.967	35135.22
620.323	35289.34
620.678	35259.06
621.034	35162.56
621.39	35392.39
621.746	35298.61
622.101	35822.66
622.457	35587.86
622.812	35681.42
623.168	35831.93
623.523	35929.32
623.879	36080.05
624.234	35835.99
624.589	36106.27
624.945	36160.05
625.3	36377.9
625.655	36277.11
626.01	36220.16
626.365	36360.5
626.72	36349.65
627.075	36541.96
627.43	36537.9
627.785	36416.77
628.14	36527.05
628.495	36637.33
628.85	36673.94
629.205	36591
629.559	36986.7
629.914	36710.55
630.269	36715.97
630.623	36800.26
630.978	36700.6
631.332	36866.47
631.687	37022.63
632.041	36802.97
632.396	36899.47
632.75	36887.49
633.104	36962.97
633.459	36744.67
633.813	36834.16
634.167	36838
634.521	36866.47
634.875	36892.01
635.229	36926.13
635.583	36706.48
635.937	36893.37
636.291	36844.1
636.645	36749.64
636.999	36786.48
637.352	36904.21
637.706	36642.07
638.06	36804.55
638.413	36858.34
638.767	36642.07
639.121	36895.63
639.474	36653.37
639.828	36710.55
640.181	36809.75
640.534	36785.35
640.888	36648.85
641.241	36595.75
641.594	36659.7
641.947	36789.64
642.301	36612.92
642.654	36719.36
643.007	36567.05
643.36	36513.72
643.713	36568.4
644.066	36552.81
644.419	36458.35
644.771	36209.77
645.124	35916.67
645.477	35808.65
645.83	35606.17
646.182	35593.29
646.535	35351.71
646.888	35485.72
647.24	35446.4
647.593	35644.36
647.945	35639.16
648.298	35367.98
648.65	35303.58
649.002	35234.88
649.355	35489.11
649.707	35273.3
650.059	35564.14
650.411	35799.16
650.763	35894.3
651.115	36233.27
651.467	36136.78
651.819	36240.95
652.171	36065.14
652.523	36059.72
652.875	36005.03
653.227	35899.27
653.578	36187.17
653.93	35962.54
654.282	35928.42
654.633	35716.22
654.985	35900.85
655.337	35878.03
655.688	35952.15
656.039	36075.08
656.391	35725.94
656.742	35903.79
657.094	35818.14
657.445	35935.65
657.796	35841.87
658.147	35760.74
658.498	35753.06
658.849	35803.9
659.2	35679.84
659.551	35727.3
659.902	35760.74
660.253	35731.14
660.604	35724.58
660.955	35675.32
661.306	35767.97
661.656	35674.42
662.007	35673.29
662.358	35693.4
662.708	35658.37
663.059	35624.92
663.409	35459.28
663.76	35715.32
664.11	35767.29
664.461	35734.53
664.811	35716.22
665.161	35670.8
665.511	35588.54
665.862	35787.86
666.212	35743.57
666.562	35820.4
666.912	35713.28
667.262	35554.64
667.612	35642.1
667.962	35644.81
668.312	35656.34
668.662	35819.5
669.011	35572.04
669.361	35606.17
669.711	35579.73
670.06	35449.34
670.41	35415.21
670.76	35438.49
671.109	35527.07
671.459	35568.2
671.808	35325.05
672.157	35386.51
672.507	35264.48
672.856	35370.92
673.205	35323.69
673.554	35408.89
673.904	35330.92
674.253	35429.9
674.602	35378.38
674.951	34807.55
675.3	34584.95
675.649	35283.24
675.998	35216.57
676.346	35174.77
676.695	35262.67
677.044	34953.08
677.393	35148.55
677.741	35159.85
678.09	35053.19
678.438	35070.36
678.787	35085.96
679.135	34997.14
679.484	34849.58
679.832	34978.84
680.181	34949.46
680.529	34958.28
680.877	34704.95
681.225	34742.69
681.573	34830.82
681.922	34652.07
682.27	34499.53
682.618	34547.67
682.966	34449.36
683.314	34736.36
683.661	34486.65
684.009	34358.74
684.357	34297.5
684.705	34224.51
685.053	34379.08
685.4	34212.08
685.748	34060.67
686.095	34036.49
686.443	33968.02
686.79	33881.47
687.138	34001.92
687.485	33993.1
687.832	33880.34
688.18	33799.44
688.527	33695.71
688.874	33592.89
689.221	33617.97
689.568	33451.65
689.915	33400.12
690.262	33431.08
690.609	33239.45
690.956	33075.16
691.303	33075.16
691.65	32835.39
691.997	33026.8
692.344	32733.48
692.69	32873.58
693.037	32922.85
693.383	32508.62
693.73	32610.09
694.077	32396.76
694.423	32467.04
694.769	32395.63
695.116	32270.44
695.462	32262.75
695.808	32215.52
696.155	32267.05
696.501	31967.85
696.847	31979.82
697.193	31719.26
697.539	31900.28
697.885	31692.82
698.231	31577.57
698.577	31515.88
698.923	31491.7
699.269	31271.37
699.614	31171.03
699.96	31179.62
700.306	31149.11
700.651	31002.9
700.997	30981.43
701.342	31011.03
701.688	30728.1
702.033	30843.81
702.379	30698.95
702.724	30606.3
703.069	30697.82
703.415	30346.42
703.76	30280.88
704.105	30376.7
704.45	30217.16
704.795	30174.45
705.14	30046.31
705.485	29970.61
705.83	29842.03
706.175	29920.22
706.52	29830.95
706.865	29614.24
707.209	29716.15
707.554	29583.5
707.899	29740.33
708.243	29412.43
708.588	29421.25
708.932	29214.7
709.277	29306.22
709.621	29120.24
709.966	29126.56
710.31	29070.52
710.654	28843.86
710.998	28922.05
711.342	28888.6
711.687	28960.24
712.031	28721.38
712.375	28552.12
712.719	28742.62
713.063	28528.61
713.407	28740.13
713.75	28400.48
714.094	28406.81
714.438	28231.9
714.782	28339.69
715.125	28214.5
715.469	28240.94
715.812	28102.18
716.156	27990.55
716.499	28009.08
716.843	28023.99
717.186	27895.18
717.53	27952.58
717.873	28009.76
718.216	27827.16
718.559	27764.79
718.902	27689.31
719.246	27635.53
719.589	27591.92
719.932	27489.55
720.275	27497.68
720.617	27454.74
720.96	27505.59
721.303	27374.07
721.646	27343.56
721.989	27268.53
722.331	27256.78
722.674	27302.88
723.016	27196.9
723.359	27130.23
723.701	27197.58
724.044	27055.88
724.386	26912.16
724.729	26973.17
725.071	26759.4
725.413	26848.66
725.755	26820.18
726.097	26891.14
726.439	26551.49
726.782	26517.14
727.124	26679.62
727.465	26510.81
727.807	26537.93
728.149	26426.07
728.491	26471.72
728.833	26407.54
729.175	26487.31
729.516	26382.23
729.858	26294.55
730.199	26321.44
730.541	26235.34
730.882	26152.86
731.224	26312.4
731.565	26088.23
731.906	26131.39
732.248	26111.5
732.589	25923.71
732.93	25974.56
733.271	26012.07
733.612	25871.96
733.953	26079.87
734.294	25901.79
734.635	25727.11
734.976	25943.15
735.317	25681.01
735.658	25694.11
735.999	25610.72
736.339	25589.03
736.68	25658.18
737.021	25652.53
737.361	25515.13
737.702	25537.28
738.042	25457.73
738.383	25405.98
738.723	25478.52
739.063	25242.82
739.404	25451.63
739.744	25318.3
740.084	25202.37
740.424	25186.1
740.764	25246.67
741.104	25196.72
741.444	25104.75
741.784	25079.44
742.124	25045.77
742.464	25036.73
742.804	24882.61
743.143	24874.7
743.483	24918.77
743.823	24731.2
744.162	24736.62
744.502	24792.22
744.841	24745.66
745.181	24769.17
745.52	24681.26
745.86	24785.89
746.199	24604.42
746.538	24568.49
746.877	24567.36
747.216	24562.16
747.556	24506.57
747.895	24548.15
748.234	24352
748.573	24403.53
748.911	24423.19
749.25	24379.34
749.589	24224.77
749.928	24246.69
750.267	24315.39
750.605	24222.74
750.944	24306.58
751.283	24097.32
751.621	24212.8
751.96	24049.41
752.298	24130.76
752.636	24073.82
752.975	23905.46
753.313	23882.63
753.651	23977.77
753.989	23785.24
754.327	23827.27
754.666	23699.36
755.004	23719.02
755.342	23778.46
755.679	23623.21
756.017	23395.42
756.355	23667.27
756.693	23467.96
757.031	23444.45
757.368	23366.26
757.706	23368.52
758.044	23235.65
758.381	23299.83
758.719	23165.14
759.056	23250.79
759.394	23142.32
759.731	23022.09
