Data from hue_180_FLMS001491_00047.txt Node
Date: Tue Feb 07 16:47:03 GMT 2017
User: dcchb
Spectrometer: FLMS00149
Trigger mode: 0
Integration Time (sec): 2.000000E-2
Scans to average: 10
Electric dark correction enabled: true
Nonlinearity correction enabled: false
Boxcar width: 0
XAxis mode: Wavelengths
Number of Pixels in Spectrum: 2048
>>>>>Begin Spectral Data<<<<<
341.393	-17.95
341.776	-17.95
342.16	-17.95
342.543	-61.11
342.927	-69.25
343.31	-52.75
343.693	-60.44
344.077	-58.63
344.46	-67.22
344.843	-64.73
345.226	-47.1
345.61	-24.05
345.993	-21.34
346.376	-0.32
346.759	-0.78
347.142	52.56
347.525	25.89
347.908	58.88
348.291	53.01
348.674	88.49
349.057	118.54
349.44	133.23
349.823	122.84
350.206	152.21
350.588	179.11
350.971	201.7
351.354	220.23
351.737	230.4
352.119	248.26
352.502	223.85
352.884	267.92
353.267	267.69
353.65	294.36
354.032	277.63
354.414	290.51
354.797	301.14
355.179	317.41
355.562	342.27
355.944	325.32
356.326	337.52
356.709	325.77
357.091	323.28
357.473	360.12
357.855	350.4
358.238	337.97
358.62	324.64
359.002	333.23
359.384	327.8
359.766	339.1
360.148	321.47
360.53	344.3
360.912	323.51
361.294	329.38
361.676	322.15
362.057	317.18
362.439	326.45
362.821	323.73
363.203	294.13
363.584	324.41
363.966	322.38
364.348	324.64
364.729	298.42
365.111	296.62
365.493	302.49
365.874	306.33
366.256	305.2
366.637	307.92
367.019	294.36
367.4	295.94
367.781	304.75
368.163	300.46
368.544	327.58
368.925	311.53
369.306	305.66
369.688	326.45
370.069	281.93
370.45	304.53
370.831	317.86
371.212	317.41
371.593	322.6
371.974	304.3
372.355	328.48
372.736	316.5
373.117	313.34
373.498	309.5
373.879	292.77
374.26	323.28
374.641	318.08
375.021	316.73
375.402	317.41
375.783	316.5
376.163	322.15
376.544	312.44
376.925	320.34
377.305	315.37
377.686	315.6
378.066	326.9
378.447	329.16
378.827	323.73
379.208	319.44
379.588	349.5
379.968	300.91
380.349	326.67
380.729	310.63
381.109	335.03
381.489	327.12
381.87	334.36
382.25	307.46
382.63	323.06
383.01	332.1
383.39	325.32
383.77	313.57
384.15	344.98
384.53	320.8
384.91	342.49
385.29	354.02
385.67	334.81
386.049	333.45
386.429	366.67
386.809	357.18
387.189	343.85
387.568	349.5
387.948	328.48
388.328	363.96
388.707	388.59
389.087	366.45
389.466	355.37
389.846	342.49
390.225	354.02
390.605	369.16
390.984	380.46
391.363	363.73
391.743	378.87
392.122	348.37
392.501	358.08
392.881	371.87
393.26	386.78
393.639	372.32
394.018	384.98
394.397	375.48
394.776	376.39
395.155	373.45
395.534	378.2
395.913	393.11
396.292	399.66
396.671	395.14
397.05	387.46
397.429	396.73
397.808	375.94
398.186	372.77
398.565	396.95
398.944	407.35
399.323	398.99
399.701	395.14
400.08	407.8
400.458	389.5
400.837	411.42
401.215	430.85
401.594	406.22
401.972	424.97
402.351	429.72
402.729	424.3
403.107	424.3
403.486	428.59
403.864	438.76
404.242	391.3
404.62	430.17
404.999	428.14
405.377	458.42
405.755	427.23
406.133	426.78
406.511	438.08
406.889	467.91
407.267	452.54
407.645	476.72
408.023	474.01
408.401	463.17
408.779	481.24
409.156	463.62
409.534	510.17
409.912	482.6
410.29	515.59
410.667	493.67
411.045	527.34
411.422	519.89
411.8	528.93
412.178	544.07
412.555	536.84
412.933	539.77
413.31	510.4
413.687	551.98
414.065	580.9
414.442	571.64
414.819	575.71
415.197	582.03
415.574	586.1
415.951	575.03
416.328	587.68
416.705	607.12
417.082	608.7
417.46	603.73
417.837	622.71
418.214	623.61
418.591	650.28
418.967	627.91
419.344	651.18
419.721	667.23
420.098	680.56
420.475	681.47
420.852	681.24
421.228	700
421.605	691.18
421.982	724.18
422.358	715.81
422.735	725.08
423.111	723.72
423.488	741.35
423.864	764.63
424.241	777.06
424.617	777.51
424.994	799.2
425.37	801.91
425.746	797.85
426.123	815.02
426.499	824.74
426.875	857.73
427.251	856.15
427.627	870.39
428.003	887.34
428.379	885.08
428.756	888.01
429.132	920.1
429.507	915.13
429.883	912.19
430.259	916.94
430.635	953.1
431.011	952.64
431.387	948.58
431.763	990.38
432.138	980.89
432.514	1014.11
432.89	1021.8
433.265	992.19
433.641	1037.61
434.016	1070.16
434.392	1080.55
434.767	1089.36
435.143	1095.69
435.518	1159.64
435.894	1164.16
436.269	1184.28
436.644	1183.6
437.02	1217.5
437.395	1251.62
437.77	1226.76
438.145	1276.93
438.52	1287.55
438.895	1288
439.271	1292.3
439.646	1321.45
440.021	1365.06
440.395	1369.58
440.77	1332.3
441.145	1362.8
441.52	1401.9
441.895	1407.77
442.27	1428.56
442.645	1428.79
443.019	1481.67
443.394	1465.4
443.769	1471.5
444.143	1475.34
444.518	1539.75
444.892	1528
445.267	1505.85
445.641	1572.29
446.016	1567.54
446.39	1538.17
446.764	1596.02
447.139	1579.75
447.513	1610.71
447.887	1587.66
448.262	1614.55
448.636	1650.03
449.01	1648.22
449.384	1681.66
449.758	1697.26
450.132	1724.6
450.506	1712.62
450.88	1692.74
451.254	1747.88
451.628	1760.53
452.002	1767.76
452.376	1749.91
452.75	1830.14
453.123	1817.25
453.497	1879.85
453.871	1918.04
454.244	1922.34
454.618	1927.76
454.992	1953.97
455.365	1950.58
455.739	2008.66
456.112	2041.2
456.486	2018.83
456.859	2050.02
457.232	2073.07
457.606	2098.15
457.979	2121.2
458.352	2177.92
458.725	2190.35
459.099	2204.59
459.472	2237.81
459.845	2255.21
460.218	2273.29
460.591	2296.11
460.964	2324.81
461.337	2400.06
461.71	2407.3
462.083	2441.64
462.456	2453.4
462.829	2452.72
463.201	2538.82
463.574	2572.71
463.947	2591.92
464.32	2644.8
464.692	2649.77
465.065	2656.33
465.438	2720.51
465.81	2744.91
466.183	2777
466.555	2882.99
466.928	2893.38
467.3	2899.94
467.672	2916.66
468.045	3033.27
468.417	3018.13
468.789	3067.39
469.161	3057
469.534	3153.04
469.906	3238.69
470.278	3228.97
470.65	3279.81
471.022	3349.19
471.394	3416.76
471.766	3466.02
472.138	3506.25
472.51	3590.09
472.882	3661.05
473.253	3718.9
473.625	3732.91
473.997	3777.2
474.369	3876.41
474.74	3895.62
475.112	3975.62
475.484	4079.34
475.855	4140.58
476.227	4213.8
476.598	4275.27
476.97	4359.79
477.341	4443.4
477.713	4555.49
478.084	4623.06
478.455	4744.86
478.827	4747.57
479.198	4898.98
479.569	4930.62
479.94	5042.93
480.311	5134
480.682	5294
481.053	5373.09
481.424	5501.45
481.795	5534.22
482.166	5650.83
482.537	5745.96
482.908	5835.68
483.279	5898.5
483.65	6067.99
484.021	6183.69
484.391	6305.27
484.762	6305.95
485.133	6361.77
485.503	6510.92
485.874	6646.51
486.244	6752.04
486.615	6907.74
486.985	6921.75
487.356	7080.17
487.726	7187.51
488.097	7272.25
488.467	7332.59
488.837	7512.47
489.207	7637.89
489.578	7750.21
489.948	7825.01
490.318	7965.57
490.688	8001.05
491.058	8090.08
491.428	8173.7
491.798	8246.69
492.168	8480.13
492.538	8527.13
492.908	8660.24
493.278	8732.33
493.648	8695.72
494.017	8874.47
494.387	8891.64
494.757	9041.47
495.126	9165.31
495.496	9183.84
495.866	9257.96
496.235	9286.21
496.605	9340.9
496.974	9420.67
497.344	9564.85
497.713	9582.47
498.082	9666.31
498.452	9699.53
498.821	9791.73
499.19	9812.3
499.559	9879.19
499.928	10002.58
500.298	9960.77
500.667	10052.97
501.036	10082.8
501.405	10246.41
501.774	10127.09
502.143	10277.6
502.512	10229.01
502.88	10368.89
503.249	10351.04
503.618	10398.5
503.987	10438.5
504.356	10469.91
504.724	10568.44
505.093	10539.74
505.462	10579.74
505.83	10625.84
506.199	10718.49
506.567	10825.83
506.936	10724.14
507.304	10876.45
507.672	10878.03
508.041	10875.77
508.409	10950.35
508.777	11057.46
509.145	11070.12
509.514	11018.37
509.882	11079.84
510.25	11039.61
510.618	11117.57
510.986	11196.44
511.354	11253.62
511.722	11270.11
512.09	11311.24
512.458	11280.06
512.826	11358.25
513.193	11367.29
513.561	11360.51
513.929	11421.07
514.297	11476.89
514.664	11513.95
515.032	11526.6
515.4	11478.24
515.767	11562.76
516.135	11640.95
516.502	11478.7
516.869	11708.97
517.237	11662.42
517.604	11529.32
517.972	11717.33
518.339	11687.05
518.706	11656.32
519.073	11731.57
519.44	11704.23
519.808	11748.07
520.175	11745.58
520.542	11837.56
520.909	11821.51
521.276	11741.51
521.643	11854.96
522.009	11833.26
522.376	11869.65
522.743	11913.94
523.11	11984.9
523.477	12001.39
523.843	12031.22
524.21	11969.76
524.577	12051.56
524.943	12079.36
525.31	12081.17
525.676	12137.44
526.043	12145.34
526.409	12103.31
526.776	12184.89
527.142	12142.18
527.508	12143.31
527.874	12114.38
528.241	12148.28
528.607	12093.59
528.973	12184.67
529.339	12127.49
529.705	12127.27
530.071	12186.25
530.437	12139.47
530.803	12171.11
531.169	12140.37
531.535	12037.32
531.901	12023.31
532.267	12086.14
532.632	12056.53
532.998	12066.25
533.364	11996.2
533.73	12046.59
534.095	12088.17
534.461	11983.77
534.826	11938.57
535.192	11911.45
535.557	11922.07
535.923	11861.74
536.288	11856.54
536.653	11894.28
537.019	11770.67
537.384	11728.86
537.749	11652.7
538.114	11644.11
538.479	11562.31
538.845	11589.65
539.21	11487.28
539.575	11514.17
539.94	11423.33
540.305	11462.65
540.67	11417.68
541.034	11419.71
541.399	11326.16
541.764	11322.09
542.129	11245.03
542.494	11233.73
542.858	11164.35
543.223	11180.62
543.587	11160.51
543.952	11063.11
544.316	11081.87
544.681	10953.51
545.045	10980.63
545.41	10995.54
545.774	10911.48
546.138	10776.11
546.503	10812.95
546.867	10774.53
547.231	10759.84
547.595	10677.81
547.959	10696.57
548.324	10515.56
548.688	10528.66
549.052	10469.23
549.416	10449.8
549.779	10492.05
550.143	10337.03
550.507	10393.98
550.871	10376.58
551.235	10227.2
551.599	10301.55
551.962	10254.09
552.326	10189.69
552.689	10169.58
553.053	10095.23
553.417	10068.34
553.78	10122.57
554.143	10058.17
554.507	9985.63
554.87	9953.54
555.234	9995.12
555.597	9922.8
555.96	9904.05
556.323	9816.82
556.686	9900.66
557.05	9893.88
557.413	9807.78
557.776	9750.61
558.139	9714.22
558.502	9753.54
558.865	9709.25
559.228	9767.33
559.59	9696.14
559.953	9693.66
560.316	9729.36
560.679	9669.25
561.041	9693.88
561.404	9692.53
561.767	9657.95
562.129	9608.69
562.492	9630.38
562.854	9627.22
563.217	9533.89
563.579	9562.59
563.941	9639.2
564.304	9522.14
564.666	9578.86
565.028	9580.89
565.39	9568.01
565.753	9607.33
566.115	9568.24
566.477	9538.63
566.839	9612.53
567.201	9616.6
567.563	9572.08
567.925	9594
568.287	9524.62
568.648	9538.86
569.01	9635.13
569.372	9567.79
569.734	9539.54
570.095	9578.18
570.457	9551.51
570.819	9531.85
571.18	9559.2
571.542	9575.69
571.903	9575.92
572.265	9558.97
572.626	9535.47
572.987	9548.58
573.349	9612.08
573.71	9585.19
574.071	9653.88
574.432	9569.37
574.794	9704.28
575.155	9643.49
575.516	9588.8
575.877	9582.02
576.238	9567.79
576.599	9572.76
576.96	9606.43
577.32	9574.11
577.681	9647.78
578.042	9605.07
578.403	9539.54
578.763	9619.08
579.124	9624.96
579.485	9674
579.845	9601.68
580.206	9595.81
580.566	9597.84
580.927	9567.33
581.287	9594.45
581.648	9507.9
582.008	9574.79
582.368	9553.32
582.728	9587.22
583.089	9590.61
583.449	9552.19
583.809	9493.21
584.169	9543.83
584.529	9479.2
584.889	9603.72
585.249	9542.25
585.609	9489.37
585.969	9491.63
586.329	9496.83
586.688	9490.95
587.048	9472.19
587.408	9467
587.768	9456.15
588.127	9421.35
588.487	9352.2
588.846	9414.34
589.206	9323.5
589.565	9364.63
589.925	9409.6
590.284	9341.12
590.643	9357.17
591.003	9356.49
591.362	9354.91
591.721	9393.55
592.08	9355.81
592.44	9330.5
592.799	9305.19
593.158	9299.32
593.517	9231.97
593.876	9293.22
594.235	9303.84
594.593	9270.39
594.952	9242.14
595.311	9258.87
595.67	9239.88
596.029	9317.85
596.387	9309.94
596.746	9287.57
597.104	9250.05
597.463	9226.1
597.822	9218.42
598.18	9191.07
598.538	9236.04
598.897	9237.85
599.255	9137.97
599.613	9204.4
599.972	9182.71
600.33	9164.86
600.688	9134.35
601.046	9214.12
601.404	9198.3
601.762	9201.69
602.12	9249.38
602.478	9219.09
602.836	9173.45
603.194	9108.59
603.552	9221.58
603.91	9120.34
604.268	9221.35
604.625	9173.67
604.983	9191.98
605.341	9169.6
605.698	9173.45
606.056	9157.85
606.413	9190.62
606.771	9176.61
607.128	9234.69
607.485	9129.15
607.843	9158.53
608.2	9212.09
608.557	9218.64
608.914	9150.62
609.272	9191.98
609.629	9216.38
609.986	9243.05
610.343	9198.3
610.7	9268.13
611.057	9221.13
611.414	9182.71
611.771	9231.97
612.127	9195.37
612.484	9259.77
612.841	9208.92
613.198	9210.73
613.554	9263.61
613.911	9274.46
614.267	9317.4
614.624	9281.92
614.98	9296.38
615.337	9302.71
615.693	9265.65
616.05	9288.7
616.406	9322.14
616.762	9330.05
617.118	9297.96
617.475	9242.14
617.831	9363.04
618.187	9334.8
618.543	9345.42
618.899	9387.9
619.255	9334.57
619.611	9384.97
619.967	9385.42
620.323	9397.39
620.678	9417.51
621.034	9348.36
621.39	9312.88
621.746	9338.86
622.101	9427
622.457	9316.49
622.812	9370.73
623.168	9342.71
623.523	9395.36
623.879	9384.06
624.234	9247.57
624.589	9429.48
624.945	9343.16
625.3	9390.84
625.655	9304.52
626.01	9331.41
626.365	9364.4
626.72	9374.57
627.075	9316.94
627.43	9322.37
627.785	9399.65
628.14	9328.47
628.495	9353.33
628.85	9340.22
629.205	9264.74
629.559	9376.83
629.914	9347.45
630.269	9310.84
630.623	9349.49
630.978	9282.59
631.332	9273.1
631.687	9381.12
632.041	9227.91
632.396	9301.58
632.75	9180.9
633.104	9277.4
633.459	9187.68
633.813	9255.25
634.167	9060.68
634.521	9154.01
634.875	9184.74
635.229	9155.82
635.583	9141.13
635.937	9086.44
636.291	9156.04
636.645	9141.13
636.999	9121.02
637.352	9109.72
637.706	9022.49
638.06	9090.28
638.413	9065.2
638.767	9060.23
639.121	9018.65
639.474	8946.11
639.828	8973.22
640.181	9064.52
640.534	8972.32
640.888	8953.11
641.241	9017.07
641.594	8971.64
641.947	8987.46
642.301	8987.46
642.654	8994.01
643.007	8959.44
643.36	8975.71
643.713	8930.97
644.066	9012.77
644.419	8900.91
644.771	8854.58
645.124	8757.86
645.477	8778.65
645.83	8744.98
646.182	8719.45
646.535	8690.52
646.888	8625.44
647.24	8697.75
647.593	8708.15
647.945	8645.32
648.298	8624.31
648.65	8577.08
649.002	8570.98
649.355	8646.23
649.707	8668.6
650.059	8636.74
650.411	8756.96
650.763	8808.71
651.115	8798.31
651.467	8787.69
651.819	8801.48
652.171	8763.29
652.523	8793.79
652.875	8706.11
653.227	8755.6
653.578	8883.06
653.93	8804.19
654.282	8773.91
654.633	8732.55
654.985	8833.12
655.337	8839.89
655.688	8781.59
656.039	8830.18
656.391	8792.89
656.742	8820.23
657.094	8811.65
657.445	8860.46
657.796	8788.6
658.147	8815.04
658.498	8822.72
658.849	8876.28
659.2	8814.13
659.551	8861.14
659.902	8880.35
660.253	8879.89
660.604	8848.93
660.955	8806.9
661.306	8836.05
661.656	8951.53
662.007	8894.36
662.358	8847.13
662.708	8911.31
663.059	8868.82
663.409	8797.64
663.76	8927.35
664.11	8894.13
664.461	8893.9
664.811	8918.08
665.161	8911.98
665.511	8903.17
665.862	8937.75
666.212	8908.37
666.562	8915.82
666.912	8928.03
667.262	8928.48
667.612	8942.94
667.962	8912.44
668.312	8870.63
668.662	8927.8
669.011	8865.2
669.361	8921.7
669.711	8927.8
670.06	8894.36
670.41	8817.75
670.76	8891.19
671.109	8868.14
671.459	8870.85
671.808	8857.07
672.157	8914.02
672.507	8798.99
672.856	8838.31
673.205	8785.88
673.554	8853.23
673.904	8829.95
674.253	8857.07
674.602	8860.01
674.951	8719.9
675.3	8631.99
675.649	8800.8
675.998	8773.46
676.346	8798.54
676.695	8824.3
677.044	8724.19
677.393	8766.22
677.741	8749.28
678.09	8737.75
678.438	8741.37
678.787	8781.14
679.135	8740.69
679.484	8662.95
679.832	8687.81
680.181	8641.48
680.529	8691.42
680.877	8668.83
681.225	8588.15
681.573	8631.76
681.922	8584.76
682.27	8510.86
682.618	8580.24
682.966	8541.6
683.314	8565.55
683.661	8529.62
684.009	8483.97
684.357	8404.65
684.705	8466.12
685.053	8468.61
685.4	8434.93
685.748	8379.34
686.095	8382.51
686.443	8352.45
686.79	8307.25
687.138	8344.31
687.485	8366.91
687.832	8297.31
688.18	8327.82
688.527	8257.76
688.874	8181.38
689.221	8191.78
689.568	8148.39
689.915	8192.23
690.262	8170.08
690.609	8136.86
690.956	8120.82
691.303	8055.28
691.65	7990.43
691.997	7998.33
692.344	8012.12
692.69	7907.49
693.037	7978.45
693.383	7807.15
693.73	7864.33
694.077	7871.11
694.423	7817.32
694.769	7790.2
695.116	7793.59
695.462	7767.38
695.808	7702.98
696.155	7703.88
696.501	7651
696.847	7683.77
697.193	7549.99
697.539	7571.23
697.885	7538.23
698.231	7489.2
698.577	7474.05
698.923	7525.13
699.269	7446.94
699.614	7404
699.96	7372.14
700.306	7381.18
700.651	7358.35
700.997	7317
701.342	7275.87
701.688	7227.96
702.033	7261.86
702.379	7209.2
702.724	7174.63
703.069	7156.1
703.415	7075.87
703.76	7125.82
704.105	7058.92
704.45	7046.27
704.795	7003.78
705.14	7006.04
705.485	6952.03
705.83	6916.56
706.175	7026.16
706.52	6838.59
706.865	6893.05
707.209	6832.72
707.554	6820.29
707.899	6848.31
708.243	6820.96
708.588	6793.39
708.932	6747.29
709.277	6761.98
709.621	6723.79
709.966	6677.92
710.31	6731.48
710.654	6659.61
710.998	6617.58
711.342	6643.34
711.687	6651.48
712.031	6566.28
712.375	6572.84
712.719	6587.3
713.063	6496.23
713.407	6569.67
713.75	6495.32
714.094	6503.23
714.438	6464.36
714.782	6516.34
715.125	6472.27
715.469	6456.68
715.812	6422.33
716.156	6362.9
716.499	6437.02
716.843	6431.14
717.186	6364.93
717.53	6439.73
717.873	6436.12
718.216	6381.2
718.559	6377.36
718.902	6335.55
719.246	6319.73
719.589	6360.19
719.932	6317.93
720.275	6336.91
720.617	6312.5
720.96	6238.83
721.303	6283.35
721.646	6364.71
721.989	6223.01
722.331	6246.29
722.674	6236.8
723.016	6264.14
723.359	6261.43
723.701	6248.78
724.044	6239.51
724.386	6266.63
724.729	6268.44
725.071	6248.32
725.413	6237.48
725.755	6190.02
726.097	6214.43
726.439	6189.79
726.782	6174.2
727.124	6193.64
727.465	6147.08
727.807	6157.93
728.149	6179.85
728.491	6185.05
728.833	6182.11
729.175	6172.17
729.516	6134.43
729.858	6184.15
730.199	6176.01
730.541	6145.73
730.882	6170.36
731.224	6172.62
731.565	6154.99
731.906	6230.02
732.248	6196.57
732.589	6102.11
732.93	6169
733.271	6194.77
733.612	6207.2
733.953	6163.58
734.294	6143.92
734.635	6145.73
734.976	6230.47
735.317	6205.84
735.658	6162.22
735.999	6182.79
736.339	6166.29
736.68	6183.69
737.021	6235.67
737.361	6187.54
737.702	6229.57
738.042	6177.82
738.383	6197.48
738.723	6252.62
739.063	6217.36
739.404	6262.79
739.744	6260.98
740.084	6298.94
740.424	6255.56
740.764	6293.52
741.104	6337.59
741.444	6274.54
741.784	6321.32
742.124	6302.56
742.464	6389.79
742.804	6370.81
743.143	6371.94
743.483	6405.83
743.823	6425.72
744.162	6476.79
744.502	6519.05
744.841	6514.98
745.181	6568.09
745.52	6572.84
745.86	6579.62
746.199	6626.17
746.538	6651.25
746.877	6708.65
747.216	6745.26
747.556	6790.91
747.895	6880.17
748.234	6850.34
748.573	6950.9
748.911	6963.79
749.25	7091.92
749.589	7050.79
749.928	7152.71
750.267	7258.24
750.605	7300.27
750.944	7362.19
751.283	7409.65
751.621	7534.62
751.96	7562.41
752.298	7708.4
752.636	7732.58
752.975	7865.01
753.313	7880.82
753.651	8079.01
753.989	8193.81
754.327	8284.66
754.666	8360.13
755.004	8507.25
755.342	8643.52
755.679	8728.03
756.017	8768.94
756.355	8962.83
756.693	9092.32
757.031	9292.31
757.368	9338.86
757.706	9491.63
758.044	9668.8
758.381	9768.01
758.719	9852.3
759.056	10160.76
759.394	10234.21
759.731	10258.61
760.068	10548.78
760.405	10648.89
760.743	10768.21
761.08	11015.43
761.417	11141.53
761.754	11371.13
762.091	11501.52
762.428	11604.79
762.765	11825.58
763.102	11992.81
763.438	12126.59
763.775	12225.79
764.112	12503.98
764.449	12643.64
764.785	12778.32
765.122	12883.4
765.458	13076.62
765.795	13235.03
766.131	13402.03
766.467	13567.68
766.804	13665.3
