Data from hue_28_FLMS001491_00068.txt Node
Date: Tue Feb 07 17:17:37 GMT 2017
User: dcchb
Spectrometer: FLMS00149
Trigger mode: 0
Integration Time (sec): 2.000000E-2
Scans to average: 10
Electric dark correction enabled: true
Nonlinearity correction enabled: false
Boxcar width: 0
XAxis mode: Wavelengths
Number of Pixels in Spectrum: 2048
>>>>>Begin Spectral Data<<<<<
341.393	-9.72
341.776	-9.72
342.16	-9.72
342.543	-52.43
342.927	-56.27
343.31	-74.57
343.693	-65.76
344.077	-72.54
344.46	-61.69
344.843	-55.59
345.226	-46.78
345.61	-33.67
345.993	-24.63
346.376	-4.52
346.759	7.91
347.142	31.19
347.525	62.82
347.908	35.71
348.291	80.9
348.674	100.34
349.057	120.9
349.44	133.1
349.823	146.44
350.206	143.73
350.588	183.5
350.971	210.39
351.354	228.47
351.737	255.59
352.119	244.29
352.502	253.55
352.884	264.17
353.267	275.92
353.65	305.08
354.032	282.48
354.414	319.31
354.797	328.35
355.179	326.32
355.562	341.91
355.944	347.11
356.326	324.74
356.709	368.8
357.091	315.02
357.473	326.55
357.855	340.56
358.238	343.04
358.62	358.18
359.002	369.93
359.384	325.64
359.766	354.57
360.148	336.49
360.53	325.87
360.912	339.65
361.294	343.95
361.676	333.55
362.057	341.23
362.439	336.94
362.821	326.77
363.203	332.87
363.584	346.66
363.966	327.67
364.348	340.56
364.729	318.86
365.111	327.9
365.493	336.26
365.874	300.56
366.256	308.92
366.637	308.24
367.019	305.53
367.4	297.85
367.781	317.05
368.163	324.06
368.544	301.46
368.925	317.96
369.306	315.47
369.688	303.49
370.069	314.57
370.45	295.81
370.831	312.99
371.212	312.76
371.593	304.4
371.974	314.79
372.355	313.66
372.736	316.83
373.117	341.46
373.498	319.31
373.879	313.44
374.26	290.39
374.641	327.67
375.021	300.11
375.402	326.77
375.783	309.82
376.163	327.9
376.544	336.26
376.925	308.24
377.305	318.18
377.686	318.18
378.066	341.01
378.447	332.42
378.827	337.39
379.208	340.33
379.588	323.16
379.968	326.77
380.349	311.86
380.729	334.91
381.109	325.19
381.489	348.47
381.87	364.51
382.25	341.46
382.63	352.99
383.01	329.71
383.39	338.75
383.77	354.11
384.15	326.55
384.53	341.01
384.91	313.66
385.29	346.43
385.67	345.98
386.049	335.81
386.429	350.5
386.809	362.25
387.189	362.25
387.568	347.34
387.948	370.39
388.328	382.59
388.707	355.24
389.087	355.24
389.466	357.28
389.846	354.79
390.225	344.17
390.605	348.92
390.984	365.19
391.363	359.31
391.743	352.53
392.122	336.94
392.501	363.38
392.881	361.12
393.26	367.22
393.639	374.68
394.018	385.07
394.397	393.21
394.776	389.59
395.155	380.55
395.534	382.14
395.913	365.64
396.292	405.41
396.671	371.52
397.05	374.91
397.429	373.55
397.808	387.79
398.186	382.81
398.565	401.57
398.944	370.39
399.323	375.58
399.701	388.01
400.08	398.63
400.458	389.82
400.837	399.99
401.215	380.55
401.594	389.59
401.972	399.09
402.351	400.44
402.729	397.96
403.107	402.25
403.486	405.87
403.864	408.8
404.242	391.4
404.62	402.25
404.999	406.99
405.377	408.35
405.755	435.47
406.133	411.29
406.511	430.05
406.889	418.52
407.267	406.54
407.645	424.4
408.023	426.2
408.401	427.33
408.779	442.7
409.156	442.7
409.534	444.28
409.912	428.69
410.29	448.8
410.667	427.11
411.045	454
411.422	450.16
411.8	460.1
412.178	447.45
412.555	463.26
412.933	444.73
413.31	447.45
413.687	472.08
414.065	469.82
414.442	477.5
414.819	476.37
415.197	479.31
415.574	465.3
415.951	462.13
416.328	478.18
416.705	489.48
417.082	487.44
417.46	478.86
417.837	502.36
418.214	475.47
418.591	505.52
418.967	470.5
419.344	496.26
419.721	477.73
420.098	505.75
420.475	514.11
420.852	512.53
421.228	515.69
421.605	512.53
421.982	534.9
422.358	533.55
422.735	529.93
423.111	519.99
423.488	539.65
423.864	533.32
424.241	520.89
424.617	539.87
424.994	541.23
425.37	538.29
425.746	538.52
426.123	574.67
426.499	562.02
426.875	564.5
427.251	565.63
427.627	559.53
428.003	583.26
428.379	576.71
428.756	572.87
429.132	573.54
429.507	598.85
429.883	576.03
430.259	594.56
430.635	589.14
431.011	619.87
431.387	624.16
431.763	593.2
432.138	637.95
432.514	632.3
432.89	628.46
433.265	629.81
433.641	621.68
434.016	653.09
434.392	622.36
434.767	670.94
435.143	651.96
435.518	641.79
435.894	657.38
436.269	680.43
436.644	678.17
437.02	663.71
437.395	684.05
437.77	697.83
438.145	687.44
438.52	705.74
438.895	688.12
439.271	690.15
439.646	700.77
440.021	730.38
440.395	710.94
440.77	714.11
441.145	699.19
441.52	706.42
441.895	723.37
442.27	761.79
442.645	748.23
443.019	751.62
443.394	759.53
443.769	754.78
444.143	744.39
444.518	764.27
444.892	761.79
445.267	769.7
445.641	785.52
446.016	759.08
446.39	779.41
446.764	783.26
447.139	764.95
447.513	795.01
447.887	795.01
448.262	807.44
448.636	798.62
449.01	796.14
449.384	819.87
449.758	834.33
450.132	818.28
450.506	823.71
450.88	840.43
451.254	816.48
451.628	844.72
452.002	838.17
452.376	846.08
452.75	854.89
453.123	826.42
453.497	862.8
453.871	860.09
454.244	930.15
454.618	909.13
454.992	899.41
455.365	904.83
455.739	916.36
456.112	928.34
456.486	942.8
456.859	942.8
457.232	926.76
457.606	960.65
457.979	960.43
458.352	979.86
458.725	998.62
459.099	974.21
459.472	1006.08
459.845	1023.02
460.218	1002.01
460.591	1040.2
460.964	1018.96
461.337	1062.57
461.71	1061.67
462.083	1089.01
462.456	1099.41
462.829	1089.01
463.201	1081.1
463.574	1105.06
463.947	1126.3
464.32	1166.07
464.692	1151.16
465.065	1159.97
465.438	1170.36
465.81	1198.39
466.183	1205.84
466.555	1215.56
466.928	1239.29
467.3	1263.02
467.672	1294.88
468.045	1304.37
468.417	1314.09
468.789	1278.38
469.161	1340.53
469.534	1332.85
469.906	1378.27
470.278	1379.4
470.65	1391.83
471.022	1405.84
471.394	1446.06
471.766	1447.42
472.138	1452.39
472.51	1502.33
472.882	1513.18
473.253	1544.59
473.625	1569
473.997	1576.23
474.369	1582.11
474.74	1618.49
475.112	1655.78
475.484	1707.3
475.855	1720.41
476.227	1754.98
476.598	1778.94
476.97	1841.99
477.341	1863.91
477.713	1853.28
478.084	1929.44
478.455	1990.46
478.827	1962.21
479.198	2029.78
479.569	2061.64
479.94	2103
480.311	2127.4
480.682	2190.9
481.053	2221.64
481.424	2248.08
481.795	2273.16
482.166	2354.51
482.537	2432.48
482.908	2476.09
483.279	2512.48
483.65	2571.68
484.021	2604.45
484.391	2639.25
484.762	2693.04
485.133	2702.75
485.503	2744.79
485.874	2867.04
486.244	2901.39
486.615	2968.06
486.985	2991.56
487.356	3069.3
487.726	3075.4
488.097	3185.68
488.467	3171.44
488.837	3259.58
489.207	3295.96
489.578	3385.67
489.948	3425.9
490.318	3446.69
490.688	3486.01
491.058	3578.66
491.428	3672.9
491.798	3686.68
492.168	3763.97
492.538	3783.63
492.908	3855.94
493.278	3912.44
493.648	3953.12
494.017	3997.64
494.387	4004.19
494.757	4123.28
495.126	4142.04
495.496	4176.39
495.866	4244.18
496.235	4254.58
496.605	4322.15
496.974	4337.74
497.344	4374.12
497.713	4460.9
498.082	4483.05
498.452	4547.45
498.821	4552.2
499.19	4593.33
499.559	4621.57
499.928	4672.42
500.298	4712.19
500.667	4777.28
501.036	4759.87
501.405	4833.09
501.774	4824.28
502.143	4902.24
502.512	4904.28
502.88	4945.18
503.249	4975.01
503.618	5024.5
503.987	5056.82
504.356	5085.52
504.724	5104.27
505.093	5127.55
505.462	5195.57
505.83	5185.4
506.199	5235.34
506.567	5285.96
506.936	5278.05
507.304	5331.84
507.672	5339.07
508.041	5353.08
508.409	5443.92
508.777	5491.16
509.145	5465.39
509.514	5506.07
509.882	5590.36
510.25	5576.8
510.618	5608.21
510.986	5610.93
511.354	5681.66
511.722	5758.04
512.09	5753.97
512.458	5734.31
512.826	5781.77
513.193	5817.47
513.561	5825.61
513.929	5838.26
514.297	5874.87
514.664	5891.82
515.032	5973.63
515.4	6021.76
515.767	6028.54
516.135	6064.47
516.502	5970.01
516.869	6080.52
517.237	6106.28
517.604	6092.27
517.972	6132.04
518.339	6190.35
518.706	6196
519.073	6220.63
519.44	6220.85
519.808	6268.99
520.175	6273.51
520.542	6372.49
520.909	6354.86
521.276	6353.05
521.643	6453.62
522.009	6455.88
522.376	6492.03
522.743	6475.08
523.11	6584.46
523.477	6621.75
523.843	6706.94
524.21	6711.69
524.577	6741.29
524.943	6805.24
525.31	6759.37
525.676	6862.42
526.043	6901.06
526.409	6895.64
526.776	7005.24
527.142	7005.92
527.508	7032.36
527.874	7033.26
528.241	7042.53
528.607	7079.36
528.973	7194.39
529.339	7169.53
529.705	7214.05
530.071	7238.91
530.437	7288.62
530.803	7319.36
531.169	7387.15
531.535	7394.61
531.901	7480.48
532.267	7479.8
532.632	7520.93
532.998	7546.69
533.364	7627.6
533.73	7564.55
534.095	7658.56
534.461	7669.63
534.826	7729.51
535.192	7779.68
535.557	7788.04
535.923	7823.52
536.288	7829.85
536.653	7868.27
537.019	7890.64
537.384	7850.19
537.749	7959.11
538.114	8000.92
538.479	7993.24
538.845	8016.96
539.21	8106
539.575	8062.84
539.94	8113.46
540.305	8139.9
540.67	8159.11
541.034	8207.47
541.399	8223.06
541.764	8268.94
542.129	8310.97
542.494	8384.41
542.858	8437.29
543.223	8435.48
543.587	8489.72
543.952	8416.95
544.316	8528.59
544.681	8508.93
545.045	8612.88
545.41	8590.96
545.774	8643.84
546.138	8714.8
546.503	8719.54
546.867	8642.03
547.231	8783.72
547.595	8808.36
547.959	8857.85
548.324	8831.41
548.688	8900.1
549.052	8915.02
549.416	8987.79
549.779	8952.98
550.143	8970.16
550.507	9031.63
550.871	9104.62
551.235	9039.08
551.599	9176.71
551.962	9168.12
552.326	9173.54
552.689	9253.77
553.053	9216.71
553.417	9215.58
553.78	9341
554.143	9279.98
554.507	9378.96
554.87	9394.1
555.234	9493.76
555.597	9470.71
555.96	9511.39
556.323	9492.86
556.686	9467.77
557.05	9619.41
557.413	9597.04
557.776	9617.83
558.139	9583.02
558.502	9667.09
558.865	9690.82
559.228	9794.77
559.59	9752.96
559.953	9843.58
560.316	9914.09
560.679	9864.37
561.041	9919.51
561.404	9999.74
561.767	9997.93
562.129	9999.74
562.492	10065.95
562.854	10041.54
563.217	10085.61
563.579	10180.07
563.941	10153.18
564.304	10168.32
564.666	10270.69
565.028	10284.48
565.39	10331.25
565.753	10401.53
566.115	10376
566.477	10438.6
566.839	10434.3
567.201	10547.29
567.563	10558.37
567.925	10580.06
568.287	10638.36
568.648	10623.68
569.01	10712.94
569.372	10755.65
569.734	10791.35
570.095	10823.9
570.457	10892.14
570.819	10947.28
571.18	10986.38
571.542	11021.41
571.903	11088.97
572.265	11164
572.626	11152.02
572.987	11158.8
573.349	11326.48
573.71	11313.37
574.071	11452.13
574.432	11459.36
574.794	11592.24
575.155	11615.97
575.516	11646.25
575.877	11737.77
576.238	11843.53
576.599	11874.26
576.96	11933.25
577.32	12069.51
577.681	12147.03
578.042	12338.43
578.403	12337.3
578.763	12347.7
579.124	12588.37
579.485	12690.29
579.845	12818.87
580.206	12911.75
580.566	12998.08
580.927	13141.58
581.287	13249.6
581.648	13450.49
582.008	13635.35
582.368	13704.05
582.728	13895.23
583.089	14045.96
583.449	14174.77
583.809	14377.48
584.169	14487.98
584.529	14695.43
584.889	14946.27
585.249	15014.75
585.609	15245.02
585.969	15555.52
586.329	15631.45
586.688	16055.62
587.048	16180.82
587.408	16305.56
587.768	16576.97
588.127	16947.58
588.487	17020.57
588.846	17402.93
589.206	17622.36
589.565	17811.51
589.925	18239.29
590.284	18387.99
590.643	18743.01
591.003	19001.76
591.362	19257.57
591.721	19519.03
592.08	19733.72
592.44	20162.18
592.799	20372.12
593.158	20732.34
593.517	20844.2
593.876	21291.64
594.235	21439.66
594.593	21692.31
594.952	22160.1
595.311	22255.91
595.67	22652.29
596.029	23179.28
596.387	23339.05
596.746	23727.51
597.104	23859.71
597.463	24187.84
597.822	24542.86
598.18	24777.2
598.538	24935.39
598.897	25332.22
599.255	25597.07
599.613	26154.79
599.972	26290.61
600.33	26632.29
600.688	26805.4
601.046	27098.72
601.404	27476.34
601.762	27707.52
602.12	28123.55
602.478	28331.68
602.836	28462.3
603.194	28743.65
603.552	29090.31
603.91	29202.85
604.268	29612.55
604.625	29790.86
604.983	29938.42
605.341	30148.36
605.698	30651.4
606.056	30872.41
606.413	31024.72
606.771	31436.24
607.128	31530.02
607.485	31651.15
607.843	32127.74
608.2	32420.16
608.557	32649.31
608.914	32704.22
609.272	32988.29
609.629	33144.89
609.986	33457.88
610.343	33632.34
610.7	33891.99
611.057	34086.34
611.414	34212.21
611.771	34500.11
612.127	34772.19
612.484	34823.94
612.841	35097.61
613.198	35169.92
613.554	35369.92
613.911	35754.77
614.267	35874.76
614.624	35877.25
614.98	36291.48
615.337	36515.2
615.693	36451.47
616.05	36591.35
616.406	37003.09
616.762	37064.11
617.118	37133.49
617.475	37220.94
617.831	37516.53
618.187	37613.93
618.543	37720.59
618.899	37989.74
619.255	38102.95
619.611	37974.37
619.967	38401.48
620.323	38515.82
620.678	38572.09
621.034	38445.54
621.39	38528.7
621.746	38752.88
622.101	38956.94
622.457	38990.39
622.812	39041.46
623.168	39222.92
623.523	39426.99
623.879	39483.93
624.234	39241.23
624.589	39477.15
624.945	39696.81
625.3	39880.53
625.655	39782.46
626.01	39847.99
626.365	40009.12
626.72	40017.48
627.075	39963.24
627.43	40085.5
627.785	40140.41
628.14	40283.46
628.495	40366.17
628.85	40278.49
629.205	40205.27
629.559	40512.83
629.914	40316.45
630.269	40507.18
630.623	40582.66
630.978	40438.94
631.332	40597.8
631.687	40728.42
632.041	40742.66
632.396	40712.6
632.75	40608.65
633.104	40734.97
633.459	40549.22
633.813	40627.41
634.167	40591.25
634.521	40542.21
634.875	40652.04
635.229	40671.02
635.583	40603.23
635.937	40621.98
636.291	40652.94
636.645	40816.33
636.999	40746.05
637.352	40792.37
637.706	40603.23
638.06	40891.58
638.413	40664.92
638.767	40665.6
639.121	40706.05
639.474	40463.34
639.828	40514.19
640.181	40619.5
640.534	40699.49
640.888	40516.45
641.241	40422.21
641.594	40542.89
641.947	40672.83
642.301	40492.27
642.654	40582.66
643.007	40592.6
643.36	40579.72
643.713	40544.7
644.066	40708.08
644.419	40507.18
644.771	40287.53
645.124	39859.06
645.477	39870.36
645.83	39584.04
646.182	39452.52
646.535	39373.88
646.888	39312.64
647.24	39321.45
647.593	39499.53
647.945	39345.63
648.298	39321.68
648.65	39268.57
649.002	39117.84
649.355	39348.8
649.707	39218.86
650.059	39507.21
650.411	39804.6
650.763	39952.17
651.115	40245.04
651.467	40188.77
651.819	40167.76
652.171	40049.79
652.523	40005.73
652.875	40062.45
653.227	39768.45
653.578	40018.16
653.93	39930.02
654.282	39852.74
654.633	39793.53
654.985	39902.68
655.337	39814.55
655.688	39932.06
656.039	39997.37
656.391	39697.04
656.742	39792.4
657.094	39895.9
657.445	40210.47
657.796	39963.02
658.147	39844.6
658.498	39766.41
658.849	39911.04
659.2	39829.46
659.551	39862.45
659.902	40004.82
660.253	39845.28
660.604	39932.96
660.955	39682.35
661.306	39720.31
661.656	39781.1
662.007	39746.07
662.358	39848.44
662.708	39789.01
663.059	39686.87
663.409	39535.91
663.76	39905.62
664.11	39818.61
664.461	39757.6
664.811	39848.67
665.161	39686.19
665.511	39561.22
665.862	39739.29
666.212	39684.61
666.562	39806.86
666.912	39645.74
667.262	39542.24
667.612	39555.8
667.962	39743.14
668.312	39516.25
668.662	39816.58
669.011	39749.69
669.361	39608.9
669.711	39566.42
670.06	39475.8
670.41	39483.48
670.76	39437.61
671.109	39474.89
671.459	39448
671.808	39466.76
672.157	39517.83
672.507	39297.5
672.856	39443.48
673.205	39395.35
673.554	39506.76
673.904	39365.07
674.253	39680.99
674.602	39396.93
674.951	38950.84
675.3	38570.06
675.649	39318.51
675.998	39203.71
676.346	39388.79
676.695	39271.96
677.044	39167.33
677.393	39277.39
677.741	39340.43
678.09	39257.5
678.438	39146.99
678.787	39117.16
679.135	39081.68
679.484	38950.16
679.832	39146.09
680.181	38778.19
680.529	38911.29
680.877	38810.73
681.225	38728.93
681.573	38984.96
681.922	38641.24
682.27	38629.49
682.618	38634.24
682.966	38587.46
683.314	38565.99
683.661	38535.71
684.009	38442.15
684.357	38318.09
684.705	38198.54
685.053	38307.47
685.4	38220.69
685.748	38144.31
686.095	38112.22
686.443	38063.63
686.79	37938.89
687.138	38021.83
687.485	38086.68
687.832	37850.98
688.18	37880.59
688.527	37763.07
688.874	37637.88
689.221	37633.81
689.568	37537.54
689.915	37346.36
690.262	37517.21
690.609	37176.88
690.956	37208.74
691.303	37070.21
691.65	37057.33
691.997	36863.44
692.344	36826.15
692.69	36717.68
693.037	36747.28
693.383	36393.62
693.73	36563.11
694.077	36357.69
694.423	36421.42
694.769	36288.76
695.116	36056.91
695.462	36013.29
695.808	36053.52
696.155	35981.88
696.501	35686.97
696.847	35863.01
697.193	35610.82
697.539	35617.59
697.885	35618.05
698.231	35294.89
698.577	35359.3
698.923	35354.55
699.269	35225.51
699.614	35087.89
699.96	34907.1
700.306	34998.63
700.651	34826.2
700.997	34755.7
701.342	34826.2
701.688	34671.63
702.033	34557.06
702.379	34583.05
702.724	34371.3
703.069	34492.65
703.415	34173.79
703.76	34163.62
704.105	34144.19
704.45	34024.19
704.795	33786.68
705.14	33684.31
705.485	33704.88
705.83	33594.14
706.175	33589.4
706.52	33370.42
706.865	33299.69
707.209	33405
707.554	33263.31
707.899	33332
708.243	33136.76
708.588	33049.98
708.932	32988.29
709.277	32866.03
709.621	32920.04
709.966	32719.59
710.31	32849.98
710.654	32437.79
710.998	32577.45
711.342	32467.62
711.687	32396.44
712.031	32404.57
712.375	32319.15
712.719	32268.76
713.063	32190.11
713.407	32260.85
713.75	31968.88
714.094	32064.69
714.438	31793.74
714.782	31936.79
715.125	31754.65
715.469	31843.46
715.812	31739.96
716.156	31502
716.499	31377.93
716.843	31540.41
717.186	31324.15
717.53	31466.52
717.873	31475.1
718.216	31356.01
718.559	31250.03
718.902	31114.66
719.246	31125.28
719.589	31085.06
719.932	30840.55
720.275	30815.69
720.617	30761.45
720.96	30856.14
721.303	30845.06
721.646	30687.33
721.989	30549.93
722.331	30689.36
722.674	30567.33
723.016	30568.24
723.359	30627.67
723.701	30560.1
724.044	30336.38
724.386	30184.29
724.729	30335.25
725.071	30217.96
725.413	30174.8
725.755	30152.65
726.097	30142.48
726.439	29942.04
726.782	30032.43
727.124	30038.98
727.465	29928.48
727.807	29826.11
728.149	29748.82
728.491	29804.64
728.833	29867.24
729.175	29777.3
729.516	29574.59
729.858	29599.9
730.199	29617.98
730.541	29564.19
730.882	29442.62
731.224	29691.87
731.565	29351.09
731.906	29426.57
732.248	29487.81
732.589	29302.28
732.93	29210.08
733.271	29224.54
733.612	29313.58
733.953	29154.94
734.294	29201.94
734.635	29038.33
734.976	29078.11
735.317	28858.68
735.658	28942.52
735.999	28874.72
736.339	28731.9
736.68	28945.68
737.021	28907.71
737.361	28658
737.702	28832.91
738.042	28655.52
738.383	28553.83
738.723	28598.8
739.063	28601.06
739.404	28566.71
739.744	28377.33
740.084	28404.22
740.424	28456.2
740.764	28383.21
741.104	28386.6
741.444	28237.9
741.784	28176.89
742.124	28295.75
742.464	28228.86
742.804	28201.52
743.143	28124.91
743.483	28058.02
743.823	27905.93
744.162	27940.96
744.502	28078.36
744.841	27914.97
745.181	28014.4
745.52	27855.09
745.86	27978.7
746.199	27719.5
746.538	27745.03
746.877	27754.98
747.216	27878.59
747.556	27694.41
747.895	27707.07
748.234	27581.2
748.573	27522.89
748.911	27556.79
749.25	27542.1
749.589	27396.34
749.928	27379.62
750.267	27393.4
750.605	27343.01
750.944	27192.05
751.283	27145.05
751.621	27268.89
751.96	27049.23
752.298	27107.99
752.636	27025.96
752.975	26924.94
753.313	26897.37
753.651	27080.19
753.989	26774.66
754.327	26780.76
754.666	26697.15
755.004	26679.52
755.342	26673.2
755.679	26572.41
756.017	26514.33
756.355	26665.74
756.693	26300.1
757.031	26472.98
757.368	26329.7
757.706	26146.66
758.044	26055.81
758.381	26180.55
758.719	26157.28
759.056	25959.54
759.394	25995.25
759.731	25813.56
760.068	25814.69
