Data from hue_240_FLMS001491_00090.txt Node
Date: Tue Feb 07 16:36:05 GMT 2017
User: dcchb
Spectrometer: FLMS00149
Trigger mode: 0
Integration Time (sec): 2.000000E-2
Scans to average: 10
Electric dark correction enabled: true
Nonlinearity correction enabled: false
Boxcar width: 0
XAxis mode: Wavelengths
Number of Pixels in Spectrum: 2048
>>>>>Begin Spectral Data<<<<<
341.393	-14.36
341.776	-14.36
342.16	-14.36
342.543	-57.98
342.927	-70.86
343.31	-59.11
343.693	-75.15
344.077	-67.02
344.46	-55.04
344.843	-49.84
345.226	-41.93
345.61	-46.45
345.993	3.94
346.376	-17.75
346.759	6.65
347.142	33.77
347.525	40.32
347.908	69.7
348.291	76.48
348.674	93.2
349.057	88.23
349.44	136.14
349.823	137.5
350.206	169.36
350.588	206.2
350.971	189.92
351.354	219.53
351.737	225.18
352.119	242.58
352.502	240.54
352.884	262.01
353.267	260.66
353.65	278.96
354.032	288.68
354.414	292.29
354.797	320.54
355.179	318.73
355.562	295.46
355.944	310.6
356.326	315.57
356.709	314.21
357.091	316.7
357.473	356.02
357.855	339.3
358.238	336.14
358.62	336.36
359.002	344.72
359.384	328.45
359.766	336.59
360.148	343.37
360.53	324.16
360.912	325.97
361.294	327.77
361.676	317.6
362.057	326.64
362.439	309.47
362.821	304.95
363.203	324.38
363.584	341.33
363.966	315.34
364.348	321.22
364.729	323.48
365.111	309.7
365.493	318.28
365.874	302.01
366.256	304.27
366.637	315.34
367.019	303.37
367.4	326.64
367.781	298.62
368.163	300.2
368.544	294.1
368.925	294.78
369.306	325.51
369.688	302.46
370.069	299.75
370.45	295.23
370.831	316.02
371.212	309.02
371.593	308.57
371.974	310.6
372.355	302.69
372.736	311.28
373.117	311.05
373.498	308.34
373.879	315.12
374.26	307.44
374.641	309.47
375.021	316.02
375.402	306.76
375.783	314.67
376.163	327.1
376.544	311.73
376.925	323.48
377.305	328.23
377.686	327.1
378.066	330.03
378.447	326.64
378.827	333.42
379.208	322.58
379.588	288.45
379.968	331.39
380.349	315.34
380.729	325.29
381.109	337.94
381.489	310.83
381.87	316.47
382.25	330.49
382.63	333.88
383.01	334.1
383.39	340.2
383.77	352.63
384.15	319.64
384.53	358.51
384.91	341.11
385.29	334.1
385.67	331.39
386.049	344.72
386.429	348.11
386.809	354.44
387.189	322.12
387.568	315.12
387.948	337.72
388.328	340.43
388.707	342.01
389.087	353.99
389.466	348.56
389.846	361.9
390.225	339.52
390.605	353.08
390.984	361.45
391.363	338.85
391.743	346.76
392.122	358.51
392.501	360.09
392.881	355.34
393.26	373.42
393.639	363.25
394.018	364.61
394.397	384.04
394.776	382.24
395.155	355.12
395.534	383.14
395.913	366.42
396.292	356.02
396.671	372.97
397.05	386.08
397.429	387.21
397.808	386.76
398.186	375
398.565	389.02
398.944	393.99
399.323	398.05
399.701	386.98
400.08	394.44
400.458	391.95
400.837	390.37
401.215	387.21
401.594	375.46
401.972	388.56
402.351	404.16
402.729	397.83
403.107	434.66
403.486	426.08
403.864	412.52
404.242	421.1
404.62	403.48
404.999	436.7
405.377	453.87
405.755	447.77
406.133	458.84
406.511	424.49
406.889	436.92
407.267	429.69
407.645	455.91
408.023	449.8
408.401	447.32
408.779	462.46
409.156	463.36
409.534	469.92
409.912	463.82
410.29	478.5
410.667	491.84
411.045	484.15
411.422	496.58
411.8	492.29
412.178	505.85
412.555	519.18
412.933	502.01
413.31	519.86
413.687	514.44
414.065	532.74
414.442	511.5
414.819	543.59
415.197	556.24
415.574	546.53
415.951	531.61
416.328	564.6
416.705	575.22
417.082	580.87
417.46	597.82
417.837	571.16
418.214	622.68
418.591	609.35
418.967	627.88
419.344	610.03
419.721	623.59
420.098	629.46
420.475	619.97
420.852	624.94
421.228	645.96
421.605	666.52
421.982	660.87
422.358	687.76
422.735	681.21
423.111	669.46
423.488	708.1
423.864	694.77
424.241	719.63
424.617	729.12
424.994	737.25
425.37	737.03
425.746	749.46
426.123	754.2
426.499	724.6
426.875	789.23
427.251	770.25
427.627	792.17
428.003	770.25
428.379	812.28
428.756	828.33
429.132	810.7
429.507	835.33
429.883	842.34
430.259	848.44
430.635	882.79
431.011	855.67
431.387	872.17
431.763	889.79
432.138	912.39
432.514	909.68
432.89	931.6
433.265	945.38
433.641	948.77
434.016	975.21
434.392	998.94
434.767	961.88
435.143	1014.54
435.518	985.38
435.894	1037.81
436.269	1030.81
436.644	1099.5
437.02	1070.13
437.395	1071.71
437.77	1075.55
438.145	1105.38
438.52	1118.71
438.895	1125.27
439.271	1166.62
439.646	1165.72
440.021	1185.15
440.395	1183.8
440.77	1205.72
441.145	1200.52
441.52	1219.28
441.895	1237.58
442.27	1246.17
442.645	1260.18
443.019	1253.17
443.394	1285.71
443.769	1293.85
444.143	1277.58
444.518	1319.16
444.892	1334.75
445.267	1336.11
445.641	1338.37
446.016	1336.79
446.39	1346.73
446.764	1378.82
447.139	1359.39
447.513	1368.2
447.887	1395.54
448.262	1387.18
448.636	1406.84
449.01	1426.5
449.384	1424.02
449.758	1425.6
450.132	1452.26
450.506	1469.66
450.88	1468.08
451.254	1497.01
451.628	1490.23
452.002	1509.21
452.376	1524.8
452.75	1520.28
453.123	1558.02
453.497	1553.96
453.871	1591.47
454.244	1596.89
454.618	1612.71
454.992	1622.66
455.365	1648.19
455.739	1666.04
456.112	1690.68
456.486	1698.13
456.859	1709.43
457.232	1755.53
457.606	1715.31
457.979	1749.66
458.352	1790.56
458.725	1798.7
459.099	1794.18
459.472	1833.5
459.845	1878.92
460.218	1880.95
460.591	1853.16
460.964	1905.59
461.337	1968.18
461.71	1969.76
462.083	1946.26
462.456	1987.17
462.829	1993.94
463.201	2060.84
463.574	2070.1
463.947	2060.84
464.32	2102.64
464.692	2081.85
465.065	2115.07
465.438	2172.25
465.81	2156.65
466.183	2247.95
466.555	2261.73
466.928	2207.05
467.3	2236.88
467.672	2281.39
468.045	2328.63
468.417	2358.23
468.789	2340.83
469.161	2381.28
469.534	2408.4
469.906	2467.6
470.278	2465.34
470.65	2496.98
471.022	2562.74
471.394	2585.34
471.766	2567.26
472.138	2628.05
472.51	2672.57
472.882	2665.11
473.253	2697.2
473.625	2787.14
473.997	2805.9
474.369	2842.28
474.74	2877.54
475.112	2898.55
475.484	2931.55
475.855	2993.01
476.227	2980.13
476.598	3084.31
476.97	3108.27
477.341	3173.8
477.713	3202.95
478.084	3218.09
478.455	3309.62
478.827	3310.07
479.198	3409.27
479.569	3402.5
479.94	3502.83
480.311	3520.01
480.682	3572.66
481.053	3654.69
481.424	3731.3
481.795	3744.63
482.166	3782.15
482.537	3767.01
482.908	3883.16
483.279	3847.91
483.65	3987.79
484.021	4018.52
484.391	4083.16
484.762	4096.04
485.133	4100.56
485.503	4148.24
485.874	4254.45
486.244	4315.69
486.615	4345.75
486.985	4390.27
487.356	4509.13
487.726	4488.12
488.097	4584.84
488.467	4595.46
488.837	4692.4
489.207	4657.83
489.578	4775.57
489.948	4792.74
490.318	4883.36
490.688	4878.84
491.058	4908.9
491.428	5009.23
491.798	5015.56
492.168	5110.02
492.538	5133.52
492.908	5168.78
493.278	5267.31
493.648	5256.23
494.017	5325.16
494.387	5357.47
494.757	5343.46
495.126	5425.49
495.496	5413.52
495.866	5437.92
496.235	5507.75
496.605	5525.6
496.974	5545.49
497.344	5642.89
497.713	5645.15
498.082	5659.84
498.452	5677.92
498.821	5734.64
499.19	5752.04
499.559	5797.46
499.928	5826.39
500.298	5864.58
500.667	5880.85
501.036	5867.29
501.405	5948.64
501.774	5873.39
502.143	5954.07
502.512	5968.76
502.88	6056.21
503.249	6058.92
503.618	6060.28
503.987	6081.52
504.356	6050.79
504.724	6123.1
505.093	6160.61
505.462	6142.99
505.83	6173.95
506.199	6189.54
506.567	6292.36
506.936	6282.65
507.304	6298.01
507.672	6319.48
508.041	6329.65
508.409	6396.54
508.777	6395.41
509.145	6422.98
509.514	6400.61
509.882	6461.85
510.25	6429.53
510.618	6498.01
510.986	6476.76
511.354	6549.76
511.722	6595.18
512.09	6584.11
512.458	6554.73
512.826	6623.43
513.193	6620.72
513.561	6703.88
513.929	6695.52
514.297	6764.44
514.664	6787.27
515.032	6746.59
515.4	6794.72
515.767	6787.49
516.135	6755.85
516.502	6730.54
516.869	6837.21
517.237	6843.31
517.604	6830.43
517.972	6882.4
518.339	6854.61
518.706	6828.39
519.073	6926.7
519.44	6951.1
519.808	6969.18
520.175	6962.18
520.542	7010.31
520.909	7039.01
521.276	7034.26
521.643	7030.65
522.009	7059.35
522.376	7090.76
522.743	7092.79
523.11	7125.56
523.477	7180.7
523.843	7187.25
524.21	7224.32
524.577	7259.79
524.943	7248.5
525.31	7211.21
525.676	7231.32
526.043	7308.61
526.409	7330.3
526.776	7344.54
527.142	7312.22
527.508	7349.51
527.874	7378.89
528.241	7371.66
528.607	7441.94
528.973	7439.45
529.339	7436.74
529.705	7492.11
530.071	7458.21
530.437	7505.21
530.803	7504.99
531.169	7478.77
531.535	7505.21
531.901	7513.8
532.267	7437.64
532.632	7455.04
532.998	7489.62
533.364	7528.71
533.73	7495.27
534.095	7548.6
534.461	7543.4
534.826	7570.97
535.192	7469.96
535.557	7524.87
535.923	7455.04
536.288	7496.85
536.653	7561.93
537.019	7514.25
537.384	7497.98
537.749	7505.66
538.114	7487.81
538.479	7456.63
538.845	7519
539.21	7452.56
539.575	7461.82
539.94	7519.45
540.305	7483.97
540.67	7472.22
541.034	7462.05
541.399	7515.38
541.764	7431.09
542.129	7487.81
542.494	7493.24
542.858	7417.76
543.223	7422.95
543.587	7459.56
543.952	7408.27
544.316	7405.55
544.681	7436.97
545.045	7426.12
545.41	7395.61
545.774	7382.5
546.138	7326.91
546.503	7407.36
546.867	7370.75
547.231	7408.94
547.595	7380.24
547.959	7343.41
548.324	7338.21
548.688	7298.21
549.052	7372.79
549.416	7398.32
549.779	7368.72
550.143	7341.15
550.507	7331.66
550.871	7359.91
551.235	7310.19
551.599	7371.2
551.962	7347.02
552.326	7368.49
552.689	7324.43
553.053	7293.47
553.417	7322.17
553.78	7390.19
554.143	7371.66
554.507	7362.39
554.87	7294.6
555.234	7379.34
555.597	7300.47
555.96	7363.97
556.323	7349.51
556.686	7344.99
557.05	7372.33
557.413	7356.52
557.776	7362.84
558.139	7439.68
558.502	7369.4
558.865	7351.77
559.228	7406.01
559.59	7408.27
559.953	7386.57
560.316	7425.21
560.679	7444.87
561.041	7483.29
561.404	7475.16
561.767	7483.29
562.129	7442.39
562.492	7501.14
562.854	7498.66
563.217	7448.26
563.579	7517.42
563.941	7529.39
564.304	7589.28
564.666	7587.24
565.028	7627.92
565.39	7632.44
565.753	7577.3
566.115	7596.96
566.477	7668.15
566.839	7686.68
567.201	7676.73
567.563	7754.7
567.925	7800.35
568.287	7772.1
568.648	7750.18
569.01	7806.22
569.372	7845.32
569.734	7763.74
570.095	7835.83
570.457	7894.13
570.819	7858.2
571.18	7882.6
571.542	7900.23
571.903	7964.86
572.265	7986.1
572.626	7970.06
572.987	7921.92
573.349	7923.51
573.71	8048.47
574.071	8025.65
574.432	8023.16
574.794	8072.43
575.155	8102.48
575.516	8005.76
575.877	8104.29
576.238	8203.05
576.599	8085.99
576.96	8139.77
577.32	8205.31
577.681	8190.39
578.042	8201.01
578.403	8241.01
578.763	8247.34
579.124	8268.81
579.485	8286.89
579.845	8302.48
580.206	8278.98
580.566	8283.27
580.927	8253.22
581.287	8305.42
581.648	8277.85
582.008	8304.06
582.368	8353.33
582.728	8391.06
583.089	8337.28
583.449	8410.73
583.809	8377.73
584.169	8421.12
584.529	8386.77
584.889	8468.58
585.249	8361.23
585.609	8438.07
585.969	8455.02
586.329	8432.65
586.688	8428.58
587.048	8453.89
587.408	8477.62
587.768	8537.95
588.127	8474
588.487	8466.99
588.846	8553.32
589.206	8445.98
589.565	8478.75
589.925	8495.24
590.284	8508.58
590.643	8569.82
591.003	8573.43
591.362	8589.93
591.721	8552.64
592.08	8518.74
592.44	8605.75
592.799	8596.71
593.158	8554
593.517	8505.19
593.876	8636.48
594.235	8613.88
594.593	8596.26
594.952	8643.49
595.311	8590.61
595.67	8623.83
596.029	8683.26
596.387	8735.24
596.746	8679.87
597.104	8646.43
597.463	8579.08
597.822	8674.22
598.18	8629.93
598.538	8656.14
598.897	8715.58
599.255	8664.96
599.613	8711.06
599.972	8698.85
600.33	8729.13
600.688	8695.46
601.046	8688.91
601.404	8698.63
601.762	8659.08
602.12	8794.44
602.478	8718.51
602.836	8770.04
603.194	8719.87
603.552	8700.21
603.91	8709.25
604.268	8757.16
604.625	8719.19
604.983	8769.13
605.341	8718.51
605.698	8792.18
606.056	8809.81
606.413	8778.17
606.771	8864.95
607.128	8771.85
607.485	8772.75
607.843	8784.27
608.2	8854.78
608.557	8753.32
608.914	8832.63
609.272	8919.64
609.629	8927.77
609.986	8884.84
610.343	8843.03
610.7	8904.72
611.057	8899.53
611.414	8888.45
611.771	8856.82
612.127	8959.86
612.484	8953.31
612.841	8965.29
613.198	8898.4
613.554	8906.08
613.911	8971.39
614.267	8966.87
614.624	8944.72
614.98	8972.29
615.337	8959.19
615.693	9045.74
616.05	9019.07
616.406	8995.34
616.762	9020.65
617.118	9035.34
617.475	9004.83
617.831	8991.95
618.187	9037.15
618.543	9051.84
618.899	9076.02
619.255	9156.02
619.611	9057.26
619.967	9075.57
620.323	9152.4
620.678	9097.94
621.034	9080.31
621.39	8960.77
621.746	9000.99
622.101	9118.05
622.457	9057.04
622.812	9075.34
623.168	9221.33
623.523	9150.59
623.879	9126.19
624.234	9064.04
624.589	9118.05
624.945	9122.8
625.3	9160.31
625.655	9096.36
626.01	9098.39
626.365	9083.48
626.72	9068.56
627.075	9008.9
627.43	9069.92
627.785	9051.39
628.14	9065.4
628.495	9032.4
628.85	9005.51
629.205	9043.7
629.559	9080.09
629.914	9005.96
630.269	9023.82
630.623	8973.87
630.978	8970.71
631.332	8992.18
631.687	9017.71
632.041	8948.79
632.396	8996.25
632.75	8965.74
633.104	9006.19
633.459	9008.45
633.813	8908.11
634.167	8942.91
634.521	8937.72
634.875	8948.79
635.229	8961.45
635.583	8878.74
635.937	8864.72
636.291	8907.21
636.645	8880.32
636.999	8805.52
637.352	8880.32
637.706	8768.91
638.06	8816.82
638.413	8819.53
638.767	8760.77
639.121	8785.18
639.474	8767.55
639.828	8758.74
640.181	8753.54
640.534	8777.04
640.888	8672.19
641.241	8648.23
641.594	8709.02
641.947	8716.48
642.301	8756.48
642.654	8653.2
643.007	8748.57
643.36	8641.23
643.713	8645.97
644.066	8727.33
644.419	8620.89
644.771	8599.42
645.124	8521
645.477	8494.34
645.83	8449.82
646.182	8413.44
646.535	8407.34
646.888	8433.55
647.24	8433.55
647.593	8342.03
647.945	8385.64
648.298	8316.49
648.65	8334.34
649.002	8330.5
649.355	8363.72
649.707	8346.32
650.059	8355.13
650.411	8487.56
650.763	8492.76
651.115	8559.65
651.467	8531.17
651.819	8535.69
652.171	8525.3
652.523	8480.1
652.875	8522.36
653.227	8444.85
653.578	8578.18
653.93	8489.59
654.282	8440.1
654.633	8419.09
654.985	8497.95
655.337	8510.16
655.688	8507.67
656.039	8555.13
656.391	8411.86
656.742	8438.07
657.094	8476.71
657.445	8464.51
657.796	8447.79
658.147	8426.77
658.498	8528.46
658.849	8501.12
659.2	8504.28
659.551	8452.98
659.902	8461.57
660.253	8458.41
660.604	8501.57
660.955	8482.81
661.306	8521.23
661.656	8496.15
662.007	8472.19
662.358	8504.96
662.708	8509.71
663.059	8523.49
663.409	8395.13
663.76	8535.92
664.11	8528.69
664.461	8497.28
664.811	8494.34
665.161	8500.21
665.511	8436.49
665.862	8517.39
666.212	8531.85
666.562	8552.42
666.912	8515.13
667.262	8509.48
667.612	8443.72
667.962	8462.25
668.312	8567.56
668.662	8537.5
669.011	8494.56
669.361	8468.8
669.711	8422.02
670.06	8518.97
670.41	8452.98
670.76	8405.3
671.109	8444.85
671.459	8430.84
671.808	8403.04
672.157	8448.46
672.507	8363.95
672.856	8409.14
673.205	8349.71
673.554	8433.1
673.904	8417.73
674.253	8446.43
674.602	8384.74
674.951	8264.74
675.3	8309.03
675.649	8398.75
675.998	8342.03
676.346	8386.32
676.695	8303.61
677.044	8276.04
677.393	8290.05
677.741	8348.13
678.09	8287.11
678.438	8253.22
678.787	8351.74
679.135	8288.92
679.484	8244.18
679.832	8256.83
680.181	8255.93
680.529	8203.72
680.877	8249.83
681.225	8166.89
681.573	8249.15
681.922	8158.75
682.27	8185.42
682.618	8175.25
682.966	8109.94
683.314	8186.78
683.661	8136.61
684.009	8067.46
684.357	8084.41
684.705	8047.12
685.053	8105.87
685.4	8037.4
685.748	7976.39
686.095	7963.73
686.443	7963.05
686.79	7925.99
687.138	7970.28
687.485	7958.99
687.832	7940.91
688.18	7899.55
688.527	7805.09
688.874	7857.75
689.221	7832.66
689.568	7782.04
689.915	7781.82
690.262	7727.81
690.609	7767.35
690.956	7692.33
691.303	7759.44
691.65	7671.54
691.997	7648.71
692.344	7610.07
692.69	7599.67
693.037	7632.67
693.383	7535.27
693.73	7551.99
694.077	7455.27
694.423	7490.52
694.769	7448.94
695.116	7422.5
695.462	7453.24
695.808	7397.87
696.155	7372.11
696.501	7367.81
696.847	7346.12
697.193	7312.22
697.539	7331.66
697.885	7245.78
698.231	7254.6
698.577	7252.56
698.923	7218.21
699.269	7145.9
699.614	7121.27
699.96	7188.16
700.306	7099.35
700.651	7105
700.997	7088.73
701.342	6989.29
701.688	7024.55
702.033	7029.74
702.379	7056.86
702.724	6998.78
703.069	6947.71
703.415	6943.42
703.76	6882.18
704.105	6864.33
704.45	6883.08
704.795	6786.81
705.14	6837.21
705.485	6758.11
705.83	6762.41
706.175	6768.51
706.52	6825
706.865	6738.9
707.209	6739.81
707.554	6728.06
707.899	6726.93
708.243	6662.3
708.588	6645.12
708.932	6583.88
709.277	6554.73
709.621	6608.29
709.966	6517.89
710.31	6515.41
710.654	6549.98
710.998	6510.44
711.342	6533.49
711.687	6500.27
712.031	6504.33
712.375	6477.89
712.719	6442.64
713.063	6488.52
713.407	6413.72
713.75	6420.95
714.094	6422.75
714.438	6399.7
714.782	6399.48
715.125	6383.21
715.469	6414.85
715.812	6372.36
716.156	6338.46
716.499	6327.62
716.843	6327.39
717.186	6269.76
717.53	6294.4
717.873	6276.32
718.216	6328.29
718.559	6277.45
718.902	6195.42
719.246	6274.96
719.589	6224.12
719.932	6212.59
720.275	6257.56
720.617	6197.22
720.96	6196.32
721.303	6219.82
721.646	6206.04
721.989	6150.67
722.331	6182.08
722.674	6181.18
723.016	6154.51
723.359	6128.07
723.701	6148.41
724.044	6129.88
724.386	6067.28
724.729	6095.98
725.071	6130.11
725.413	6078.81
725.755	6131.46
726.097	6090.33
726.439	6064.35
726.782	6044.01
727.124	6062.09
727.465	6007.85
727.807	5979.15
728.149	6033.39
728.491	6020.05
728.833	6017.12
729.175	6051.92
729.516	6045.36
729.858	6047.85
730.199	5971.24
730.541	6005.36
730.882	6015.31
731.224	6046.49
731.565	6004.91
731.906	6008.53
732.248	6013.27
732.589	6017.57
732.93	5927.63
733.271	5993.16
733.612	5997
733.953	6020.51
734.294	6007.17
734.635	5973.73
734.976	5955.87
735.317	5985.03
735.658	5952.03
735.999	5999.26
736.339	5917.91
736.68	5986.61
737.021	6004.69
737.361	5962.65
737.702	6050.11
738.042	5939.83
738.383	5960.85
738.723	5949.77
739.063	5968.53
739.404	6018.25
739.744	5984.12
740.084	6010.11
740.424	6011.92
740.764	5966.95
741.104	6027.96
741.444	5992.26
741.784	5989.77
742.124	6006.72
742.464	6032.71
742.804	6047.62
743.143	6057.57
743.483	6035.87
743.823	6015.76
744.162	6054.63
744.502	6108.19
744.841	6099.6
745.181	6083.55
745.52	6112.48
745.86	6160.16
746.199	6175.53
746.538	6151.8
746.877	6171.46
747.216	6255.53
747.556	6248.3
747.895	6274.96
748.234	6307.5
748.573	6326.71
748.911	6368.74
749.25	6446.48
749.589	6402.42
749.928	6492.58
750.267	6507.72
750.605	6544.11
750.944	6552.92
751.283	6557.67
751.621	6657.55
751.96	6689.87
752.298	6712.24
752.636	6773.03
752.975	6822.97
753.313	6904.55
753.651	6998.78
753.989	6999.91
754.327	7063.64
754.666	7119.23
755.004	7189.06
755.342	7306.35
755.679	7328.95
756.017	7362.62
756.355	7534.82
756.693	7557.87
757.031	7721.03
757.368	7688.71
757.706	7828.59
758.044	7910.4
758.381	7958.31
758.719	8055.48
759.056	8170.05
759.394	8250.5
759.731	8267.23
760.068	8384.51
760.405	8503.38
760.743	8522.81
761.08	8639.42
761.417	8760.09
761.754	8798.29
762.091	8880.32
762.428	9027.66
762.765	9120.99
763.102	9201.89
763.438	9267.43
763.775	9316.01
764.112	9439.85
764.449	9643.91
764.785	9615.21
765.122	9737.47
765.458	9671.93
765.795	9851.14
766.131	9935.88
766.467	10048.2
766.804	10064.02
767.14	10104.69
767.476	10214.97
767.812	10237.12
768.148	10385.81
768.485	10325.93
768.821	10405.02
769.157	10504.68
769.492	10581.29
