Data from hue_300_FLMS001491_00007.txt Node
Date: Tue Feb 07 15:49:38 GMT 2017
User: dcchb
Spectrometer: FLMS00149
Trigger mode: 0
Integration Time (sec): 2.000000E-2
Scans to average: 10
Electric dark correction enabled: true
Nonlinearity correction enabled: false
Boxcar width: 0
XAxis mode: Wavelengths
Number of Pixels in Spectrum: 2048
>>>>>Begin Spectral Data<<<<<
341.393	-14.25
341.776	-14.25
342.16	-14.25
342.543	-57.64
342.927	-52.89
343.31	-74.59
343.693	-69.39
344.077	-78.43
344.46	-60.13
344.843	-43.85
345.226	-39.56
345.61	-27.81
345.993	-25.32
346.376	7.44
346.759	23.49
347.142	12.19
347.525	42.92
347.908	63.94
348.291	86.31
348.674	77.72
349.057	105.07
349.44	127.89
349.823	154.78
350.206	168.12
350.588	178.51
350.971	211.28
351.354	207.21
351.737	234.78
352.119	251.5
352.502	251.28
352.884	261
353.267	275.23
353.65	286.31
354.032	287.89
354.414	302.58
354.797	334.21
355.179	333.99
355.562	326.08
355.944	350.71
356.326	336.7
356.709	333.76
357.091	332.41
357.473	345.06
357.855	325.63
358.238	340.77
358.62	328.56
359.002	324.27
359.384	328.79
359.766	334.44
360.148	325.4
360.53	338.73
360.912	313.65
361.294	321.11
361.676	333.08
362.057	340.32
362.439	304.61
362.821	325.4
363.203	316.59
363.584	341.9
363.966	336.93
364.348	333.99
364.729	340.09
365.111	308
365.493	323.14
365.874	331.28
366.256	303.93
366.637	302.35
367.019	306.42
367.4	316.14
367.781	318.17
368.163	317.04
368.544	310.49
368.925	298.06
369.306	295.35
369.688	309.13
370.069	332.18
370.45	307.1
370.831	334.44
371.212	317.49
371.593	298.28
371.974	308.23
372.355	312.29
372.736	315.01
373.117	327.43
373.498	295.35
373.879	303.03
374.26	307.77
374.641	306.19
375.021	307.55
375.402	324.27
375.783	315.23
376.163	335.57
376.544	332.63
376.925	324.5
377.305	311.39
377.686	313.42
378.066	330.6
378.447	310.03
378.827	315.68
379.208	348.23
379.588	330.37
379.968	332.18
380.349	345.06
380.729	322.24
381.109	333.31
381.489	348
381.87	332.18
382.25	339.86
382.63	332.18
383.01	342.35
383.39	325.63
383.77	361.56
384.15	326.98
384.53	335.57
384.91	356.13
385.29	348.45
385.67	328.11
386.049	364.72
386.429	322.24
386.809	358.17
387.189	360.88
387.568	331.05
387.948	343.25
388.328	362.46
388.707	354.55
389.087	372.63
389.466	371.05
389.846	343.93
390.225	374.89
390.605	375.12
390.984	353.2
391.363	389.13
391.743	362.01
392.122	371.73
392.501	378.06
392.881	378.96
393.26	370.82
393.639	377.83
394.018	387.77
394.397	379.41
394.776	387.55
395.155	379.64
395.534	385.06
395.913	387.77
396.292	388
396.671	399.98
397.05	392.52
397.429	400.65
397.808	383.03
398.186	401.78
398.565	382.12
398.944	386.64
399.323	425.29
399.701	408.11
400.08	393.42
400.458	412.4
400.837	399.52
401.215	415.34
401.594	416.02
401.972	423.48
402.351	434.78
402.729	425.96
403.107	431.16
403.486	408.79
403.864	421.67
404.242	415.34
404.62	446.08
404.999	439.07
405.377	438.84
405.755	445.4
406.133	450.14
406.511	445.62
406.889	465.28
407.267	460.76
407.645	459.86
408.023	482.23
408.401	493.76
408.779	460.54
409.156	487.88
409.534	484.94
409.912	504.61
410.29	511.38
410.667	509.13
411.045	509.13
411.422	523.59
411.8	531.5
412.178	550.48
412.555	543.93
412.933	571.27
413.31	564.49
413.687	596.35
414.065	581.21
414.442	583.47
414.819	588.22
415.197	601.78
415.574	588.44
415.951	633.64
416.328	633.19
416.705	616.24
417.082	635.45
417.46	643.13
417.837	659.86
418.214	675.67
418.591	682.68
418.967	672.96
419.344	664.6
419.721	702.11
420.098	715.9
420.475	728.1
420.852	721.1
421.228	734.2
421.605	715.67
421.982	754.09
422.358	753.19
422.735	778.04
423.111	783.02
423.488	785.95
423.864	801.09
424.241	787.76
424.617	801.32
424.994	809.91
425.37	824.6
425.746	823.24
426.123	833.86
426.499	849.91
426.875	864.14
427.251	853.07
427.627	885.39
428.003	909.57
428.379	920.41
428.756	907.53
429.132	911.37
429.507	932.39
429.883	931.94
430.259	947.98
430.635	940.75
431.011	955.21
431.387	982.78
431.763	1006.97
432.138	1006.74
432.514	1007.42
432.89	1046.06
433.265	1063.91
433.641	1068.88
434.016	1048.09
434.392	1075.89
434.767	1086.28
435.143	1132.16
435.518	1087.87
435.894	1094.65
436.269	1113.63
436.644	1155.44
437.02	1168.54
437.395	1151.82
437.77	1184.59
438.145	1176.68
438.52	1207.86
438.895	1221.2
439.271	1199.5
439.646	1245.83
440.021	1238.82
440.395	1246.73
440.77	1243.79
441.145	1235.66
441.52	1297.58
441.895	1271.14
442.27	1238.82
442.645	1279.5
443.019	1287.64
443.394	1267.07
443.769	1290.8
444.143	1295.32
444.518	1313.17
444.892	1322.89
445.267	1348.2
445.641	1336.45
446.016	1345.49
446.39	1366.96
446.764	1342.1
447.139	1336.22
447.513	1349.1
447.887	1353.4
448.262	1343
448.636	1319.27
449.01	1381.64
449.384	1358.82
449.758	1404.24
450.132	1374.41
450.506	1391.36
450.88	1405.37
451.254	1413.73
451.628	1416.9
452.002	1451.47
452.376	1411.25
452.75	1421.19
453.123	1474.52
453.497	1469.55
453.871	1456.22
454.244	1467.29
454.618	1462.09
454.992	1472.04
455.365	1504.13
455.739	1540.74
456.112	1541.41
456.486	1526.05
456.859	1575.31
457.232	1571.92
457.606	1559.04
457.979	1533.28
458.352	1590.23
458.725	1601.53
459.099	1615.31
459.472	1644.46
459.845	1617.57
460.218	1666.61
460.591	1661.86
460.964	1672.71
461.337	1688.3
461.71	1694.18
462.083	1698.02
462.456	1733.05
462.829	1701.18
463.201	1728.98
463.574	1721.52
463.947	1768.3
464.32	1780.28
464.692	1798.36
465.065	1787.51
465.438	1813.72
465.81	1857.79
466.183	1859.6
466.555	1853.04
466.928	1857.79
467.3	1874.29
467.672	1886.26
468.045	1953.83
468.417	1957.45
468.789	1937.56
469.161	1970.33
469.534	1970.78
469.906	2007.62
470.278	2010.1
470.65	2039.48
471.022	2041.97
471.394	2083.55
471.766	2102.53
472.138	2100.27
472.51	2135.07
472.882	2152.92
473.253	2158.12
473.625	2191.79
473.997	2239.48
474.369	2231.79
474.74	2208.52
475.112	2281.73
475.484	2273.82
475.855	2326.7
476.227	2328.51
476.598	2369.42
476.97	2351.11
477.341	2441.96
477.713	2408.51
478.084	2448.96
478.455	2474.27
478.827	2518.11
479.198	2550.65
479.569	2503.42
479.94	2584.78
480.311	2589.07
480.682	2649.18
481.053	2677.43
481.424	2715.62
481.795	2724.43
482.166	2752
482.537	2790.19
482.908	2835.84
483.279	2849.18
483.65	2855.73
484.021	2924.65
484.391	2935.95
484.762	2917.88
485.133	2937.54
485.503	3016.63
485.874	3024.99
486.244	3051.66
486.615	3072
486.985	3124.42
487.356	3156.74
487.726	3188.6
488.097	3204.87
488.467	3195.61
488.837	3243.29
489.207	3264.76
489.578	3309.96
489.948	3370.29
490.318	3314.93
490.688	3366
491.058	3398.77
491.428	3455.04
491.798	3444.64
492.168	3494.58
492.538	3498.88
492.908	3537.52
493.278	3589.5
493.648	3563.73
494.017	3563.06
494.387	3655.48
494.757	3640.12
495.126	3668.82
495.496	3671.75
495.866	3676.05
496.235	3706.78
496.605	3735.25
496.974	3772.32
497.344	3763.95
497.713	3757.4
498.082	3814.35
498.452	3879.88
498.821	3862.26
499.19	3873.56
499.559	3887.57
499.928	3862.71
500.298	3898.41
500.667	3930.05
501.036	3927.11
501.405	3985.64
501.774	3945.19
502.143	3939.77
502.512	3989.26
502.88	4024.96
503.249	4015.47
503.618	4056.6
503.987	4036.04
504.356	4059.77
504.724	4079.88
505.093	4064.74
505.462	4087.11
505.83	4139.76
506.199	4118.97
506.567	4147.22
506.936	4121.69
507.304	4165.98
507.672	4179.09
508.041	4189.03
508.409	4233.77
508.777	4262.25
509.145	4246.2
509.514	4274
509.882	4293.66
510.25	4292.08
510.618	4277.61
510.986	4341.57
511.354	4341.57
511.722	4342.24
512.09	4433.32
512.458	4341.79
512.826	4434.22
513.193	4370.94
513.561	4379.98
513.929	4413.43
514.297	4419.08
514.664	4466.99
515.032	4463.37
515.4	4509.02
515.767	4494.78
516.135	4471.05
516.502	4496.82
516.869	4513.09
517.237	4546.31
517.604	4526.65
517.972	4502.01
518.339	4555.35
518.706	4508.12
519.073	4581.79
519.44	4596.02
519.808	4604.84
520.175	4626.08
520.542	4617.27
520.909	4686.87
521.276	4652.29
521.643	4686.42
522.009	4722.35
522.376	4767.32
522.743	4725.74
523.11	4824.72
523.477	4809.12
523.843	4804.38
524.21	4866.07
524.577	4867.43
524.943	4884.38
525.31	4853.64
525.676	4885.06
526.043	4994.2
526.409	4974.54
526.776	5021.1
527.142	5016.8
527.508	5078.04
527.874	5105.16
528.241	5056.35
528.607	5064.94
528.973	5148.78
529.339	5142.68
529.705	5162.11
530.071	5216.57
530.437	5215.22
530.803	5292.28
531.169	5301.09
531.535	5249.11
531.901	5299.06
532.267	5363.01
532.632	5348.77
532.998	5421.99
533.364	5358.04
533.73	5380.86
534.095	5473.06
534.461	5443.46
534.826	5464.02
535.192	5490.24
535.557	5544.47
535.923	5532.27
536.288	5529.78
536.653	5547.18
537.019	5565.49
537.384	5605.94
537.749	5603.68
538.114	5613.62
538.479	5640.52
538.845	5706.73
539.21	5689.1
539.575	5747.41
539.94	5749.21
540.305	5770.46
540.67	5761.19
541.034	5798.48
541.399	5875.76
541.764	5816.56
542.129	5906.5
542.494	5897.01
542.858	5901.53
543.223	5896.55
543.587	5979.04
543.952	5947.17
544.316	6042.31
544.681	6043.44
545.045	6047.28
545.41	6079.83
545.774	6121.18
546.138	6100.16
546.503	6059.04
546.867	6108.53
547.231	6178.58
547.595	6213.16
547.959	6193.04
548.324	6236.88
548.688	6235.75
549.052	6261.29
549.416	6241.86
549.779	6317.56
550.143	6304.68
550.507	6358.91
550.871	6390.1
551.235	6363.89
551.599	6431.91
551.962	6415.86
552.326	6490.66
552.689	6478.01
553.053	6462.19
553.417	6456.54
553.78	6559.14
554.143	6554.16
554.507	6542.41
554.87	6566.37
555.234	6611.34
555.597	6640.04
555.96	6665.8
556.323	6588.97
556.686	6660.83
557.05	6715.06
557.413	6709.19
557.776	6679.81
558.139	6782.86
558.502	6781.5
558.865	6826.47
559.228	6785.12
559.59	6859.01
559.953	6842.07
560.316	6899.69
560.679	6903.08
561.041	6902.86
561.404	6902.4
561.767	7045.22
562.129	6966.13
562.492	7073.02
562.854	7062.63
563.217	7037.09
563.579	7029.18
563.941	7097.43
564.304	7072.79
564.666	7101.95
565.028	7141.27
565.39	7163.41
565.753	7219.46
566.115	7224.88
566.477	7200.47
566.839	7272.56
567.201	7326.57
567.563	7326.8
567.925	7370.19
568.287	7401.83
568.648	7399.11
569.01	7437.08
569.372	7491.54
569.734	7522.95
570.095	7536.74
570.457	7573.12
570.819	7661.25
571.18	7655.6
571.542	7695.83
571.903	7703.96
572.265	7694.02
572.626	7783.51
572.987	7833.23
573.349	7815.83
573.71	7942.6
574.071	7946.22
574.432	8026.22
574.794	8063.95
575.155	8151.41
575.516	8069.83
575.877	8206.55
576.238	8251.07
576.599	8359.77
576.96	8365.19
577.32	8458.52
577.681	8521.57
578.042	8690.38
578.403	8704.39
578.763	8765.63
579.124	8930.15
579.485	8995
579.845	9070.03
580.206	9128.11
580.566	9312.51
580.927	9445.39
581.287	9536.91
581.648	9679.96
582.008	9862.1
582.368	9982.1
582.728	10116.78
583.089	10253.95
583.449	10477
583.809	10607.16
584.169	10770.32
584.529	10853.49
584.889	11136.19
585.249	11283.08
585.609	11427.71
585.969	11758.77
586.329	11965.55
586.688	12155.82
587.048	12307.46
587.408	12542.25
587.768	12776.6
588.127	13069.25
588.487	13218.62
588.846	13602.34
589.206	13700.42
589.565	14011.59
589.925	14261.08
590.284	14553.5
590.643	14799.14
591.003	15196.65
591.362	15411.78
591.721	15631.89
592.08	15873.47
592.44	16192.78
592.799	16477.29
593.158	16828.02
593.517	17070.72
593.876	17452.18
594.235	17596.59
594.593	17863.24
594.952	18294.42
595.311	18506.39
595.67	18901.18
596.029	19203.1
596.387	19506.82
596.746	19893.93
597.104	20042.4
597.463	20375.95
597.822	20764.19
598.18	20877.18
598.538	21227.9
598.897	21669.7
599.255	21822.46
599.613	22400.3
599.972	22472.16
600.33	22860.63
600.688	22967.97
601.046	23398.92
601.404	23782.41
601.762	23918.68
602.12	24379.46
602.478	24699.45
602.836	24980.12
603.194	25034.58
603.552	25363.39
603.91	25463.72
604.268	25946.87
604.625	26068.9
604.983	26470.93
605.341	26520.19
605.698	26950.24
606.056	27156.11
606.413	27407.4
606.771	27684.23
607.128	28002.41
607.485	28207.38
607.843	28316.53
608.2	28602.4
608.557	28995.61
608.914	29010.75
609.272	29395.37
609.629	29556.72
609.986	29825.19
610.343	29850.27
610.7	30291.62
611.057	30485.96
611.414	30691.38
611.771	30897.48
612.127	31190.13
612.484	31301.08
612.841	31614.97
613.198	31588.76
613.554	31883.22
613.911	32208.63
614.267	32242.08
614.624	32280.04
614.98	32546.47
615.337	32870.76
615.693	32905.56
616.05	32978.1
616.406	33442.95
616.762	33347.58
617.118	33441.37
617.475	33719.78
617.831	33806.78
618.187	34031.18
618.543	34170.16
618.899	34389.82
619.255	34306.2
619.611	34638.62
619.967	34778.05
620.323	34883.81
620.678	34995.22
621.034	34922.23
621.39	35161.32
621.746	35046.3
622.101	35623
622.457	35544.59
622.812	35538.03
623.168	35693.74
623.523	35808.08
623.879	35939.15
624.234	35949.1
624.589	36054.86
624.945	36126.27
625.3	36246.72
625.655	36343.66
626.01	36475.18
626.365	36556.31
626.72	36590.44
627.075	36686.48
627.43	36559.02
627.785	36625.69
628.14	36672.24
628.495	36737.32
628.85	36721.96
629.205	36698
629.559	36967.83
629.914	36878.11
630.269	37062.74
630.623	36903.2
630.978	36955.85
631.332	37031.1
631.687	37161.49
632.041	37015.28
632.396	37225.9
632.75	37095.28
633.104	37324.2
633.459	37244.43
633.813	37130.53
634.167	37191.1
634.521	37164.88
634.875	37363.07
635.229	37274.26
635.583	37108.84
635.937	37293.02
636.291	37323.3
636.645	37362.85
636.999	37210.53
637.352	37366.91
637.706	37169.63
638.06	37289.17
638.413	37297.76
638.767	37198.78
639.121	37177.54
639.474	37141.16
639.828	37164.66
640.181	37168.95
640.534	37207.6
640.888	37112.23
641.241	37090.76
641.594	37135.96
641.947	37248.27
642.301	37023.42
642.654	37249.63
643.007	37111.1
643.36	37107.03
643.713	37172.57
644.066	37254.15
644.419	37104.77
644.771	36828.4
645.124	36358.35
645.477	36543.66
645.83	36206.27
646.182	36089.66
646.535	36054.18
646.888	36218.02
647.24	36059.6
647.593	36182.99
647.945	36259.6
648.298	36095.08
648.65	35881.3
649.002	35931.02
649.355	35995.88
649.707	35967.63
650.059	36075.65
650.411	36618.23
650.763	36513.38
651.115	36930.77
651.467	36887.6
651.819	36881.28
652.171	36744.56
652.523	36632.24
652.875	36782.97
653.227	36680.6
653.578	36954.95
653.93	36747.95
654.282	36663.2
654.633	36576.88
654.985	36754.73
655.337	36559.7
655.688	36646.48
656.039	36902.52
656.391	36545.01
656.742	36571
657.094	36611.45
657.445	36759.47
657.796	36676.31
658.147	36553.83
658.498	36629.53
658.849	36663.2
659.2	36624.79
659.551	36454.39
659.902	36557.89
660.253	36565.13
660.604	36600.15
660.955	36576.2
661.306	36655.52
661.656	36575.3
662.007	36675.18
662.358	36580.72
662.708	36541.62
663.059	36486.48
663.409	36362.65
663.76	36572.81
664.11	36519.7
664.461	36679.02
664.811	36594.96
665.161	36479.48
665.511	36433.15
665.862	36455.52
666.212	36428.41
666.562	36543.43
666.912	36379.82
667.262	36418.01
667.612	36470.67
667.962	36398.8
668.312	36425.24
668.662	36564.45
669.011	36304.34
669.361	36533.49
669.711	36406.49
670.06	36382.31
670.41	36307.73
670.76	36158.58
671.109	36448.75
671.459	36457.56
671.808	36403.1
672.157	36442.19
672.507	36129.88
672.856	36154.29
673.205	36237
673.554	36260.28
673.904	36303.89
674.253	36430.89
674.602	36305.47
674.951	35820.29
675.3	35645.83
675.649	36113.16
675.998	36082.88
676.346	36260.73
676.695	36009.21
677.044	35998.59
677.393	35987.74
677.741	36259.82
678.09	36164.01
678.438	35857.12
678.787	35962.66
679.135	35983.22
679.484	35680.63
679.832	35894.64
680.181	35636.79
680.529	35768.08
680.877	35575.32
681.225	35652.83
681.573	35825.26
681.922	35551.37
682.27	35424.82
682.618	35511.14
682.966	35348.43
683.314	35494.65
683.661	35376.46
684.009	35129.46
684.357	35176.69
684.705	35124.94
685.053	35189.34
685.4	35164.71
685.748	35009.91
686.095	34908.67
686.443	34763.82
686.79	34731.5
687.138	34820.31
687.485	34852.4
687.832	34671.62
688.18	34818.51
688.527	34635.01
688.874	34446.54
689.221	34436.14
689.568	34364.51
689.915	34237.73
690.262	34248.8
690.609	34139.43
690.956	34089.03
691.303	34030.96
691.65	33777.18
691.997	34032.99
692.344	33618.08
692.69	33634.81
693.037	33709.38
693.383	33398.88
693.73	33580.35
694.077	33207.47
694.423	33438.88
694.769	33196.85
695.116	33106.23
695.462	33151.2
695.808	33058.78
696.155	32993.69
696.501	32732.46
696.847	32897.88
697.193	32531.56
697.539	32620.82
697.885	32400.94
698.231	32450.43
698.577	32390.77
698.923	32371.34
699.269	32184
699.614	32078.46
699.96	32009.99
700.306	31975.87
700.651	31898.58
700.997	31768.87
701.342	31782.65
701.688	31503.34
702.033	31499.72
702.379	31591.92
702.724	31365.26
703.069	31512.38
703.415	31194.19
703.76	31201.2
704.105	31158.49
704.45	31194.42
704.795	30870.13
705.14	30890.7
705.485	30836.69
705.83	30768.89
706.175	30905.16
706.52	30715.11
706.865	30527.09
707.209	30466.76
707.554	30361.67
707.899	30365.29
708.243	30353.31
708.588	30194.9
708.932	30074.22
709.277	30216.59
709.621	30101.34
709.966	30013.89
710.31	29917.39
710.654	29690.73
710.998	29828.58
711.342	29740.45
711.687	29649.15
712.031	29383.62
712.375	29469.49
712.719	29460.91
713.063	29414.35
713.407	29472.43
713.75	29346.78
714.094	29151.99
714.438	29065.66
714.782	29152.44
715.125	28987.92
715.469	29035.38
715.812	28883.07
716.156	28711.32
716.499	28869.96
716.843	28890.98
717.186	28604.21
717.53	28722.85
717.873	28765.56
718.216	28573.7
718.559	28401.72
718.902	28391.1
719.246	28550.87
719.589	28205.8
719.932	28267.72
720.275	28203.99
720.617	28160.38
720.96	28184.56
721.303	28105.46
721.646	28121.28
721.989	27883.77
722.331	28135.07
722.674	28002.64
723.016	27899.59
723.359	27901.85
723.701	27935.75
724.044	27756.77
724.386	27729.43
724.729	27693.04
725.071	27620.05
725.413	27623.67
725.755	27579.83
726.097	27557.68
726.439	27438.36
726.782	27438.36
727.124	27537.34
727.465	27366.27
727.807	27338.93
728.149	27220.97
728.491	27219.84
728.833	27244.69
729.175	27185.71
729.516	27014.42
729.858	27013.51
730.199	27128.31
730.541	27062.55
730.882	26949.11
731.224	26963.57
731.565	26856
731.906	26884.25
732.248	26956.79
732.589	26744.14
732.93	26658.04
733.271	26705.27
733.612	26640.42
733.953	26734.42
734.294	26691.94
734.635	26696.91
734.976	26723.8
735.317	26440.65
735.658	26524.26
735.999	26470.02
736.339	26408.78
736.68	26444.71
737.021	26383.92
737.361	26327.43
737.702	26305.51
738.042	26290.82
738.383	26161.56
738.723	26280.42
739.063	26126.53
739.404	26199.52
739.744	26073.65
740.084	26014.67
740.424	26070.26
740.764	25963.15
741.104	26109.58
741.444	26017.15
741.784	25909.36
742.124	25946.65
742.464	25954.56
742.804	25740.1
743.143	25776.71
743.483	25755.24
743.823	25731.74
744.162	25698.97
744.502	25718.63
744.841	25578.3
745.181	25714.79
745.52	25623.94
745.86	25722.93
746.199	25532.42
746.538	25531.97
746.877	25615.36
747.216	25575.81
747.556	25423.95
747.895	25488.81
748.234	25346.21
748.573	25289.04
748.911	25247.23
749.25	25268.25
749.589	25130.17
749.928	25286.1
750.267	25335.82
750.605	25255.59
750.944	25208.14
751.283	25060.57
751.621	25200.45
751.96	25011.98
752.298	25094.02
752.636	25087.46
752.975	24810.63
753.313	24807.24
753.651	24954.36
753.989	24825.1
754.327	24792.78
754.666	24759.79
755.004	24823.06
755.342	24747.13
755.679	24736.74
756.017	24547.14
756.355	24642.95
756.693	24557.53
757.031	24548.94
757.368	24357.99
757.706	24435.05
758.044	24398.44
758.381	24386.69
758.719	24306.47
759.056	24259.01
759.394	24182.63
759.731	24049.75
