Data from hue_340_FLMS001491_87.txt Node
Date: Mon Feb 06 15:43:44 GMT 2017
User: dcchb
Spectrometer: FLMS00149
Trigger mode: 0
Integration Time (sec): 2.000000E-2
Scans to average: 10
Electric dark correction enabled: true
Nonlinearity correction enabled: false
Boxcar width: 0
XAxis mode: Wavelengths
Number of Pixels in Spectrum: 2048
>>>>>Begin Spectral Data<<<<<
341.393	-19.1
341.776	-19.1
342.16	-19.1
342.543	-61.81
342.927	-57.74
343.31	-56.16
343.693	-60.22
344.077	-81.24
344.46	-67.46
344.843	-69.26
345.226	-40.34
345.61	-22.26
345.993	-13.45
346.376	-14.12
346.759	17.97
347.142	32.88
347.525	35.82
347.908	40.79
348.291	77.85
348.674	95.48
349.057	123.73
349.44	132.99
349.823	149.94
350.206	147.23
350.588	210.95
350.971	204.85
351.354	212.54
351.737	221.12
352.119	246.89
352.502	243.04
352.884	256.15
353.267	281.46
353.65	285.3
354.032	280.56
354.414	292.53
354.797	314.91
355.179	309.48
355.562	295.7
355.944	322.82
356.326	326.43
356.709	313.78
357.091	342.02
357.473	346.32
357.855	319.43
358.238	333.21
358.62	336.15
359.002	351.29
359.384	319.2
359.766	325.98
360.148	330.5
360.53	339.31
360.912	339.09
361.294	316.04
361.676	327.34
362.057	319.65
362.439	299.54
362.821	322.36
363.203	327.34
363.584	309.94
363.966	302.25
364.348	328.69
364.729	317.84
365.111	300.9
365.493	286.66
365.874	328.92
366.256	302.93
366.637	292.53
367.019	302.48
367.4	314.68
367.781	304.51
368.163	310.16
368.544	311.29
368.925	303.83
369.306	332.53
369.688	291.4
370.069	305.64
370.45	304.96
370.831	297.05
371.212	299.09
371.593	300.44
371.974	312.2
372.355	316.04
372.736	314
373.117	302.03
373.498	323.49
373.879	300.44
374.26	311.07
374.641	298.41
375.021	308.13
375.402	297.96
375.783	321.69
376.163	337.28
376.544	303.16
376.925	302.03
377.305	304.74
377.686	312.87
378.066	306.32
378.447	323.04
378.827	315.81
379.208	304.74
379.588	306.09
379.968	327.11
380.349	331.4
380.729	321.46
381.109	320.78
381.489	323.27
381.87	337.73
382.25	314.46
382.63	305.87
383.01	322.82
383.39	322.14
383.77	323.95
384.15	323.27
384.53	324.62
384.91	307.9
385.29	334.57
385.67	322.59
386.049	344.06
386.429	346.77
386.809	336.38
387.189	347.67
387.568	321.46
387.948	335.92
388.328	348.35
388.707	347.9
389.087	353.32
389.466	345.19
389.846	339.77
390.225	354.23
390.605	354.23
390.984	353.55
391.363	346.54
391.743	358.3
392.122	338.86
392.501	348.35
392.881	349.93
393.26	362.59
393.639	342.93
394.018	369.82
394.397	338.41
394.776	360.1
395.155	372.53
395.534	331.63
395.913	354.68
396.292	380.44
396.671	376.6
397.05	342.25
397.429	388.35
397.808	370.05
398.186	351.52
398.565	363.27
398.944	357.84
399.323	357.17
399.701	381.8
400.08	356.94
400.458	391.06
400.837	389.03
401.215	389.71
401.594	357.17
401.972	398.07
402.351	384.96
402.729	380.22
403.107	405.3
403.486	395.81
403.864	406.66
404.242	393.1
404.62	394.23
404.999	397.39
405.377	401.46
405.755	404.17
406.133	387.45
406.511	405.07
406.889	415.92
407.267	412.98
407.645	421.34
408.023	417.5
408.401	417.5
408.779	420.67
409.156	427.45
409.534	445.3
409.912	428.35
410.29	439.65
410.667	413.66
411.045	444.17
411.422	448.69
411.8	458.18
412.178	468.35
412.555	457.73
412.933	447.11
413.31	466.99
413.687	469.25
414.065	459.99
414.442	474.45
414.819	476.71
415.197	483.04
415.574	487.33
415.951	509.25
416.328	485.07
416.705	485.75
417.082	522.59
417.46	489.37
417.837	524.84
418.214	525.52
418.591	544.51
418.967	526.88
419.344	515.13
419.721	525.97
420.098	535.69
420.475	532.98
420.852	535.92
421.228	542.02
421.605	539.99
421.982	561
422.358	558.74
422.735	554.22
423.111	568.23
423.488	567.56
423.864	584.96
424.241	606.42
424.617	587.67
424.994	571.85
425.37	586.31
425.746	583.6
426.123	590.83
426.499	601.68
426.875	612.75
427.251	630.6
427.627	633.09
428.003	632.64
428.379	653.2
428.756	647.33
429.132	637.61
429.507	662.47
429.883	658.17
430.259	641.9
430.635	668.34
431.011	663.6
431.387	682.35
431.763	690.26
432.138	677.38
432.514	673.54
432.89	697.04
433.265	724.39
433.641	725.07
434.016	704.95
434.392	736.59
434.767	723.94
435.143	749.47
435.518	761.45
435.894	764.84
436.269	745.18
436.644	748.34
437.02	768.91
437.395	790.83
437.77	785.18
438.145	789.47
438.52	788.34
438.895	777.27
439.271	793.09
439.646	822.69
440.021	831.28
440.395	798.74
440.77	804.61
441.145	818.4
441.52	827.89
441.895	826.08
442.27	857.94
442.645	847.32
443.019	837.61
443.394	871.95
443.769	852.29
444.143	879.64
444.518	899.98
444.892	881.67
445.267	886.64
445.641	878.06
446.016	885.97
446.39	879.19
446.764	871.95
447.139	907.66
447.513	890.71
447.887	892.07
448.262	913.54
448.636	891.39
449.01	879.86
449.384	910.37
449.758	917.15
450.132	926.19
450.506	923.03
450.88	935.91
451.254	912.18
451.628	953.53
452.002	953.08
452.376	955.79
452.75	979.3
453.123	973.87
453.497	975.45
453.871	1003.93
454.244	988.11
454.618	1017.94
454.992	1017.04
455.365	991.95
455.739	1021.1
456.112	1011.61
456.486	1067.88
456.859	1055.9
457.232	1075.56
457.606	1059.29
457.979	1068.79
458.352	1074.89
458.725	1087.77
459.099	1105.62
459.472	1131.61
459.845	1134.55
460.218	1115.79
460.591	1137.71
460.964	1142.46
461.337	1142.46
461.71	1174.32
462.083	1161.66
462.456	1176.58
462.829	1185.39
463.201	1216.13
463.574	1220.87
463.947	1196.69
464.32	1251.83
464.692	1242.79
465.065	1244.15
465.438	1284.6
465.81	1271.27
466.183	1286.41
466.555	1323.47
466.928	1313.3
467.3	1316.69
467.672	1333.86
468.045	1343.81
468.417	1385.39
468.789	1392.17
469.161	1395.78
469.534	1430.81
469.906	1433.52
470.278	1477.59
470.65	1403.92
471.022	1477.59
471.394	1497.93
471.766	1495.89
472.138	1532.05
472.51	1528.89
472.882	1560.75
473.253	1581.77
473.625	1596.91
473.997	1657.7
474.369	1665.15
474.74	1650.01
475.112	1681.2
475.484	1689.33
475.855	1705.15
476.227	1779.95
476.598	1809.1
476.97	1814.53
477.341	1822.66
477.713	1848.2
478.084	1862.66
478.455	1895.88
478.827	1964.36
479.198	1991.47
479.569	1962.32
479.94	2037.12
480.311	2034.86
480.682	2079.15
481.053	2145.59
481.424	2167.06
481.795	2199.38
482.166	2186.27
482.537	2229.66
482.908	2270.79
483.279	2293.16
483.65	2311.92
484.021	2370.9
484.391	2394.63
484.762	2375.87
485.133	2442.76
485.503	2456.55
485.874	2526.15
486.244	2522.53
486.615	2553.94
486.985	2642.08
487.356	2642.08
487.726	2673.26
488.097	2697.22
488.467	2728.85
488.837	2776.54
489.207	2797.1
489.578	2852.02
489.948	2866.25
490.318	2929.08
490.688	2921.17
491.058	2978.34
491.428	3010.2
491.798	3008.17
492.168	3060.37
492.538	3079.81
492.908	3123.19
493.278	3184.44
493.648	3142.4
494.017	3221.27
494.387	3223.98
494.757	3256.07
495.126	3297.2
495.496	3290.87
495.866	3310.53
496.235	3345.34
496.605	3390.53
496.974	3427.82
497.344	3474.15
497.713	3451.32
498.082	3468.95
498.452	3500.36
498.821	3487.7
499.19	3511.66
499.559	3535.84
499.928	3597.76
500.298	3570.19
500.667	3632.33
501.036	3593.69
501.405	3662.39
501.774	3677.3
502.143	3744.42
502.512	3715.27
502.88	3747.36
503.249	3729.96
503.618	3782.84
503.987	3813.8
504.356	3804.76
504.724	3797.53
505.093	3783.97
505.462	3817.19
505.83	3809.73
506.199	3845.21
506.567	3961.82
506.936	3916.85
507.304	3915.49
507.672	3948.03
508.041	3931.31
508.409	3986.45
508.777	4037.52
509.145	4010.18
509.514	4036.39
509.882	4060.57
510.25	4075.03
510.618	4058.09
510.986	4130.4
511.354	4096.5
511.722	4128.37
512.09	4138.08
512.458	4172.21
512.826	4220.12
513.193	4208.14
513.561	4242.71
513.929	4277.74
514.297	4303.73
514.664	4278.64
515.032	4304.86
515.4	4286.1
515.767	4318.19
516.135	4322.03
516.502	4317.51
516.869	4363.61
517.237	4366.55
517.604	4392.31
517.972	4412.43
518.339	4434.8
518.706	4414.69
519.073	4441.13
519.44	4399.09
519.808	4461.46
520.175	4482.03
520.542	4573.55
520.909	4537.62
521.276	4496.49
521.643	4542.59
522.009	4605.19
522.376	4562.7
522.743	4592.53
523.11	4610.84
523.477	4663.27
523.843	4676.15
524.21	4751.85
524.577	4734.45
524.943	4735.81
525.31	4800.44
525.676	4810.38
526.043	4834.56
526.409	4835.01
526.776	4882.24
527.142	4863.26
527.508	4922.24
527.874	5006.99
528.241	4958.17
528.607	5024.84
528.973	5016.48
529.339	5047.89
529.705	5100.09
530.071	5125.85
530.437	5122.24
530.803	5116.36
531.169	5145.29
531.535	5170.15
531.901	5188.45
532.267	5209.24
532.632	5210.82
532.998	5256.25
533.364	5242.01
533.73	5308.67
534.095	5313.87
534.461	5395.68
534.826	5353.87
535.192	5395.68
535.557	5437.48
535.923	5433.42
536.288	5385.51
536.653	5466.86
537.019	5498.95
537.384	5510.02
537.749	5523.58
538.114	5580.76
538.479	5517.71
538.845	5576.69
539.21	5573.07
539.575	5598.84
539.94	5642.9
540.305	5666.86
540.67	5723.58
541.034	5698.72
541.399	5750.92
541.764	5777.14
542.129	5771.26
542.494	5808.55
542.858	5823.01
543.223	5838.83
543.587	5910.92
543.952	5870.02
544.316	5913.63
544.681	5916.57
545.045	5935.1
545.41	5991.37
545.774	6023.46
546.138	6026.85
546.503	6068.43
546.867	6008.99
547.231	6110.01
547.595	6105.72
547.959	6143.68
548.324	6147.3
548.688	6177.8
549.052	6219.61
549.416	6175.09
549.779	6232.72
550.143	6225.94
550.507	6244.47
550.871	6304.58
551.235	6315.88
551.599	6366.5
551.962	6363.11
552.326	6416.22
552.689	6414.86
553.053	6420.06
553.417	6449.43
553.78	6540.05
554.143	6433.62
554.507	6500.73
554.87	6487.4
555.234	6571.01
555.597	6522.43
555.96	6534.86
556.323	6623.22
556.686	6625.93
557.05	6590
557.413	6644.01
557.776	6675.19
558.139	6653.72
558.502	6715.42
558.865	6705.25
559.228	6814.17
559.59	6797
559.953	6803.55
560.316	6860.72
560.679	6805.58
561.041	6861.18
561.404	6908.86
561.767	6920.38
562.129	6890.55
562.492	6980.27
562.854	6987.05
563.217	6965.58
563.579	6994.05
563.941	7030.66
564.304	7102.3
564.666	7126.93
565.028	7125.12
565.39	7107.95
565.753	7172.58
566.115	7191.11
566.477	7224.1
566.839	7271.79
567.201	7277.89
567.563	7285.35
567.925	7350.43
568.287	7309.98
568.648	7361.95
569.01	7440.82
569.372	7456.64
569.734	7474.94
570.095	7502.97
570.457	7552.23
570.819	7594.49
571.18	7572.57
571.542	7665.45
571.903	7708.84
572.265	7692.11
572.626	7738.44
572.987	7767.37
573.349	7814.6
573.71	7880.36
574.071	7925.1
574.432	7914.26
574.794	8013.91
575.155	8090.97
575.516	8099.34
575.877	8104.08
576.238	8207.58
576.599	8319.44
576.96	8293
577.32	8400.8
577.681	8435.82
578.042	8580.23
578.403	8568.02
578.763	8706.78
579.124	8794.23
579.485	8852.31
579.845	8933.89
580.206	9080.55
580.566	9219.76
580.927	9288.91
581.287	9370.94
581.648	9426.98
582.008	9702.68
582.368	9751.27
582.728	9881.44
583.089	10010.92
583.449	10141.32
583.809	10327.98
584.169	10490.46
584.529	10602.55
584.889	10798.25
585.249	10886.15
585.609	11018.58
585.969	11350.77
586.329	11460.83
586.688	11711.9
587.048	11873.25
587.408	12010.42
587.768	12252.9
588.127	12487.02
588.487	12654.47
588.846	12995.93
589.206	13114.8
589.565	13321.34
589.925	13685.63
590.284	13821.67
590.643	14088.78
591.003	14465.04
591.362	14686.51
591.721	14844.24
592.08	15156.1
592.44	15400.84
592.799	15661.62
593.158	15919.69
593.517	16234.26
593.876	16472.45
594.235	16679
594.593	17008.25
594.952	17351.3
595.311	17578.18
595.67	17806.42
596.029	18199.18
596.387	18461.77
596.746	18821.09
597.104	18976.11
597.463	19261.98
597.822	19657.68
598.18	19759.37
598.538	20153.93
598.897	20416.3
599.255	20554.6
599.613	21152.1
599.972	21267.58
600.33	21616.72
600.688	21734.23
601.046	22178.06
601.404	22566.07
601.762	22656.92
602.12	23084.48
602.478	23299.84
602.836	23574.63
603.194	23722.43
603.552	23968.97
603.91	24230.66
604.268	24421.84
604.625	24581.39
604.983	24935.73
605.341	25064.76
605.698	25410.29
606.056	25698.65
606.413	25889.15
606.771	26197.39
607.128	26482.58
607.485	26518.29
607.843	26704.95
608.2	27122.34
608.557	27433.74
608.914	27548.77
609.272	27849.32
609.629	27997.57
609.986	28266.04
610.343	28385.36
610.7	28751.9
611.057	28887.94
611.414	28917.77
611.771	29270.76
612.127	29538.77
612.484	29548.04
612.841	29879.33
613.198	30036.84
613.554	30159.55
613.911	30398.64
614.267	30493.1
614.624	30754.56
614.98	30824.61
615.337	31144.38
615.693	31194.55
616.05	31355.22
616.406	31745.72
616.762	31714.31
617.118	31751.14
617.475	32026.39
617.831	32201.07
618.187	32268.42
618.543	32453.72
618.899	32825.24
619.255	32757.9
619.611	32797.22
619.967	33128.06
620.323	33276.07
620.678	33198.34
621.034	33251.44
621.39	33373.92
621.746	33361.27
622.101	33918.32
622.457	33689.62
622.812	33745.21
623.168	33985.43
623.523	34004.19
623.879	34303.17
624.234	34157.86
624.589	34306.78
624.945	34482.14
625.3	34586.55
625.655	34702.25
626.01	34642.37
626.365	34607.11
626.72	34760.1
627.075	34813.89
627.43	34966.65
627.785	34831.51
628.14	34913.09
628.495	35033.32
628.85	35037.16
629.205	34844.85
629.559	35243.93
629.914	35221.33
630.269	35332.07
630.623	35307.66
630.978	35271.5
631.332	35482.34
631.687	35507.88
632.041	35515.11
632.396	35337.94
632.75	35351.27
633.104	35425.62
633.459	35323.7
633.813	35371.84
634.167	35312.18
634.521	35441.67
634.875	35440.54
635.229	35499.74
635.583	35448.45
635.937	35401.67
636.291	35457.26
636.645	35527.54
636.999	35495
637.352	35626.97
637.706	35466.3
638.06	35512.63
638.413	35487.32
638.767	35353.53
639.121	35579.29
639.474	35438.96
639.828	35465.62
640.181	35590.14
640.534	35468.56
640.888	35376.58
641.241	35263.37
641.594	35426.53
641.947	35504.49
642.301	35295.23
642.654	35466.07
643.007	35420.42
643.36	35419.52
643.713	35279.41
644.066	35492.74
644.419	35274.89
644.771	35029.7
645.124	34661.8
645.477	34716.04
645.83	34577.51
646.182	34473.1
646.535	34259.55
646.888	34355.37
647.24	34182.04
647.593	34445.99
647.945	34300.91
648.298	34121.7
648.65	34179.33
649.002	34046
649.355	34234.92
649.707	34071.31
650.059	34325.54
650.411	34718.75
650.763	34769.59
651.115	35107.21
651.467	35040.32
651.819	35110.38
652.171	34983.37
652.523	34826.32
652.875	34833.1
653.227	34777.05
653.578	35057.72
653.93	35109.7
654.282	34826.09
654.633	34706.09
654.985	34828.8
655.337	35010.72
655.688	34887.78
656.039	34965.52
656.391	34583.84
656.742	34805.75
657.094	34736.83
657.445	34638.07
657.796	34735.47
658.147	34588.58
658.498	34710.84
658.849	34713.78
659.2	34643.72
659.551	34667.45
659.902	34670.16
660.253	34618.41
660.604	34657.73
660.955	34456.61
661.306	34564.85
661.656	34582.03
662.007	34632.42
662.358	34529.15
662.708	34589.03
663.059	34503.16
663.409	34355.14
663.76	34622.48
664.11	34582.71
664.461	34672.2
664.811	34538.64
665.161	34544.97
665.511	34576.38
665.862	34631.74
666.212	34648.47
666.562	34634
666.912	34451.86
667.262	34573.44
667.612	34544.29
667.962	34565.76
668.312	34445.76
668.662	34538.87
669.011	34482.37
669.361	34424.52
669.711	34397.63
670.06	34402.6
670.41	34363.5
670.76	34281.92
671.109	34398.98
671.459	34269.27
671.808	34337.97
672.157	34386.1
672.507	34256.84
672.856	34280.34
673.205	34202.83
673.554	34344.75
673.904	34256.61
674.253	34558.3
674.602	34385.42
674.951	33838.55
675.3	33750.64
675.649	34220.46
675.998	34203.06
676.346	34214.58
676.695	34234.69
677.044	34160.8
677.393	34152.89
677.741	34210.74
678.09	34040.57
678.438	34050.97
678.787	34084.41
679.135	34004.64
679.484	33966.45
679.832	33988.37
680.181	33777.76
680.529	33941.37
680.877	33728.04
681.225	33842.84
681.573	33883.06
681.922	33742.05
682.27	33536.18
682.618	33598.55
682.966	33489.63
683.314	33588.61
683.661	33472.23
684.009	33359.24
684.357	33422.51
684.705	33206.02
685.053	33328.5
685.4	33255.06
685.748	33078.79
686.095	33052.8
686.443	33015.74
686.79	32962.86
687.138	32961.73
687.485	32913.15
687.832	32714.51
688.18	32955.18
688.527	32587.96
688.874	32588.86
689.221	32636.32
689.568	32581.18
689.915	32371.69
690.262	32510.44
690.609	32298.92
690.956	32280.62
691.303	32141.19
691.65	31995.66
691.997	32065.71
692.344	31942.55
692.69	31789.79
693.037	31961.31
693.383	31584.82
693.73	31808.32
694.077	31579.4
694.423	31591.15
694.769	31454.2
695.116	31467.99
695.462	31401.77
695.808	31207.88
696.155	31364.26
696.501	31087.43
696.847	31003.59
697.193	30871.84
697.539	30979.19
697.885	30784.39
698.231	30681.79
698.577	30745.52
698.923	30617.39
699.269	30496.26
699.614	30247.91
699.96	30371.29
700.306	30370.39
700.651	30329.94
700.997	30177.85
701.342	30026.22
701.688	29971.53
702.033	29843.62
702.379	29827.13
702.724	29876.39
703.069	29834.58
703.415	29487.02
703.76	29499.9
704.105	29612.44
704.45	29422.84
704.795	29293.35
705.14	29219.68
705.485	29175.62
705.83	29125.22
706.175	29100.14
706.52	29021.27
706.865	29022.17
707.209	28929.3
707.554	28673.71
707.899	28861.28
708.243	28705.35
708.588	28636.42
708.932	28444.11
709.277	28490.44
709.621	28569.31
709.966	28301.29
710.31	28424.68
710.654	28135.64
710.998	28366.82
711.342	28221.52
711.687	28167.06
712.031	27910.11
712.375	27932.71
712.719	27991.47
713.063	27892.03
713.407	27959.83
713.75	27763.9
714.094	27657.24
714.438	27546.73
714.782	27597.35
715.125	27460.86
715.469	27536.79
715.812	27451.59
716.156	27340.86
716.499	27377.25
716.843	27237.81
717.186	27143.81
717.53	27301.77
717.873	27176.35
718.216	27170.47
718.559	27079.4
718.902	26735.68
719.246	26921.89
719.589	26812.52
719.932	26727.77
720.275	26672.86
720.617	26796.92
720.96	26639.64
721.303	26689.13
721.646	26641.22
721.989	26413.66
722.331	26553.09
722.674	26412.98
723.016	26495.01
723.359	26364.62
723.701	26441
724.044	26263.6
724.386	26083.72
724.729	26314.22
725.071	26262.7
725.413	26054.34
725.755	26173.66
726.097	26073.33
726.439	25807.12
726.782	25981.12
727.124	25995.36
727.465	25881.92
727.807	25920.11
728.149	25832.2
728.491	25707.69
728.833	25718.98
729.175	25641.92
729.516	25701.81
729.858	25543.62
730.199	25519.22
730.541	25494.81
730.882	25563.96
731.224	25446
731.565	25349.28
731.906	25346.79
732.248	25449.39
732.589	25198.77
732.93	25176.17
733.271	25220.01
733.612	25238.09
733.953	25303.63
734.294	25091.2
734.635	25099.11
734.976	25198.09
735.317	24929.85
735.658	24956.52
735.999	25019.12
736.339	24879.23
736.68	25041.04
737.021	24947.48
737.361	24795.62
737.702	24933.69
738.042	24801.04
738.383	24756.75
738.723	24790.65
739.063	24735.96
739.404	24693.25
739.744	24578.9
740.084	24576.42
740.424	24566.25
740.764	24535.97
741.104	24510.43
741.444	24469.75
741.784	24424.1
742.124	24439.24
742.464	24267.05
742.804	24367.61
743.143	24270.66
743.483	24308.85
743.823	24157.44
744.162	24113.15
744.502	24206.48
744.841	23987.05
745.181	24084.9
745.52	24121.74
745.86	24030.89
746.199	23984.12
746.538	23901.18
746.877	24105.69
747.216	24026.15
747.556	23886.72
747.895	23924.23
748.234	23822.54
748.573	23751.58
748.911	23658.7
749.25	23736.89
749.589	23629.32
749.928	23619.83
750.267	23571.7
750.605	23664.35
750.944	23457.58
751.283	23346.17
751.621	23393.85
751.96	23312.49
752.298	23283.79
752.636	23241.54
752.975	23213.97
753.313	23071.37
753.651	23265.26
753.989	23121.09
754.327	23050.81
754.666	22900.53
755.004	22933.97
755.342	23000.64
755.679	22976.23
756.017	22842.22
756.355	22817.59
756.693	22740.31
757.031	22744.37
757.368	22493.31
757.706	22668.9
758.044	22538.73
758.381	22527.66
758.719	22430.94
759.056	22468.67
759.394	22318.4
759.731	22225.29
760.068	22212.64
760.405	22206.31
760.743	22100.55
