Data from hue_60_FLMS001491_74.txt Node
Date: Mon Feb 06 15:17:54 GMT 2017
User: dcchb
Spectrometer: FLMS00149
Trigger mode: 0
Integration Time (sec): 2.000000E-2
Scans to average: 10
Electric dark correction enabled: true
Nonlinearity correction enabled: false
Boxcar width: 0
XAxis mode: Wavelengths
Number of Pixels in Spectrum: 2048
>>>>>Begin Spectral Data<<<<<
341.393	-12.57
341.776	-12.57
342.16	-12.57
342.543	-79.01
342.927	-68.39
343.31	-67.48
343.693	-74.04
344.077	-70.2
344.46	-41.27
344.843	-56.41
345.226	-41.95
345.61	-27.94
345.993	-15.73
346.376	6.19
346.759	-2.63
347.142	26.75
347.525	38.73
347.908	45.96
348.291	76.01
348.674	99.29
349.057	104.71
349.44	137.48
349.823	144.04
350.206	171.61
350.588	200.31
350.971	220.87
351.354	222.68
351.737	221.55
352.119	269.23
352.502	263.81
352.884	271.04
353.267	283.69
353.65	292.51
354.032	306.07
354.414	314.88
354.797	326.86
355.179	353.75
355.562	341.54
355.944	321.21
356.326	356.69
356.709	334.31
357.091	337.03
357.473	357.36
357.855	351.49
358.238	332.51
358.62	341.09
359.002	346.97
359.384	343.8
359.766	356.46
360.148	352.39
360.53	339.74
360.912	335.22
361.294	328.66
361.676	340.64
362.057	334.54
362.439	330.92
362.821	331.6
363.203	334.31
363.584	348.55
363.966	324.82
364.348	333.64
364.729	333.18
365.111	325.73
365.493	310.36
365.874	302.9
366.256	323.92
366.637	328.44
367.019	326.63
367.4	331.15
367.781	311.26
368.163	318.04
368.544	307.65
368.925	311.26
369.306	315.33
369.688	310.13
370.069	326.18
370.45	332.73
370.831	301.32
371.212	323.47
371.593	309.23
371.974	316.23
372.355	335.67
372.736	302.45
373.117	303.58
373.498	298.61
373.879	335.9
374.26	299.51
374.641	328.89
375.021	327.99
375.402	316.01
375.783	316.69
376.163	343.35
376.544	324.82
376.925	329.34
377.305	318.04
377.686	339.74
378.066	316.46
378.447	326.63
378.827	333.18
379.208	322.79
379.588	327.08
379.968	328.44
380.349	321.21
380.729	329.34
381.109	322.56
381.489	348.32
381.87	346.06
382.25	324.37
382.63	327.08
383.01	325.27
383.39	378.38
383.77	352.62
384.15	356.01
384.53	344.71
384.91	363.47
385.29	342.9
385.67	374.09
386.049	356.46
386.429	348.1
386.809	379.96
387.189	363.47
387.568	351.49
387.948	339.28
388.328	373.86
388.707	349
389.087	375.89
389.466	379.51
389.846	362.79
390.225	386.74
390.605	382.22
390.984	368.21
391.363	365.5
391.743	357.14
392.122	384.26
392.501	380.87
392.881	369.34
393.26	398.04
393.639	393.07
394.018	373.63
394.397	396.01
394.776	369.34
395.155	377.25
395.534	371.6
395.913	393.29
396.292	383.58
396.671	375.44
397.05	391.94
397.429	380.41
397.808	391.03
398.186	402.33
398.565	409.34
398.944	369.11
399.323	412.05
399.701	403.46
400.08	408.21
400.458	401.43
400.837	409.34
401.215	405.27
401.594	405.05
401.972	387.65
402.351	432.16
402.729	411.83
403.107	395.1
403.486	393.52
403.864	424.25
404.242	403.01
404.62	401.66
404.999	415.44
405.377	430.58
405.755	415.22
406.133	428.1
406.511	424.71
406.889	406.18
407.267	429.45
407.645	417.7
408.023	429.23
408.401	436.23
408.779	445.27
409.156	444.14
409.534	435.33
409.912	430.58
410.29	455.44
410.667	466.06
411.045	447.3
411.422	436.23
411.8	467.42
412.178	462.9
412.555	454.76
412.933	465.38
413.31	463.35
413.687	483.91
414.065	468.55
414.442	468.55
414.819	485.72
415.197	507.42
415.574	476.68
415.951	486.85
416.328	506.06
416.705	497.02
417.082	510.13
417.46	500.64
417.837	511.03
418.214	500.86
418.591	495.66
418.967	504.25
419.344	507.42
419.721	519.39
420.098	518.72
420.475	505.38
420.852	530.92
421.228	512.16
421.605	519.62
421.982	532.05
422.358	546.74
422.735	538.38
423.111	548.54
423.488	527.3
423.864	550.35
424.241	562.33
424.617	561.2
424.994	553.97
425.37	553.29
425.746	585.15
426.123	560.3
426.499	565.95
426.875	583.35
427.251	584.25
427.627	587.64
428.003	591.71
428.379	602.78
428.756	576.34
429.132	605.27
429.507	570.47
429.883	593.52
430.259	614.76
430.635	609.79
431.011	623.35
431.387	614.76
431.763	636.23
432.138	622.89
432.514	624.7
432.89	657.92
433.265	649.79
433.641	680.52
434.016	658.82
434.392	668.77
434.767	675.55
435.143	674.64
435.518	675.1
435.894	694.08
436.269	687.07
436.644	700.86
437.02	690.01
437.395	689.11
437.77	693.4
438.145	706.28
438.52	716.22
438.895	716.22
439.271	697.24
439.646	728.88
440.021	728.65
440.395	718.94
440.77	725.72
441.145	763.23
441.52	747.18
441.895	744.47
442.27	766.39
442.645	786.28
443.019	758.26
443.394	758.71
443.769	775.88
444.143	754.19
444.518	773.85
444.892	770.01
445.267	776.34
445.641	804.13
446.016	789.67
446.39	805.26
446.764	803
447.139	815.43
447.513	803.91
447.887	832.38
448.262	826.73
448.636	803
449.01	828.31
449.384	825.37
449.758	828.09
450.132	847.07
450.506	863.11
450.88	856.11
451.254	888.2
451.628	873.06
452.002	872.6
452.376	886.62
452.75	880.06
453.123	920.06
453.497	908.76
453.871	925.48
454.244	917.12
454.618	931.36
454.992	935.65
455.365	943.56
455.739	964.35
456.112	969.32
456.486	956.67
456.859	971.13
457.232	1012.26
457.606	1013.62
457.979	1028.76
458.352	1024.69
458.725	1033.28
459.099	1031.24
459.472	1049.32
459.845	1075.54
460.218	1062.2
460.591	1105.14
460.964	1079.83
461.337	1095.42
461.71	1122.09
462.083	1129.09
462.456	1178.81
462.829	1175.87
463.201	1141.3
463.574	1158.47
463.947	1193.05
464.32	1251.58
464.692	1250
465.065	1218.81
465.438	1269.43
465.81	1277.57
466.183	1279.6
466.555	1314.85
466.928	1358.69
467.3	1351.46
467.672	1355.98
468.045	1393.04
468.417	1409.31
468.789	1457.22
469.161	1440.95
469.534	1462.19
469.906	1505.13
470.278	1525.24
470.65	1554.85
471.022	1586.26
471.394	1599.36
471.766	1651.34
472.138	1675.29
472.51	1717.78
472.882	1754.16
473.253	1803.2
473.625	1821.51
473.997	1848.85
474.369	1892.01
474.74	1904.22
475.112	1961.16
475.484	2014.27
475.855	2069.86
476.227	2114.15
476.598	2175.62
476.97	2228.95
477.341	2318.89
477.713	2355.96
478.084	2381.27
478.455	2478.66
478.827	2521.37
479.198	2594.37
479.569	2683.18
479.94	2765.66
480.311	2817.86
480.682	2897.86
481.053	2996.62
481.424	3077.74
481.795	3154.35
482.166	3242.03
482.537	3407.9
482.908	3422.59
483.279	3537.62
483.65	3669.59
484.021	3745.52
484.391	3815.13
484.762	3930.6
485.133	4100.09
485.503	4128.56
485.874	4314.77
486.244	4379.86
486.615	4511.6
486.985	4603.58
487.356	4799.96
487.726	4911.14
488.097	5068.43
488.467	5193.17
488.837	5295.09
489.207	5490.34
489.578	5648.52
489.948	5764.45
490.318	5939.14
490.688	6006.71
491.058	6221.39
491.428	6415.96
491.798	6460.25
492.168	6671.55
492.538	6794.71
492.908	7010.97
493.278	7151.99
493.648	7264.53
494.017	7368.25
494.387	7628.58
494.757	7824.06
495.126	7939.09
495.496	8028.8
495.866	8222.92
496.235	8401.67
496.605	8493.65
496.974	8730.7
497.344	8905.61
497.713	9049.79
498.082	9193.52
498.452	9299.5
498.821	9487.29
499.19	9612.26
499.559	9743.33
499.928	10014.28
500.298	10079.59
500.667	10257.67
501.036	10361.39
501.405	10508.06
501.774	10588.73
502.143	10780.82
502.512	10955.28
502.88	11085.22
503.249	11170.19
503.618	11418.09
503.987	11542.83
504.356	11625.54
504.724	11781.02
505.093	12016.04
505.462	12118.86
505.83	12237.96
506.199	12358.86
506.567	12679.53
506.936	12809.92
507.304	12945.73
507.672	13039.97
508.041	13116.8
508.409	13280.41
508.777	13495.55
509.145	13627.98
509.514	13717.46
509.882	13933.28
510.25	13969.21
510.618	14158.81
510.986	14154.74
511.354	14423.66
511.722	14556.31
512.09	14749.08
512.458	14745.46
512.826	15050.76
513.193	15120.37
513.561	15169.4
513.929	15429.06
514.297	15642.61
514.664	15663.85
515.032	15713.12
515.4	16000.57
515.767	16073.79
516.135	16264.74
516.502	16167.8
516.869	16596.94
517.237	16599.2
517.604	16684.62
517.972	16909.02
518.339	17007.32
518.706	17068.56
519.073	17245.06
519.44	17445.05
519.808	17663.8
520.175	17645.5
520.542	17968.2
520.909	18065.37
521.276	18064.69
521.643	18290.9
522.009	18393.05
522.376	18604.79
522.743	18747.39
523.11	18922.53
523.477	19108.51
523.843	19173.14
524.21	19431.89
524.577	19591.66
524.943	19655.16
525.31	19767.93
525.676	20070.07
526.043	20132.89
526.409	20301.25
526.776	20432.09
527.142	20520.22
527.508	20728.58
527.874	20884.73
528.241	20981.45
528.607	21130.38
528.973	21382.12
529.339	21383.48
529.705	21596.13
530.071	21753.86
530.437	21753.41
530.803	22001.54
531.169	22172.61
531.535	22117.02
531.901	22299.84
532.267	22301.19
532.632	22466.16
532.998	22637.23
533.364	22761.97
533.73	22796.77
534.095	22934.85
534.461	22955.19
534.826	23189.76
535.192	23165.35
535.557	23402.41
535.923	23483.31
536.288	23610.76
536.653	23604.66
537.019	23623.42
537.384	23804.2
537.749	23903.64
538.114	23937.08
538.479	24108.38
538.845	24133.46
539.21	24063.18
539.575	24204.65
539.94	24372.55
540.305	24448.71
540.67	24449.16
541.034	24638.53
541.399	24757.85
541.764	24764.18
542.129	24911.97
542.494	24933.67
542.858	25038.52
543.223	25169.82
543.587	25324.62
543.952	25274
544.316	25271.74
544.681	25353.54
545.045	25562.12
545.41	25624.5
545.774	25730.48
546.138	25790.82
546.503	25778.62
546.867	25833.98
547.231	25942.68
547.595	26152.39
547.959	26254.99
548.324	26247.76
548.688	26294.76
549.052	26433.29
549.416	26552.83
549.779	26514.42
550.143	26633.28
550.507	26918.02
550.871	26886.38
551.235	26954.86
551.599	27170.22
551.962	27193.27
552.326	27215.19
552.689	27384.9
553.053	27339.93
553.417	27378.8
553.78	27865.34
554.143	27710.32
554.507	27800.26
554.87	28004.09
555.234	28062.4
555.597	28004.09
555.96	28138.1
556.323	28343.52
556.686	28386.01
557.05	28560.69
557.413	28696.96
557.776	28849.72
558.139	29027.57
558.502	28943.73
558.865	28998.42
559.228	29309.6
559.59	29461.23
559.953	29236.6
560.316	29537.16
560.679	29776.25
561.041	29820.77
561.404	29976.02
561.767	30194.32
562.129	30119.07
562.492	30445.84
562.854	30298.72
563.217	30399.51
563.579	30662.56
563.941	30726.06
564.304	30952.72
564.666	31061.64
565.028	31223.44
565.39	31296.21
565.753	31479.26
566.115	31582.76
566.477	31674.51
566.839	31750.89
567.201	32012.58
567.563	32016.19
567.925	32216.86
568.287	32326.47
568.648	32384.54
569.01	32550.19
569.372	32769.17
569.734	32695.5
570.095	32964.87
570.457	33086.67
570.819	33046.22
571.18	33126.45
571.542	33255.26
571.903	33461.8
572.265	33544.74
572.626	33529.82
572.987	33715.81
573.349	33779.76
573.71	33876.03
574.071	34016.59
574.432	33987.21
574.794	34327.54
575.155	34288.67
575.516	34140.43
575.877	34400.76
576.238	34565.96
576.599	34615.9
576.96	34747.19
577.32	34732.73
577.681	34775.89
578.042	34885.95
578.403	34905.83
578.763	34910.13
579.124	35121.87
579.485	35073.74
579.845	35188.31
580.206	35213.17
580.566	35229.44
580.927	35236.45
581.287	35388.76
581.648	35257.69
582.008	35384.47
582.368	35436.67
582.728	35582.65
583.089	35482.32
583.449	35486.38
583.809	35603.44
584.169	35712.14
584.529	35606.15
584.889	35809.31
585.249	35701.97
585.609	35591.24
585.969	35822.65
586.329	35598.47
586.688	35683.89
587.048	35719.6
587.408	35792.14
587.768	35739.71
588.127	35891.8
588.487	35724.8
588.846	35951.23
589.206	35689.09
589.565	35732.03
589.925	35889.76
590.284	35842.53
590.643	35936.09
591.003	35986.03
591.362	36142.64
591.721	36031
592.08	36031.23
592.44	36130.43
592.799	36078.23
593.158	36117.55
593.517	36143.09
593.876	36147.38
594.235	36075.75
594.593	36104.22
594.952	36281.39
595.311	36073.26
595.67	36235.06
596.029	36566.58
596.387	36406.59
596.746	36502.4
597.104	36471.44
597.463	36324.78
597.822	36534.04
598.18	36565.45
598.538	36361.16
598.897	36659.23
599.255	36397.09
599.613	36988.26
599.972	36685.9
600.33	36850.87
600.688	36801.38
601.046	36913.69
601.404	36975.61
601.762	36848.16
602.12	37048.15
602.478	36944.42
602.836	37102.39
603.194	36815.39
603.552	37026.91
603.91	36948.49
604.268	37109.62
604.625	37027.81
604.983	37279.1
605.341	37067.36
605.698	37259.9
606.056	37382.38
606.413	37454.02
606.771	37590.73
607.128	37508.7
607.485	37346
607.843	37517.97
608.2	37728.58
608.557	37819.66
608.914	37766.55
609.272	37901.24
609.629	37999.54
609.986	38143.26
610.343	38038.18
610.7	38212.87
611.057	38146.65
611.414	38103.94
611.771	38204.73
612.127	38388
612.484	38375.35
612.841	38524.72
613.198	38428.45
613.554	38527.43
613.911	38634.55
614.267	38686.98
614.624	38650.59
614.98	38652.18
615.337	39040.64
615.693	38773.08
616.05	38920.64
616.406	39015.33
616.762	38936.24
617.118	38937.59
617.475	38914.54
617.831	39142.11
618.187	39335.32
618.543	39292.84
618.899	39422.78
619.255	39320.63
619.611	39333.51
619.967	39465.94
620.323	39667.74
620.678	39504.81
621.034	39453.06
621.39	39535.32
621.746	39396.34
622.101	39857.79
622.457	39516.79
622.812	39884.46
623.168	39771.24
623.523	39770.11
623.879	39944.57
624.234	39733.96
624.589	39835.65
624.945	39837.68
625.3	39834.29
625.655	39874.29
626.01	39837
626.365	40053.49
626.72	39887.62
627.075	39933.5
627.43	40021.41
627.785	39920.84
628.14	39919.26
628.495	40095.98
628.85	40057.79
629.205	39813.5
629.559	40049.88
629.914	39945.7
630.269	39981.18
630.623	40093.72
630.978	39900.5
631.332	40003.55
631.687	40096.88
632.041	39861.18
632.396	40079.26
632.75	39944.8
633.104	39875.87
633.459	39688.08
633.813	39844.46
634.167	39841.52
634.521	39798.81
634.875	39831.35
635.229	39725.37
635.583	39644.69
635.937	39658.7
636.291	39587.07
636.645	39673.39
636.999	39474.53
637.352	39723.11
637.706	39573.96
638.06	39608.31
638.413	39515.66
638.767	39277.47
639.121	39463.91
639.474	39319.95
639.828	39236.34
640.181	39415.55
640.534	39238.83
640.888	39199.05
641.241	39106.85
641.594	39302.78
641.947	39390.01
642.301	39268.43
642.654	39251.26
643.007	39252.16
643.36	39120.19
643.713	39161.77
644.066	39367.86
644.419	39121.32
644.771	38775.11
645.124	38305.74
645.477	38350.49
645.83	38158.4
646.182	38059.42
646.535	37884.96
646.888	38001.35
647.24	37671.64
647.593	37865.53
647.945	37856.94
648.298	37709.83
648.65	37624.41
649.002	37578.08
649.355	37631.19
649.707	37656.04
650.059	37861.69
650.411	38278.17
650.763	38232.53
651.115	38661.89
651.467	38523.59
651.819	38507.32
652.171	38432.52
652.523	38365.18
652.875	38423.71
653.227	38145.97
653.578	38586.64
653.93	38490.6
654.282	38201.34
654.633	38291.06
654.985	38217.16
655.337	38356.82
655.688	38164.5
656.039	38313.65
656.391	38059.2
656.742	37973.55
657.094	38095.58
657.445	38190.49
657.796	38001.35
658.147	38021.68
658.498	38080.44
658.849	38182.13
659.2	38003.38
659.551	37882.25
659.902	38028.92
660.253	37749.6
660.604	37959.99
660.955	37788.24
661.306	37924.29
661.656	37835.25
662.007	37909.14
662.358	37918.41
662.708	37898.52
663.059	37883.16
663.409	37677.96
663.76	38046.99
664.11	37915.47
664.461	37914.57
664.811	37990.5
665.161	37755.93
665.511	37676.38
665.862	37854.46
666.212	37965.19
666.562	37917.96
666.912	37752.31
667.262	37708.92
667.612	37857.39
667.962	37801.12
668.312	37677.51
668.662	37863.5
669.011	37724.29
669.361	37751.63
669.711	37685.87
670.06	37742.14
670.41	37531.08
670.76	37491.53
671.109	37822.59
671.459	37540.79
671.808	37717.06
672.157	37754.57
672.507	37318.2
672.856	37489.95
673.205	37553.22
673.554	37609.72
673.904	37458.76
674.253	37610.4
674.602	37649.94
674.951	36999.56
675.3	36856.74
675.649	37448.37
675.998	37309.84
676.346	37387.58
676.695	37433.9
677.044	37135.15
677.393	37346.22
677.741	37332.44
678.09	37333.11
678.438	37190.75
678.787	37232.33
679.135	37263.74
679.484	36957.98
679.832	37133.12
680.181	36800.93
680.529	37144.87
680.877	36889.51
681.225	36945.78
681.573	37101.71
681.922	36799.12
682.27	36731.1
682.618	36687.71
682.966	36517.99
683.314	36670.98
683.661	36479.58
684.009	36432.57
684.357	36444.1
684.705	36249.08
685.053	36343.99
685.4	36195.29
685.748	36019.25
686.095	35957.78
686.443	35870.33
686.79	35957.11
687.138	35926.6
687.485	35915.98
687.832	35842.98
688.18	35850.44
688.527	35638.7
688.874	35711.24
689.221	35571.58
689.568	35424.46
689.915	35489.55
690.262	35414.07
690.609	35358.48
690.956	35094.53
691.303	35122.33
691.65	35094.08
691.997	35072.38
692.344	34814.76
692.69	34771.37
693.037	34791.49
693.383	34579.97
693.73	34775.67
694.077	34463.59
694.423	34448.44
694.769	34304.04
695.116	34434.66
695.462	34234.21
695.808	34164.16
696.155	34232.86
696.501	33908.35
696.847	34003.48
697.193	33778.41
697.539	33762.36
697.885	33647.11
698.231	33502.71
698.577	33432.65
698.923	33250.74
699.269	33235.14
699.614	33062.94
699.96	33082.6
700.306	33046.22
700.651	32927.58
700.997	32789.73
701.342	32847.58
701.688	32702.95
702.033	32572.56
702.379	32541.15
702.724	32381.83
703.069	32484.43
703.415	32109.97
703.76	32240.14
704.105	32156.75
704.45	32222.06
704.795	31841.51
705.14	31788.4
705.485	31733.04
705.83	31756.31
706.175	31650.33
706.52	31628.86
706.865	31575.07
707.209	31407.39
707.554	31420.05
707.899	31441.74
708.243	31297.34
708.588	31260.96
708.932	30998.14
709.277	31022.32
709.621	31074.07
709.966	30845.15
710.31	30876.56
710.654	30695.1
710.998	30831.59
711.342	30771.25
711.687	30615.55
712.031	30446.06
712.375	30413.97
712.719	30427.53
713.063	30314.54
713.407	30413.3
713.75	30167.88
714.094	30313.41
714.438	30110.71
714.782	30149.35
715.125	29861.67
715.469	30143.25
715.812	29945.06
716.156	29718.85
716.499	29775.12
716.843	29768.79
717.186	29601.11
717.53	29698.29
717.873	29695.12
718.216	29537.84
718.559	29486.99
718.902	29348.69
719.246	29480.21
719.589	29180.56
719.932	29034.35
720.275	29166.55
720.617	28962.26
720.96	29010.4
721.303	28975.14
721.646	28993.22
721.989	28811.53
722.331	28996.16
722.674	28780.34
723.016	28818.99
723.359	28621.93
723.701	28771.98
724.044	28578.77
724.386	28371.54
724.729	28521.37
725.071	28488.6
725.413	28508.94
725.755	28376.06
726.097	28376.74
726.439	28180.59
726.782	28175.62
727.124	28226.46
727.465	28130.42
727.807	28102.17
728.149	28203.86
728.491	28065.56
728.833	28054.49
729.175	27966.81
729.516	27943.53
729.858	27870.54
730.199	27892.91
730.541	27789.64
730.882	27745.12
731.224	27715.97
731.565	27596.65
731.906	27682.75
732.248	27596.65
732.589	27565.46
732.93	27466.71
733.271	27438.91
733.612	27460.15
733.953	27456.09
734.294	27321.4
734.635	27253.61
734.976	27274.17
735.317	27176.77
735.658	27112.82
735.999	27095.87
736.339	27101.29
736.68	27194.4
737.021	27022.88
737.361	26806.84
737.702	26952.6
738.042	26975.65
738.383	26850
738.723	26983.78
739.063	26696.11
739.404	26904.01
739.744	26779.72
740.084	26625.15
740.424	26681.64
740.764	26745.82
741.104	26620.63
741.444	26480.29
741.784	26413.63
742.124	26348.54
742.464	26404.36
742.804	26370.69
743.143	26301.31
743.483	26306.74
743.823	26141.09
744.162	26129.12
744.502	26120.08
744.841	26116.91
745.181	26282.56
745.52	26114.65
745.86	26111.94
746.199	25951.27
746.538	25890.03
746.877	25948.33
747.216	25969.57
747.556	25837.82
747.895	25898.84
748.234	25648.45
748.573	25681.9
748.911	25625.63
749.25	25744.27
749.589	25454.56
749.928	25585.17
750.267	25556.7
750.605	25505.4
750.944	25450.04
751.283	25278.74
751.621	25436.03
751.96	25222.7
752.298	25222.47
752.636	25363.49
752.975	25005.75
753.313	24964.17
753.651	25013.89
753.989	24952.42
754.327	24901.8
754.666	24798.08
755.004	24851.41
755.342	24781.35
755.679	24639.44
756.017	24572.32
756.355	24568.48
