Data from hue_180_FLMS001491_00058.txt Node
Date: Tue Feb 07 16:47:11 GMT 2017
User: dcchb
Spectrometer: FLMS00149
Trigger mode: 0
Integration Time (sec): 2.000000E-2
Scans to average: 10
Electric dark correction enabled: true
Nonlinearity correction enabled: false
Boxcar width: 0
XAxis mode: Wavelengths
Number of Pixels in Spectrum: 2048
>>>>>Begin Spectral Data<<<<<
341.393	10.45
341.776	10.45
342.16	10.45
342.543	-53.5
342.927	-81.75
343.31	-72.03
343.693	-52.6
344.077	-58.93
344.46	-65.48
344.843	-72.71
345.226	-63.9
345.61	-39.72
345.993	-14.18
346.376	0.51
346.759	7.97
347.142	33.95
347.525	49.09
347.908	49.77
348.291	69.66
348.674	100.84
349.057	127.74
349.44	114.4
349.823	141.3
350.206	158.92
350.588	170.67
350.971	202.99
351.354	189.2
351.737	228.3
352.119	226.27
352.502	256.32
352.884	278.47
353.267	283.44
353.65	296.32
354.032	290.9
354.414	292.48
354.797	293.38
355.179	320.05
355.562	336.32
355.944	328.64
356.326	324.57
356.709	327.96
357.091	315.08
357.473	316.43
357.855	322.08
358.238	346.71
358.62	317.56
359.002	343.1
359.384	325.02
359.766	335.19
360.148	342.19
360.53	348.52
360.912	321.86
361.294	330.22
361.676	334.96
362.057	330.44
362.439	311.01
362.821	324.34
363.203	308.75
363.584	325.47
363.966	322.08
364.348	322.53
364.729	321.63
365.111	299.26
365.493	304.91
365.874	334.28
366.256	302.2
366.637	295.42
367.019	316.43
367.4	301.97
367.781	309.88
368.163	286.38
368.544	334.74
368.925	308.97
369.306	330.44
369.688	304.68
370.069	323.44
370.45	330.67
370.831	305.59
371.212	320.95
371.593	284.12
371.974	294.96
372.355	291.8
372.736	290.22
373.117	295.64
373.498	296.55
373.879	315.75
374.26	307.17
374.641	314.62
375.021	303.1
375.402	329.09
375.783	308.3
376.163	319.82
376.544	317.79
376.925	324.12
377.305	311.23
377.686	321.4
378.066	316.88
378.447	325.7
378.827	311.01
379.208	322.99
379.588	296.09
379.968	332.03
380.349	317.34
380.729	316.43
381.109	325.92
381.489	325.02
381.87	321.4
382.25	332.25
382.63	331.35
383.01	304.46
383.39	338.35
383.77	319.14
384.15	351.01
384.53	347.39
384.91	327.96
385.29	317.56
385.67	323.44
386.049	368.63
386.429	336.09
386.809	337.9
387.189	364.11
387.568	316.43
387.948	350.33
388.328	353.49
388.707	347.17
389.087	347.39
389.466	354.85
389.846	337
390.225	354.62
390.605	346.94
390.984	339.26
391.363	368.86
391.743	356.66
392.122	367.73
392.501	360.05
392.881	353.27
393.26	373.83
393.639	360.05
394.018	374.51
394.397	371.35
394.776	365.92
395.155	375.41
395.534	377.67
395.913	371.12
396.292	368.41
396.671	384.23
397.05	373.61
397.429	378.35
397.808	384.91
398.186	385.58
398.565	379.93
398.944	400.95
399.323	402.98
399.701	410.89
400.08	408.18
400.458	406.15
400.837	409.09
401.215	421.29
401.594	399.59
401.972	411.57
402.351	406.6
402.729	407.73
403.107	434.17
403.486	435.98
403.864	419.71
404.242	396.43
404.62	438.01
404.999	428.52
405.377	415.41
405.755	436.43
406.133	452.47
406.511	440.72
406.889	455.64
407.267	458.35
407.645	464.23
408.023	475.98
408.401	447.73
408.779	457.22
409.156	487.05
409.534	476.65
409.912	484.11
410.29	514.39
410.667	499.93
411.045	501.51
411.422	516.88
411.8	525.01
412.178	533.83
412.555	518.91
412.933	538.8
413.31	553.26
413.687	563.43
414.065	568.18
414.442	573.37
414.819	564.34
415.197	598.46
415.574	598.68
415.951	576.54
416.328	597.78
416.705	604.33
417.082	608.4
417.46	607.95
417.837	627.61
418.214	631.45
418.591	645.92
418.967	656.76
419.344	654.95
419.721	645.01
420.098	668.51
420.475	664.45
420.852	701.51
421.228	689.76
421.605	716.2
421.982	716.87
422.358	702.64
422.735	725.01
423.111	728.85
423.488	766.36
423.864	782.63
424.241	750.09
424.617	775.18
424.994	808.17
425.37	797.78
425.746	812.24
426.123	817.21
426.499	826.02
426.875	821.96
427.251	862.41
427.627	883.88
428.003	881.16
428.379	877.1
428.756	883.42
429.132	902.41
429.507	907.38
429.883	927.94
430.259	955.29
430.635	944.66
431.011	946.02
431.387	977.21
431.763	982.4
432.138	1001.16
432.514	1021.72
432.89	1033.25
433.265	1029.63
433.641	1056.75
434.016	1077.77
434.392	1075.06
434.767	1122.29
435.143	1106.02
435.518	1117.09
435.894	1160.03
436.269	1172.23
436.644	1183.75
437.02	1210.19
437.395	1209.29
437.77	1225.56
438.145	1253.81
438.52	1272.57
438.895	1280.47
439.271	1295.62
439.646	1326.12
440.021	1364.99
440.395	1348.5
440.77	1359.57
441.145	1381.26
441.52	1389.17
441.895	1410.64
442.27	1411.09
442.645	1417.87
443.019	1450.19
443.394	1458.55
443.769	1475.05
444.143	1492.9
444.518	1497.42
444.892	1524.08
445.267	1516.63
445.641	1534.25
446.016	1560.69
446.39	1569.28
446.764	1564.54
447.139	1628.49
447.513	1637.53
447.887	1600.47
448.262	1619.67
448.636	1620.13
449.01	1665.32
449.384	1673.01
449.758	1684.31
450.132	1722.72
450.506	1716.4
450.88	1723.4
451.254	1741.48
451.628	1797.3
452.002	1786.68
452.376	1785.32
452.75	1819.9
453.123	1824.64
453.497	1887.01
453.871	1853.12
454.244	1935.15
454.618	1935.82
454.992	1958.2
455.365	1967.69
455.739	1978.08
456.112	2022.15
456.486	2045.65
456.859	2063.73
457.232	2103.05
457.606	2058.99
457.979	2134.92
458.352	2164.75
458.725	2191.86
459.099	2195.25
459.472	2273.9
459.845	2273.22
460.218	2303.95
460.591	2323.39
460.964	2336.04
461.337	2390.28
461.71	2428.24
462.083	2433.89
462.456	2451.97
462.829	2502.82
463.201	2508.47
463.574	2561.57
463.947	2575.81
464.32	2659.42
464.692	2683.83
465.065	2697.39
465.438	2755.01
465.81	2790.94
466.183	2811.28
466.555	2810.38
466.928	2854.9
467.3	2887.21
467.672	2967.21
468.045	3052.41
468.417	3050.82
468.789	3052.18
469.161	3089.92
469.534	3191.16
469.906	3202.01
470.278	3293.08
470.65	3291.72
471.022	3391.38
471.394	3433.86
471.766	3475.22
472.138	3567.42
472.51	3591.15
472.882	3635.22
473.253	3707.76
473.625	3769
473.997	3850.58
474.369	3891.71
474.74	3936.68
475.112	4002.66
475.484	4115.88
475.855	4170.12
476.227	4228.87
476.598	4340.06
476.97	4365.37
477.341	4440.84
477.713	4533.27
478.084	4557.68
478.455	4753.83
478.827	4798.12
479.198	4922.19
479.569	4985.69
479.94	5106.59
480.311	5189.52
480.682	5272.46
481.053	5404.89
481.424	5527.14
481.795	5566.46
482.166	5716.97
482.537	5780.47
482.908	5928.26
483.279	5998.54
483.65	6089.61
484.021	6209.61
484.391	6333.45
484.762	6387.01
485.133	6401.47
485.503	6620.22
485.874	6737.05
486.244	6806.21
486.615	6888.01
486.985	7048.68
487.356	7217.95
487.726	7260.66
488.097	7455.68
488.467	7433.53
488.837	7598.05
489.207	7734.32
489.578	7876.23
489.948	7912.16
490.318	8056.79
490.688	8025.16
491.058	8254.75
491.428	8380.63
491.798	8422.66
492.168	8627.63
492.538	8658.13
492.908	8716.89
493.278	8898.81
493.648	8889.77
494.017	8987.39
494.387	9166.37
494.757	9125.69
495.126	9297.89
495.496	9285.91
495.866	9414.5
496.235	9467.38
496.605	9562.97
496.974	9609.75
497.344	9668.5
497.713	9754.83
498.082	9832.34
498.452	9895.84
498.821	9958.66
499.19	9971.55
499.559	10080.24
499.928	10181.94
500.298	10129.73
500.667	10291.99
501.036	10187.59
501.405	10390.07
501.774	10312.55
502.143	10441.82
502.512	10465.09
502.88	10538.76
503.249	10519.78
503.618	10588.7
503.987	10644.07
504.356	10635.48
504.724	10731.3
505.093	10724.52
505.462	10766.55
505.83	10799.77
506.199	10935.81
506.567	11003.38
506.936	11030.95
507.304	11135.36
507.672	11084.28
508.041	11147.56
508.409	11205.86
508.777	11236.37
509.145	11350.27
509.514	11283.6
509.882	11327.67
510.25	11385.07
510.618	11353.66
510.986	11356.59
511.354	11419.87
511.722	11557.72
512.09	11575.12
512.458	11553.43
512.826	11611.05
513.193	11587.77
513.561	11639.75
513.929	11707.32
514.297	11713.65
514.664	11728.34
515.032	11817.6
515.4	11785.51
515.767	11809.69
516.135	11835.45
516.502	11685.85
516.869	11922
517.237	11862.34
517.604	11896.47
517.972	11935.79
518.339	11873.87
518.706	11888.33
519.073	11951.15
519.44	11921.78
519.808	12011.94
520.175	11998.39
520.542	12112.73
520.909	12113.41
521.276	12036.58
521.643	12104.37
522.009	12154.09
522.376	12216.68
522.743	12084.94
523.11	12215.55
523.477	12313.63
523.843	12313.63
524.21	12320.18
524.577	12329.68
524.943	12357.7
525.31	12368.09
525.676	12418.94
526.043	12425.49
526.409	12411.93
526.776	12502.55
527.142	12474.98
527.508	12470.92
527.874	12511.82
528.241	12476.56
528.607	12446.28
528.973	12538.48
529.339	12421.88
529.705	12473.85
530.071	12480.41
530.437	12497.36
530.803	12438.83
531.169	12406.74
531.535	12411.93
531.901	12419.39
532.267	12333.74
532.632	12390.69
532.998	12286.74
533.364	12291.03
533.73	12260.98
534.095	12368.32
534.461	12218.27
534.826	12268.89
535.192	12203.13
535.557	12237.02
535.923	12181.88
536.288	12168.78
536.653	12156.12
537.019	12059.17
537.384	12055.11
537.749	12010.36
538.114	12021.44
538.479	11925.84
538.845	11859.18
539.21	11826.86
539.575	11851.72
539.94	11820.08
540.305	11772.85
540.67	11735.57
541.034	11683.82
541.399	11658.06
541.764	11611.28
542.129	11615.57
542.494	11536.7
542.858	11570.37
543.223	11528.34
543.587	11434.33
543.952	11447.89
544.316	11382.13
544.681	11326.99
545.045	11337.61
545.41	11293.32
545.774	11265.75
546.138	11117.96
546.503	11137.16
546.867	11133.78
547.231	11068.69
547.595	11045.42
547.959	10990.5
548.324	11002.25
548.688	10889.49
549.052	10911.86
549.416	10945.08
549.779	10829.83
550.143	10806.33
550.507	10745.54
550.871	10767.68
551.235	10674.35
551.599	10668.25
551.962	10678.87
552.326	10646.56
552.689	10617.18
553.053	10558.2
553.417	10453.57
553.78	10482.94
554.143	10479.55
554.507	10483.85
554.87	10402.72
555.234	10450.63
555.597	10378.77
555.96	10291.09
556.323	10311.42
556.686	10282.5
557.05	10278.43
557.413	10222.61
557.776	10255.83
558.139	10232.1
558.502	10244.31
558.865	10116.4
559.228	10256.74
559.59	10198.88
559.953	10100.58
560.316	10202.27
560.679	10183.07
561.041	10155.04
561.404	10161.37
561.767	10190.3
562.129	10142.84
562.492	10235.95
562.854	10161.6
563.217	10052.9
563.579	10115.5
563.941	10156.85
564.304	10122.5
564.666	10172.22
565.028	10125.67
565.39	10109.17
565.753	10122.05
566.115	10122.73
566.477	10185.33
566.839	10048.15
567.201	10180.13
567.563	10191.88
567.925	10170.86
568.287	10103.29
568.648	10160.02
569.01	10209.51
569.372	10176.96
569.734	10150.07
570.095	10212.44
570.457	10240.47
570.819	10172.44
571.18	10221.48
571.542	10155.72
571.903	10217.64
572.265	10179
572.626	10196.85
572.987	10181.71
573.349	10145.33
573.71	10173.12
574.071	10222.16
574.432	10218.09
574.794	10284.08
575.155	10235.04
575.516	10236.17
575.877	10281.82
576.238	10236.85
576.599	10236.62
576.96	10214.03
577.32	10212.44
577.681	10230.07
578.042	10308.03
578.403	10172.44
578.763	10197.75
579.124	10273.46
579.485	10241.14
579.845	10290.63
580.206	10230.97
580.566	10214.7
580.927	10135.38
581.287	10219
581.648	10186.91
582.008	10200.01
582.368	10188.94
582.728	10247.47
583.089	10183.29
583.449	10175.38
583.809	10200.69
584.169	10152.78
584.529	10141.94
584.889	10201.14
585.249	10142.84
585.609	10120.47
585.969	10141.94
586.329	10118.66
586.688	10132.67
587.048	9987.59
587.408	10044.31
587.768	10039.11
588.127	10110.3
588.487	9980.81
588.846	10139.9
589.206	9945.11
589.565	9991.21
589.925	10068.27
590.284	9970.87
590.643	9989.17
591.003	10073.69
591.362	9977.87
591.721	9973.58
592.08	10013.35
592.44	9984.65
592.799	10040.24
593.158	9982.84
593.517	9992.11
593.876	9954.82
594.235	9967.25
594.593	10001.38
594.952	10016.52
595.311	9909.4
595.67	9967.03
596.029	10012
596.387	9931.55
596.746	9887.03
597.104	9964.99
597.463	9910.98
597.822	9939.23
598.18	9852.68
598.538	9874.6
598.897	9865.79
599.255	9821.27
599.613	9897.2
599.972	9808.61
600.33	9932.68
600.688	9877.76
601.046	9869.63
601.404	9871.44
601.762	9910.08
602.12	9912.11
602.478	9925.22
602.836	9888.61
603.194	9805.67
603.552	9893.81
603.91	9837.76
604.268	9908.27
604.625	9836.86
604.983	9802.51
605.341	9856.07
605.698	9836.18
606.056	9844.32
606.413	9849.74
606.771	9853.36
607.128	9937.42
607.485	9808.39
607.843	9812.68
608.2	9893.13
608.557	9874.37
608.914	9801.61
609.272	9935.61
609.629	9824.88
609.986	9908.27
610.343	9858.1
610.7	9911.21
611.057	9945.11
611.414	9874.6
611.771	9912.56
612.127	9992.34
612.484	9804.77
612.841	9936.29
613.198	9892.23
613.554	9937.42
613.911	9956.86
614.267	9956.18
614.624	9939.46
614.98	9910.98
615.337	10008.38
615.693	10049.74
616.05	10044.76
616.406	10001.38
616.762	9974.03
617.118	9951.66
617.475	10031.88
617.831	9995.05
618.187	9969.96
618.543	10091.77
618.899	10044.09
619.255	10038.66
619.611	10036.63
619.967	10116.4
620.323	10043.18
620.678	10038.66
621.034	9975.39
621.39	9999.79
621.746	9916.18
622.101	10123.18
622.457	10122.28
622.812	10085.22
623.168	10106.46
623.523	10059.23
623.879	10046.57
624.234	9996.18
624.589	10068.49
624.945	10019.45
625.3	10073.92
625.655	10043.18
626.01	10024.2
626.365	10041.83
626.72	10082.96
627.075	10049.74
627.43	10033.01
627.785	10019.45
628.14	9981.49
628.495	10041.83
628.85	10043.86
629.205	10015.39
629.559	10011.32
629.914	9970.19
630.269	10052
630.623	9991.88
630.978	9909.63
631.332	9955.5
631.687	9928.83
632.041	9950.76
632.396	9926.58
632.75	9957.53
633.104	9941.26
633.459	9873.47
633.813	9897.2
634.167	9864.43
634.521	9877.54
634.875	9893.13
635.229	9844.32
635.583	9824.43
635.937	9788.95
636.291	9783.75
636.645	9724.77
636.999	9784.88
637.352	9775.62
637.706	9706.24
638.06	9740.59
638.413	9715.28
638.767	9746.92
639.121	9664.44
639.474	9621.95
639.828	9679.58
640.181	9643.87
640.534	9680.71
640.888	9662.4
641.241	9598.9
641.594	9642.29
641.947	9641.61
642.301	9600.93
642.654	9609.97
643.007	9533.37
643.36	9578.56
643.713	9586.7
644.066	9571.1
644.419	9530.65
644.771	9506.93
645.124	9352.35
645.477	9392.58
645.83	9356.42
646.182	9297.89
646.535	9278.68
646.888	9296.54
647.24	9172.24
647.593	9261.06
647.945	9279.81
648.298	9195.07
648.65	9174.28
649.002	9194.84
649.355	9216.76
649.707	9236.65
650.059	9324.56
650.411	9351.68
650.763	9391.45
651.115	9498.56
651.467	9442.07
651.819	9467.83
652.171	9438.23
652.523	9469.64
652.875	9462.18
653.227	9386.02
653.578	9428.74
653.93	9485.91
654.282	9391.67
654.633	9452.46
654.985	9400.26
655.337	9400.71
655.688	9482.97
656.039	9438.9
656.391	9335.63
656.742	9444.55
657.094	9430.99
657.445	9535.4
657.796	9448.62
658.147	9394.61
658.498	9455.18
658.849	9480.71
659.2	9432.35
659.551	9398
659.902	9490.88
660.253	9482.07
660.604	9503.54
660.955	9359.81
661.306	9505.8
661.656	9475.97
662.007	9477.32
662.358	9479.58
662.708	9533.37
663.059	9520.03
663.409	9456.53
663.76	9481.39
664.11	9442.29
664.461	9427.38
664.811	9479.58
665.161	9475.74
665.511	9485.23
665.862	9514.83
666.212	9505.8
666.562	9534.04
666.912	9429.41
667.262	9375.18
667.612	9513.03
667.962	9488.39
668.312	9440.71
668.662	9514.61
669.011	9465.57
669.361	9522.29
669.711	9529.52
670.06	9454.5
670.41	9508.28
670.76	9449.3
671.109	9488.39
671.459	9501.05
671.808	9458.56
672.157	9451.11
672.507	9394.84
672.856	9473.03
673.205	9394.39
673.554	9423.76
673.904	9403.65
674.253	9457.66
674.602	9354.16
674.951	9305.35
675.3	9262.64
675.649	9351.22
675.998	9360.94
676.346	9338.12
676.695	9343.54
677.044	9334.5
677.393	9303.99
677.741	9329.98
678.09	9369.08
678.438	9331.79
678.787	9267.84
679.135	9271.45
679.484	9251.34
679.832	9220.15
680.181	9227.16
680.529	9195.97
680.877	9167.73
681.225	9193.71
681.573	9179.93
681.922	9173.83
682.27	9086.6
682.618	9122.08
682.966	9146.48
683.314	9142.87
683.661	9101.06
684.009	9019.71
684.357	8983.55
684.705	9049.76
685.053	8988.29
685.4	8918.47
685.748	8942.19
686.095	8949.43
686.443	8925.92
686.79	8875.53
687.138	8919.82
687.485	8830.11
687.832	8810.45
688.18	8877.11
688.527	8742.65
688.874	8756.66
689.221	8717.57
689.568	8669.66
689.915	8668.98
690.262	8684.35
690.609	8621.3
690.956	8641.19
691.303	8577.46
691.65	8585.59
691.997	8560.28
692.344	8483.9
692.69	8464.92
693.037	8448.42
693.383	8389.67
693.73	8394.19
694.077	8326.17
694.423	8340.18
694.769	8328.88
695.116	8290.23
695.462	8221.99
695.808	8242.55
696.155	8274.19
696.501	8142.89
696.847	8182.67
697.193	8071.26
697.539	8187.64
697.885	8051.37
698.231	8005.04
698.577	8002.56
698.923	8013.86
699.269	7953.52
699.614	7883.47
699.96	7874.43
700.306	7912.39
700.651	7786.07
700.997	7787.87
701.342	7734.99
701.688	7772.06
702.033	7720.53
702.379	7668.1
702.724	7671.27
703.069	7704.71
703.415	7605.05
703.76	7618.39
704.105	7597.37
704.45	7503.14
704.795	7497.94
705.14	7463.14
705.485	7426.75
705.83	7374.78
706.175	7401.44
706.52	7386.3
706.865	7392.63
707.209	7306.98
707.554	7338.17
707.899	7307.21
708.243	7236.48
708.588	7275.8
708.932	7212.97
709.277	7188.79
709.621	7167.1
709.966	7123.71
710.31	7135.91
710.654	7131.85
710.998	7134.78
711.342	7175.69
711.687	7100.43
712.031	7049.81
712.375	6943.15
712.719	7074.45
713.063	7041
713.407	7037.61
713.75	6996.93
714.094	6937.73
714.438	6929.59
714.782	6942.47
715.125	6945.41
715.469	6924.85
715.812	6895.47
716.156	6908.58
716.499	6841.46
716.843	6884.85
717.186	6825.19
717.53	6817.5
717.873	6851.18
718.216	6905.86
718.559	6810.27
718.902	6788.8
719.246	6824.28
719.589	6746.32
719.932	6732.99
720.275	6732.53
720.617	6767.79
720.96	6720.56
721.303	6729.37
721.646	6754.68
721.989	6722.82
722.331	6745.19
722.674	6731.4
723.016	6703.61
723.359	6664.97
723.701	6676.49
724.044	6648.47
724.386	6605.08
724.729	6625.42
725.071	6623.39
725.413	6678.3
725.755	6635.36
726.097	6661.35
726.439	6598.08
726.782	6623.16
727.124	6637.17
727.465	6620
727.807	6608.92
728.149	6536.38
728.491	6553.1
728.833	6554.69
729.175	6622.93
729.516	6594.46
729.858	6553.78
730.199	6625.42
730.541	6565.31
730.882	6581.13
731.224	6553.1
731.565	6566.44
731.906	6594.23
732.248	6601.69
732.589	6554.01
732.93	6533.44
733.271	6575.93
733.612	6545.65
733.953	6592.43
734.294	6514.01
734.635	6562.6
734.976	6615.48
735.317	6539.09
735.658	6583.61
735.999	6579.54
736.339	6599.88
736.68	6605.08
737.021	6602.82
737.361	6581.8
737.702	6625.42
738.042	6606.89
738.383	6603.72
738.723	6575.93
739.063	6600.11
739.404	6654.12
739.744	6709.48
740.084	6643.05
740.424	6675.59
740.764	6641.92
741.104	6714
741.444	6650.73
741.784	6667.68
742.124	6685.08
742.464	6752.2
742.804	6799.88
743.143	6779.54
743.483	6782.25
743.823	6797.62
744.162	6816.15
744.502	6879.88
744.841	6887.33
745.181	6896.37
745.52	6900.44
745.86	6930.95
746.199	7002.36
746.538	7075.35
746.877	7071.51
747.216	7125.29
747.556	7141.79
747.895	7209.36
748.234	7217.04
748.573	7303.14
748.911	7322.12
749.25	7368.68
749.589	7405.74
749.928	7500.42
750.267	7528.9
750.605	7649.35
750.944	7738.61
751.283	7746.97
751.621	7825.16
751.96	7889.79
752.298	8032.84
752.636	8070.8
752.975	8148.09
753.313	8269.22
753.651	8343.79
753.989	8492.71
754.327	8520.74
754.666	8615.2
755.004	8753.05
755.342	8891.35
755.679	9004.79
756.017	9145.8
756.355	9250.43
756.693	9381.5
757.031	9472.12
757.368	9653.14
757.706	9777.43
758.044	9875.73
758.381	10051.09
758.719	10250.63
759.056	10373.8
759.394	10485.2
759.731	10598.65
760.068	10721.13
760.405	10854.01
760.743	11029.6
761.08	11246.99
761.417	11352.53
761.754	11599.3
762.091	11776.02
762.428	11931.72
762.765	11987.76
763.102	12216.46
763.438	12404.02
