Data from hue_30_FLMS001491_58.txt Node
Date: Mon Feb 06 15:05:36 GMT 2017
User: dcchb
Spectrometer: FLMS00149
Trigger mode: 0
Integration Time (sec): 2.000000E-2
Scans to average: 10
Electric dark correction enabled: true
Nonlinearity correction enabled: false
Boxcar width: 0
XAxis mode: Wavelengths
Number of Pixels in Spectrum: 2048
>>>>>Begin Spectral Data<<<<<
341.393	-7.99
341.776	-7.99
342.16	-7.99
342.543	-58.16
342.927	-71.27
343.31	-45.06
343.693	-63.81
344.077	-89.35
344.46	-62.23
344.843	-42.8
345.226	-37.37
345.61	-42.34
345.993	-3.7
346.376	-8.9
346.759	22.97
347.142	25.68
347.525	41.04
347.908	43.08
348.291	71.1
348.674	84.21
349.057	107.48
349.44	125.11
349.823	162.4
350.206	159.23
350.588	203.75
350.971	217.31
351.354	232.9
351.737	234.94
352.119	247.37
352.502	262.06
352.884	286.46
353.267	245.11
353.65	290.53
354.032	288.72
354.414	309.74
354.797	319.45
355.179	314.71
355.562	323.07
355.944	333.69
356.326	323.75
356.709	311.09
357.091	340.92
357.473	330.08
357.855	330.53
358.238	340.7
358.62	313.35
359.002	339.79
359.384	335.05
359.766	344.31
360.148	340.7
360.53	346.8
360.912	340.92
361.294	323.97
361.676	344.76
362.057	323.07
362.439	329.85
362.821	335.73
363.203	316.74
363.584	317.42
363.966	331.43
364.348	314.71
364.729	321.26
365.111	310.64
365.493	306.8
365.874	308.16
366.256	317.2
366.637	313.81
367.019	304.99
367.4	317.87
367.781	308.38
368.163	323.75
368.544	309.06
368.925	314.94
369.306	321.94
369.688	306.8
370.069	320.13
370.45	314.71
370.831	339.79
371.212	293.24
371.593	323.07
371.974	317.87
372.355	326.01
372.736	325.56
373.117	313.81
373.498	319
373.879	298.89
374.26	303.64
374.641	323.3
375.021	321.49
375.402	319.91
375.783	303.86
376.163	313.58
376.544	322.84
376.925	324.2
377.305	323.75
377.686	329.85
378.066	320.81
378.447	336.4
378.827	321.26
379.208	333.92
379.588	320.58
379.968	335.95
380.349	324.65
380.729	323.3
381.109	320.58
381.489	347.02
381.87	323.3
382.25	323.52
382.63	334.6
383.01	348.15
383.39	328.49
383.77	330.3
384.15	359.68
384.53	328.72
384.91	349.96
385.29	347.02
385.67	351.77
386.049	359.45
386.429	350.87
386.809	339.34
387.189	347.48
387.568	329.4
387.948	344.76
388.328	349.96
388.707	353.13
389.087	351.09
389.466	343.41
389.846	372.11
390.225	357.87
390.605	360.81
390.984	362.17
391.363	370.53
391.743	372.33
392.122	349.96
392.501	366.23
392.881	357.65
393.26	378.89
393.639	367.36
394.018	372.33
394.397	389.06
394.776	364.43
395.155	374.37
395.534	382.05
395.913	372.56
396.292	377.31
396.671	373.01
397.05	392.9
397.429	393.13
397.808	382.96
398.186	381.83
398.565	379.57
398.944	393.8
399.323	392.22
399.701	393.58
400.08	374.82
400.458	398.1
400.837	390.19
401.215	385.67
401.594	409.85
401.972	391.09
402.351	396.97
402.729	401.03
403.107	388.83
403.486	426.34
403.864	412.79
404.242	399
404.62	412.79
404.999	402.16
405.377	419.79
405.755	413.46
406.133	421.15
406.511	408.72
406.889	415.72
407.267	420.24
407.645	435.16
408.023	419.34
408.401	427.47
408.779	428.38
409.156	443.97
409.534	433.8
409.912	424.76
410.29	456.4
410.667	442.39
411.045	448.49
411.422	449.62
411.8	451.88
412.178	437.87
412.555	465.67
412.933	460.92
413.31	489.62
413.687	452.78
414.065	476.06
414.442	454.59
414.819	464.76
415.197	470.41
415.574	471.77
415.951	481.94
416.328	464.99
416.705	483.97
417.082	479.45
417.46	511.31
417.837	516.06
418.214	505.21
418.591	494.14
418.967	487.59
419.344	509.51
419.721	506.12
420.098	514.7
420.475	514.48
420.852	528.49
421.228	519.22
421.605	520.35
421.982	533.46
422.358	513.57
422.735	537.98
423.111	546.12
423.488	537.53
423.864	526.91
424.241	558.09
424.617	537.75
424.994	530.07
425.37	542.05
425.746	525.33
426.123	548.6
426.499	557.19
426.875	563.06
427.251	562.61
427.627	575.49
428.003	568.71
428.379	572.1
428.756	573.46
429.132	603.97
429.507	615.94
429.883	594.25
430.259	596.06
430.635	588.6
431.011	593.8
431.387	603.74
431.763	612.33
432.138	615.72
432.514	616.62
432.89	630.18
433.265	648.94
433.641	665.89
434.016	636.96
434.392	663.85
434.767	675.38
435.143	660.46
435.518	655.27
435.894	650.97
436.269	668.6
436.644	695.94
437.02	684.87
437.395	674.25
437.77	703.17
438.145	682.38
438.52	705.66
438.895	701.14
439.271	720.8
439.646	711.31
440.021	736.85
440.395	737.75
440.77	710.63
441.145	721.03
441.52	749.95
441.895	710.86
442.27	744.3
442.645	761.93
443.019	761.03
443.394	728.03
443.769	745.21
444.143	765.09
444.518	746.11
444.892	770.97
445.267	779.1
445.641	780.69
446.016	799.44
446.39	795.6
446.764	794.24
447.139	763.51
447.513	803.96
447.887	812.32
448.262	799.89
448.636	814.58
449.01	826.79
449.384	817.07
449.758	846.45
450.132	788.37
450.506	833.11
450.88	852.1
451.254	842.38
451.628	853.23
452.002	850.97
452.376	871.3
452.75	862.72
453.123	853.23
453.497	874.47
453.871	871.08
454.244	882.15
454.618	905.43
454.992	916.05
455.365	904.07
455.739	911.3
456.112	925.09
456.486	948.82
456.859	980.91
457.232	960.79
457.606	963.05
457.979	988.14
458.352	976.61
458.725	1008.93
459.099	1010.74
459.472	1049.15
459.845	1017.06
460.218	1047.35
460.591	1018.19
460.964	1047.57
461.337	1071.07
461.71	1076.95
462.083	1098.42
462.456	1105.87
462.829	1113.33
463.201	1121.47
463.574	1121.47
463.947	1123.05
464.32	1148.36
464.692	1176.38
465.065	1166.44
465.438	1203.5
465.81	1182.03
466.183	1258.19
466.555	1225.19
466.928	1252.99
467.3	1270.39
467.672	1250.73
468.045	1311.07
468.417	1299.77
468.789	1299.99
469.161	1327.11
469.534	1376.83
469.906	1399.65
470.278	1394.45
470.65	1400.1
471.022	1458.18
471.394	1471.06
471.766	1466.77
472.138	1478.97
472.51	1511.06
472.882	1563.94
473.253	1575.02
473.625	1578.63
473.997	1607.78
474.369	1624.73
474.74	1674.45
475.112	1706.09
475.484	1694.79
475.855	1750.15
476.227	1784.5
476.598	1820.88
476.97	1851.17
477.341	1879.87
477.713	1902.92
478.084	1962.12
478.455	1998.96
478.827	2009.58
479.198	2076.92
479.569	2113.98
479.94	2185.85
480.311	2162.57
480.682	2242.34
481.053	2284.6
481.424	2349.46
481.795	2362.11
482.166	2399.85
482.537	2467.2
482.908	2544.93
483.279	2560.53
483.65	2605.04
484.021	2700.18
484.391	2745.83
484.762	2827.86
485.133	2823.57
485.503	2899.73
485.874	2941.98
486.244	2987.18
486.615	3050.91
486.985	3104.01
487.356	3170.91
487.726	3264.24
488.097	3301.07
488.467	3367.74
488.837	3438.47
489.207	3449.99
489.578	3528.18
489.948	3592.14
490.318	3606.15
490.688	3671.91
491.058	3793.94
491.428	3840.94
491.798	3890.89
492.168	3975.63
492.538	4054.95
492.908	4046.81
493.278	4129.98
493.648	4160.48
494.017	4195.74
494.387	4296.75
494.757	4313.7
495.126	4369.74
495.496	4422.17
495.866	4467.14
496.235	4550.76
496.605	4591.21
496.974	4627.36
497.344	4637.76
497.713	4721.15
498.082	4762.28
498.452	4848.83
498.821	4864.42
499.19	4891.76
499.559	4989.84
499.928	4997.52
500.298	5055.15
500.667	5138.09
501.036	5119.78
501.405	5170.17
501.774	5185.09
502.143	5240.68
502.512	5301.02
502.88	5331.3
503.249	5393.22
503.618	5432.31
503.987	5460.34
504.356	5458.98
504.724	5534.68
505.093	5560.22
505.462	5574.68
505.83	5571.97
506.199	5666.88
506.567	5770.16
506.936	5703.27
507.304	5794.79
507.672	5804.96
508.041	5890.61
508.409	5875.69
508.777	5961.34
509.145	5994.56
509.514	6015.35
509.882	6086.08
510.25	6064.16
510.618	6068.68
510.986	6075.91
511.354	6210.6
511.722	6168.57
512.09	6246.3
512.458	6243.59
512.826	6309.58
513.193	6339.18
513.561	6370.82
513.929	6410.82
514.297	6516.35
514.664	6454.66
515.032	6527.88
515.4	6554.32
515.767	6561.1
516.135	6622.79
516.502	6519.52
516.869	6686.75
517.237	6712.96
517.604	6741.88
517.972	6782.11
518.339	6793.86
518.706	6793.86
519.073	6796.8
519.44	6858.04
519.808	6887.87
520.175	6895.1
520.542	6937.59
520.909	7043.8
521.276	7023.69
521.643	7058.49
522.009	7139.16
522.376	7137.81
522.743	7161.99
523.11	7203.79
523.477	7290.57
523.843	7355.43
524.21	7409.89
524.577	7442.88
524.943	7445.14
525.31	7523.11
525.676	7568.98
526.043	7575.76
526.409	7604.24
526.776	7692.82
527.142	7747.73
527.508	7755.19
527.874	7795.87
528.241	7812.82
528.607	7882.65
528.973	7981.17
529.339	7948.41
529.705	8004.45
530.071	8052.58
530.437	8051.91
530.803	8136.2
531.169	8219.81
531.535	8224.78
531.901	8203.99
532.267	8262.75
532.632	8348.17
532.998	8392.24
533.364	8437.89
533.73	8387.49
534.095	8396.08
534.461	8523.31
534.826	8581.38
535.192	8609.18
535.557	8632.46
535.923	8627.94
536.288	8681.72
536.653	8772.11
537.019	8709.74
537.384	8695.73
537.749	8836.07
538.114	8814.15
538.479	8800.14
538.845	8915.16
539.21	8947.02
539.575	8966.23
539.94	8984.99
540.305	8993.58
540.67	8995.84
541.034	9033.58
541.399	9196.74
541.764	9165.78
542.129	9218.43
542.494	9235.38
542.858	9299.11
543.223	9304.76
543.587	9365.77
543.952	9361.93
544.316	9459.33
544.681	9426.56
545.045	9453.68
545.41	9555.37
545.774	9583.62
546.138	9603.73
546.503	9693.67
546.867	9588.82
547.231	9742.94
547.595	9761.69
547.959	9866.1
548.324	9851.86
548.688	9849.83
549.052	9840.33
549.416	9909.03
549.779	9888.47
550.143	9980.67
550.507	10053.21
550.871	10048.01
551.235	10022.7
551.599	10159.42
551.962	10168.24
552.326	10254.56
552.689	10228.57
553.053	10189.48
553.417	10214.11
553.78	10373.2
554.143	10284.39
554.507	10401
554.87	10511.05
555.234	10483.71
555.597	10495.68
555.96	10531.39
556.323	10588.11
556.686	10562.35
557.05	10598.96
557.413	10655.68
557.776	10648.9
558.139	10776.81
558.502	10756.69
558.865	10772.97
559.228	10822.68
559.59	10847.09
559.953	10878.73
560.316	11036.91
560.679	10943.81
561.041	11080.75
561.404	11125.72
561.767	11174.76
562.129	11094.76
562.492	11278.04
562.854	11276.91
563.217	11159.85
563.579	11252.27
563.941	11323.46
564.304	11403.91
564.666	11472.83
565.028	11420.41
565.39	11482.78
565.753	11524.36
566.115	11560.06
566.477	11607.97
566.839	11666.73
567.201	11711.47
567.563	11736.1
567.925	11825.59
568.287	11776.78
568.648	11890.68
569.01	11934.97
569.372	11919.83
569.734	11928.64
570.095	12043.89
570.457	12112.59
570.819	12176.32
571.18	12179.03
571.542	12292.02
571.903	12285.69
572.265	12364.34
572.626	12395.52
572.987	12425.13
573.349	12483.43
573.71	12560.04
574.071	12714.16
574.432	12653.59
574.794	12895.4
575.155	12846.13
575.516	12856.3
575.877	13028.95
576.238	13069.63
576.599	13154.82
576.96	13252.9
577.32	13309.62
577.681	13460.8
578.042	13543.51
578.403	13598.88
578.763	13637.97
579.124	13781.25
579.485	13887.91
579.845	14122.93
580.206	14182.59
580.566	14251.74
580.927	14334.68
581.287	14619.42
581.648	14711.39
582.008	14919.97
582.368	14994.55
582.728	15149.35
583.089	15335.56
583.449	15475.89
583.809	15637.7
584.169	15794.98
584.529	15946.84
584.889	16278.13
585.249	16327.17
585.609	16535.98
585.969	16861.84
586.329	17069.75
586.688	17209.41
587.048	17462.51
587.408	17534.6
587.768	17818.2
588.127	17927.13
588.487	18268.81
588.846	18610.73
589.206	18720.55
589.565	18982.47
589.925	19189.92
590.284	19378.39
590.643	19703.8
591.003	20051.14
591.362	20222.66
591.721	20341.75
592.08	20728.18
592.44	21021.74
592.799	21154.16
593.158	21441.84
593.517	21722.06
593.876	22036.62
594.235	22139.45
594.593	22443.62
594.952	22766.32
595.311	22889.03
595.67	23322.69
596.029	23525.62
596.387	23945.27
596.746	24308.65
597.104	24252.16
597.463	24547.97
597.822	25035.42
598.18	24995.64
598.538	25241.29
598.897	25629.75
599.255	25704.1
599.613	26329.84
599.972	26329.17
600.33	26610.29
600.688	26739.78
601.046	27031.07
601.404	27374.79
601.762	27504.05
602.12	27971.38
602.478	28106.07
602.836	28272.39
603.194	28337.02
603.552	28728.2
603.91	28829.89
604.268	29176.1
604.625	29307.39
604.983	29743.54
605.341	29685.24
605.698	29986.02
606.056	30407.7
606.413	30384.2
606.771	30618.32
607.128	30856.28
607.485	30904.19
607.843	30943.96
608.2	31372.2
608.557	31595.47
608.914	31675.47
609.272	31936.02
609.629	32084.5
609.986	32562.45
610.343	32442.45
610.7	32822.1
611.057	32870.01
611.414	33021.65
611.771	33152.72
612.127	33357.46
612.484	33472.71
612.841	33853.71
613.198	33726.71
613.554	33923.77
613.911	34248.28
614.267	34321.5
614.624	34436.52
614.98	34441.27
615.337	34884.2
615.693	34900.92
616.05	34884.65
616.406	35063.17
616.762	35251.19
617.118	35378.19
617.475	35341.36
617.831	35559.88
618.187	35747
618.543	35811.85
618.899	36158.74
619.255	36155.57
619.611	36228.79
619.967	36268.11
620.323	36550.37
620.678	36586.07
621.034	36514.66
621.39	36565.28
621.746	36694.09
622.101	37081.88
622.457	36854.77
622.812	36910.58
623.168	37019.51
623.523	37082.56
623.879	37282.1
624.234	37192.16
624.589	37268.99
624.945	37251.37
625.3	37441.87
625.655	37502.66
626.01	37588.53
626.365	37723.22
626.72	37722.31
627.075	37595.76
627.43	37708.53
627.785	37842.08
628.14	37831.91
628.495	37935.87
628.85	37965.24
629.205	37858.35
629.559	38118.24
629.914	37910.33
630.269	38089.54
630.623	38016.99
630.978	37974.96
631.332	38157.1
631.687	38045.92
632.041	38216.76
632.396	38206.14
632.75	38120.04
633.104	38160.95
633.459	38106.03
633.813	38021.51
634.167	38183.54
634.521	38106.94
634.875	38152.58
635.229	38203.88
635.583	38102.42
635.937	38066.48
636.291	38119.59
636.645	38165.47
636.999	38021.29
637.352	38084.56
637.706	37940.84
638.06	38118.91
638.413	37955.08
638.767	38080.72
639.121	38066.03
639.474	37711.92
639.828	37860.16
640.181	38019.48
640.534	37942.42
640.888	37838.69
641.241	37735.65
641.594	37811.8
641.947	37903.1
642.301	37956.88
642.654	37896.32
643.007	37840.28
643.36	37808.64
643.713	37893.83
644.066	37877.56
644.419	37758.7
644.771	37505.82
645.124	37124.14
645.477	37010.02
645.83	36830.13
646.182	36697.48
646.535	36761.21
646.888	36707.2
647.24	36616.35
647.593	36737.48
647.945	36650.25
648.298	36422.91
648.65	36457.94
649.002	36457.71
649.355	36522.34
649.707	36457.49
650.059	36574.55
650.411	37010.02
650.763	37113.97
651.115	37454.75
651.467	37487.07
651.819	37371.36
652.171	37238.48
652.523	37183.34
652.875	37194.87
653.227	37071.71
653.578	37334.53
653.93	37351.25
654.282	37131.37
654.633	36891.6
654.985	37204.59
655.337	37122.33
655.688	37134.76
656.039	37100.86
656.391	36856.12
656.742	36994.2
657.094	37028.09
657.445	37094.99
657.796	37049.11
658.147	36982.9
658.498	36943.35
658.849	37054.53
659.2	37001.2
659.551	36920.75
659.902	37043.24
660.253	36980.64
660.604	36980.41
660.955	36761.89
661.306	36862.9
661.656	36955.78
662.007	36833.75
662.358	36991.03
662.708	36899.51
663.059	36796.24
663.409	36500.2
663.76	36824.94
664.11	36963.46
664.461	36865.39
664.811	36905.61
665.161	36897.7
665.511	36722.79
665.862	36841.88
666.212	37010.24
666.562	36950.81
666.912	36772.06
667.262	36877.59
667.612	36812.96
667.962	36910.81
668.312	36769.12
668.662	36978.15
669.011	36714.66
669.361	36661.32
669.711	36689.12
670.06	36635.56
670.41	36573.19
670.76	36727.54
671.109	36803.47
671.459	36595.11
671.808	36565.73
672.157	36705.39
672.507	36409.13
672.856	36481.44
673.205	36513.53
673.554	36723.92
673.904	36498.39
674.253	36654.54
674.602	36435.34
674.951	36057.95
675.3	35839.88
675.649	36355.57
675.998	36386.3
676.346	36463.82
676.695	36644.83
677.044	36287.55
677.393	36332.29
677.741	36378.17
678.09	36308.11
678.438	36192.86
678.787	36217.95
679.135	36250.49
679.484	36013.88
679.832	36189.25
680.181	35926.88
680.529	36015.92
680.877	35880.33
681.225	35979.76
681.573	36259.07
681.922	35865.19
682.27	35726.66
682.618	35926.88
682.966	35689.15
683.314	35946.31
683.661	35718.07
684.009	35611.41
684.357	35634.23
684.705	35649.37
685.053	35504.97
685.4	35561.92
685.748	35369.15
686.095	35340.23
686.443	35289.61
686.79	35074.93
687.138	35117.64
687.485	35142.72
687.832	34919.68
688.18	35042.38
688.527	34751.77
688.874	34775.05
689.221	34808.49
689.568	34513.58
689.915	34527.82
690.262	34526.92
690.609	34557.88
690.956	34278.34
691.303	34407.15
691.65	34206.93
691.997	34115.85
692.344	33885.13
692.69	34006.48
693.037	33943.88
693.383	33842.19
693.73	33860.04
694.077	33594.29
694.423	33667.28
694.769	33526.94
695.116	33386.16
695.462	33352.03
695.808	33256.22
696.155	33404.23
696.501	33166.95
696.847	32975.09
697.193	32813.97
697.539	33038.59
697.885	32804.02
698.231	32601.54
698.577	32684.25
698.923	32566.29
699.269	32326.07
699.614	32312.96
699.96	32136.47
700.306	32251.5
700.651	32023.71
700.997	32001.79
701.342	31951.62
701.688	31869.59
702.033	31847.67
702.379	31784.39
702.724	31765.18
703.069	31862.81
703.415	31247.46
703.76	31564.74
704.105	31457.39
704.45	31308.47
704.795	31214.01
705.14	31078.87
705.485	31125.2
705.83	30965.43
706.175	31000.23
706.52	30859.22
706.865	30703.97
707.209	30771.76
707.554	30555.5
707.899	30695.15
708.243	30536.06
708.588	30461.49
708.932	30261.49
709.277	30148.73
709.621	30215.17
709.966	30000.93
710.31	30167.26
710.654	29871.9
710.998	29982.4
711.342	29950.54
711.687	29901.95
712.031	29677.33
712.375	29578.35
712.719	29652.24
713.063	29620.15
713.407	29616.31
713.75	29349.65
714.094	29523.43
714.438	29423.1
714.782	29332.25
715.125	29262.87
715.469	29280.28
715.812	29089.55
716.156	28961.87
716.499	28892.94
716.843	29020.17
717.186	28780.18
717.53	28990.11
717.873	28987.18
718.216	28854.07
718.559	28659.05
718.902	28611.82
719.246	28558.94
719.589	28452.95
719.932	28501.54
720.275	28447.3
720.617	28326.18
720.96	28292.5
721.303	28432.39
721.646	28217.03
721.989	28150.81
722.331	28236.69
722.674	28108.33
723.016	28151.04
723.359	28026.3
723.701	28067.43
724.044	27942.68
724.386	27832.18
724.729	27969.35
725.071	27839.64
725.413	27822.01
725.755	27780.2
726.097	27716.47
726.439	27556.03
726.782	27616.36
727.124	27676.02
727.465	27543.6
727.807	27529.59
728.149	27398.29
728.491	27408.69
728.833	27535.91
729.175	27376.14
729.516	27263.61
729.858	27155.36
730.199	27242.36
730.541	27225.64
730.882	27156.94
731.224	27172.31
731.565	26999.43
731.906	27146.55
732.248	27074.46
732.589	26817.29
732.93	26758.31
733.271	26719.89
733.612	26810.28
733.953	26780.91
734.294	26761.47
734.635	26531.42
734.976	26723.51
735.317	26642.83
735.658	26563.06
735.999	26585.2
736.339	26542.49
736.68	26489.61
737.021	26463.4
737.361	26266.34
737.702	26439.45
738.042	26277.19
738.383	26234.03
738.723	26290.3
739.063	26148.15
739.404	26260.47
739.744	26056.41
740.084	26055.73
740.424	26071.55
740.764	26054.15
741.104	26097.53
741.444	25911.55
741.784	25918.33
742.124	25988.84
742.464	25795.85
742.804	25912.23
743.143	25690.99
743.483	25709.97
743.823	25653.03
744.162	25597.21
744.502	25680.82
744.841	25537.77
745.181	25686.92
745.52	25500.71
745.86	25590.43
746.199	25457.32
746.538	25362.19
746.877	25360.38
747.216	25426.82
747.556	25357.67
747.895	25370.55
748.234	25241.74
748.573	25073.38
748.911	25183.89
749.25	25168.29
749.589	25095.53
749.928	25089.43
750.267	25141.18
750.605	25028.86
750.944	25075.87
751.283	24875.42
751.621	25048.07
751.96	24813.05
752.298	24780.73
752.636	24796.78
752.975	24635.43
753.313	24630
753.651	24755.42
753.989	24625.48
754.327	24471.14
754.666	24404.02
755.004	24516.33
755.342	24479.05
755.679	24423.45
756.017	24267.75
756.355	24329.22
756.693	24229.11
757.031	24290.8
757.368	24091.94
757.706	24036.8
758.044	24025.27
758.381	24057.59
758.719	23944.6
759.056	23923.58
