Data from hue_110_FLMS001491_00090.txt Node
Date: Tue Feb 07 17:01:57 GMT 2017
User: dcchb
Spectrometer: FLMS00149
Trigger mode: 0
Integration Time (sec): 2.000000E-2
Scans to average: 10
Electric dark correction enabled: true
Nonlinearity correction enabled: false
Boxcar width: 0
XAxis mode: Wavelengths
Number of Pixels in Spectrum: 2048
>>>>>Begin Spectral Data<<<<<
341.393	-20.85
341.776	-20.85
342.16	-20.85
342.543	-61.3
342.927	-48.19
343.31	-83.67
343.693	-80.05
344.077	-54.07
344.46	-54.07
344.843	-58.59
345.226	-26.04
345.61	-25.59
345.993	-42.54
346.376	-7.97
346.759	10.34
347.142	31.36
347.525	40.17
347.908	61.86
348.291	81.98
348.674	87.62
349.057	119.26
349.44	137.79
349.823	144.12
350.206	162.2
350.588	193.84
350.971	191.35
351.354	229.09
351.737	253.72
352.119	250.11
352.502	249.88
352.884	257.34
353.267	273.16
353.65	293.27
354.032	294.63
354.414	310.22
354.797	315.42
355.179	331.46
355.562	326.49
355.944	318.35
356.326	326.71
356.709	340.73
357.091	337.56
357.473	342.08
357.855	351.35
358.238	341.18
358.62	328.52
359.002	353.83
359.384	341.4
359.766	329.88
360.148	345.02
360.53	356.09
360.912	352.93
361.294	338.47
361.676	318.13
362.057	326.26
362.439	328.3
362.821	340.27
363.203	330.78
363.584	332.36
363.966	349.76
364.348	320.61
364.729	309.31
365.111	322.42
365.493	314.74
365.874	311.35
366.256	323.78
366.637	317.68
367.019	314.51
367.4	323.78
367.781	330.1
368.163	328.52
368.544	308.41
368.925	317.45
369.306	339.37
369.688	310.22
370.069	319.94
370.45	322.19
370.831	323.78
371.212	316.32
371.593	294.63
371.974	305.92
372.355	311.8
372.736	306.15
373.117	319.03
373.498	320.61
373.879	320.39
374.26	302.53
374.641	327.17
375.021	320.61
375.402	306.38
375.783	311.8
376.163	338.69
376.544	330.78
376.925	327.62
377.305	320.39
377.686	322.65
378.066	319.03
378.447	329.65
378.827	337.11
379.208	360.16
379.588	339.37
379.968	317.68
380.349	333.72
380.729	338.92
381.109	330.1
381.489	336.21
381.87	333.27
382.25	352.25
382.63	336.88
383.01	330.1
383.39	364.45
383.77	339.6
384.15	309.54
384.53	352.02
384.91	369.2
385.29	345.7
385.67	349.09
386.049	363.32
386.429	335.75
386.809	361.74
387.189	366.49
387.568	358.8
387.948	349.54
388.328	356.09
388.707	366.26
389.087	352.48
389.466	365.81
389.846	368.97
390.225	372.14
390.605	361.06
390.984	386.6
391.363	376.88
391.743	359.71
392.122	379.59
392.501	370.78
392.881	380.72
393.26	381.63
393.639	364.68
394.018	373.94
394.397	379.59
394.776	379.59
395.155	364.68
395.534	383.66
395.913	393.15
396.292	383.66
396.671	385.02
397.05	392.93
397.429	388.86
397.808	388.41
398.186	390.44
398.565	387.5
398.944	390.22
399.323	383.66
399.701	371.69
400.08	406.71
400.458	379.37
400.837	391.57
401.215	407.84
401.594	415.53
401.972	415.07
402.351	408.97
402.729	409.65
403.107	402.19
403.486	436.77
403.864	407.62
404.242	417.11
404.62	432.02
404.999	435.64
405.377	437.67
405.755	433.6
406.133	430.44
406.511	434.06
406.889	436.09
407.267	445.58
407.645	442.87
408.023	435.64
408.401	429.54
408.779	450.33
409.156	449.2
409.534	455.3
409.912	452.36
410.29	468.63
410.667	446.71
411.045	463.66
411.422	463.43
411.8	477.9
412.178	472.93
412.555	443.77
412.933	480.16
413.31	452.36
413.687	476.09
414.065	466.6
414.442	507.27
414.819	492.13
415.197	494.17
415.574	459.37
415.951	506.82
416.328	507.5
416.705	507.73
417.082	495.98
417.46	499.37
417.837	507.05
418.214	525.81
418.591	509.31
418.967	545.01
419.344	526.94
419.721	538.46
420.098	557.22
420.475	532.13
420.852	515.86
421.228	531
421.605	547.95
421.982	538.46
422.358	569.42
422.735	542.08
423.111	547.05
423.488	547.27
423.864	568.52
424.241	559.7
424.617	565.13
424.994	564
425.37	571.23
425.746	573.94
426.123	603.09
426.499	576.65
426.875	591.57
427.251	580.72
427.627	616.2
428.003	604.9
428.379	631.79
428.756	606.71
429.132	612.36
429.507	644.9
429.883	629.08
430.259	612.36
430.635	652.58
431.011	637.67
431.387	671.11
431.763	645.35
432.138	677.67
432.514	670.21
432.89	665.46
433.265	692.35
433.641	698
434.016	697.1
434.392	684.45
434.767	693.71
435.143	690.09
435.518	701.62
435.894	716.99
436.269	746.36
436.644	746.59
437.02	725.8
437.395	730.55
437.77	709.98
438.145	776.19
438.52	766.03
438.895	761.05
439.271	765.57
439.646	761.51
440.021	802.63
440.395	757.66
440.77	782.3
441.145	768.96
441.52	804.67
441.895	792.92
442.27	795.85
442.645	798.34
443.019	832.24
443.394	832.69
443.769	831.11
444.143	816.87
444.518	850.32
444.892	829.98
445.267	841.28
445.641	850.99
446.016	857.32
446.39	863.88
446.764	878.34
447.139	873.14
447.513	863.88
447.887	879.47
448.262	865.91
448.636	873.82
449.01	895.74
449.384	904.55
449.758	913.82
450.132	914.04
450.506	912.24
450.88	935.96
451.254	938.68
451.628	936.64
452.002	966.47
452.376	977.54
452.75	982.97
453.123	968.73
453.497	987.94
453.871	999.92
454.244	1027.04
454.618	1043.53
454.992	1037.88
455.365	1031.33
455.739	1069.29
456.112	1055.96
456.486	1068.84
456.859	1066.58
457.232	1101.84
457.606	1084.43
457.979	1087.6
458.352	1134.6
458.725	1148.39
459.099	1161.04
459.472	1177.54
459.845	1169.63
460.218	1188.84
460.591	1206.24
460.964	1200.59
461.337	1232.45
461.71	1263.64
462.083	1257.99
462.456	1294.37
462.829	1292.11
463.201	1302.06
463.574	1329.4
463.947	1354.48
464.32	1364.43
464.692	1381.15
465.065	1369.85
465.438	1398.55
465.81	1428.38
466.183	1460.02
466.555	1477.64
466.928	1472.67
467.3	1507.93
467.672	1497.31
468.045	1575.5
468.417	1573.01
468.789	1609.17
469.161	1621.82
469.534	1638.09
469.906	1677.19
470.278	1708.83
470.65	1737.3
471.022	1782.04
471.394	1818.88
471.766	1829.27
472.138	1854.36
472.51	1876.5
472.882	1944.07
473.253	1976.84
473.625	2035.82
473.997	2078.31
474.369	2106.78
474.74	2143.16
475.112	2208.7
475.484	2242.14
475.855	2300.22
476.227	2339.99
476.598	2426.55
476.97	2472.87
477.341	2513.55
477.713	2557.16
478.084	2639.2
478.455	2721.45
478.827	2784.73
479.198	2883.48
479.569	2968.68
479.94	3009.36
480.311	3100.43
480.682	3187.88
481.053	3241.89
481.424	3358.95
481.795	3428.78
482.166	3574.54
482.537	3616.35
482.908	3731.6
483.279	3836
483.65	3958.03
484.021	4031.7
484.391	4182.21
484.762	4216.78
485.133	4288.64
485.503	4427.4
485.874	4558.02
486.244	4643.44
486.615	4816.99
486.985	4930.21
487.356	5075.29
487.726	5197.09
488.097	5351.22
488.467	5396.41
488.837	5567.71
489.207	5670.08
489.578	5861.03
489.948	5954.14
490.318	6055.38
490.688	6191.65
491.058	6324.75
491.428	6469.6
491.798	6595.48
492.168	6766.77
492.538	6924.51
492.908	6992.98
493.278	7167.44
493.648	7238.4
494.017	7365.63
494.387	7631.38
494.757	7729.46
495.126	7792.51
495.496	7874.31
495.866	7991.15
496.235	8174.42
496.605	8350.68
496.974	8413.73
497.344	8571.24
497.713	8660.05
498.082	8740.96
498.452	8855.98
498.821	9006.03
499.19	9076.32
499.559	9205.8
499.928	9360.83
500.298	9427.94
500.667	9528.05
501.036	9609.86
501.405	9741.83
501.774	9763.53
502.143	9982.28
502.512	9944.31
502.88	10153.57
503.249	10116.97
503.618	10300.92
503.987	10310.63
504.356	10456.62
504.724	10549.72
505.093	10514.02
505.462	10671.75
505.83	10810.73
506.199	10853.9
506.567	10998.07
506.936	11019.09
507.304	11265.18
507.672	11210.04
508.041	11226.31
508.409	11330.72
508.777	11463.6
509.145	11577.04
509.514	11479.19
509.882	11637.15
510.25	11682.35
510.618	11742.91
510.986	11830.14
511.354	11935.9
511.722	12065.16
512.09	12109.23
512.458	12141.32
512.826	12223.58
513.193	12217.93
513.561	12313.74
513.929	12267.87
514.297	12420.86
514.664	12471.03
515.032	12546.51
515.4	12636
515.767	12603.91
516.135	12660.63
516.502	12606.17
516.869	12775.65
517.237	12814.52
517.604	12796.22
517.972	12920.73
518.339	12977.68
518.706	12865.82
519.073	13011.13
519.44	13050
519.808	13196.43
520.175	13052.93
520.542	13314.17
520.909	13245.02
521.276	13174.96
521.643	13348.97
522.009	13342.42
522.376	13388.97
522.743	13431.45
523.11	13485.01
523.477	13591.45
523.843	13520.04
524.21	13712.8
524.577	13766.36
524.943	13693.59
525.31	13749.41
525.676	13868.28
526.043	13874.83
526.409	13946.7
526.776	13939.92
527.142	13921.39
527.508	14007.26
527.874	14051.78
528.241	14021.04
528.607	14131.32
528.973	14008.84
529.339	14080.03
529.705	14100.82
530.071	14233.02
530.437	14178.78
530.803	14182.85
531.169	14210.42
531.535	14165.9
531.901	14127.48
532.267	14132.91
532.632	14203.86
532.998	14209.74
533.364	14261.26
533.73	14203.64
534.095	14279.79
534.461	14249.29
534.826	14223.98
535.192	14110.76
535.557	14295.16
535.923	14241.6
536.288	14181.94
536.653	14184.2
537.019	14100.36
537.384	14074.38
537.749	14177.88
538.114	14127.48
538.479	14126.8
538.845	14068.5
539.21	13918.67
539.575	13945.57
539.94	13962.29
540.305	14001.61
540.67	13895.17
541.034	14005.45
541.399	13942.18
541.764	13874.61
542.129	13888.84
542.494	13838.45
542.858	13815.17
543.223	13732.46
543.587	13786.02
543.952	13741.5
544.316	13770.65
544.681	13679.81
545.045	13729.07
545.41	13676.42
545.774	13708.96
546.138	13610.89
546.503	13549.87
546.867	13532.7
547.231	13552.13
547.595	13559.81
547.959	13537.21
548.324	13450.21
548.688	13466.93
549.052	13419.93
549.416	13411.34
549.779	13302.87
550.143	13302.19
550.507	13372.93
550.871	13302.87
551.235	13183.33
551.599	13234.85
551.962	13252.02
552.326	13222.87
552.689	13137.68
553.053	13135.64
553.417	13120.28
553.78	13278.46
554.143	13127.51
554.507	13149.88
554.87	13171.57
555.234	13168.86
555.597	13012.93
555.96	13082.09
556.323	13039.37
556.686	13060.17
557.05	13079.15
557.413	13167.05
557.776	13004.35
558.139	13065.59
558.502	13073.05
558.865	13061.29
559.228	13070.33
559.59	13094.06
559.953	13066.94
560.316	13126.15
560.679	13061.29
561.041	13085.02
561.404	13114.17
561.767	13126.6
562.129	13086.15
562.492	13124.8
562.854	13094.06
563.217	13069.2
563.579	13103.78
563.941	13159.37
564.304	13226.04
564.666	13211.57
565.028	13210.22
565.39	13135.19
565.753	13240.05
566.115	13246.6
566.477	13261.97
566.839	13233.49
567.201	13343.1
567.563	13241.4
567.925	13364.34
568.287	13343.55
568.648	13248.63
569.01	13309.88
569.372	13414.05
569.734	13340.38
570.095	13494.05
570.457	13460.15
570.819	13416.54
571.18	13450.66
571.542	13516.2
571.903	13443.43
572.265	13538.57
572.626	13517.1
572.987	13504.45
573.349	13511.9
573.71	13585.57
574.071	13611.56
574.432	13601.17
574.794	13606.14
575.155	13610.66
575.516	13539.25
575.877	13653.6
576.238	13589.64
576.599	13609.53
576.96	13685.23
577.32	13612.69
577.681	13638.91
578.042	13759.36
578.403	13638.45
578.763	13654.05
579.124	13641.17
579.485	13765.46
579.845	13711.9
580.206	13633.71
580.566	13676.87
580.927	13660.15
581.287	13809.3
581.648	13659.47
582.008	13673.71
582.368	13668.06
582.728	13679.36
583.089	13674.16
583.449	13598.68
583.809	13633.94
584.169	13701.96
584.529	13596.65
584.889	13639.81
585.249	13550.32
585.609	13594.16
585.969	13581.51
586.329	13564.78
586.688	13606.59
587.048	13542.41
587.408	13468.52
587.768	13546.25
588.127	13530.66
588.487	13545.35
588.846	13620.6
589.206	13468.74
589.565	13464.67
589.925	13530.44
590.284	13440.72
590.643	13493.37
591.003	13534.5
591.362	13496.31
591.721	13518.91
592.08	13476.43
592.44	13533.37
592.799	13559.81
593.158	13455.63
593.517	13454.73
593.876	13454.05
594.235	13406.6
594.593	13442.08
594.952	13377.44
595.311	13467.61
595.67	13440.27
596.029	13458.12
596.387	13474.84
596.746	13504.45
597.104	13313.94
597.463	13415.41
597.822	13414.51
598.18	13396.65
598.538	13366.15
598.897	13434.17
599.255	13298.12
599.613	13443.88
599.972	13347.62
600.33	13466.26
600.688	13389.65
601.046	13366.37
601.404	13497.89
601.762	13415.64
602.12	13498.57
602.478	13441.4
602.836	13424.9
603.194	13362.3
603.552	13420.61
603.91	13379.25
604.268	13431.45
604.625	13327.05
604.983	13437.33
605.341	13323.21
605.698	13408.86
606.056	13396.2
606.413	13449.08
606.771	13438.46
607.128	13467.16
607.485	13432.81
607.843	13452.02
608.2	13507.84
608.557	13457.67
608.914	13490.89
609.272	13517.78
609.629	13544.67
609.986	13503.09
610.343	13463.09
610.7	13585.35
611.057	13530.66
611.414	13481.17
611.771	13564.33
612.127	13620.83
612.484	13595.97
612.841	13575.41
613.198	13640.49
613.554	13633.48
613.911	13593.71
614.267	13689.75
614.624	13597.1
614.98	13751.9
615.337	13680.49
615.693	13716.19
616.05	13769.07
616.406	13687.72
616.762	13703.09
617.118	13779.02
617.475	13779.69
617.831	13753.71
618.187	13785.34
618.543	13823.31
618.899	13827.83
619.255	13866.7
619.611	13812.24
619.967	13815.4
620.323	13906.92
620.678	13749.86
621.034	13775.63
621.39	13820.6
621.746	13823.08
622.101	14004.55
622.457	13836.64
622.812	13846.81
623.168	13793.71
623.523	13944.66
623.879	13881.16
624.234	13815.63
624.589	13825.57
624.945	13907.37
625.3	13939.24
625.655	13882.97
626.01	13854.04
626.365	13821.28
626.72	13779.47
627.075	13763.65
627.43	13738.57
627.785	13767.49
628.14	13746.02
628.495	13802.97
628.85	13811.11
629.205	13782.63
629.559	13669.19
629.914	13798.68
630.269	13723.65
630.623	13754.38
630.978	13680.26
631.332	13712.58
631.687	13772.24
632.041	13676.19
632.396	13716.87
632.75	13615.4
633.104	13649.98
633.459	13615.86
633.813	13606.37
634.167	13663.31
634.521	13623.99
634.875	13615.4
635.229	13650.21
635.583	13459.25
635.937	13481.62
636.291	13500.83
636.645	13539.25
636.999	13485.69
637.352	13484.33
637.706	13499.93
638.06	13504.45
638.413	13550.55
638.767	13412.92
639.121	13448.86
639.474	13389.65
639.828	13318.01
640.181	13335.86
640.534	13394.85
640.888	13382.64
641.241	13290.67
641.594	13305.81
641.947	13337.67
642.301	13317.56
642.654	13333.83
643.007	13298.58
643.36	13293.83
643.713	13212.25
644.066	13386.48
644.419	13237.11
644.771	13153.5
645.124	13138.36
645.477	13035.08
645.83	12970.68
646.182	12912.82
646.535	12874.41
646.888	12837.57
647.24	12752.15
647.593	12872.83
647.945	12789.66
648.298	12813.39
648.65	12772.04
649.002	12751.7
649.355	12797.35
649.707	12778.14
650.059	12837.8
650.411	13007.96
650.763	13023.56
651.115	13132.93
651.467	13024.23
651.819	13073.72
652.171	13089.99
652.523	13075.76
652.875	13079.37
653.227	13049.54
653.578	13155.08
653.93	13068.53
654.282	13080.05
654.633	13042.99
654.985	13070.56
655.337	13070.11
655.688	13067.17
656.039	13136.1
656.391	13062.65
656.742	13003.44
657.094	13114.4
657.445	13067.4
657.796	13011.35
658.147	13031.92
658.498	13018.36
658.849	13041.41
659.2	13053.61
659.551	13058.13
659.902	13153.5
660.253	13138.58
660.604	13141.97
660.955	13135.19
661.306	13091.35
661.656	13112.37
662.007	13121.18
662.358	13130.9
662.708	13200.27
663.059	13191.91
663.409	13030.34
663.76	13242.53
664.11	13074.63
664.461	13179.26
664.811	13143.55
665.161	13121.18
665.511	13110.79
665.862	13144.68
666.212	13123.89
666.562	13175.87
666.912	13191.46
667.262	13153.04
667.612	13204.12
667.962	13213.16
668.312	13160.5
668.662	13226.04
669.011	13198.47
669.361	13125.25
669.711	13138.58
670.06	13130.22
670.41	13094.97
670.76	13098.13
671.109	13133.84
671.459	13123.89
671.808	13057.91
672.157	13188.98
672.507	13036.44
672.856	13017.91
673.205	13013.16
673.554	13033.95
673.904	13011.58
674.253	13114.63
674.602	13045.7
674.951	12838.25
675.3	12779.95
675.649	12961.86
675.998	12961.18
676.346	12934.07
676.695	12981.52
677.044	12855.65
677.393	12907.4
677.741	12840.28
678.09	12911.69
678.438	12821.98
678.787	12843.45
679.135	12890.45
679.484	12770.23
679.832	12797.35
680.181	12781.75
680.529	12799.83
680.877	12781.08
681.225	12830.57
681.573	12751.7
681.922	12735.65
682.27	12591.25
682.618	12658.37
682.966	12719.38
683.314	12655.66
683.661	12664.02
684.009	12471.93
684.357	12573.4
684.705	12516.9
685.053	12533.4
685.4	12454.08
685.748	12376.57
686.095	12374.76
686.443	12338.15
686.79	12348.55
687.138	12375.44
687.485	12407.3
687.832	12365.49
688.18	12327.53
688.527	12284.82
688.874	12106.74
689.221	12157.59
689.568	12130.92
689.915	12069
690.262	12009.35
690.609	12104.94
690.956	11976.35
691.303	11979.52
691.65	11857.03
691.997	11930.48
692.344	11776.58
692.69	11771.84
693.037	11817.03
693.383	11689.35
693.73	11726.64
694.077	11637.83
694.423	11645.74
694.769	11567.32
695.116	11564.39
695.462	11444.84
695.808	11488.45
696.155	11444.61
696.501	11415.91
696.847	11410.26
697.193	11333.2
697.539	11333.66
697.885	11344.28
698.231	11223.38
698.577	11195.58
698.923	11163.94
699.269	11141.57
699.614	11076.94
699.96	10952.42
700.306	11013.21
700.651	10885.08
700.997	10884.18
701.342	10885.08
701.688	10819.32
702.033	10794.91
702.379	10806.67
702.724	10770.06
703.069	10715.82
703.415	10510.63
703.76	10592.66
704.105	10636.5
704.45	10607.12
704.795	10500.23
705.14	10424.08
705.485	10425.88
705.83	10444.41
706.175	10373.68
706.52	10347.24
706.865	10339.11
707.209	10370.97
707.554	10223.4
707.899	10192.22
708.243	10173.01
708.588	10189.96
708.932	10108.38
709.277	10087.14
709.621	10062.73
709.966	9997.65
710.31	10133.01
710.654	9960.36
710.998	9926.46
711.342	9957.42
711.687	9986.35
712.031	9918.1
712.375	9874.71
712.719	9862.74
713.063	9801.72
713.407	9899.12
713.75	9762.62
714.094	9803.98
714.438	9721.72
714.782	9784.09
715.125	9738.44
715.469	9736.18
715.812	9731.21
716.156	9614.15
716.499	9649.63
716.843	9567.15
717.186	9615.28
717.53	9612.35
717.873	9580.93
718.216	9585
718.559	9539.81
718.902	9468.85
719.246	9546.13
719.589	9513.59
719.932	9435.18
720.275	9515.4
720.617	9463.88
720.96	9458.68
721.303	9458.45
721.646	9459.58
721.989	9363.99
722.331	9400.15
722.674	9401.28
723.016	9424.33
723.359	9375.52
723.701	9432.92
724.044	9341.84
724.386	9293.26
724.729	9387.95
725.071	9359.02
725.413	9311.11
725.755	9279.25
726.097	9340.04
726.439	9261.62
726.782	9230.89
727.124	9318.12
727.465	9260.94
727.807	9248.97
728.149	9232.7
728.491	9247.16
728.833	9252.58
729.175	9245.58
729.516	9189.08
729.858	9280.15
730.199	9188.85
730.541	9177.33
730.882	9213.03
731.224	9181.62
731.565	9111.79
731.906	9163.09
732.248	9188.63
732.589	9136.88
732.93	9150.21
733.271	9140.27
733.612	9127.84
733.953	9133.94
734.294	9188.4
734.635	9164.22
734.976	9185.92
735.317	9092.59
735.658	9131.45
735.999	9185.46
736.339	9170.32
736.68	9222.53
737.021	9184.56
737.361	9146.37
737.702	9202.64
738.042	9234.05
738.383	9154.28
738.723	9226.37
739.063	9220.04
739.404	9279.47
739.744	9166.93
740.084	9192.7
740.424	9186.82
740.764	9182.07
741.104	9257.55
741.444	9241.28
741.784	9271.34
742.124	9332.35
742.464	9264.33
742.804	9328.96
743.143	9284.9
743.483	9285.12
743.823	9338.46
744.162	9451.22
744.502	9449.64
744.841	9409.41
745.181	9483.54
745.52	9463.88
745.86	9585.91
746.199	9505
746.538	9600.6
746.877	9695.06
747.216	9623.42
747.556	9680.82
747.895	9714.49
748.234	9790.65
748.573	9794.26
748.911	9966.01
749.25	9961.49
749.589	9985.9
749.928	10103.18
750.267	10243.06
750.605	10209.84
750.944	10273.57
751.283	10276.28
751.621	10429.5
751.96	10457.52
752.298	10594.92
752.636	10753.33
752.975	10784.52
753.313	10909.71
753.651	11017.73
753.989	11077.84
754.327	11152.87
754.666	11219.99
755.004	11433.09
755.342	11539.53
755.679	11602.35
756.017	11751.05
756.355	11901.33
756.693	11997.82
757.031	12098.16
757.368	12218.61
757.706	12423.12
758.044	12475.77
758.381	12712.38
758.719	12852.71
