Data from hue_230_FLMS001491_00052.txt Node
Date: Tue Feb 07 16:37:26 GMT 2017
User: dcchb
Spectrometer: FLMS00149
Trigger mode: 0
Integration Time (sec): 2.000000E-2
Scans to average: 10
Electric dark correction enabled: true
Nonlinearity correction enabled: false
Boxcar width: 0
XAxis mode: Wavelengths
Number of Pixels in Spectrum: 2048
>>>>>Begin Spectral Data<<<<<
341.393	-9.24
341.776	-9.24
342.16	-9.24
342.543	-80.42
342.927	-65.05
343.31	-76.58
343.693	-62.12
344.077	-53.76
344.46	-46.98
344.843	-75.22
345.226	-61.89
345.61	-23.25
345.993	-6.53
346.376	-9.69
346.759	7.26
347.142	41.84
347.525	45.45
347.908	37.99
348.291	68.73
348.674	101.49
349.057	113.25
349.44	125.67
349.823	147.82
350.206	149.63
350.588	191.21
350.971	216.52
351.354	208.84
351.737	237.76
352.119	256.29
352.502	254.71
352.884	271.21
353.267	280.92
353.65	287.7
354.032	294.71
354.414	297.2
354.797	308.27
355.179	305.1
355.562	299.46
355.944	312.56
356.326	322.96
356.709	335.39
357.091	344.2
357.473	334.48
357.855	340.13
358.238	331.77
358.62	347.59
359.002	335.16
359.384	345.56
359.766	335.16
360.148	326.12
360.53	334.26
360.912	332.67
361.294	326.12
361.676	339
362.057	326.12
362.439	320.7
362.821	328.38
363.203	321.83
363.584	322.96
363.966	329.74
364.348	337.65
364.729	301.49
365.111	313.24
365.493	329.29
365.874	314.14
366.256	300.59
366.637	312.34
367.019	303.98
367.4	308.49
367.781	290.64
368.163	306.01
368.544	296.29
368.925	306.69
369.306	319.12
369.688	313.92
370.069	299.23
370.45	303.75
370.831	308.95
371.212	301.49
371.593	309.17
371.974	304.43
372.355	270.98
372.736	311.66
373.117	292.45
373.498	314.14
373.879	307.36
374.26	312.56
374.641	288.61
375.021	310.98
375.402	327.25
375.783	289.29
376.163	310.75
376.544	317.31
376.925	324.31
377.305	307.36
377.686	326.57
378.066	323.86
378.447	310.08
378.827	332.45
379.208	328.83
379.588	327.93
379.968	339.23
380.349	318.89
380.729	323.18
381.109	330.87
381.489	312.34
381.87	336.29
382.25	334.03
382.63	346.23
383.01	351.66
383.39	325.22
383.77	319.12
384.15	331.32
384.53	347.59
384.91	350.08
385.29	348.95
385.67	345.78
386.049	337.65
386.429	332.45
386.809	346.46
387.189	360.92
387.568	336.06
387.948	367.02
388.328	332.9
388.707	351.88
389.087	356.18
389.466	364.76
389.846	352.11
390.225	346.91
390.605	357.31
390.984	358.21
391.363	361.37
391.743	371.54
392.122	373.58
392.501	366.35
392.881	367.02
393.26	369.28
393.639	375.39
394.018	382.17
394.397	374.26
394.776	374.71
395.155	377.87
395.534	389.17
395.913	380.81
396.292	385.55
396.671	371.77
397.05	386.23
397.429	378.1
397.808	400.47
398.186	407.25
398.565	373.35
398.944	388.72
399.323	396.4
399.701	407.02
400.08	393.69
400.458	415.61
400.837	408.83
401.215	399.79
401.594	412.67
401.972	420.13
402.351	417.19
402.729	403.86
403.107	438.89
403.486	421.71
403.864	424.2
404.242	413.12
404.62	439.56
404.999	410.41
405.377	430.98
405.755	427.14
406.133	453.8
406.511	450.64
406.889	454.71
407.267	440.92
407.645	450.86
408.023	472.33
408.401	462.16
408.779	473.24
409.156	462.16
409.534	488.15
409.912	477.76
410.29	495.16
410.667	483.18
411.045	500.81
411.422	490.41
411.8	497.87
412.178	503.29
412.555	527.7
412.933	533.35
413.31	539.68
413.687	549.62
414.065	546
414.442	567.47
414.819	571.76
415.197	586.91
415.574	579.45
415.951	590.3
416.328	600.01
416.705	595.49
417.082	602.05
417.46	614.7
417.837	635.49
418.214	617.19
418.591	639.79
418.967	642.95
419.344	650.18
419.721	658.54
420.098	673.91
420.475	679.78
420.852	655.83
421.228	675.72
421.605	691.08
421.982	691.54
422.358	721.14
422.735	740.8
423.111	742.38
423.488	735.83
423.864	738.99
424.241	776.73
424.617	764.53
424.994	809.5
425.37	793.45
425.746	809.95
426.123	795.94
426.499	819.89
426.875	841.59
427.251	847.92
427.627	849.95
428.003	854.24
428.379	889.5
428.756	905.32
429.132	889.27
429.507	897.86
429.883	909.61
430.259	915.48
430.635	911.64
431.011	939.44
431.387	970.4
431.763	967.69
432.138	973.34
432.514	971.53
432.89	1016.95
433.265	1026.22
433.641	1040.23
434.016	1065.31
434.392	1075.93
434.767	1102.37
435.143	1101.69
435.518	1107.12
435.894	1118.64
436.269	1148.25
436.644	1161.35
437.02	1188.25
437.395	1170.62
437.77	1204.52
438.145	1212.2
438.52	1239.54
438.895	1268.24
439.271	1264.4
439.646	1297.62
440.021	1307.34
440.395	1301.46
440.77	1310.73
441.145	1365.19
441.52	1364.74
441.895	1376.94
442.27	1383.72
442.645	1385.98
443.019	1408.35
443.394	1439.54
443.769	1440.67
444.143	1418.97
444.518	1468.69
444.892	1477.73
445.267	1464.17
445.641	1476.15
446.016	1485.64
446.39	1517.5
446.764	1537.16
447.139	1524.28
447.513	1530.84
447.887	1561.12
448.262	1573.77
448.636	1553.21
449.01	1569.03
449.384	1634.56
449.758	1644.96
450.132	1622.58
450.506	1620.1
450.88	1670.27
451.254	1642.47
451.628	1690.38
452.002	1704.16
452.376	1739.19
452.75	1677.72
453.123	1712.75
453.497	1771.06
453.871	1790.26
454.244	1817.38
454.618	1805.86
454.992	1830.26
455.365	1834.56
455.739	1876.59
456.112	1886.31
456.486	1895.57
456.859	1906.42
457.232	1964.27
457.606	1942.12
457.979	1958.17
458.352	1992.29
458.725	2047.21
459.099	2030.03
459.472	2050.82
459.845	2084.95
460.218	2121.33
460.591	2171.04
460.964	2125.4
461.337	2140.31
461.71	2214.21
462.083	2207.2
462.456	2214.66
462.829	2229.35
463.201	2254.88
463.574	2295.34
463.947	2336.69
464.32	2336.92
464.692	2396.12
465.065	2407.87
465.438	2437.03
465.81	2490.58
466.183	2464.14
466.555	2512.73
466.928	2536.46
467.3	2515.44
467.672	2583.46
468.045	2621.88
468.417	2640.64
468.789	2637.02
469.161	2687.42
469.534	2719.28
469.906	2806.73
470.278	2798.82
470.65	2818.94
471.022	2837.47
471.394	2929.22
471.766	2934.19
472.138	2958.59
472.51	3032.72
472.882	3062.32
473.253	3053.51
473.625	3130.79
473.997	3190.68
474.369	3219.38
474.74	3243.33
475.112	3289.43
475.484	3307.06
475.855	3369.88
476.227	3408.07
476.598	3487.17
476.97	3530.33
477.341	3515.19
477.713	3625.02
478.084	3606.26
478.455	3706.6
478.827	3745.47
479.198	3861.85
479.569	3813.26
479.94	3907.04
480.311	3954.5
480.682	4043.54
481.053	4147.26
481.424	4175.96
481.795	4222.06
482.166	4229.75
482.537	4264.55
482.908	4404.21
483.279	4369.18
483.65	4486.92
484.021	4548.84
484.391	4593.81
484.762	4641.26
485.133	4691.66
485.503	4738.66
485.874	4765.33
486.244	4820.92
486.615	4907.92
486.985	4959.9
487.356	5096.39
487.726	5064.53
488.097	5208.03
488.467	5168.48
488.837	5277.63
489.207	5343.16
489.578	5376.38
489.948	5427.91
490.318	5431.3
490.688	5490.73
491.058	5577.51
491.428	5630.16
491.798	5619.99
492.168	5785.86
492.538	5760.55
492.908	5825.86
493.278	5862.7
493.648	5919.42
494.017	5963.26
494.387	6071.06
494.757	6081.68
495.126	6123.71
495.496	6121.9
495.866	6165.29
496.235	6210.71
496.605	6272.41
496.974	6287.32
497.344	6320.99
497.713	6335.91
498.082	6357.83
498.452	6384.72
498.821	6433.08
499.19	6476.92
499.559	6457.94
499.928	6549.23
500.298	6515.79
500.667	6625.84
501.036	6607.31
501.405	6664.49
501.774	6639.4
502.143	6639.18
502.512	6746.74
502.88	6744.03
503.249	6751.72
503.618	6802.56
503.987	6780.19
504.356	6882.11
504.724	6872.39
505.093	6905.84
505.462	6881.43
505.83	6915.55
506.199	6944.7
506.567	7007.98
506.936	7064.93
507.304	7113.51
507.672	7085.27
508.041	7065.83
508.409	7175.66
508.777	7163.23
509.145	7193.06
509.514	7181.53
509.882	7172.5
510.25	7232.83
510.618	7201.42
510.986	7263.57
511.354	7318.93
511.722	7370.23
512.09	7391.7
512.458	7366.61
512.826	7391.02
513.193	7387.63
513.561	7434.86
513.929	7456.56
514.297	7495.65
514.664	7483.9
515.032	7544.69
515.4	7588.98
515.767	7535.88
516.135	7530.45
516.502	7548.3
516.869	7573.61
517.237	7660.84
517.604	7601.41
517.972	7673.05
518.339	7635.31
518.706	7686.83
519.073	7723.22
519.44	7656.78
519.808	7704.68
520.175	7678.47
520.542	7753.5
520.909	7765.02
521.276	7808.86
521.643	7817.45
522.009	7852.7
522.376	7817.9
522.743	7791.91
523.11	7940.84
523.477	7938.35
523.843	7986.94
524.21	8031.46
524.577	8050.21
524.943	8031.91
525.31	8041.85
525.676	8058.12
526.043	8057.44
526.409	8096.99
526.776	8095.86
527.142	8097.67
527.508	8090.66
527.874	8152.13
528.241	8139.25
528.607	8080.04
528.973	8199.13
529.339	8154.84
529.705	8195.52
530.071	8208.85
530.437	8215.63
530.803	8247.95
531.169	8194.39
531.535	8260.6
531.901	8176.08
532.267	8197.78
532.632	8243.43
532.998	8253.82
533.364	8212.02
533.73	8209.98
534.095	8200.49
534.461	8202.52
534.826	8218.12
535.192	8216.99
535.557	8246.82
535.923	8154.39
536.288	8190.77
536.653	8233.94
537.019	8204.33
537.384	8197.33
537.749	8115.97
538.114	8186.93
538.479	8144.45
538.845	8121.62
539.21	8134.28
539.575	8147.61
539.94	8099.93
540.305	8157.1
540.67	8066.03
541.034	8048.86
541.399	8069.42
541.764	8087.27
542.129	8115.75
542.494	8052.92
542.858	8106.71
543.223	8059.93
543.587	8077.33
543.952	8011.79
544.316	8075.07
544.681	7992.59
545.045	7992.59
545.41	7976.32
545.774	7918.24
546.138	7900.39
546.503	7940.38
546.867	7869.65
547.231	7960.95
547.595	7939.03
547.959	7932.7
548.324	7888.63
548.688	7880.95
549.052	7871.69
549.416	7880.27
549.779	7862.65
550.143	7873.49
550.507	7851.12
550.871	7792.59
551.235	7773.84
551.599	7840.95
551.962	7817.45
552.326	7816.77
552.689	7856.54
553.053	7790.11
553.417	7781.97
553.78	7826.72
554.143	7801.18
554.507	7794.17
554.87	7811.8
555.234	7829.65
555.597	7813.38
555.96	7748.53
556.323	7789.88
556.686	7798.24
557.05	7806.6
557.413	7802.76
557.776	7742.65
558.139	7841.4
558.502	7710.56
558.865	7779.03
559.228	7812.7
559.59	7827.62
559.953	7746.04
560.316	7881.63
560.679	7748.98
561.041	7755.3
561.404	7769.99
561.767	7818.81
562.129	7852.03
562.492	7859.93
562.854	7840.5
563.217	7854.06
563.579	7849.31
563.941	7909.65
564.304	7874.85
564.666	7942.87
565.028	7941.51
565.39	7941.51
565.753	7929.99
566.115	8002.76
566.477	8014.51
566.839	8006.6
567.201	8031
567.563	8064.22
567.925	8077.33
568.287	8100.61
568.648	8056.09
569.01	8193.26
569.372	8123.88
569.734	8114.17
570.095	8134.28
570.457	8183.99
570.819	8144.67
571.18	8197.78
571.542	8220.83
571.903	8175.86
572.265	8189.87
572.626	8238.23
572.987	8257.89
573.349	8313.03
573.71	8326.59
574.071	8316.19
574.432	8318
574.794	8402.97
575.155	8349.64
575.516	8335.4
575.877	8358.68
576.238	8356.19
576.599	8428.96
576.96	8417.89
577.32	8461.73
577.681	8496.08
578.042	8477.55
578.403	8480.94
578.763	8512.35
579.124	8479.35
579.485	8570.65
579.845	8607.49
580.206	8560.71
580.566	8589.63
580.927	8616.75
581.287	8609.97
581.648	8578.79
582.008	8694.26
582.368	8614.27
582.728	8660.82
583.089	8651.78
583.449	8692.68
583.809	8688.84
584.169	8752.34
584.529	8699.69
584.889	8747.59
585.249	8747.82
585.609	8744.21
585.969	8809.51
586.329	8758.67
586.688	8780.59
587.048	8765.22
587.408	8784.43
587.768	8851.32
588.127	8807.25
588.487	8849.74
588.846	8925.44
589.206	8815.39
589.565	8882.28
589.925	8837.76
590.284	8840.02
590.643	8895.61
591.003	8940.58
591.362	8929.96
591.721	8927.03
592.08	8907.36
592.44	8910.08
592.799	8928.83
593.158	8969.06
593.517	8899.23
593.876	8969.96
594.235	8949.17
594.593	8971.09
594.952	9023.75
595.311	9015.61
595.67	8969.28
596.029	9011.09
596.387	9008.15
596.746	9058.55
597.104	8989.85
597.463	9002.5
597.822	9110.07
598.18	9042.5
598.538	9072.33
598.897	9069.17
599.255	9089.28
599.613	9178.54
599.972	9080.92
600.33	9151.2
600.688	9049.51
601.046	9058.32
601.404	9099.68
601.762	9081.15
602.12	9157.98
602.478	9202.72
602.836	9193.68
603.194	9107.36
603.552	9132.22
603.91	9156.17
604.268	9140.13
604.625	9141.93
604.983	9167.92
605.341	9193.46
605.698	9164.31
606.056	9203.85
606.413	9180.8
606.771	9250.86
607.128	9197.07
607.485	9193.23
607.843	9184.19
608.2	9183.29
608.557	9290.63
608.914	9195.04
609.272	9250.18
609.629	9301.7
609.986	9295.6
610.343	9254.7
610.7	9413.79
611.057	9308.48
611.414	9354.58
611.771	9288.15
612.127	9369.27
612.484	9348.93
612.841	9445.88
613.198	9368.6
613.554	9411.76
613.911	9409.5
614.267	9450.85
614.624	9325.43
614.98	9347.35
615.337	9356.62
615.693	9412.21
616.05	9393.68
616.406	9427.58
616.762	9444.98
617.118	9364.08
617.475	9422.15
617.831	9489.04
618.187	9429.16
618.543	9454.92
618.899	9511.19
619.255	9496.95
619.611	9505.09
619.967	9552.77
620.323	9551.42
620.678	9454.47
621.034	9466.9
621.39	9492.43
621.746	9433.9
622.101	9595.48
622.457	9489.72
622.812	9487.69
623.168	9516.16
623.523	9493.79
623.879	9541.02
624.234	9483.85
624.589	9499.89
624.945	9509.83
625.3	9533.11
625.655	9489.95
626.01	9553.9
626.365	9498.99
626.72	9527.24
627.075	9512.32
627.43	9517.74
627.785	9520.46
628.14	9498.99
628.495	9509.61
628.85	9500.57
629.205	9460.57
629.559	9486.78
629.914	9456.05
630.269	9448.59
630.623	9402.04
630.978	9402.27
631.332	9416.05
631.687	9496.5
632.041	9424.87
632.396	9390.97
632.75	9359.56
633.104	9428.71
633.459	9357.75
633.813	9314.59
634.167	9377.41
634.521	9328.14
634.875	9363.17
635.229	9363.4
635.583	9278.65
635.937	9361.59
636.291	9289.5
636.645	9362.72
636.999	9263.74
637.352	9322.72
637.706	9237.75
638.06	9270.29
638.413	9249.05
638.767	9212.67
639.121	9226.68
639.474	9199.56
639.828	9148.04
640.181	9188.94
640.534	9211.76
640.888	9186.68
641.241	9160.47
641.594	9086.79
641.947	9128.38
642.301	9078.21
642.654	9157.3
643.007	9134.93
643.36	9086.79
643.713	9117.53
644.066	9195.72
644.419	9131.77
644.771	9033.46
645.124	8947.14
645.477	8937.19
645.83	8830.98
646.182	8853.35
646.535	8851.32
646.888	8814.26
647.24	8758.67
647.593	8835.28
647.945	8788.95
648.298	8735.39
648.65	8709.4
649.002	8706.01
649.355	8727.93
649.707	8784.2
650.059	8734.49
650.411	8920.7
650.763	8895.16
651.115	8963.18
651.467	8951.43
651.819	8956.63
652.171	8967.93
652.523	8955.5
652.875	8927.03
653.227	8874.37
653.578	8936.06
653.93	8960.7
654.282	8933.8
654.633	8905.33
654.985	8854.03
655.337	8948.49
655.688	8946.46
656.039	8995.95
656.391	8884.31
656.742	8924.09
657.094	9021.26
657.445	8990.53
657.796	8927.03
658.147	8904.2
658.498	8942.62
658.849	8924.31
659.2	8974.03
659.551	8947.36
659.902	8914.14
660.253	8930.19
660.604	8977.87
660.955	8932
661.306	9022.84
661.656	9011.77
662.007	8997.76
662.358	8968.61
662.708	8976.74
663.059	8957.53
663.409	8918.89
663.76	8966.35
664.11	8976.29
664.461	8926.8
664.811	8964.54
665.161	8955.5
665.511	8952.11
665.862	8952.34
666.212	8981.26
666.562	8984.88
666.912	8984.65
667.262	8905.56
667.612	9034.37
667.962	8952.34
668.312	8934.93
668.662	9014.48
669.011	8906.69
669.361	8923.86
669.711	8914.6
670.06	8877.31
670.41	8945.78
670.76	8883.18
671.109	8931.09
671.459	8903.07
671.808	8900.59
672.157	8886.12
672.507	8908.04
672.856	8878.21
673.205	8942.39
673.554	8881.38
673.904	8851.55
674.253	8870.3
674.602	8892.9
674.951	8750.98
675.3	8757.76
675.649	8834.6
675.998	8857.87
676.346	8805.9
676.695	8849.74
677.044	8788.5
677.393	8767.93
677.741	8800.93
678.09	8788.95
678.438	8769.97
678.787	8783.75
679.135	8798.89
679.484	8701.72
679.832	8714.38
680.181	8682.51
680.529	8670.53
680.877	8608.16
681.225	8677.09
681.573	8718.22
681.922	8694.04
682.27	8600.93
682.618	8595.06
682.966	8601.61
683.314	8532.01
683.661	8551.22
684.009	8467.6
684.357	8548.96
684.705	8482.52
685.053	8512.57
685.4	8425.8
685.748	8436.64
686.095	8389.86
686.443	8438.45
686.79	8406.81
687.138	8386.02
687.485	8397.55
687.832	8317.1
688.18	8342.18
688.527	8335.85
688.874	8301.05
689.221	8250.21
689.568	8217.89
689.915	8207.27
690.262	8227.16
690.609	8202.3
690.956	8229.87
691.303	8140.15
691.65	8120.94
691.997	8108.29
692.344	8073.26
692.69	8027.84
693.037	8055.41
693.383	7957.79
693.73	7986.71
694.077	7995.98
694.423	7859.48
694.769	7880.5
695.116	7844.79
695.462	7815.87
695.808	7828.3
696.155	7778.35
696.501	7784.68
696.847	7757.56
697.193	7686.38
697.539	7740.39
697.885	7610
698.231	7584.46
698.577	7624.91
698.923	7618.81
699.269	7545.82
699.614	7473.05
699.96	7511.47
700.306	7445.03
700.651	7426.5
700.997	7414.97
701.342	7372.72
701.688	7365.71
702.033	7344.92
702.379	7367.29
702.724	7326.39
703.069	7342.66
703.415	7197.58
703.76	7203.23
704.105	7225.37
704.45	7222.89
704.795	7151.03
705.14	7164.81
705.485	7150.57
705.83	7128.43
706.175	7059.73
706.52	7083.68
706.865	7038.49
707.209	7035.55
707.554	6998.71
707.899	7018.83
708.243	6926.17
708.588	6944.93
708.932	6883.24
709.277	6879.85
709.621	6907.64
709.966	6849.34
710.31	6880.53
710.654	6812.73
710.998	6835.1
711.342	6840.98
711.687	6792.62
712.031	6723.69
712.375	6717.59
712.719	6744.48
713.063	6688.44
713.407	6753.52
713.75	6713.52
714.094	6719.63
714.438	6682.56
714.782	6651.6
715.125	6626.52
715.469	6633.07
715.812	6634.66
716.156	6565.51
716.499	6619.29
716.843	6600.53
717.186	6530.03
717.53	6623.36
717.873	6578.84
718.216	6499.52
718.559	6524.15
718.902	6490.25
719.246	6477.15
719.589	6476.69
719.932	6447.54
720.275	6459.07
720.617	6458.84
720.96	6429.24
721.303	6446.86
721.646	6499.07
721.989	6391.95
722.331	6433.53
722.674	6436.7
723.016	6431.05
723.359	6464.04
723.701	6385.17
724.044	6399.41
724.386	6355.57
724.729	6425.17
725.071	6410.48
725.413	6347.66
725.755	6427.43
726.097	6332.07
726.439	6247.32
726.782	6347.88
727.124	6344.95
727.465	6316.7
727.807	6290.71
728.149	6327.09
728.491	6306.3
728.833	6344.49
729.175	6316.92
729.516	6287.32
729.858	6247.1
730.199	6330.48
730.541	6277.83
730.882	6263.82
731.224	6309.69
731.565	6296.59
731.906	6205.29
732.248	6295.46
732.589	6303.59
732.93	6237.6
733.271	6317.38
733.612	6265.17
733.953	6275.8
734.294	6212.97
734.635	6279.19
734.976	6295
735.317	6278.73
735.658	6296.81
735.999	6266.3
736.339	6246.42
736.68	6263.82
737.021	6316.02
737.361	6258.39
737.702	6346.75
738.042	6264.5
738.383	6240.54
738.723	6300.65
739.063	6339.3
739.404	6291.39
739.744	6284.61
740.084	6270.6
740.424	6334.78
740.764	6350.6
741.104	6406.41
741.444	6312.18
741.784	6320.54
742.124	6406.87
742.464	6321.67
742.804	6369.13
743.143	6401.44
743.483	6438.28
743.823	6397.15
744.162	6450.25
744.502	6427.2
744.841	6459.07
745.181	6519.63
745.52	6520.76
745.86	6539.97
746.199	6570.02
746.538	6611.38
746.877	6649.34
747.216	6635.79
747.556	6629.23
747.895	6730.47
748.234	6686.63
748.573	6779.96
748.911	6787.42
749.25	6836.01
749.589	6823.58
749.928	6922.11
750.267	6959.39
750.605	6994.42
750.944	7060.86
751.283	7099.28
751.621	7147.18
751.96	7198.48
752.298	7272.83
752.636	7348.99
752.975	7369.55
753.313	7464.92
753.651	7583.56
753.989	7573.61
754.327	7669.66
754.666	7708.3
755.004	7883.21
755.342	7990.78
755.679	8073.94
756.017	8133.6
756.355	8298.34
756.693	8356.87
757.031	8423.31
757.368	8494.04
757.706	8569.97
758.044	8701.04
758.381	8814.49
758.719	8914.14
759.056	9055.84
759.394	9168.15
759.731	9238.43
760.068	9326.79
760.405	9473.23
760.743	9563.84
761.08	9670.06
761.417	9772.43
761.754	9951.63
762.091	10016.26
762.428	10093.1
762.765	10153.43
763.102	10392.75
763.438	10489.47
763.775	10554.78
764.112	10643.14
764.449	10842.91
764.785	10902.57
765.122	10891.95
765.458	11010.81
765.795	11208.1
766.131	11322.22
766.467	11350.92
766.804	11442.44
767.14	11591.59
767.476	11674.75
767.812	11713.84
768.148	11850.34
768.485	11901.18
768.821	12005.81
769.157	12081.29
