Data from hue_120_FLMS001491_00073.txt Node
Date: Tue Feb 07 16:59:57 GMT 2017
User: dcchb
Spectrometer: FLMS00149
Trigger mode: 0
Integration Time (sec): 2.000000E-2
Scans to average: 10
Electric dark correction enabled: true
Nonlinearity correction enabled: false
Boxcar width: 0
XAxis mode: Wavelengths
Number of Pixels in Spectrum: 2048
>>>>>Begin Spectral Data<<<<<
341.393	2.66
341.776	2.66
342.16	2.66
342.543	-63.78
342.927	-65.59
343.31	-64.24
343.693	-61.52
344.077	-71.92
344.46	-52.48
344.843	-63.33
345.226	-36.21
345.61	-31.47
345.993	-24.91
346.376	-23.33
346.759	4.69
347.142	5.37
347.525	41.52
347.908	69.55
348.291	77.91
348.674	102.54
349.057	127.85
349.44	121.07
349.823	150.67
350.206	165.59
350.588	216.89
350.971	197.9
351.354	220.5
351.737	268.86
352.119	258.47
352.502	271.12
352.884	250.33
353.267	297.34
353.65	299.6
354.032	315.64
354.414	306.83
354.797	326.04
355.179	326.71
355.562	317.22
355.944	341.86
356.326	332.36
356.709	321.07
357.091	357.9
357.473	359.26
357.855	346.83
358.238	340.5
358.62	350.89
359.002	360.61
359.384	363.1
359.766	348.18
360.148	347.5
360.53	336.66
360.912	345.25
361.294	339.37
361.676	327.62
362.057	331.23
362.439	339.14
362.821	325.81
363.203	324.23
363.584	318.81
363.966	333.49
364.348	338.92
364.729	323.78
365.111	321.07
365.493	342.31
365.874	318.35
366.256	297.34
366.637	328.3
367.019	313.83
367.4	311.12
367.781	310.44
368.163	328.07
368.544	327.17
368.925	327.39
369.306	335.08
369.688	314.51
370.069	300.95
370.45	317.68
370.831	333.72
371.212	316.77
371.593	312.48
371.974	345.7
372.355	304.57
372.736	326.04
373.117	338.92
373.498	325.13
373.879	329.65
374.26	324
374.641	323.32
375.021	327.17
375.402	310.44
375.783	343.21
376.163	349.09
376.544	331.46
376.925	353.61
377.305	344.12
377.686	331.91
378.066	338.01
378.447	335.08
378.827	327.84
379.208	342.31
379.588	335.75
379.968	345.47
380.349	336.88
380.729	340.27
381.109	336.21
381.489	349.76
381.87	355.87
382.25	369.65
382.63	376.88
383.01	351.57
383.39	354.06
383.77	365.58
384.15	350.22
384.53	363.1
384.91	356.77
385.29	354.28
385.67	366.94
386.049	367.84
386.429	383.89
386.809	356.09
387.189	365.58
387.568	361.74
387.948	351.8
388.328	365.58
388.707	373.27
389.087	382.76
389.466	374.85
389.846	354.51
390.225	392.93
390.605	396.32
390.984	408.07
391.363	378.46
391.743	408.29
392.122	389.54
392.501	365.13
392.881	383.21
393.26	402.42
393.639	390.44
394.018	394.28
394.397	383.44
394.776	411.01
395.155	404.9
395.534	400.38
395.913	416.66
396.292	420.5
396.671	384.11
397.05	406.03
397.429	404.68
397.808	411.91
398.186	404.23
398.565	403.32
398.944	406.03
399.323	435.86
399.701	384.11
400.08	414.62
400.458	423.89
400.837	420.5
401.215	397
401.594	421.85
401.972	419.82
402.351	445.36
402.729	426.6
403.107	430.89
403.486	438.12
403.864	433.15
404.242	430.44
404.62	425.47
404.999	456.43
405.377	457.11
405.755	476.32
406.133	472.02
406.511	475.41
406.889	448.75
407.267	455.98
407.645	465.47
408.023	461.17
408.401	457.78
408.779	477.9
409.156	448.52
409.534	498.46
409.912	469.31
410.29	498.69
410.667	498.01
411.045	505.92
411.422	489.2
411.8	498.01
412.178	512.25
412.555	516.54
412.933	494.85
413.31	494.62
413.687	528.74
414.065	516.77
414.442	514.05
414.819	525.81
415.197	554.51
415.574	521.74
415.951	534.17
416.328	545.24
416.705	553.15
417.082	540.27
417.46	539.59
417.837	555.86
418.214	565.8
418.591	553.6
418.967	554.51
419.344	549.99
419.721	573.94
420.098	562.19
420.475	601.96
420.852	579.14
421.228	583.43
421.605	614.16
421.982	570.78
422.358	583.66
422.735	593.37
423.111	592.7
423.488	613.03
423.864	616.42
424.241	607.16
424.617	611.68
424.994	638.8
425.37	619.36
425.746	628.4
426.123	630.89
426.499	637.44
426.875	647.61
427.251	675.63
427.627	662.07
428.003	634.96
428.379	682.41
428.756	676.54
429.132	663.65
429.507	692.81
429.883	684.67
430.259	711.11
430.635	715.63
431.011	720.83
431.387	721.96
431.763	714.95
432.138	731.68
432.514	728.96
432.89	751.11
433.265	740.49
433.641	764.67
434.016	792.24
434.392	782.07
434.767	768.28
435.143	778
435.518	801.73
435.894	808.74
436.269	808.06
436.644	811.67
437.02	812.58
437.395	829.07
437.77	844.67
438.145	862.29
438.52	842.41
438.895	880.15
439.271	863.65
439.646	886.7
440.021	838.57
440.395	870.88
440.77	894.16
441.145	875.4
441.52	896.42
441.895	875.4
442.27	924.66
442.645	909.75
443.019	900.71
443.394	932.57
443.769	955.62
444.143	911.33
444.518	961.5
444.892	959.92
445.267	947.94
445.641	970.09
446.016	962.18
446.39	958.56
446.764	969.64
447.139	961.05
447.513	979.8
447.887	992.91
448.262	994.72
448.636	991.56
449.01	994.49
449.384	1013.48
449.758	1022.06
450.132	1066.81
450.506	1030.88
450.88	1037.88
451.254	1062.97
451.628	1062.29
452.002	1060.93
452.376	1093.02
452.75	1110.42
453.123	1092.12
453.497	1117.65
453.871	1142.06
454.244	1158.78
454.618	1143.19
454.992	1156.98
455.365	1192
455.739	1199.46
456.112	1214.6
456.486	1232.23
456.859	1218.44
457.232	1289.18
457.606	1241.72
457.979	1248.95
458.352	1278.1
458.725	1316.75
459.099	1325.11
459.472	1365.56
459.845	1342.51
460.218	1350.87
460.591	1416.18
460.964	1400.81
461.337	1416.4
461.71	1440.13
462.083	1459.34
462.456	1448.27
462.829	1474.48
463.201	1507.7
463.574	1524.2
463.947	1531.88
464.32	1543.63
464.692	1584.53
465.065	1585.89
465.438	1620.69
465.81	1666.79
466.183	1680.13
466.555	1740.24
466.928	1711.54
467.3	1724.87
467.672	1766
468.045	1788.82
468.417	1824.53
468.789	1822.72
469.161	1885.09
469.534	1883.28
469.906	1937.07
470.278	1997.86
470.65	2000.12
471.022	2055.48
471.394	2098.87
471.766	2098.87
472.138	2185.65
472.51	2213.44
472.882	2223.84
473.253	2242.37
473.625	2315.59
473.997	2383.61
474.369	2405.08
474.74	2454.79
475.112	2545.87
475.484	2597.84
475.855	2643.49
476.227	2684.17
476.598	2790.6
476.97	2841.68
477.341	2892.52
477.713	2966.65
478.084	3042.12
478.455	3147.21
478.827	3186.53
479.198	3321.89
479.569	3353.75
479.94	3455.45
480.311	3510.81
480.682	3611.83
481.053	3770.01
481.424	3862.21
481.795	3938.37
482.166	4016.79
482.537	4146.73
482.908	4232.6
483.279	4356.89
483.65	4490.45
484.021	4599.37
484.391	4695.41
484.762	4811.34
485.133	4894.96
485.503	4992.81
485.874	5157.1
486.244	5333.36
486.615	5455.85
486.985	5569.29
487.356	5739
487.726	5799.11
488.097	6054.02
488.467	6074.36
488.837	6261.02
489.207	6390.28
489.578	6578.08
489.948	6725.42
490.318	6886.99
490.688	6951.4
491.058	7155.01
491.428	7292.18
491.798	7416.47
492.168	7667.76
492.538	7761.55
492.908	7981.2
493.278	8028.66
493.648	8175.55
494.017	8359.05
494.387	8491.92
494.757	8578.48
495.126	8689.43
495.496	8883.55
495.866	8976.66
496.235	9095.98
496.605	9245.8
496.974	9411.22
497.344	9554.49
497.713	9706.13
498.082	9778.44
498.452	9972.56
498.821	10016.4
499.19	10072.67
499.559	10244.42
499.928	10425.88
500.298	10495.26
500.667	10558.08
501.036	10687.8
501.405	10827
501.774	10877.4
502.143	11065.42
502.512	11154
502.88	11203.49
503.249	11288.23
503.618	11417.27
503.987	11450.04
504.356	11564.61
504.724	11706.53
505.093	11771.16
505.462	11797.37
505.83	11921.66
506.199	11969.57
506.567	12254.54
506.936	12146.29
507.304	12386.96
507.672	12372.27
508.041	12453.85
508.409	12633.74
508.777	12677.12
509.145	12754.18
509.514	12790.12
509.882	12870.79
510.25	12942.65
510.618	13015.42
510.986	13008.64
511.354	13145.81
511.722	13226.49
512.09	13294.28
512.458	13341.74
512.826	13444.56
513.193	13512.58
513.561	13636.2
513.929	13595.07
514.297	13692.69
514.664	13767.04
515.032	13816.53
515.4	13846.59
515.767	13926.58
516.135	13963.64
516.502	13769.98
516.869	14127.71
517.237	14132.68
517.604	14102.17
517.972	14167.93
518.339	14218.33
518.706	14293.13
519.073	14194.37
519.44	14421.94
519.808	14441.6
520.175	14483.18
520.542	14574.25
520.909	14548.04
521.276	14485.44
521.643	14607.7
522.009	14682.04
522.376	14858.99
522.743	14767.24
523.11	14886.78
523.477	14961.13
523.843	14974.01
524.21	15112.54
524.577	15155.03
524.943	15269.15
525.31	15185.53
525.676	15300.78
526.043	15314.34
526.409	15426.66
526.776	15323.61
527.142	15343.04
527.508	15472.76
527.874	15524.28
528.241	15473.43
528.607	15446.32
528.973	15563.15
529.339	15489.71
529.705	15558.4
530.071	15662.58
530.437	15627.33
530.803	15664.62
531.169	15736.03
531.535	15689.93
531.901	15550.5
532.267	15651.74
532.632	15635.24
532.998	15665.52
533.364	15697.84
533.73	15707.78
534.095	15784.84
534.461	15689.25
534.826	15717.27
535.192	15668.46
535.557	15734.22
535.923	15737.83
536.288	15695.58
536.653	15658.06
537.019	15499.65
537.384	15633.43
537.749	15611.28
538.114	15545.75
538.479	15537.84
538.845	15689.02
539.21	15446.99
539.575	15559.08
539.94	15471.85
540.305	15528.8
540.67	15443.15
541.034	15392.31
541.399	15466.2
541.764	15464.17
542.129	15376.71
542.494	15409.26
542.858	15407.45
543.223	15380.1
543.587	15330.39
543.952	15287
544.316	15249.26
544.681	15164.52
545.045	15162.93
545.41	15190.73
545.774	15202.93
546.138	15099.66
546.503	15115.7
546.867	15034.12
547.231	15103.05
547.595	15078.87
547.959	15142.37
548.324	14992.54
548.688	14905.09
549.052	14941.02
549.416	14938.08
549.779	14995.03
550.143	14731.53
550.507	14868.25
550.871	14873
551.235	14783.06
551.599	14944.86
551.962	14764.08
552.326	14761.36
552.689	14788.71
553.053	14676.39
553.417	14695.38
553.78	14744.87
554.143	14607.02
554.507	14617.86
554.87	14679.11
555.234	14722.95
555.597	14662.83
555.96	14657.41
556.323	14647.02
556.686	14551.65
557.05	14597.75
557.413	14638.43
557.776	14630.52
558.139	14647.92
558.502	14662.38
558.865	14584.42
559.228	14601.59
559.59	14600.92
559.953	14605.21
560.316	14745.77
560.679	14656.51
561.041	14655.83
561.404	14697.86
561.767	14715.49
562.129	14609.5
562.492	14771.76
562.854	14708.94
563.217	14616.73
563.579	14768.59
563.941	14887.24
564.304	14833.9
564.666	14843.85
565.028	14776.5
565.39	14826.22
565.753	14826.9
566.115	14911.64
566.477	14960
566.839	14886.33
567.201	14990.51
567.563	14902.6
567.925	15086.1
568.287	15035.48
568.648	14950.51
569.01	14997.52
569.372	15073.9
569.734	15040.68
570.095	15116.16
570.457	15115.7
570.819	15119.32
571.18	15163.84
571.542	15211.75
571.903	15146.89
572.265	15233.22
572.626	15239.54
572.987	15210.39
573.349	15201.35
573.71	15294.68
574.071	15245.19
574.432	15341.01
574.794	15328.58
575.155	15334
575.516	15327.9
575.877	15373.55
576.238	15377.84
576.599	15459.88
576.96	15358.64
577.32	15413.78
577.681	15485.41
578.042	15432.08
578.403	15432.08
578.763	15417.39
579.124	15463.72
579.485	15508.91
579.845	15476.6
580.206	15490.38
580.566	15437.5
580.927	15463.27
581.287	15488.58
581.648	15447.67
582.008	15447.67
582.368	15454.45
582.728	15405.19
583.089	15497.16
583.449	15442.25
583.809	15412.65
584.169	15461.23
584.529	15488.35
584.889	15512.3
585.249	15481.34
585.609	15428.92
585.969	15488.58
586.329	15368.35
586.688	15413.55
587.048	15363.16
587.408	15392.99
587.768	15347.79
588.127	15273.21
588.487	15302.59
588.846	15401.35
589.206	15302.14
589.565	15277.06
589.925	15348.47
590.284	15287.45
590.643	15323.38
591.003	15303.27
591.362	15305.3
591.721	15284.29
592.08	15310.05
592.44	15302.14
592.799	15261.69
593.158	15342.59
593.517	15279.77
593.876	15363.38
594.235	15235.25
594.593	15267.79
594.952	15253.55
595.311	15246.77
595.67	15285.19
596.029	15338.75
596.387	15372.19
596.746	15331.74
597.104	15241.58
597.463	15258.07
597.822	15265.53
598.18	15252.65
598.538	15178.08
598.897	15283.61
599.255	15084.97
599.613	15349.82
599.972	15214.91
600.33	15298.52
600.688	15204.52
601.046	15268.69
601.404	15369.26
601.762	15230.73
602.12	15250.39
602.478	15234.57
602.836	15246.1
603.194	15234.57
603.552	15283.38
603.91	15155.93
604.268	15191.63
604.625	15148.02
604.983	15195.48
605.341	15134.23
605.698	15262.14
606.056	15349.37
606.413	15307.56
606.771	15292.2
607.128	15308.92
607.485	15257.85
607.843	15235.7
608.2	15352.08
608.557	15380.1
608.914	15331.07
609.272	15470.5
609.629	15427.33
609.986	15491.29
610.343	15469.82
610.7	15567.9
611.057	15489.25
611.414	15472.08
611.771	15510.27
612.127	15493.32
612.484	15552.3
612.841	15530.61
613.198	15543.94
613.554	15395.47
613.911	15613.32
614.267	15530.61
614.624	15587.1
614.98	15522.47
615.337	15653.32
615.693	15642.47
616.05	15559.53
616.406	15689.7
616.762	15627.1
617.118	15683.6
617.475	15728.12
617.831	15644.05
618.187	15733.54
618.543	15667.78
618.899	15732.19
619.255	15703.03
619.611	15815.35
619.967	15746.87
620.323	15859.64
620.678	15744.16
621.034	15721.11
621.39	15655.58
621.746	15717.5
622.101	15869.13
622.457	15794.33
622.812	15809.7
623.168	15838.85
623.523	15772.41
623.879	15848.11
624.234	15702.36
624.589	15784.39
624.945	15822.13
625.3	15864.84
625.655	15867.77
626.01	15769.25
626.365	15837.04
626.72	15867.55
627.075	15768.34
627.43	15702.81
627.785	15748.91
628.14	15806.76
628.495	15772.41
628.85	15731.96
629.205	15630.94
629.559	15764.95
629.914	15732.19
630.269	15681.79
630.623	15595.92
630.978	15673.2
631.332	15676.14
631.687	15743.71
632.041	15630.72
632.396	15643.15
632.75	15634.56
633.104	15639.08
633.459	15488.58
633.813	15559.31
634.167	15552.3
634.521	15512.08
634.875	15582.81
635.229	15562.02
635.583	15453.77
635.937	15439.99
636.291	15454.9
636.645	15385.08
636.999	15386.21
637.352	15379.65
637.706	15256.27
638.06	15368.35
638.413	15362.7
638.767	15313.21
639.121	15331.29
639.474	15221.24
639.828	15262.82
640.181	15245.64
640.534	15268.92
640.888	15235.48
641.241	15157.96
641.594	15254.46
641.947	15132.2
642.301	15060.34
642.654	15103.28
643.007	15086.33
643.36	15155.7
643.713	15142.14
644.066	15196.38
644.419	15090.17
644.771	15020.11
645.124	14922.26
645.477	14819.44
645.83	14762.72
646.182	14746.45
646.535	14597.07
646.888	14649.95
647.24	14499.45
647.593	14599.11
647.945	14599.56
648.298	14480.24
648.65	14509.17
649.002	14465.1
649.355	14571.31
649.707	14444.08
650.059	14691.08
650.411	14797.52
650.763	14939.89
651.115	14998.87
651.467	14930.17
651.819	14892.43
652.171	14869.61
652.523	14818.99
652.875	14867.58
653.227	14845.2
653.578	14955.26
653.93	14947.8
654.282	14934.24
654.633	14751.87
654.985	14841.36
655.337	14876.16
655.688	14937.63
656.039	14955.71
656.391	14864.19
656.742	14863.96
657.094	14905.99
657.445	14856.05
657.796	14921.59
658.147	14848.14
658.498	14846.11
658.849	14949.61
659.2	14875.26
659.551	14841.59
659.902	14899.89
660.253	14913.9
660.604	14873.22
660.955	14850.17
661.306	14905.99
661.656	14968.36
662.007	14940.12
662.358	14880.91
662.708	14881.13
663.059	14905.09
663.409	14815.83
663.76	14936.5
664.11	14893.79
664.461	14970.85
664.811	14934.24
665.161	14908.03
665.511	14817.41
665.862	14851.98
666.212	14936.95
666.562	14953.22
666.912	14892.66
667.262	14917.07
667.612	14879.1
667.962	14869.38
668.312	14876.84
668.662	14944.18
669.011	14883.85
669.361	14856.28
669.711	14887.69
670.06	14847.24
670.41	14815.37
670.76	14797.52
671.109	14861.93
671.459	14844.07
671.808	14800.91
672.157	14855.6
672.507	14677.52
672.856	14763.62
673.205	14742.83
673.554	14816.28
673.904	14772.89
674.253	14841.36
674.602	14698.77
674.951	14505.78
675.3	14513.91
675.649	14682.72
675.998	14658.09
676.346	14631.42
676.695	14772.89
677.044	14531.76
677.393	14613.34
677.741	14625.1
678.09	14595.49
678.438	14561.14
678.787	14622.16
679.135	14595.49
679.484	14517.3
679.832	14521.14
680.181	14454.48
680.529	14471.65
680.877	14401.6
681.225	14394.14
681.573	14535.38
681.922	14405.44
682.27	14335.39
682.618	14433.91
682.966	14394.82
683.314	14327.02
683.661	14274.82
684.009	14164.99
684.357	14207.25
684.705	14160.25
685.053	14186.24
685.4	14074.15
685.748	14113.02
686.095	14006.13
686.443	14003.42
686.79	13957.09
687.138	14000.93
687.485	14054.94
687.832	13978.33
688.18	13928.62
688.527	13827.6
688.874	13826.25
689.221	13854.49
689.568	13736.31
689.915	13693.14
690.262	13701.05
690.609	13629.64
690.956	13654.05
691.303	13571.11
691.65	13556.88
691.997	13490.21
692.344	13433.04
692.69	13378.57
693.037	13447.95
693.383	13298.35
693.73	13283.89
694.077	13218.35
694.423	13187.39
694.769	13171.35
695.116	13158.02
695.462	13087.51
695.808	13054.52
696.155	12984.01
696.501	12955.76
696.847	12913.05
697.193	12823.56
697.539	12867.18
697.885	12744.24
698.231	12641.42
698.577	12690.01
698.923	12634.87
699.269	12621.08
699.614	12495.21
699.96	12517.81
700.306	12499.28
700.651	12392.16
700.997	12430.35
701.342	12395.78
701.688	12350.81
702.033	12306.29
702.379	12178.15
702.724	12223.12
703.069	12248.21
703.415	12084.37
703.76	12017.25
704.105	12044.6
704.45	12038.5
704.795	11927.31
705.14	11939.97
705.485	11903.59
705.83	11806.64
706.175	11820.65
706.52	11754.66
706.865	11770.48
707.209	11720.77
707.554	11667.89
707.899	11657.26
708.243	11570.71
708.588	11528.45
708.932	11515.12
709.277	11594.89
709.621	11468.34
709.966	11416.82
710.31	11458.4
710.654	11341.34
710.998	11311.06
711.342	11399.64
711.687	11326.88
712.031	11268.57
712.375	11196.49
712.719	11300.66
713.063	11274
713.407	11252.98
713.75	11194.68
714.094	11105.41
714.438	11078.52
714.782	11140.89
715.125	11094.34
715.469	11058.86
715.812	11026.09
716.156	11005.98
716.499	10945.87
716.843	10948.58
717.186	10881.01
717.53	10955.81
717.873	10959.66
718.216	10872.43
718.559	10795.14
718.902	10738.64
719.246	10903.16
719.589	10838.98
719.932	10737.06
720.275	10805.08
720.617	10844.86
720.96	10723.73
721.303	10680.57
721.646	10815.93
721.989	10643.73
722.331	10761.24
722.674	10644.41
723.016	10692.32
723.359	10657.29
723.701	10718.98
724.044	10682.6
724.386	10537.29
724.729	10645.31
725.071	10546.11
725.413	10554.92
725.755	10609.38
726.097	10488.48
726.439	10520.34
726.782	10558.31
727.124	10577.29
727.465	10503.4
727.807	10562.38
728.149	10557.86
728.491	10529.16
728.833	10477.18
729.175	10458.43
729.516	10529.38
729.858	10484.87
730.199	10419.78
730.541	10482.61
730.882	10487.8
731.224	10483.74
731.565	10379.11
731.906	10429.73
732.248	10424.98
732.589	10347.69
732.93	10324.64
733.271	10380.91
733.612	10336.62
733.953	10424.75
734.294	10292.1
734.635	10384.98
734.976	10378.65
735.317	10291.2
735.658	10329.16
735.999	10327.36
736.339	10337.07
736.68	10432.66
737.021	10381.82
737.361	10317.41
737.702	10403.96
738.042	10385.89
738.383	10340.24
738.723	10370.07
739.063	10308.37
739.404	10370.52
739.744	10384.76
740.084	10366.9
740.424	10411.65
740.764	10336.17
741.104	10474.92
741.444	10389.95
741.784	10405.32
742.124	10485.54
742.464	10422.27
742.804	10482.83
743.143	10465.43
743.483	10521.93
743.823	10433.79
744.162	10577.29
744.502	10565.32
744.841	10532.32
745.181	10659.32
745.52	10599.44
745.86	10683.73
746.199	10722.37
746.538	10713.11
746.877	10844.4
747.216	10818.87
747.556	10884.86
747.895	10977.73
748.234	10946.77
748.573	11045.08
748.911	11138.18
749.25	11161.68
749.589	11179.54
749.928	11296.6
750.267	11370.27
750.605	11442.13
750.944	11412.3
751.283	11521.22
751.621	11624.72
751.96	11645.29
752.298	11723.93
752.636	11871.5
752.975	11937.48
753.313	12120.75
753.651	12179.28
753.989	12256.57
754.327	12295.44
754.666	12470.8
755.004	12607.97
755.342	12699.27
755.679	12875.54
756.017	12937.23
756.355	13161.63
