Data from hue_70_FLMS001491_61.txt Node
Date: Mon Feb 06 15:21:15 GMT 2017
User: dcchb
Spectrometer: FLMS00149
Trigger mode: 0
Integration Time (sec): 2.000000E-2
Scans to average: 10
Electric dark correction enabled: true
Nonlinearity correction enabled: false
Boxcar width: 0
XAxis mode: Wavelengths
Number of Pixels in Spectrum: 2048
>>>>>Begin Spectral Data<<<<<
341.393	-12.82
341.776	-12.82
342.16	-12.82
342.543	-76.55
342.927	-72.48
343.31	-77.23
343.693	-67.74
344.077	-70.22
344.46	-57.34
344.843	-45.37
345.226	-48.3
345.61	-35.42
345.993	-17.34
346.376	5.25
346.759	12.71
347.142	38.25
347.525	29.21
347.908	56.33
348.291	57.23
348.674	101.52
349.057	118.47
349.44	116.44
349.823	142.43
350.206	165.25
350.588	191.46
350.971	214.97
351.354	215.19
351.737	248.86
352.119	257.22
352.502	263.33
352.884	282.76
353.267	306.49
353.65	269.43
354.032	284.34
354.414	309.88
354.797	293.38
355.179	325.92
355.562	331.57
355.944	327.05
356.326	345.81
356.709	324.79
357.091	356.43
357.473	331.35
357.855	339.26
358.238	326.83
358.62	349.43
359.002	322.53
359.384	326.83
359.766	348.97
360.148	353.72
360.53	333.61
360.912	341.29
361.294	324.79
361.676	343.32
362.057	347.62
362.439	324.57
362.821	333.16
363.203	314.85
363.584	320.27
363.966	331.57
364.348	324.12
364.729	317.11
365.111	329.31
365.493	326.15
365.874	332.48
366.256	299.94
366.637	311.91
367.019	303.55
367.4	313.49
367.781	330.22
368.163	302.65
368.544	296.77
368.925	340.16
369.306	317.11
369.688	307.62
370.069	319.6
370.45	319.82
370.831	311.01
371.212	329.54
371.593	307.39
371.974	310.56
372.355	323.21
372.736	333.16
373.117	307.62
373.498	307.17
373.879	324.57
374.26	294.06
374.641	322.53
375.021	318.24
375.402	304
375.783	332.03
376.163	362.53
376.544	327.96
376.925	334.28
377.305	323.89
377.686	327.05
378.066	331.12
378.447	330.9
378.827	332.03
379.208	333.61
379.588	351.46
379.968	327.73
380.349	329.31
380.729	351.01
381.109	352.82
381.489	351.23
381.87	317.34
382.25	318.92
382.63	324.79
383.01	344.68
383.39	351.46
383.77	359.14
384.15	347.39
384.53	356.88
384.91	353.72
385.29	338.35
385.67	357.56
386.049	345.58
386.429	369.54
386.809	359.37
387.189	353.27
387.568	355.3
387.948	348.52
388.328	372.48
388.707	376.54
389.087	361.85
389.466	362.08
389.846	373.83
390.225	343.1
390.605	346.49
390.984	357.56
391.363	355.75
391.743	348.75
392.122	372.25
392.501	348.75
392.881	382.65
393.26	364.11
393.639	376.32
394.018	375.64
394.397	347.84
394.776	365.47
395.155	373.15
395.534	368.63
395.913	379.71
396.292	392.59
396.671	386.94
397.05	376.77
397.429	386.04
397.808	352.82
398.186	358.24
398.565	384.23
398.944	379.71
399.323	384
399.701	365.47
400.08	387.16
400.458	387.84
400.837	382.42
401.215	392.14
401.594	398.46
401.972	393.94
402.351	401.85
402.729	401.18
403.107	419.71
403.486	390.55
403.864	409.76
404.242	382.87
404.62	417.45
404.999	424.9
405.377	420.38
405.755	397.79
406.133	412.7
406.511	420.61
406.889	418.8
407.267	415.86
407.645	402.53
408.023	412.25
408.401	434.4
408.779	435.75
409.156	407.28
409.534	436.88
409.912	436.2
410.29	446.15
410.667	423.55
411.045	439.14
411.422	412.48
411.8	431.01
412.178	463.55
412.555	461.06
412.933	459.71
413.31	446.6
413.687	454.96
414.065	457.45
414.442	451.34
414.819	470.1
415.197	490.44
415.574	488.86
415.951	487.95
416.328	483.21
416.705	482.98
417.082	484.11
417.46	480.27
417.837	498.12
418.214	506.48
418.591	496.99
418.967	488.63
419.344	490.89
419.721	489.99
420.098	494.51
420.475	509.65
420.852	506.26
421.228	514.85
421.605	523.43
421.982	513.04
422.358	500.16
422.735	516.65
423.111	518.91
423.488	527.73
423.864	526.37
424.241	538.35
424.617	554.39
424.994	554.84
425.37	535.18
425.746	526.14
426.123	558.23
426.499	532.02
426.875	591
427.251	565.69
427.627	570.44
428.003	571.79
428.379	571.11
428.756	577.67
429.132	593.26
429.507	576.09
429.883	585.8
430.259	578.35
430.635	618.8
431.011	600.49
431.387	605.01
431.763	596.42
432.138	593.04
432.514	626.25
432.89	617.67
433.265	641.17
433.641	643.88
434.016	633.71
434.392	639.14
434.767	615.86
435.143	668.06
435.518	654.95
435.894	652.47
436.269	659.02
436.644	647.95
437.02	666.03
437.395	660.83
437.77	677.33
438.145	689.98
438.52	711.22
438.895	696.08
439.271	699.25
439.646	700.38
440.021	708.74
440.395	731.34
440.77	695.41
441.145	702.18
441.52	737.66
441.895	750.09
442.27	743.09
442.645	742.18
443.019	708.51
443.394	755.52
443.769	766.36
444.143	763.2
444.518	776.31
444.892	749.87
445.267	759.58
445.641	778.57
446.016	773.14
446.39	785.35
446.764	792.35
447.139	802.75
447.513	817.21
447.887	776.31
448.262	799.81
448.636	803.43
449.01	814.27
449.384	806.36
449.758	814.72
450.132	844.55
450.506	834.84
450.88	865.8
451.254	851.79
451.628	863.76
452.002	842.97
452.376	861.28
452.75	868.06
453.123	859.69
453.497	873.93
453.871	895.63
454.244	884.55
454.618	913.25
454.992	934.27
455.365	918.45
455.739	928.85
456.112	946.47
456.486	950.54
456.859	953.25
457.232	962.97
457.606	981.73
457.979	984.66
458.352	1020.37
458.725	1011.78
459.099	1030.31
459.472	1038.45
459.845	1038.9
460.218	1059.01
460.591	1051.55
460.964	1088.39
461.337	1088.62
461.71	1099.46
462.083	1128.84
462.456	1136.52
462.829	1145.56
463.201	1149.4
463.574	1173.13
463.947	1185.56
464.32	1193.47
464.692	1199.35
465.065	1205.67
465.438	1211.78
465.81	1235.96
466.183	1256.52
466.555	1285.67
466.928	1299.91
467.3	1318.67
467.672	1319.12
468.045	1347.14
468.417	1378.55
468.789	1398.66
469.161	1434.14
469.534	1439.11
469.906	1463.75
470.278	1490.19
470.65	1474.14
471.022	1509.4
471.394	1566.57
471.766	1590.75
472.138	1635.72
472.51	1662.39
472.882	1691.09
473.253	1711.65
473.625	1743.29
473.997	1792.33
474.369	1838.65
474.74	1844.53
475.112	1922.27
475.484	1947.12
475.855	1985.32
476.227	2015.82
476.598	2099.89
476.97	2105.54
477.341	2206.55
477.713	2249.71
478.084	2277.28
478.455	2379.88
478.827	2425.3
479.198	2494.23
479.569	2559.31
479.94	2630.27
480.311	2711.4
480.682	2807.44
481.053	2853.54
481.424	2958.85
481.795	2990.03
482.166	3088.56
482.537	3166.3
482.908	3311.83
483.279	3354.09
483.65	3442.45
484.021	3558.83
484.391	3622.33
484.762	3712.73
485.133	3804.02
485.503	3925.15
485.874	4049.67
486.244	4151.59
486.615	4283.33
486.985	4403.1
487.356	4510.9
487.726	4613.95
488.097	4811.68
488.467	4848.29
488.837	5032.92
489.207	5136.87
489.578	5315.62
489.948	5404.89
490.318	5517.88
490.688	5673.35
491.058	5722.62
491.428	5924.87
491.798	6030.86
492.168	6271.53
492.538	6349.72
492.908	6452.99
493.278	6689.15
493.648	6735.02
494.017	6876.71
494.387	7002.58
494.757	7161
495.126	7291.84
495.496	7382.24
495.866	7485.06
496.235	7707.2
496.605	7885.05
496.974	8031.26
497.344	8138.6
497.713	8229.22
498.082	8381.53
498.452	8512.6
498.821	8697.68
499.19	8729.54
499.559	8887.96
499.928	9015.19
500.298	9182.19
500.667	9312.58
501.036	9333.37
501.405	9541.27
501.774	9625.57
502.143	9780.59
502.512	9877.76
502.88	10020.58
503.249	10088.83
503.618	10188.49
503.987	10343.51
504.356	10444.3
504.724	10577.41
505.093	10648.82
505.462	10796.16
505.83	10858.08
506.199	11016.49
506.567	11242.7
506.936	11246.31
507.304	11370.38
507.672	11472.3
508.041	11635.46
508.409	11659.86
508.777	11835.68
509.145	11931.27
509.514	12011.94
509.882	12111.38
510.25	12257.36
510.618	12381.2
510.986	12401.31
511.354	12506.17
511.722	12688.54
512.09	12850.79
512.458	12806.5
512.826	13032.93
513.193	13055.53
513.561	13176.21
513.929	13271.8
514.297	13402.64
514.664	13454.39
515.032	13544.33
515.4	13719.24
515.767	13776.64
516.135	13848.51
516.502	13766.93
516.869	14050.08
517.237	14067.48
517.604	14078.56
517.972	14295.05
518.339	14370.3
518.706	14462.28
519.073	14507.25
519.44	14693.46
519.808	14737.07
520.175	14754.02
520.542	15014.35
520.909	14996.95
521.276	14989.72
521.643	15165.53
522.009	15308.58
522.376	15313.78
522.743	15534.11
523.11	15634.67
523.477	15752.41
523.843	15782.01
524.21	15875.57
524.577	16025.85
524.943	16093.87
525.31	16133.87
525.676	16265.39
526.043	16452.73
526.409	16440.08
526.776	16555.78
527.142	16678.49
527.508	16757.81
527.874	16868.54
528.241	16854.98
528.607	16890.69
528.973	17065.6
529.339	17091.13
529.705	17139.94
530.071	17353.27
530.437	17302.43
530.803	17410.67
531.169	17483.44
531.535	17431.91
531.901	17558.92
532.267	17639.14
532.632	17583.1
532.998	17759.36
533.364	17857.21
533.73	17843.43
534.095	17924.33
534.461	17834.16
534.826	18026.25
535.192	18016.31
535.557	18145.79
535.923	18100.6
536.288	18203.42
536.653	18221.72
537.019	18144.44
537.384	18252.23
537.749	18325
538.114	18298.78
538.479	18328.61
538.845	18404.32
539.21	18357.77
539.575	18402.28
539.94	18469.85
540.305	18616.06
540.67	18428.05
541.034	18526.58
541.399	18591.21
541.764	18650.19
542.129	18670.98
542.494	18666.46
542.858	18688.83
543.223	18712.78
543.587	18900.8
543.952	18768.83
544.316	18863.52
544.681	18757.76
545.045	18800.24
545.41	18983.29
545.774	18826.68
546.138	18922.95
546.503	18946.22
546.867	18972.21
547.231	18993
547.595	18944.87
547.959	19040.69
548.324	18983.51
548.688	19005.88
549.052	19085.2
549.416	19026.67
549.779	19093.79
550.143	19127.24
550.507	19267.8
550.871	19190.96
551.235	19144.41
551.599	19397.06
551.962	19249.95
552.326	19332.43
552.689	19438.64
553.053	19358.64
553.417	19260.79
553.78	19563.38
554.143	19396.16
554.507	19510.28
554.87	19509.83
555.234	19684.28
555.597	19513.44
555.96	19576.49
556.323	19775.13
556.686	19632.76
557.05	19890.61
557.413	19869.82
557.776	19861.68
558.139	19954.56
558.502	19999.98
558.865	19935.58
559.228	20045.41
559.59	20106.42
559.953	20072.75
560.316	20330.6
560.679	20342.8
561.041	20429.8
561.404	20483.59
561.767	20596.35
562.129	20449.46
562.492	20579.18
562.854	20609.68
563.217	20688.33
563.579	20640.64
563.941	20783.69
564.304	20745.5
564.666	20999.96
565.028	20932.61
565.39	20939.17
565.753	21103.68
566.115	21102.78
566.477	21296.45
566.839	21168.77
567.201	21330.8
567.563	21338.7
567.925	21498.25
568.287	21499.38
568.648	21429.78
569.01	21599.71
569.372	21666.38
569.734	21581.18
570.095	21711.58
570.457	21821.86
570.819	21851.23
571.18	21908.18
571.542	21993.38
571.903	22010.1
572.265	22102.98
572.626	22051.23
572.987	22119.25
573.349	22119.25
573.71	22252.13
574.071	22308.17
574.432	22385
574.794	22410.54
575.155	22348.4
575.516	22389.98
575.877	22426.81
576.238	22531.67
576.599	22505.23
576.96	22530.99
577.32	22500.71
577.681	22660.93
578.042	22663.42
578.403	22554.72
578.763	22588.39
579.124	22826.35
579.485	22812.56
579.845	22679.69
580.206	22730.98
580.566	22665.9
580.927	22820.7
581.287	22805.56
581.648	22798.1
582.008	22965.55
582.368	22878.78
582.728	22932.33
583.089	22869.29
583.449	22961.03
583.809	22877.87
584.169	22922.84
584.529	22906.8
584.889	23047.13
585.249	23024.54
585.609	22747.48
585.969	22981.37
586.329	22983.41
586.688	22975.27
587.048	22987.93
587.408	22926.46
587.768	22922.17
588.127	22876.97
588.487	22882.17
588.846	23002.16
589.206	22845.33
589.565	22793.13
589.925	22899.79
590.284	22804.2
590.643	22982.28
591.003	22975.95
591.362	22969.62
591.721	22985.21
592.08	22976.18
592.44	22942.96
592.799	23033.58
593.158	22859.34
593.517	22864.54
593.876	22957.64
594.235	22952
594.593	23030.64
594.952	23001.03
595.311	22950.19
595.67	22906.12
596.029	23180.01
596.387	23097.08
596.746	23160.35
597.104	22937.98
597.463	23032.9
597.822	23153.35
598.18	22980.92
598.538	23007.81
598.897	23119.45
599.255	22895.05
599.613	23188.6
599.972	23102.73
600.33	23206.9
600.688	23126.91
601.046	23189.96
601.404	23223.85
601.762	23168.94
602.12	23359.67
602.478	23318.77
602.836	23318.54
603.194	23226.34
603.552	23246
603.91	23123.29
604.268	23201.03
604.625	23224.3
604.983	23269.05
605.341	23200.12
605.698	23343.17
606.056	23335.26
606.413	23441.25
606.771	23293.68
607.128	23456.84
607.485	23366
607.843	23350.18
608.2	23465.88
608.557	23601.24
608.914	23558.53
609.272	23561.47
609.629	23593.33
609.986	23691.18
610.343	23664.74
610.7	23838.75
611.057	23684.63
611.414	23868.13
611.771	23767.34
612.127	23803.95
612.484	23888.92
612.841	23959.2
613.198	23881.24
613.554	23767.79
613.911	24016.6
614.267	24024.74
614.624	23914.91
614.98	24041.68
615.337	24212.3
615.693	24143.83
616.05	24084.62
616.406	24259.31
616.762	24101.34
617.118	24088.01
617.475	24081.23
617.831	24221.79
618.187	24255.24
618.543	24292.53
618.899	24443.26
619.255	24349.02
619.611	24379.3
619.967	24363.94
620.323	24477.83
620.678	24410.71
621.034	24279.42
621.39	24436.7
621.746	24394.67
622.101	24610.48
622.457	24425.63
622.812	24480.77
623.168	24546.98
623.523	24602.8
623.879	24552.41
624.234	24551.5
624.589	24533.87
624.945	24519.19
625.3	24634.66
625.655	24522.35
626.01	24612.52
626.365	24654.78
626.72	24574.55
627.075	24535.91
627.43	24514.44
627.785	24547.21
628.14	24591.73
628.495	24577.94
628.85	24532.07
629.205	24537.49
629.559	24638.05
629.914	24426.53
630.269	24544.04
630.623	24492.97
630.978	24521.45
631.332	24552.41
631.687	24638.96
632.041	24451.62
632.396	24545.85
632.75	24461.79
633.104	24543.82
633.459	24363.71
633.813	24527.77
634.167	24384.5
634.521	24331.17
634.875	24330.26
635.229	24302.24
635.583	24299.98
635.937	24249.81
636.291	24185.18
636.645	24297.72
636.999	24198.97
637.352	24201.23
637.706	24173.88
638.06	24118.29
638.413	24091.85
638.767	24048.46
639.121	24144.51
639.474	23995.58
639.828	24034.68
640.181	24072.64
640.534	24001.91
640.888	23945.87
641.241	23910.61
641.594	23939.54
641.947	24039.2
642.301	23933.66
642.654	23967.11
643.007	23859.54
643.36	23888.47
643.713	23951.29
644.066	23959.88
644.419	23867.68
644.771	23611.64
645.124	23397.41
645.477	23386.33
645.83	23239.22
646.182	23144.08
646.535	23079.22
646.888	23187.47
647.24	23015.72
647.593	23116.28
647.945	23064.99
648.298	22980.02
648.65	22864.09
649.002	22812.11
649.355	22947.93
649.707	22999.68
650.059	23110.18
650.411	23381.81
650.763	23324.64
651.115	23687.34
651.467	23539.1
651.819	23585.2
652.171	23476.73
652.523	23460.68
652.875	23387.01
653.227	23396.73
653.578	23582.04
653.93	23422.27
654.282	23518.08
654.633	23358.99
654.985	23415.26
655.337	23441.47
655.688	23424.75
656.039	23423.4
656.391	23223.63
656.742	23373.45
657.094	23397.18
657.445	23441.47
657.796	23322.83
658.147	23349.73
658.498	23327.13
658.849	23417.07
659.2	23242.16
659.551	23280.8
659.902	23447.8
660.253	23367.58
660.604	23347.24
660.955	23367.35
661.306	23346.79
661.656	23286.9
662.007	23420.01
662.358	23335.49
662.708	23429.5
663.059	23411.42
663.409	23258.2
663.76	23415.71
664.11	23379.55
664.461	23335.94
664.811	23412.55
665.161	23341.14
665.511	23272.89
665.862	23319.9
666.212	23465.88
666.562	23414.58
666.912	23324.87
667.262	23271.31
667.612	23250.74
667.962	23356.73
668.312	23248.94
668.662	23395.83
669.011	23280.57
669.361	23327.35
669.711	23225.21
670.06	23253.91
670.41	23226.56
670.76	23155.83
671.109	23253
671.459	23161.03
671.808	23151.09
672.157	23197.41
672.507	23060.02
672.856	23236.73
673.205	23222.04
673.554	23257.07
673.904	23044.65
674.253	23262.27
674.602	23126
674.951	22841.04
675.3	22685.56
675.649	22972.11
675.998	23023.63
676.346	22975.5
676.695	23083.29
677.044	22861.83
677.393	23045.78
677.741	22916.74
678.09	22933.46
678.438	22783.19
678.787	22862.51
679.135	22958.77
679.484	22735.28
679.832	22873.35
680.181	22582.06
680.529	22694.6
680.877	22641.27
681.225	22625.22
681.573	22766.24
681.922	22607.15
682.27	22553.36
682.618	22566.69
682.966	22536.19
683.314	22423.87
683.661	22461.16
684.009	22394.95
684.357	22249.19
684.705	22251
685.053	22287.83
685.4	22247.16
685.748	22193.82
686.095	21997.9
686.443	22036.31
686.79	22004.22
687.138	22086.93
687.485	22025.47
687.832	21980.5
688.18	22047.16
688.527	21880.61
688.874	21794.29
689.221	21821.86
689.568	21712.93
689.915	21664.35
690.262	21667.74
690.609	21575.76
690.956	21416.89
691.303	21539.83
691.65	21248.76
691.997	21328.76
692.344	21330.34
692.69	21154.53
693.037	21260.51
693.383	20966.74
693.73	21124.92
694.077	21016
694.423	20959.96
694.769	20929.9
695.116	20845.38
695.462	20752.51
695.808	20712.96
696.155	20715.9
696.501	20545.73
696.847	20455.11
697.193	20426.41
697.539	20426.19
697.885	20290.82
698.231	20156.36
698.577	20126.98
698.923	20146.19
699.269	20115.23
699.614	20014.67
699.96	19916.37
700.306	19838.63
700.651	19805.86
700.997	19680.89
701.342	19623.95
701.688	19631.4
702.033	19621.91
702.379	19494.23
702.724	19422.37
703.069	19442.03
703.415	19237.29
703.76	19286.78
704.105	19183.28
704.45	19238.42
704.795	19048.6
705.14	19010.18
705.485	19046.79
705.83	18983.96
706.175	18956.17
706.52	18932.21
706.865	18843.18
707.209	18779.22
707.554	18752.11
707.899	18793.46
708.243	18712.11
708.588	18559.79
708.932	18549.4
709.277	18438.22
709.621	18502.17
709.966	18369.07
710.31	18330.87
710.654	18171.1
710.998	18245.9
711.342	18313.47
711.687	18285.68
712.031	18088.17
712.375	18041.39
712.719	18081.16
713.063	17987.15
713.407	18053.59
713.75	17954.84
714.094	17951.22
714.438	17870.77
714.782	17973.37
715.125	17754.17
715.469	17819.93
715.812	17590.55
716.156	17602.31
716.499	17603.89
716.843	17631.01
717.186	17502.42
717.53	17658.58
717.873	17570.67
718.216	17524.12
718.559	17505.58
718.902	17431.01
719.246	17399.82
719.589	17352.59
719.932	17292.03
720.275	17306.72
720.617	17287.29
720.96	17241.86
721.303	17186.95
721.646	17219.49
721.989	17132.26
722.331	17183.11
722.674	17090.91
723.016	17169.77
723.359	17161.87
723.701	17113.05
724.044	16979.72
724.386	16992.15
724.729	16996.45
725.071	17049.78
725.413	17021.08
725.755	16954.41
726.097	16856.11
726.439	16790.35
726.782	16757.81
727.124	16833.96
727.465	16798.71
727.807	16755.55
728.149	16747.19
728.491	16829.22
728.833	16868.54
729.175	16778.6
729.516	16626.51
729.858	16684.82
730.199	16683.91
730.541	16674.65
730.882	16478.04
731.224	16712.61
731.565	16560.98
731.906	16618.83
732.248	16557.59
732.589	16521.88
732.93	16605.04
733.271	16473.07
733.612	16504.03
733.953	16506.74
734.294	16492.05
734.635	16398.5
734.976	16475.1
735.317	16517.36
735.658	16377.25
735.999	16443.92
736.339	16402.11
736.68	16449.79
737.021	16401.89
737.361	16359.85
737.702	16387.87
738.042	16396.46
738.383	16330.47
738.723	16427.65
739.063	16278.95
739.404	16346.75
739.744	16333.41
740.084	16253.64
740.424	16323.7
740.764	16268.33
741.104	16317.82
741.444	16324.15
741.784	16273.3
742.124	16305.16
742.464	16333.41
742.804	16325.28
743.143	16339.74
743.483	16384.48
743.823	16255.67
744.162	16355.78
744.502	16410.7
744.841	16327.31
745.181	16433.75
745.52	16406.18
745.86	16438.27
746.199	16389.91
746.538	16535.89
746.877	16539.96
747.216	16484.59
747.556	16574.31
747.895	16567.08
748.234	16589.22
748.573	16621.77
748.911	16611.37
749.25	16638.94
749.589	16608.66
749.928	16681.65
750.267	16738.83
750.605	16683.46
750.944	16785.83
751.283	16809.33
751.621	16919.84
751.96	16878.48
752.298	16915.32
752.636	17034.18
752.975	17055.65
753.313	17014.75
753.651	17151.02
753.989	17237.8
754.327	17179.49
754.666	17238.93
755.004	17385.14
755.342	17500.39
755.679	17477.56
756.017	17457
756.355	17731.79
756.693	17720.95
