Data from hue_24_FLMS001491_00069.txt Node
Date: Tue Feb 07 17:12:36 GMT 2017
User: dcchb
Spectrometer: FLMS00149
Trigger mode: 0
Integration Time (sec): 2.000000E-2
Scans to average: 10
Electric dark correction enabled: true
Nonlinearity correction enabled: false
Boxcar width: 0
XAxis mode: Wavelengths
Number of Pixels in Spectrum: 2048
>>>>>Begin Spectral Data<<<<<
341.393	-15.27
341.776	-15.27
342.16	-15.27
342.543	-75.38
342.927	-61.37
343.31	-92.1
343.693	-80.8
344.077	-58.43
344.46	-59.56
344.843	-36.96
345.226	-51.88
345.61	-27.47
345.993	-31.09
346.376	1.45
346.759	12.08
347.142	24.28
347.525	55.01
347.908	65.63
348.291	78.97
348.674	99.31
349.057	101.57
349.44	128.01
349.823	150.83
350.206	163.48
350.588	202.13
350.971	208.23
351.354	216.36
351.737	245.06
352.119	266.53
352.502	282.58
352.884	281
353.267	264.72
353.65	301.56
354.032	302.69
354.414	296.36
354.797	333.88
355.179	326.87
355.562	313.31
355.944	337.72
356.326	330.94
356.709	342.46
357.091	332.07
357.473	355.34
357.855	344.95
358.238	346.53
358.62	336.14
359.002	371.84
359.384	365.06
359.766	365.51
360.148	342.91
360.53	360.54
360.912	328.68
361.294	344.95
361.676	351.95
362.057	361.45
362.439	341.11
362.821	336.14
363.203	321.45
363.584	335.01
363.966	329.13
364.348	339.98
364.729	346.53
365.111	328.23
365.493	341.78
365.874	329.81
366.256	312.41
366.637	308.57
367.019	345.85
367.4	309.7
367.781	310.37
368.163	321.67
368.544	348.34
368.925	347.43
369.306	319.19
369.688	344.04
370.069	334.33
370.45	324.61
370.831	301.56
371.212	324.84
371.593	342.24
371.974	330.49
372.355	333.2
372.736	333.88
373.117	314.67
373.498	329.81
373.879	337.04
374.26	332.07
374.641	319.86
375.021	316.47
375.402	323.25
375.783	347.89
376.163	334.78
376.544	365.29
376.925	344.5
377.305	331.16
377.686	333.2
378.066	324.61
378.447	363.71
378.827	365.96
379.208	368.22
379.588	343.37
379.968	347.89
380.349	359.64
380.729	356.25
381.109	365.74
381.489	362.8
381.87	369.35
382.25	351.5
382.63	367.55
383.01	353.76
383.39	360.77
383.77	355.34
384.15	363.71
384.53	356.25
384.91	373.2
385.29	351.28
385.67	355.57
386.049	370.48
386.429	372.29
386.809	369.13
387.189	367.09
387.568	386.98
387.948	366.42
388.328	370.94
388.707	375.91
389.087	367.55
389.466	391.5
389.846	390.37
390.225	369.58
390.605	396.92
390.984	397.38
391.363	375.23
391.743	391.5
392.122	411.61
392.501	389.92
392.881	375.46
393.26	389.24
393.639	403.25
394.018	403.25
394.397	417.04
394.776	415
395.155	403.93
395.534	406.42
395.913	424.49
396.292	406.19
396.671	397.38
397.05	402.8
397.429	415.91
397.808	435.34
398.186	428.79
398.565	410.03
398.944	430.14
399.323	411.84
399.701	428.56
400.08	443.25
400.458	431.73
400.837	453.87
401.215	431.73
401.594	459.3
401.972	428.11
402.351	448.9
402.729	443.93
403.107	474.44
403.486	451.16
403.864	490.03
404.242	463.14
404.62	447.32
404.999	458.62
405.377	450.93
405.755	471.05
406.133	492.52
406.511	480.54
406.889	492.06
407.267	495
407.645	480.54
408.023	472.18
408.401	473.08
408.779	503.36
409.156	515.11
409.534	510.37
409.912	504.72
410.29	506.98
410.667	514.21
411.045	525.51
411.422	525.73
411.8	529.58
412.178	530.48
412.555	538.62
412.933	542.01
413.31	558.28
413.687	560.31
414.065	550.14
414.442	554.89
414.819	561.44
415.197	572.74
415.574	546.07
415.951	566.64
416.328	578.84
416.705	571.84
417.082	598.95
417.46	556.69
417.837	593.98
418.214	587.43
418.591	580.2
418.967	594.89
419.344	597.82
419.721	592.63
420.098	599.63
420.475	629.01
420.852	618.84
421.228	629.23
421.605	641.44
421.982	652.51
422.358	620.42
422.735	668.1
423.111	636.92
423.488	648.44
423.864	641.44
424.241	673.08
424.617	685.73
424.994	662.45
425.37	666.3
425.746	674.21
426.123	666.07
426.499	674.88
426.875	676.92
427.251	703.58
427.627	701.78
428.003	697.48
428.379	723.24
428.756	716.69
429.132	707.2
429.507	732.73
429.883	749.91
430.259	758.95
430.635	744.49
431.011	765.95
431.387	772.51
431.763	777.71
432.138	788.1
432.514	789
432.89	793.75
433.265	804.15
433.641	820.19
434.016	826.74
434.392	833.3
434.767	868.1
435.143	825.61
435.518	868.1
435.894	870.13
436.269	862.9
436.644	874.2
437.02	881.21
437.395	892.28
437.77	911.49
438.145	903.13
438.52	901.77
438.895	902.45
439.271	908.55
439.646	931.37
440.021	927.98
440.395	945.84
440.77	954.2
441.145	957.81
441.52	977.7
441.895	986.97
442.27	991.49
442.645	967.31
443.019	980.64
443.394	965.5
443.769	1004.14
444.143	1008.43
444.518	1015.21
444.892	1033.29
445.267	1024.7
445.641	1029
446.016	1010.69
446.39	1042.33
446.764	1041.2
447.139	1035.78
447.513	1031.26
447.887	1064.03
448.262	1073.52
448.636	1066.74
449.01	1073.07
449.384	1094.08
449.758	1119.62
450.132	1150.8
450.506	1111.03
450.88	1140.63
451.254	1093.63
451.628	1128.66
452.002	1156.23
452.376	1172.5
452.75	1184.47
453.123	1188.77
453.497	1192.61
453.871	1193.74
454.244	1186.73
454.618	1216.11
454.992	1230.57
455.365	1248.88
455.739	1271.03
456.112	1288.2
456.486	1294.53
456.859	1299.05
457.232	1341.76
457.606	1336.11
457.979	1341.76
458.352	1380.18
458.725	1369.1
459.099	1381.76
459.472	1400.29
459.845	1418.14
460.218	1445.03
460.591	1449.1
460.964	1452.26
461.337	1504.47
461.71	1530
462.083	1515.54
462.456	1523.22
462.829	1531.58
463.201	1553.05
463.574	1563.45
463.947	1587.4
464.32	1600.51
464.692	1664.46
465.065	1641.86
465.438	1659.26
465.81	1700.17
466.183	1719.38
466.555	1748.98
466.928	1751.69
467.3	1770.9
467.672	1767.74
468.045	1842.76
468.417	1838.02
468.789	1841.18
469.161	1860.84
469.534	1892.48
469.906	1947.84
470.278	1956.88
470.65	1991.01
471.022	2007.73
471.394	2081.17
471.766	2068.97
472.138	2101.74
472.51	2140.38
472.882	2194.39
473.253	2198.91
473.625	2217.67
473.997	2280.04
474.369	2287.04
474.74	2348.96
475.112	2396.65
475.484	2426.02
475.855	2470.54
476.227	2503.08
476.598	2549.18
476.97	2630.99
477.341	2629.86
477.713	2734.94
478.084	2715.28
478.455	2784.66
478.827	2801.61
479.198	2927.03
479.569	2898.78
479.94	2999.79
480.311	3055.16
480.682	3136.51
481.053	3204.08
481.424	3252.67
481.795	3288.83
482.166	3338.77
482.537	3418.99
482.908	3514.13
483.279	3551.42
483.65	3593.22
484.021	3656.27
484.391	3725.2
484.762	3744.63
485.133	3807.23
485.503	3906.89
485.874	3977.17
486.244	4006.77
486.615	4115.24
486.985	4162.7
487.356	4210.16
487.726	4343.94
488.097	4383.26
488.467	4416.71
488.837	4508.23
489.207	4552.07
489.578	4652.86
489.948	4745.51
490.318	4779.41
490.688	4798.39
491.058	4951.38
491.428	4940.53
491.798	5069.34
492.168	5144.37
492.538	5202.67
492.908	5263.46
493.278	5361.54
493.648	5354.76
494.017	5455.32
494.387	5489.22
494.757	5542.78
495.126	5617.58
495.496	5585.26
495.866	5652.61
496.235	5813.51
496.605	5833.39
496.974	5820.96
497.344	5914.52
497.713	5955.65
498.082	6024.12
498.452	6109.54
498.821	6152.03
499.19	6133.27
499.559	6191.12
499.928	6244.45
500.298	6289.88
500.667	6359.48
501.036	6374.62
501.405	6425.24
501.774	6443.77
502.143	6564.9
502.512	6560.38
502.88	6599.93
503.249	6600.83
503.618	6634.95
503.987	6761.28
504.356	6773.71
504.724	6791.56
505.093	6808.51
505.462	6852.8
505.83	6905.23
506.199	6954.49
506.567	6982.97
506.936	7031.78
507.304	7096.41
507.672	7104.09
508.041	7194.94
508.409	7256.41
508.777	7268.16
509.145	7375.95
509.514	7324.65
509.882	7345.89
510.25	7397.19
510.618	7491.2
510.986	7459.34
511.354	7580.92
511.722	7657.52
512.09	7640.8
512.458	7690.29
512.826	7688.48
513.193	7771.19
513.561	7733
513.929	7897.29
514.297	7946.33
514.664	7969.83
515.032	8023.62
515.4	8053.9
515.767	8064.75
516.135	8062.94
516.502	8078.3
516.869	8184.06
517.237	8159.88
517.604	8189.49
517.972	8288.92
518.339	8332.31
518.706	8344.74
519.073	8404.17
519.44	8467.67
519.808	8522.13
520.175	8463.61
520.542	8546.54
520.909	8654.33
521.276	8605.07
521.643	8722.58
522.009	8724.16
522.376	8809.36
522.743	8904.05
523.11	8907.89
523.477	8987.21
523.843	9092.97
524.21	9143.59
524.577	9156.24
524.943	9178.84
525.31	9225.62
525.676	9314.88
526.043	9357.37
526.409	9413.18
526.776	9509.45
527.142	9531.83
527.508	9555.55
527.874	9585.84
528.241	9655.89
528.607	9687.08
528.973	9816.79
529.339	9759.62
529.705	9885.94
530.071	10017.01
530.437	10024.92
530.803	10032.83
531.169	10090.23
531.535	10098.36
531.901	10149.66
532.267	10182.88
532.632	10255.87
532.998	10326.83
533.364	10339.26
533.73	10362.54
534.095	10456.1
534.461	10485.92
534.826	10527.73
535.192	10581.29
535.557	10705.58
535.923	10698.35
536.288	10771.79
536.653	10856.08
537.019	10807.27
537.384	10835.97
537.749	10840.27
538.114	10958.23
538.479	10980.83
538.845	11064.89
539.21	11008.4
539.575	11059.24
539.94	11098.11
540.305	11251.1
540.67	11147.38
541.034	11262.85
541.399	11360.03
541.764	11298.56
542.129	11432.34
542.494	11421.27
542.858	11480.02
543.223	11445
543.587	11498.33
543.952	11539.23
544.316	11633.24
544.681	11683.63
545.045	11726.57
545.41	11823.74
545.774	11861.71
546.138	11907.81
546.503	11833.46
546.867	11880.24
547.231	11981.48
547.595	12031.42
547.959	12126.79
548.324	12113.9
548.688	12114.36
549.052	12137.18
549.416	12188.48
549.779	12209.5
550.143	12296.05
550.507	12379.43
550.871	12346.44
551.235	12377.4
551.599	12551.18
551.962	12541.46
552.326	12557.96
552.689	12624.63
553.053	12598.19
553.417	12684.51
553.78	12757.96
554.143	12681.12
554.507	12868.46
554.87	12901.68
555.234	12989.36
555.597	12937.84
555.96	12973.32
556.323	12984.84
556.686	12991.85
557.05	13154.78
557.413	13158.85
557.776	13197.49
558.139	13373.76
558.502	13372.85
558.865	13263.7
559.228	13423.7
559.59	13459.86
559.953	13500.31
560.316	13649.01
560.679	13605.62
561.041	13755.67
561.404	13735.1
561.767	13903.24
562.129	13813.07
562.492	13993.18
562.854	13946.62
563.217	13863.46
563.579	14001.99
563.941	14104.59
564.304	14175.32
564.666	14195.43
565.028	14182.78
565.39	14265.26
565.753	14416.22
566.115	14379.83
566.477	14384.35
566.839	14458.02
567.201	14540.73
567.563	14590.9
567.925	14646.49
568.287	14647.85
568.648	14634.29
569.01	14776.43
569.372	14965.58
569.734	14815.98
570.095	14966.71
570.457	15037.67
570.819	15100.04
571.18	15154.05
571.542	15245.8
571.903	15299.13
572.265	15359.47
572.626	15375.74
572.987	15424.55
573.349	15551.1
573.71	15585.68
574.071	15808.27
574.432	15768.72
574.794	15860.92
575.155	15823.19
575.516	15906.35
575.877	16006.23
576.238	16126
576.599	16337.97
576.96	16308.37
577.32	16447.35
577.681	16547.69
578.042	16742.94
578.403	16708.36
578.763	16865.19
579.124	17008.47
579.485	17057.28
579.845	17318.51
580.206	17357.83
580.566	17526.87
580.927	17652.97
581.287	17849.35
581.648	17986.07
582.008	18150.36
582.368	18120.3
582.728	18454.98
583.089	18606.39
583.449	18786.95
583.809	18986.72
584.169	19185.36
584.529	19285.24
584.889	19734.27
585.249	19798.67
585.609	19950.08
585.969	20335.84
586.329	20464.19
586.688	20800.46
587.048	20945.99
587.408	21171.29
587.768	21439.76
588.127	21758.4
588.487	21924.27
588.846	22373.07
589.206	22563.57
589.565	22795.66
589.925	23198.58
590.284	23479.26
590.643	23785.69
591.003	24029.07
591.362	24370.76
591.721	24645.78
592.08	24933.45
592.44	25385.65
592.799	25676.94
593.158	25981.56
593.517	26314.21
593.876	26641.88
594.235	26879.39
594.593	27271.25
594.952	27625.36
595.311	27924.79
595.67	28203.2
596.029	28690.87
596.387	29001.14
596.746	29406.11
597.104	29567.23
597.463	29882.03
597.822	30359.98
598.18	30638.62
598.538	30812.85
598.897	31460.51
599.255	31477.24
599.613	32252.13
599.972	32393.6
600.33	32820.93
600.688	32924.88
601.046	33413.23
601.404	33722.6
601.762	34050.05
602.12	34489.59
602.478	34654.55
602.836	34952.63
603.194	35242.79
603.552	35511.71
603.91	35788.54
604.268	36202.54
604.625	36372.02
604.983	36798.91
605.341	36979.24
605.698	37350.98
606.056	37762.72
606.413	37901.48
606.771	38162.94
607.128	38687.9
607.485	38620.1
607.843	38819.42
608.2	39402.68
608.557	39627.98
608.914	39792.27
609.272	40051.7
609.629	40474.06
609.986	40892.58
610.343	40731.46
610.7	41293.7
611.057	41335.96
611.414	41608.95
611.771	41707.48
612.127	42111.08
612.484	42273.79
612.841	42543.61
613.198	42551.75
613.554	42722.82
613.911	43123.03
614.267	43237.83
614.624	43449.35
614.98	43715.33
615.337	44016.79
615.693	44123.23
616.05	44209.11
616.406	44631.47
616.762	44538.59
617.118	44871.91
617.475	44972.25
617.831	45129.31
618.187	45310.32
618.543	45417.66
618.899	45835.05
619.255	45804.54
619.611	45945.56
619.967	46259.45
620.323	46271.2
620.678	46297.86
621.034	46291.54
621.39	46397.07
621.746	46425.77
622.101	47054.45
622.457	46757.74
622.812	46941.69
623.168	47057.84
623.523	47277.27
623.879	47498.51
624.234	47070.27
624.589	47463.03
624.945	47636.81
625.3	47660.99
625.655	47717.49
626.01	47719.3
626.365	47802.23
626.72	47760.2
627.075	47842.91
627.43	47977.37
627.785	47949.8
628.14	48125.84
628.495	48209.9
628.85	48120.64
629.205	48007.88
629.559	48369.67
629.914	48158.15
630.269	48287.87
630.623	48244.25
630.978	48275.89
631.332	48498.71
631.687	48456
632.041	48504.59
632.396	48554.08
632.75	48344.36
633.104	48473.17
633.459	48375.1
633.813	48390.24
634.167	48464.36
634.521	48569.22
634.875	48647.41
635.229	48631.59
635.583	48401.09
635.937	48424.81
636.291	48448.54
636.645	48493.51
636.999	48343.91
637.352	48535.32
637.706	48249
638.06	48584.58
638.413	48461.65
638.767	48371.71
639.121	48394.31
639.474	48272.28
639.828	48426.62
640.181	48296.23
640.534	48320.41
640.888	48286.74
641.241	48186.63
641.594	48389.79
641.947	48358.15
642.301	48225.27
642.654	48280.19
643.007	48411.26
643.36	48282.45
643.713	48173.3
644.066	48310.02
644.419	48230.24
644.771	47831.84
645.124	47532.63
645.477	47537.15
645.83	47350.27
646.182	47183.72
646.535	47069.6
646.888	47256.03
647.24	47047.68
647.593	47245.41
647.945	47162.93
648.298	46940.79
648.65	47035.25
649.002	47043.38
649.355	47006.32
649.707	47101.91
650.059	47233.66
650.411	47679.3
650.763	47643.59
651.115	48078.38
651.467	47930.14
651.819	47849.91
652.171	47717.71
652.523	47703.25
652.875	47858.95
653.227	47603.37
653.578	47780.99
653.93	47773.53
654.282	47576.7
654.633	47559.53
654.985	47638.85
655.337	47672.29
655.688	47633.42
656.039	47807.66
656.391	47377.61
656.742	47552.29
657.094	47565.63
657.445	47682.46
657.796	47600.88
658.147	47497.83
658.498	47510.26
658.849	47693.99
659.2	47563.82
659.551	47506.65
659.902	47641.11
660.253	47502.8
660.604	47627.55
660.955	47417.84
661.306	47516.82
661.656	47572.86
662.007	47541.22
662.358	47462.13
662.708	47465.74
663.059	47523.82
663.409	47259.87
663.76	47516.14
664.11	47383.03
664.461	47575.35
664.811	47498.06
665.161	47431.62
665.511	47334.45
665.862	47359.53
666.212	47453.09
666.562	47438.63
666.912	47172.42
667.262	47392.07
667.612	47383.03
667.962	47486.99
668.312	47383.26
668.662	47478.85
669.011	47280.89
669.361	47298.97
669.711	47323.37
670.06	47235.24
670.41	47147.11
670.76	47105.75
671.109	47302.81
671.459	47188.91
671.808	47126.09
672.157	47194.11
672.507	47000.22
672.856	47024.4
673.205	46972.65
673.554	47171.74
673.904	46962.03
674.253	47193.43
674.602	47172.87
674.951	46491.76
675.3	46370.63
675.649	47029.14
675.998	46831.86
676.346	46989.82
676.695	47068.01
677.044	46600.46
677.393	46955.47
677.741	46778.3
678.09	46790.51
678.438	46717.51
678.787	46879.77
679.135	46794.35
679.484	46615.6
679.832	46780.34
680.181	46444.53
680.529	46593
680.877	46414.92
681.225	46371.76
681.573	46630.96
681.922	46442.72
682.27	46184.2
682.618	46342.38
682.966	46252.44
683.314	46398.2
683.661	45963.18
684.009	45907.37
684.357	45845
684.705	45756.86
685.053	45885.67
685.4	45862.62
685.748	45596.64
686.095	45542.4
686.443	45371.56
686.79	45435.29
687.138	45477.77
687.485	45441.84
687.832	45327.95
688.18	45277.78
688.527	45108.97
688.874	45141.28
689.221	45080.72
689.568	44903.32
689.915	44927.51
690.262	44963.44
690.609	44635.99
690.956	44577.91
691.303	44650.9
691.65	44235.77
691.997	44400.06
692.344	44123.23
692.69	43975.67
693.037	44188.99
693.383	43753.52
693.73	43879.17
694.077	43739.51
694.423	43864.48
694.769	43536.81
695.116	43568.67
695.462	43556.47
695.808	43363.93
696.155	43263.14
696.501	43100.66
696.847	43079.42
697.193	42688.02
697.539	42999.42
697.885	42671.97
698.231	42596.94
698.577	42540.45
698.923	42586.55
699.269	42478.08
699.614	42210.97
699.96	42048.26
700.306	42108.37
700.651	41884.42
700.997	41879.9
701.342	41831.32
701.688	41718.78
702.033	41571.44
702.379	41488.73
702.724	41307.71
703.069	41439.46
703.415	40957.21
703.76	40980.49
704.105	40982.07
704.45	40891.68
704.795	40771.91
705.14	40674.51
705.485	40589.31
705.83	40422.09
706.175	40429.77
706.52	40378.47
706.865	40352.26
707.209	40149.78
707.554	40154.75
707.899	40176.9
708.243	39940.74
708.588	39936.22
708.932	39724.93
709.277	39832.27
709.621	39678.6
709.966	39435.67
710.31	39490.13
710.654	39189.35
710.998	39309.57
711.342	39209.24
711.687	39121.56
712.031	39083.59
712.375	38928.79
712.719	39009.24
713.063	38895.57
713.407	39000.43
713.75	38789.14
714.094	38719.98
714.438	38564.96
714.782	38486.77
715.125	38412.87
715.469	38584.17
715.812	38289.26
716.156	38178.08
716.499	38081.13
716.843	38110.06
717.186	37969.04
717.53	37988.03
717.873	38022.38
718.216	37911.42
718.559	37682.95
718.902	37457.19
719.246	37654.93
719.589	37452.9
719.932	37325.22
720.275	37247.48
720.617	37284.77
720.96	37237.54
721.303	37247.26
721.646	37311.21
721.989	36950.99
722.331	37069.18
722.674	37010.65
723.016	37054.04
723.359	36895.63
723.701	36921.61
724.044	36754.61
724.386	36623.32
724.729	36720.94
725.071	36815.18
725.413	36605.92
725.755	36508.07
726.097	36356.43
726.439	36116.66
726.782	36252.25
727.124	36344.23
727.465	36165.25
727.807	36133.84
728.149	36080.28
728.491	35899.04
728.833	36033.5
729.175	35887.06
729.516	35844.81
729.858	35717.35
730.199	35819.5
730.541	35622.44
730.882	35736.79
731.224	35830.8
731.565	35424.25
731.906	35472.61
732.248	35480.52
732.589	35339.51
732.93	35244.82
733.271	35264.48
733.612	35292.96
733.953	35256.12
734.294	35059.29
734.635	34976.13
734.976	35102
735.317	34867.2
735.658	34893.42
735.999	34883.02
736.339	34964.83
736.68	34977.71
737.021	34836.47
737.361	34810.93
737.702	34832.63
738.042	34657.04
738.383	34543.15
738.723	34699.07
739.063	34575.46
739.404	34530.26
739.744	34473.99
740.084	34317.84
740.424	34272.87
740.764	34322.13
741.104	34313.09
741.444	34142.25
741.784	33940.68
742.124	34149.03
742.464	34175.25
742.804	33966.89
743.143	34013.89
743.483	33935.03
743.823	33792.43
744.162	33758.31
744.502	34039.66
744.841	33701.36
745.181	33918.08
745.52	33611.64
745.86	33637.18
746.199	33515.15
746.538	33628.14
746.877	33619.55
747.216	33511.31
747.556	33391.09
747.895	33589.72
748.234	33453.46
748.573	33269.28
748.911	33321.93
749.25	33227.47
749.589	33069.74
749.928	33174.14
750.267	33112.67
750.605	33024.99
750.944	32977.76
751.283	32865.9
751.621	32940.7
751.96	32728.73
752.298	32912.23
752.636	32885.11
752.975	32622.29
753.313	32513.37
753.651	32720.14
753.989	32477.44
754.327	32443.31
754.666	32319.25
755.004	32356.31
755.342	32418
755.679	32198.35
756.017	32042.19
756.355	32092.81
756.693	31987.73
757.031	31990.67
757.368	31812.37
