Data from hue_350_FLMS001491_44.txt Node
Date: Mon Feb 06 15:38:04 GMT 2017
User: dcchb
Spectrometer: FLMS00149
Trigger mode: 0
Integration Time (sec): 2.000000E-2
Scans to average: 10
Electric dark correction enabled: true
Nonlinearity correction enabled: false
Boxcar width: 0
XAxis mode: Wavelengths
Number of Pixels in Spectrum: 2048
>>>>>Begin Spectral Data<<<<<
341.393	-14.43
341.776	-14.43
342.16	-14.43
342.543	-56.24
342.927	-57.15
343.31	-76.81
343.693	-74.77
344.077	-56.69
344.46	-60.99
344.843	-54.66
345.226	-30.93
345.61	-47.65
345.993	0.03
346.376	-3.81
346.759	-6.07
347.142	28.28
347.525	47.71
347.908	57.2
348.291	78.22
348.674	79.12
349.057	121.83
349.44	122.74
349.823	136.75
350.206	190.31
350.588	187.82
350.971	205.9
351.354	203.86
351.737	222.62
352.119	259
352.502	275.73
352.884	261.72
353.267	269.17
353.65	276.63
354.032	287.25
354.414	301.04
354.797	310.08
355.179	301.49
355.562	307.14
355.944	313.69
356.326	321.83
356.709	329.74
357.091	322.51
357.473	343.07
357.855	339.23
358.238	350.53
358.62	341.04
359.002	363.41
359.384	359.79
359.766	342.17
360.148	325.44
360.53	339.68
360.912	349.4
361.294	349.17
361.676	336.52
362.057	346.69
362.439	330.19
362.821	334.71
363.203	343.97
363.584	315.27
363.966	321.6
364.348	320.92
364.729	327.7
365.111	312.34
365.493	321.15
365.874	318.66
366.256	322.28
366.637	308.72
367.019	313.47
367.4	315.73
367.781	306.23
368.163	282.73
368.544	316.86
368.925	303.52
369.306	292.9
369.688	316.18
370.069	314.14
370.45	304.2
370.831	314.14
371.212	326.35
371.593	305.1
371.974	320.47
372.355	314.6
372.736	314.6
373.117	307.14
373.498	300.81
373.879	311.66
374.26	316.86
374.641	315.5
375.021	316.18
375.402	333.35
375.783	314.37
376.163	329.29
376.544	311.43
376.925	317.53
377.305	315.95
377.686	323.41
378.066	327.48
378.447	318.44
378.827	326.8
379.208	327.93
379.588	326.35
379.968	324.54
380.349	345.78
380.729	321.83
381.109	334.48
381.489	339.68
381.87	326.57
382.25	347.82
382.63	356.86
383.01	338.32
383.39	339
383.77	339.23
384.15	337.87
384.53	329.51
384.91	336.06
385.29	352.11
385.67	331.09
386.049	324.31
386.429	342.62
386.809	322.51
387.189	353.69
387.568	344.43
387.948	351.88
388.328	352.56
388.707	339.23
389.087	346.69
389.466	351.66
389.846	347.36
390.225	369.06
390.605	359.57
390.984	369.74
391.363	350.3
391.743	358.66
392.122	381.49
392.501	351.66
392.881	373.35
393.26	340.36
393.639	361.83
394.018	362.28
394.397	356.18
394.776	364.31
395.155	365.67
395.534	365.22
395.913	361.15
396.292	350.75
396.671	369.51
397.05	373.13
397.429	401.15
397.808	361.15
398.186	366.57
398.565	371.32
398.944	397.08
399.323	374.48
399.701	385.78
400.08	367.93
400.458	372.9
400.837	399.57
401.215	416.51
401.594	383.75
401.972	389.85
402.351	396.18
402.729	398.21
403.107	390.3
403.486	394.37
403.864	397.31
404.242	404.54
404.62	410.41
404.999	419.23
405.377	406.12
405.755	411.54
406.133	410.64
406.511	407.93
406.889	410.41
407.267	411.54
407.645	420.58
408.023	400.02
408.401	435.5
408.779	398.44
409.156	423.29
409.534	432.33
409.912	428.04
410.29	449.51
410.667	433.92
411.045	441.6
411.422	455.16
411.8	436.17
412.178	455.61
412.555	453.58
412.933	464.87
413.31	446.8
413.687	475.27
414.065	451.32
414.442	459.23
414.819	480.92
415.197	473.01
415.574	458.32
415.951	468.26
416.328	478.66
416.705	484.99
417.082	482.73
417.46	460.81
417.837	514.37
418.214	492.44
418.591	489.51
418.967	500.58
419.344	504.42
419.721	522.27
420.098	507.13
420.475	505.78
420.852	522.27
421.228	523.18
421.605	512.33
421.982	512.56
422.358	525.21
422.735	520.47
423.111	535.38
423.488	537.87
423.864	532.44
424.241	544.19
424.617	543.97
424.994	559.11
425.37	552.78
425.746	548.49
426.123	577.64
426.499	586.45
426.875	562.95
427.251	603.18
427.627	556.62
428.003	605.44
428.379	617.19
428.756	604.76
429.132	607.47
429.507	610.41
429.883	587.81
430.259	604.08
430.635	612.67
431.011	619.22
431.387	625.77
431.763	622.38
432.138	646.11
432.514	652.44
432.89	645.66
433.265	644.53
433.641	670.75
434.016	659.45
434.392	680.24
434.767	691.76
435.143	667.58
435.518	666.9
435.894	682.95
436.269	710.97
436.644	702.38
437.02	688.6
437.395	699.9
437.77	719.56
438.145	712.55
438.52	741.03
438.895	718.65
439.271	725.21
439.646	741.7
440.021	722.95
440.395	748.26
440.77	721.37
441.145	746.9
441.52	757.75
441.895	756.39
442.27	761.82
442.645	789.16
443.019	785.77
443.394	756.62
443.769	777.63
444.143	764.98
444.518	789.16
444.892	776.73
445.267	792.55
445.641	783.96
446.016	769.73
446.39	804.07
446.764	813.11
447.139	793.68
447.513	794.13
447.887	813.34
448.262	831.87
448.636	807.24
449.01	828.48
449.384	850.63
449.758	822.61
450.132	840.46
450.506	857.41
450.88	866.67
451.254	866.45
451.628	847.24
452.002	869.38
452.376	840.68
452.75	884.52
453.123	895.37
453.497	892.21
453.871	886.56
454.244	901.47
454.618	893.34
454.992	890.17
455.365	904.41
455.739	945.09
456.112	965.2
456.486	951.64
456.859	975.37
457.232	988.7
457.606	970.62
457.979	960
458.352	1018.98
458.725	1000.23
459.099	1012.66
459.472	1009.49
459.845	1001.36
460.218	1031.87
460.591	1049.49
460.964	1047.01
461.337	1081.36
461.71	1100.56
462.083	1087.68
462.456	1072.32
462.829	1067.34
463.201	1109.15
463.574	1093.56
463.947	1110.73
464.32	1147.12
464.692	1152.77
465.065	1148.02
465.438	1137.63
465.81	1171.07
466.183	1176.95
466.555	1214.01
466.928	1220.11
467.3	1213.78
467.672	1247
468.045	1236.83
468.417	1256.27
468.789	1257.62
469.161	1251.52
469.534	1315.93
469.906	1332.87
470.278	1334.23
470.65	1352.76
471.022	1370.61
471.394	1371.52
471.766	1370.84
472.138	1413.78
472.51	1430.95
472.882	1445.41
473.253	1477.73
473.625	1506.43
473.997	1532.42
474.369	1538.52
474.74	1537.16
475.112	1565.86
475.484	1583.49
475.855	1638.86
476.227	1637.95
476.598	1673.66
476.97	1700.55
477.341	1746.2
477.713	1775.35
478.084	1779.19
478.455	1815.57
478.827	1809.02
479.198	1842.92
479.569	1898.51
479.94	1952.97
480.311	1958.17
480.682	2004.27
481.053	2045.17
481.424	2067.09
481.795	2098.96
482.166	2114.1
482.537	2130.37
482.908	2187.54
483.279	2222.34
483.65	2212.63
484.021	2270.25
484.391	2308.89
484.762	2335.11
485.133	2351.83
485.503	2428.21
485.874	2466.86
486.244	2481.77
486.615	2513.63
486.985	2552.05
487.356	2605.61
487.726	2608.55
488.097	2648.77
488.467	2683.35
488.837	2715.89
489.207	2774.64
489.578	2813.97
489.948	2848.99
490.318	2886.51
490.688	2876.34
491.058	2910.23
491.428	2971.93
491.798	2999.72
492.168	3047.18
492.538	3070.91
492.908	3127.63
493.278	3154.97
493.648	3191.81
494.017	3230.9
494.387	3248.08
494.757	3269.55
495.126	3258.02
495.496	3293.95
495.866	3335.53
496.235	3386.15
496.605	3370.79
496.974	3428.41
497.344	3478.58
497.713	3512.7
498.082	3485.81
498.452	3497.11
498.821	3561.97
499.19	3552.25
499.559	3544.34
499.928	3612.59
500.298	3654.62
500.667	3621.18
501.036	3661.85
501.405	3696.88
501.774	3708.63
502.143	3720.38
502.512	3764
502.88	3764.9
503.249	3789.76
503.618	3765.58
503.987	3773.49
504.356	3823.43
504.724	3879.25
505.093	3873.15
505.462	3875.86
505.83	3895.97
506.199	3908.63
506.567	3975.06
506.936	3977.32
507.304	3999.02
507.672	4049.41
508.041	4046.93
508.409	4036.31
508.777	4066.36
509.145	4080.82
509.514	4102.75
509.882	4110.88
510.25	4148.39
510.618	4133.93
510.986	4155.17
511.354	4233.82
511.722	4221.16
512.09	4277.88
512.458	4248.28
512.826	4296.19
513.193	4288.96
513.561	4283.76
513.929	4284.66
514.297	4272.23
514.664	4350.42
515.032	4400.36
515.4	4304.55
515.767	4391.55
516.135	4419.35
516.502	4412.79
516.869	4477.42
517.237	4412.57
517.604	4465.9
517.972	4469.29
518.339	4475.16
518.706	4499.8
519.073	4471.32
519.44	4503.41
519.808	4525.56
520.175	4556.07
520.542	4624.54
520.909	4643.07
521.276	4542.06
521.643	4633.8
522.009	4653.69
522.376	4683.75
522.743	4693.01
523.11	4723.52
523.477	4714.71
523.843	4770.07
524.21	4840.13
524.577	4839
524.943	4902.5
525.31	4865.44
525.676	4872.89
526.043	4912.89
526.409	4918.99
526.776	4975.26
527.142	4986.34
527.508	5010.29
527.874	5043.96
528.241	5083.06
528.607	5082.38
528.973	5178.65
529.339	5076.05
529.705	5113.34
530.071	5144.98
530.437	5238.99
530.803	5248.7
531.169	5223.17
531.535	5269.72
531.901	5257.52
532.267	5283.51
532.632	5332.32
532.998	5361.24
533.364	5436.72
533.73	5395.59
534.095	5452.09
534.461	5395.82
534.826	5535.93
535.192	5477.17
535.557	5498.64
535.923	5538.87
536.288	5574.12
536.653	5581.12
537.019	5534.35
537.384	5595.14
537.749	5626.32
538.114	5645.3
538.479	5668.35
538.845	5675.13
539.21	5732.31
539.575	5767.56
539.94	5798.07
540.305	5752.87
540.67	5755.58
541.034	5859.99
541.399	5842.59
541.764	5915.8
542.129	5879.65
542.494	5856.37
542.858	5970.72
543.223	5954.45
543.587	6030.83
543.952	5979.31
544.316	6052.98
544.681	6040.77
545.045	6073.54
545.41	6165.06
545.774	6086.65
546.138	6174.56
546.503	6185.18
546.867	6205.51
547.231	6236.02
547.595	6214.78
547.959	6217.72
548.324	6283.93
548.688	6307.43
549.052	6325.29
549.416	6320.99
549.779	6302.91
550.143	6410.03
550.507	6382.91
550.871	6416.81
551.235	6373.87
551.599	6535.9
551.962	6490.25
552.326	6570.7
552.689	6517.82
553.053	6541.55
553.417	6495.68
553.78	6657.25
554.143	6622.45
554.507	6647.31
554.87	6623.58
555.234	6697.71
555.597	6650.02
555.96	6721.66
556.323	6689.12
556.686	6735.22
557.05	6759.62
557.413	6784.03
557.776	6819.74
558.139	6857.93
558.502	6850.92
558.865	6844.14
559.228	6921.43
559.59	6885.5
559.953	6949.22
560.316	7018.83
560.679	7021.31
561.041	7050.92
561.404	7060.63
561.767	7111.03
562.129	7035.32
562.492	7167.52
562.854	7119.16
563.217	7099.28
563.579	7147.41
563.941	7249.56
564.304	7214.75
564.666	7245.26
565.028	7289.78
565.39	7313.28
565.753	7358.03
566.115	7347.41
566.477	7403.22
566.839	7461.53
567.201	7513.28
567.563	7464.46
567.925	7509.66
568.287	7455.88
568.648	7503.33
569.01	7588.08
569.372	7581.52
569.734	7595.08
570.095	7695.87
570.457	7706.72
570.819	7708.75
571.18	7810.67
571.542	7749.65
571.903	7799.37
572.265	7896.09
572.626	7915.98
572.987	7952.81
573.349	8024.68
573.71	8046.6
574.071	8048.4
574.432	8134.5
574.794	8184.67
575.155	8254.27
575.516	8275.74
575.877	8349.87
576.238	8420.15
576.599	8488.39
576.96	8515.74
577.32	8595.06
577.681	8654.72
578.042	8734.94
578.403	8799.8
578.763	8853.35
579.124	8984.65
579.485	9083.18
579.845	9175.15
580.206	9245.43
580.566	9346.68
580.927	9487.01
581.287	9586.89
581.648	9636.39
582.008	9852.2
582.368	9953.21
582.728	10073.21
583.089	10197.95
583.449	10338.06
583.809	10463.71
584.169	10660.54
584.529	10760.65
584.889	11020.3
585.249	11211.03
585.609	11263.46
585.969	11507.52
586.329	11702.32
586.688	11855.31
587.048	12064.12
587.408	12286.71
587.768	12452.58
588.127	12679.47
588.487	12881.95
588.846	13314.48
589.206	13335.95
589.565	13545.89
589.925	13930.96
590.284	14045.08
590.643	14369.59
591.003	14664.5
591.362	14852.29
591.721	15118.27
592.08	15318.72
592.44	15812.95
592.799	15980.4
593.158	16197.57
593.517	16467.17
593.876	16851.56
594.235	17034.61
594.593	17378.78
594.952	17724.53
595.311	17962.04
595.67	18223.96
596.029	18619.43
596.387	18933.32
596.746	19296.24
597.104	19437.03
597.463	19814.65
597.822	20073.17
598.18	20241.3
598.538	20438.59
598.897	20910.21
599.255	21079.25
599.613	21646.69
599.972	21719.91
600.33	22090.97
600.688	22294.81
601.046	22668.58
601.404	23102.47
601.762	23271.96
602.12	23570.93
602.478	23924.37
602.836	24096.34
603.194	24251.14
603.552	24665.59
603.91	24806.61
604.268	25164.56
604.625	25351
604.983	25655.4
605.341	25882.29
605.698	26227.14
606.056	26394.14
606.413	26693.79
606.771	26943.5
607.128	27319.99
607.485	27235.92
607.843	27631.62
608.2	27946.19
608.557	28316.57
608.914	28329.68
609.272	28597.24
609.629	28923.11
609.986	29147.96
610.343	29314.74
610.7	29661.62
611.057	29850.99
611.414	30023.19
611.771	30192.91
612.127	30506.34
612.484	30611.43
612.841	30937.52
613.198	31003.51
613.554	31216.16
613.911	31465.64
614.267	31671.74
614.624	31699.53
614.98	32002.58
615.337	32354.21
615.693	32263.81
616.05	32590.58
616.406	32837.58
616.762	32747.42
617.118	32969.33
617.475	33019.73
617.831	33215.65
618.187	33446.61
618.543	33544.91
618.899	33845.24
619.255	33989.87
619.611	34078
619.967	34315.51
620.323	34472.57
620.678	34365
621.034	34431.21
621.39	34602.96
621.746	34549.4
622.101	35182.61
622.457	34942.16
622.812	35177.86
623.168	35325.65
623.523	35485.87
623.879	35544.4
624.234	35411.3
624.589	35564.74
624.945	35640.67
625.3	35788.01
625.655	35806.54
626.01	35989.59
626.365	36121.56
626.72	36101.23
627.075	36091.28
627.43	36155.24
627.785	36337.38
628.14	36415.34
628.495	36327.66
628.85	36455.57
629.205	36404.72
629.559	36602.46
629.914	36656.92
630.269	36675.9
630.623	36522.68
630.978	36608.11
631.332	36744.82
631.687	36838.38
632.041	36704.83
632.396	36921.32
632.75	36787.76
633.104	36968.77
633.459	36747.54
633.813	36807.2
634.167	36860.98
634.521	36761.55
634.875	36876.8
635.229	36940.75
635.583	36731.04
635.937	36846.97
636.291	36859.4
636.645	36915.44
636.999	36961.99
637.352	36912.05
637.706	36785.73
638.06	36952.28
638.413	36837.25
638.767	36809.91
639.121	36770.81
639.474	36752.28
639.828	36716.35
640.181	36858.04
640.534	36859.62
640.888	36732.62
641.241	36603.13
641.594	36633.64
641.947	36773.98
642.301	36695.56
642.654	36688.33
643.007	36745.95
643.36	36772.17
643.713	36821.21
644.066	36925.16
644.419	36800.42
644.771	36439.97
645.124	36169.7
645.477	36208.79
645.83	35967.22
646.182	35816.26
646.535	35580.79
646.888	35778.3
647.24	35562.48
647.593	35957.05
647.945	35774.91
648.298	35553.22
648.65	35561.58
649.002	35505.08
649.355	35599.54
649.707	35528.81
650.059	35675.25
650.411	36126.99
650.763	36124.28
651.115	36463.93
651.467	36380.54
651.819	36316.14
652.171	36308.45
652.523	36349.13
652.875	36279.53
653.227	36091.28
653.578	36393.2
653.93	36322.69
654.282	36210.83
654.633	36210.6
654.985	36178.29
655.337	36163.37
655.688	36162.02
656.039	36228.91
656.391	36027.1
656.742	36070.04
657.094	36152.98
657.445	36206.31
657.796	36099.19
658.147	36105.75
658.498	36106.42
658.849	36241.34
659.2	36147.33
659.551	36011.51
659.902	36179.87
660.253	36101.9
660.604	36173.09
660.955	35879.54
661.306	36132.64
661.656	36053.09
662.007	36060.77
662.358	35967.9
662.708	36056.71
663.059	36075.92
663.409	35722.7
663.76	36014.45
664.11	35928.8
664.461	36050.83
664.811	36037.95
665.161	35948.24
665.511	35833.44
665.862	35899.88
666.212	36016.71
666.562	36032.75
666.912	35892.42
667.262	35858.52
667.612	35977.39
667.962	35927.9
668.312	35832.08
668.662	36081.57
669.011	36000.89
669.361	35936.94
669.711	35930.38
670.06	35851.06
670.41	35811.52
670.76	35719.09
671.109	35915.24
671.459	35904.85
671.808	35757.96
672.157	35901.46
672.507	35589.6
672.856	35672.76
673.205	35730.16
673.554	35752.99
673.904	35592.99
674.253	35938.07
674.602	35702.37
674.951	35208.14
675.3	35021.25
675.649	35669.82
675.998	35597.96
676.346	35638.19
676.695	35575.82
677.044	35396.61
677.393	35556.38
677.741	35614.69
678.09	35442.03
678.438	35390.51
678.787	35494.24
679.135	35504.86
679.484	35194.13
679.832	35409.94
680.181	35050.63
680.529	35267.58
680.877	35006.11
681.225	35104.42
681.573	35265.32
681.922	35090.63
682.27	34978.09
682.618	34964.31
682.966	34917.75
683.314	34884.08
683.661	34768.15
684.009	34682.51
684.357	34751.66
684.705	34625.78
685.053	34489.06
685.4	34668.95
685.748	34282.74
686.095	34333.14
686.443	34219.47
686.79	34239.58
687.138	34270.54
687.485	34268.28
687.832	34071.45
688.18	34134.95
688.527	34019.25
688.874	34037.1
689.221	33939.47
689.568	33870.78
689.915	33720.5
690.262	33784.45
690.609	33725.47
690.956	33619.94
691.303	33572.03
691.65	33450.67
691.997	33303.56
692.344	33227.63
692.69	33270.11
693.037	33221.3
693.383	32941.53
693.73	33040.97
694.077	32835.1
694.423	32835.55
694.769	32749.68
695.116	32602.11
695.462	32651.37
695.808	32494.09
696.155	32582.67
696.501	32343.13
696.847	32406.18
697.193	32081.67
697.539	32210.03
697.885	32027.66
698.231	31893.65
698.577	31909.02
698.923	31945.85
699.269	31686.88
699.614	31537.28
699.96	31576.6
700.306	31621.57
700.651	31495.7
700.997	31277.85
701.342	31301.35
701.688	31208.02
702.033	31107.68
702.379	31020.91
702.724	30925.54
703.069	30972.55
703.415	30702.72
703.76	30682.61
704.105	30820.91
704.45	30702.27
704.795	30407.59
705.14	30304.99
705.485	30373.69
705.83	30181.38
706.175	30404.2
706.52	30167.37
706.865	30165.34
707.209	30005.79
707.554	29992.01
707.899	30069.07
708.243	29836.08
708.588	29847.38
708.932	29519.93
709.277	29614.84
709.621	29589.08
709.966	29525.35
710.31	29569.42
710.654	29320.39
710.998	29333.95
711.342	29331.46
711.687	29215.76
712.031	29111.58
712.375	29089.66
712.719	29081.98
713.063	29009.43
713.407	29048.98
713.75	28795.88
714.094	28818.03
714.438	28813.51
714.782	28826.16
715.125	28739.16
715.469	28733.28
715.812	28501.2
716.156	28274.99
716.499	28448.55
716.843	28457.81
717.186	28308.21
717.53	28383.46
717.873	28411.71
718.216	28259.85
718.559	28178.5
718.902	28023.92
719.246	28002.68
719.589	27852.86
719.932	27825.29
720.275	27838.39
720.617	27873.65
720.96	27791.39
721.303	27835.68
721.646	27733.31
721.989	27587.1
722.331	27723.59
722.674	27468.91
723.016	27716.59
723.359	27405.86
723.701	27446.54
724.044	27303.27
724.386	27308.69
724.729	27281.34
725.071	27443.83
725.413	27249.48
725.755	27181.23
726.097	27141.24
726.439	27068.24
726.782	27005.87
727.124	27138.52
727.465	26961.81
727.807	26842.03
728.149	26881.13
728.491	26768.59
728.833	26786.22
729.175	26664.41
729.516	26646.11
729.858	26669.61
730.199	26586.9
730.541	26558.65
730.882	26522.27
731.224	26621.93
731.565	26440.69
731.906	26467.13
732.248	26469.16
732.589	26233.46
732.93	26283.63
733.271	26221.49
733.612	26248.6
733.953	26306.68
734.294	26109.62
734.635	26042.73
734.976	26051.55
735.317	25978.33
735.658	25890.19
735.999	26011.32
736.339	25899.69
736.68	25882.96
737.021	25848.84
737.361	25729.97
737.702	25943.53
738.042	25772.23
738.383	25642.29
738.723	25705.79
739.063	25540.15
739.404	25743.98
739.744	25616.53
740.084	25485.69
740.424	25531.56
740.764	25417.21
741.104	25417.89
741.444	25373.82
741.784	25302.19
742.124	25346.48
742.464	25356.42
742.804	25296.31
743.143	25242.98
743.483	25244.56
743.823	25009.99
744.162	25047.05
744.502	25046.83
744.841	24906.27
745.181	25008.64
745.52	24920.28
745.86	24961.18
746.199	24876.66
746.538	24773.84
746.877	25033.04
747.216	24857
747.556	24758.47
747.895	24766.83
748.234	24659.72
748.573	24670.11
748.911	24685.48
749.25	24568.65
749.589	24399.39
749.928	24581.3
750.267	24562.09
750.605	24464.47
750.944	24435.32
751.283	24287.07
751.621	24355.77
751.96	24315.1
752.298	24285.27
752.636	24248.88
752.975	24096.57
753.313	24055.67
753.651	24168.88
753.989	24007.08
754.327	23885.5
754.666	23815.22
755.004	23809.57
755.342	23807.76
755.679	23850.47
756.017	23709.91
756.355	23789.23
756.693	23643.02
757.031	23669.01
757.368	23507.88
757.706	23422.01
758.044	23351.28
758.381	23302.01
758.719	23298.62
759.056	23223.15
759.394	23164.16
759.731	23094.56
760.068	22970.95
760.405	22996.71
