Data from hue_320_FLMS001491_91.txt Node
Date: Mon Feb 06 15:47:58 GMT 2017
User: dcchb
Spectrometer: FLMS00149
Trigger mode: 0
Integration Time (sec): 2.000000E-2
Scans to average: 10
Electric dark correction enabled: true
Nonlinearity correction enabled: false
Boxcar width: 0
XAxis mode: Wavelengths
Number of Pixels in Spectrum: 2048
>>>>>Begin Spectral Data<<<<<
341.393	-12.71
341.776	-12.71
342.16	-12.71
342.543	-52.26
342.927	-70.56
343.31	-58.36
343.693	-89.77
344.077	-68.76
344.46	-52.71
344.843	-48.87
345.226	-43.45
345.61	-26.72
345.993	-19.49
346.376	-21.3
346.759	3.33
347.142	39.26
347.525	41.52
347.908	60.28
348.291	63.67
348.674	99.15
349.057	122.2
349.44	121.52
349.823	157.91
350.206	165.81
350.588	189.09
350.971	191.35
351.354	233.84
351.737	232.03
352.119	246.72
352.502	267.51
352.884	256.89
353.267	295.75
353.65	273.38
354.032	293.04
354.414	321.29
354.797	322.65
355.179	325.58
355.562	308.64
355.944	343.44
356.326	339.82
356.709	314.51
357.091	337.79
357.473	349.76
357.855	348.86
358.238	336.21
358.62	356.32
359.002	338.69
359.384	331.23
359.766	341.86
360.148	355.19
360.53	368.97
360.912	336.88
361.294	341.18
361.676	351.8
362.057	349.31
362.439	341.63
362.821	301.18
363.203	314.06
363.584	337.11
363.966	309.54
364.348	326.26
364.729	338.69
365.111	313.61
365.493	312.93
365.874	307.73
366.256	321.29
366.637	310.22
367.019	339.14
367.4	317
367.781	341.18
368.163	305.47
368.544	314.74
368.925	315.64
369.306	336.21
369.688	319.94
370.069	285.13
370.45	317.9
370.831	304.12
371.212	301.86
371.593	318.13
371.974	328.52
372.355	326.94
372.736	326.26
373.117	322.42
373.498	304.12
373.879	309.77
374.26	325.13
374.641	317.22
375.021	297.34
375.402	333.72
375.783	330.56
376.163	329.2
376.544	328.75
376.925	333.49
377.305	328.75
377.686	319.03
378.066	329.65
378.447	327.39
378.827	326.94
379.208	328.07
379.588	324.91
379.968	332.82
380.349	338.47
380.729	339.14
381.109	333.49
381.489	342.76
381.87	335.08
382.25	330.1
382.63	341.18
383.01	356.09
383.39	342.31
383.77	331.69
384.15	341.4
384.53	340.5
384.91	346.6
385.29	334.17
385.67	354.28
386.049	348.63
386.429	346.38
386.809	342.99
387.189	346.38
387.568	347.28
387.948	354.06
388.328	356.54
388.707	353.38
389.087	342.76
389.466	346.83
389.846	333.27
390.225	341.18
390.605	347.28
390.984	341.86
391.363	366.26
391.743	354.74
392.122	366.04
392.501	355.41
392.881	385.47
393.26	377.79
393.639	377.33
394.018	369.43
394.397	373.04
394.776	358.35
395.155	368.75
395.534	378.69
395.913	381.85
396.292	382.98
396.671	377.11
397.05	376.2
397.429	380.95
397.808	379.37
398.186	384.79
398.565	383.44
398.944	382.31
399.323	392.7
399.701	379.82
400.08	427.28
400.458	409.2
400.837	379.14
401.215	410.33
401.594	423.89
401.972	402.42
402.351	415.98
402.729	401.51
403.107	409.42
403.486	402.87
403.864	430.89
404.242	418.92
404.62	430.44
404.999	417.33
405.377	420.05
405.755	432.7
406.133	451.91
406.511	451.91
406.889	432.25
407.267	449.42
407.645	446.26
408.023	437.45
408.401	435.41
408.779	460.27
409.156	476.99
409.534	467.05
409.912	467.05
410.29	476.54
410.667	480.16
411.045	465.24
411.422	485.13
411.8	473.15
412.178	511.57
412.555	493.04
412.933	491.23
413.31	516.99
413.687	510.44
414.065	498.01
414.442	532.13
414.819	540.27
415.197	517.44
415.574	541.17
415.951	556.09
416.328	553.83
416.705	576.2
417.082	559.93
417.46	585.01
417.837	562.19
418.214	579.36
418.591	585.69
418.967	602.41
419.344	603.32
419.721	601.96
420.098	599.48
420.475	624.33
420.852	633.83
421.228	623.66
421.605	651.68
421.982	658.23
422.358	654.39
422.735	665.91
423.111	675.63
423.488	686.03
423.864	674.28
424.241	690.55
424.617	700.72
424.994	697.55
425.37	679.93
425.746	710.89
426.123	719.92
426.499	722.64
426.875	724.67
427.251	712.24
427.627	736.2
428.003	756.99
428.379	790.66
428.756	740.49
429.132	764.44
429.507	769.87
429.883	802.41
430.259	768.74
430.635	786.36
431.011	822.29
431.387	822.29
431.763	827.04
432.138	830.43
432.514	851.45
432.89	849.41
433.265	848.51
433.641	890.54
434.016	891.45
434.392	894.61
434.767	887.38
435.143	909.07
435.518	933.7
435.894	930.09
436.269	931.22
436.644	956.08
437.02	935.29
437.395	968.28
437.77	962.18
438.145	956.75
438.52	967.38
438.895	985.91
439.271	1014.15
439.646	1015.74
440.021	1010.09
440.395	1013.25
440.77	1010.76
441.145	1028.84
441.52	1049.41
441.895	1033.36
442.27	1031.78
442.645	1047.15
443.019	1063.87
443.394	1076.53
443.769	1095.28
444.143	1045.11
444.518	1059.35
444.892	1114.26
445.267	1082.63
445.641	1097.77
446.016	1075.85
446.39	1111.55
446.764	1106.81
447.139	1100.71
447.513	1105.9
447.887	1133.47
448.262	1119.24
448.636	1152.46
449.01	1124.89
449.384	1136.86
449.758	1137.09
450.132	1140.25
450.506	1150.87
450.88	1192.68
451.254	1163.53
451.628	1155.17
452.002	1199.23
452.376	1190.65
452.75	1212.12
453.123	1181.38
453.497	1175.05
453.871	1204.43
454.244	1224.32
454.618	1234.71
454.992	1227.93
455.365	1226.13
455.739	1262.06
456.112	1247.37
456.486	1274.03
456.859	1274.03
457.232	1305.67
457.606	1282.17
457.979	1289.4
458.352	1303.86
458.725	1354.03
459.099	1360.81
459.472	1380.47
459.845	1376.86
460.218	1363.75
460.591	1375.27
460.964	1375.73
461.337	1358.78
461.71	1406.69
462.083	1441.26
462.456	1412.79
462.829	1432.22
463.201	1453.01
463.574	1438.55
463.947	1455.5
464.32	1472
464.692	1469.28
465.065	1479
465.438	1508.6
465.81	1535.72
466.183	1529.85
466.555	1579.11
466.928	1556.96
467.3	1583.18
467.672	1593.8
468.045	1618.66
468.417	1608.26
468.789	1624.53
469.161	1604.65
469.534	1647.36
469.906	1672.44
470.278	1668.15
470.65	1678.77
471.022	1695.94
471.394	1727.36
471.766	1753.12
472.138	1772.78
472.51	1789.27
472.882	1803.29
473.253	1832.21
473.625	1844.87
473.997	1881.02
474.369	1851.87
474.74	1906.33
475.112	1885.09
475.484	1970.51
475.855	1980.68
476.227	2009.61
476.598	2060.68
476.97	2051.41
477.341	2075.82
477.713	2078.76
478.084	2087.57
478.455	2124.86
478.827	2153.33
479.198	2166.21
479.569	2171.64
479.94	2227
480.311	2248.02
480.682	2272.88
481.053	2336.61
481.424	2343.61
481.795	2372.76
482.166	2391.75
482.537	2415.02
482.908	2440.56
483.279	2430.16
483.65	2479.2
484.021	2545.19
484.391	2557.39
484.762	2577.28
485.133	2587.22
485.503	2620.21
485.874	2672.42
486.244	2652.98
486.615	2670.83
486.985	2737.95
487.356	2762.36
487.726	2805.52
488.097	2850.49
488.467	2824.73
488.837	2911.05
489.207	2900.88
489.578	2922.58
489.948	2946.31
490.318	2996.47
490.688	3034.89
491.058	3033.08
491.428	3085.06
491.798	3056.13
492.168	3148.56
492.538	3172.52
492.908	3189.01
493.278	3212.06
493.648	3207.54
494.017	3249.35
494.387	3276.92
494.757	3297.48
495.126	3269.01
495.496	3335.45
495.866	3324.6
496.235	3327.77
496.605	3344.49
496.974	3409.8
497.344	3436.46
497.713	3444.6
498.082	3460.64
498.452	3493.86
498.821	3487.54
499.19	3490.93
499.559	3527.08
499.928	3535.67
500.298	3600.98
500.667	3595.56
501.036	3571.83
501.405	3624.93
501.774	3621.77
502.143	3643.46
502.512	3603.69
502.88	3687.08
503.249	3694.08
503.618	3671.94
503.987	3723.69
504.356	3697.47
504.724	3747.64
505.093	3735.66
505.462	3735.66
505.83	3761.88
506.199	3815.21
506.567	3802.78
506.936	3810.92
507.304	3838.03
507.672	3869.9
508.041	3857.24
508.409	3887.52
508.777	3907.86
509.145	3903.12
509.514	3885.94
509.882	3933.85
510.25	3943.57
510.618	3981.76
510.986	3924.13
511.354	3953.29
511.722	4004.36
512.09	4057.69
512.458	4010.01
512.826	4050.68
513.193	4046.16
513.561	4048.42
513.929	4088.65
514.297	4112.83
514.664	4133.39
515.032	4069.22
515.4	4177.69
515.767	4155.09
516.135	4170.46
516.502	4141.98
516.869	4199.61
517.237	4205.26
517.604	4174.97
517.972	4190.79
518.339	4252.71
518.706	4252.94
519.073	4219.72
519.44	4240.06
519.808	4312.6
520.175	4217.46
520.542	4285.25
520.909	4298.36
521.276	4323.22
521.643	4318.47
522.009	4374.07
522.376	4368.87
522.743	4402.99
523.11	4416.55
523.477	4428.08
523.843	4422.43
524.21	4472.14
524.577	4506.49
524.943	4498.58
525.31	4529.54
525.676	4562.99
526.043	4546.94
526.409	4602.31
526.776	4667.62
527.142	4627.17
527.508	4641.63
527.874	4661.52
528.241	4705.36
528.607	4704
528.973	4787.84
529.339	4773.15
529.705	4801.85
530.071	4805.92
530.437	4815.64
530.803	4844.56
531.169	4839.14
531.535	4882.08
531.901	4873.49
532.267	4935.41
532.632	4959.59
532.998	4953.26
533.364	5003.65
533.73	4970.66
534.095	5014.05
534.461	5109.87
534.826	5115.52
535.192	5115.52
535.557	5141.5
535.923	5158.9
536.288	5145.12
536.653	5141.05
537.019	5146.7
537.384	5226.47
537.749	5248.85
538.114	5237.32
538.479	5261.73
538.845	5287.71
539.21	5327.04
539.575	5320.93
539.94	5310.09
540.305	5360.71
540.67	5339.69
541.034	5386.24
541.399	5459.69
541.764	5487.93
542.129	5454.94
542.494	5506.24
542.858	5524.54
543.223	5526.35
543.587	5567.25
543.952	5547.82
544.316	5567.03
544.681	5585.79
545.045	5565.9
545.41	5631.43
545.774	5690.42
546.138	5678.21
546.503	5731.77
546.867	5721.83
547.231	5794.82
547.595	5746.69
547.959	5802.5
548.324	5807.93
548.688	5811.99
549.052	5874.82
549.416	5843.86
549.779	5898.09
550.143	5916.62
550.507	5909.39
550.871	5983.06
551.235	5929.28
551.599	6006.57
551.962	6031.65
552.326	6023.29
552.689	6025.55
553.053	6094.25
553.417	6072.33
553.78	6163.62
554.143	6131.08
554.507	6114.58
554.87	6167.69
555.234	6214.47
555.597	6213.57
555.96	6206.56
556.323	6191.87
556.686	6244.98
557.05	6264.64
557.413	6319.55
557.776	6333.11
558.139	6309.16
558.502	6421.47
558.865	6399.32
559.228	6399.78
559.59	6375.82
559.953	6477.29
560.316	6474.8
560.679	6454.92
561.041	6516.61
561.404	6522.94
561.767	6554.57
562.129	6575.36
562.492	6583.5
562.854	6548.47
563.217	6591.18
563.579	6593.67
563.941	6679.99
564.304	6626.21
564.666	6696.04
565.028	6724.96
565.39	6702.82
565.753	6774
566.115	6799.99
566.477	6810.39
566.839	6806.77
567.201	6865.53
567.563	6894.23
567.925	6867.33
568.287	6869.37
568.648	6918.63
569.01	7040.66
569.372	7022.36
569.734	6961.79
570.095	7042.92
570.457	7107.55
570.819	7134.45
571.18	7127.44
571.542	7209.02
571.903	7237.27
572.265	7237.04
572.626	7276.36
572.987	7334.67
573.349	7356.81
573.71	7429.13
574.071	7464.15
574.432	7518.39
574.794	7599.52
575.155	7606.98
575.516	7593.19
575.877	7697.37
576.238	7796.57
576.599	7855.56
576.96	7923.13
577.32	8009.45
577.681	8068.21
578.042	8110.46
578.403	8228.65
578.763	8252.38
579.124	8394.3
579.485	8428.42
579.845	8595.2
580.206	8678.81
580.566	8705.7
580.927	8858.69
581.287	8988.18
581.648	9061.4
582.008	9262.75
582.368	9392.46
582.728	9401.73
583.089	9634.04
583.449	9823.19
583.809	9920.36
584.169	10075.84
584.529	10221.82
584.889	10456.39
585.249	10645.09
585.609	10778.64
585.969	11041.69
586.329	11268.35
586.688	11395.12
587.048	11609.13
587.408	11814.32
587.768	12031.49
588.127	12247.08
588.487	12497.02
588.846	12809.55
589.206	12932.26
589.565	13148.98
589.925	13466.26
590.284	13698.34
590.643	13973.36
591.003	14196.86
591.362	14546.91
591.721	14754.58
592.08	14935.37
592.44	15343.27
592.799	15566.09
593.158	15843.82
593.517	16110.71
593.876	16490.36
594.235	16773.29
594.593	16949.1
594.952	17277.46
595.311	17423.21
595.67	17804.22
596.029	18179.58
596.387	18410.53
596.746	18763.07
597.104	19005.09
597.463	19296.84
597.822	19597.17
598.18	19811.4
598.538	20091.62
598.897	20453.42
599.255	20536.13
599.613	21129.56
599.972	21294.3
600.33	21669.43
600.688	21796.21
601.046	22147.16
601.404	22573.81
601.762	22756.86
602.12	23137.19
602.478	23243.63
602.836	23559.32
603.194	23686.55
603.552	24035.47
603.91	24131.74
604.268	24466.87
604.625	24668
604.983	25035.44
605.341	25080.87
605.698	25539.38
606.056	25830.22
606.413	26062.76
606.771	26138.24
607.128	26517.89
607.485	26659.81
607.843	26881.27
608.2	27109.51
608.557	27502.05
608.914	27485.77
609.272	27954.91
609.629	28129.6
609.986	28460.89
610.343	28472.87
610.7	28830.6
611.057	28947.66
611.414	29146.3
611.771	29380.64
612.127	29787.41
612.484	29693.85
612.841	30007.97
613.198	30123.22
613.554	30254.52
613.911	30431.91
614.267	30710.77
614.624	30838.45
614.98	31028.96
615.337	31192.8
615.693	31382.17
616.05	31449.96
616.406	31781.03
616.762	31804.53
617.118	31884.53
617.475	32021.47
617.831	32351.41
618.187	32291.52
618.543	32591.63
618.899	32751.17
619.255	32825.3
619.611	32927.44
619.967	33147.09
620.323	33324.04
620.678	33353.64
621.034	33287.2
621.39	33380.08
621.746	33547.54
622.101	33889.22
622.457	33768.1
622.812	33886.96
623.168	33994.76
623.523	34096.67
623.879	34249.66
624.234	34114.53
624.589	34394.75
624.945	34576.44
625.3	34644.91
625.655	34540.5
626.01	34741.85
626.365	34815.07
626.72	34856.65
627.075	34831.57
627.43	35001.96
627.785	34958.57
628.14	35167.15
628.495	35201.73
628.85	35174.16
629.205	35095.07
629.559	35285.8
629.914	35266.36
630.269	35317.66
630.623	35252.35
630.978	35272.91
631.332	35408.73
631.687	35790.41
632.041	35504.09
632.396	35516.07
632.75	35333.25
633.104	35544.55
633.459	35474.04
633.813	35510.87
634.167	35626.8
634.521	35601.95
634.875	35696.41
635.229	35630.87
635.583	35519.69
635.937	35563.98
636.291	35535.73
636.645	35642.85
636.999	35542.74
637.352	35737.31
637.706	35511.78
638.06	35697.76
638.413	35626.58
638.767	35495.28
639.121	35577.54
639.474	35372.35
639.828	35519.24
640.181	35575.73
640.534	35628.16
640.888	35557.65
641.241	35401.05
641.594	35343.65
641.947	35573.25
642.301	35472.91
642.654	35523.3
643.007	35469.75
643.36	35543.42
643.713	35373.48
644.066	35649.85
644.419	35383.19
644.771	35175.52
645.124	34817.11
645.477	34881.74
645.83	34644.46
646.182	34525.59
646.535	34395.65
646.888	34427.96
647.24	34299.83
647.593	34465.48
647.945	34338.93
648.298	34318.14
648.65	34290.12
649.002	34053.96
649.355	34348.19
649.707	34351.36
650.059	34505.25
650.411	34889.65
650.763	34912.02
651.115	35332.8
651.467	35161.73
651.819	35077.67
652.171	35039.25
652.523	34990.66
652.875	35136.87
653.227	34995.86
653.578	35049.87
653.93	35030.43
654.282	34779.82
654.633	34857.33
654.985	34971.91
655.337	34893.26
655.688	34876.31
656.039	35058.23
656.391	34769.65
656.742	34713.83
657.094	34808.29
657.445	34873.83
657.796	34898.69
658.147	34793.6
658.498	34910.44
658.849	34889.42
659.2	34797.22
659.551	34771.68
659.902	34899.14
660.253	34856.65
660.604	34818.01
660.955	34681.52
661.306	34804.45
661.656	34754.96
662.007	34730.78
662.358	34669.31
662.708	34678.13
663.059	34691.91
663.409	34485.82
663.76	34946.82
664.11	34664.57
664.461	34795.19
664.811	34789.99
665.161	34760.39
665.511	34558.13
665.862	34779.82
666.212	34664.79
666.562	34759.93
666.912	34762.87
667.262	34641.29
667.612	34648.3
667.962	34715.19
668.312	34616.21
668.662	34835.86
669.011	34557.9
669.361	34541.18
669.711	34511.58
670.06	34519.26
670.41	34501.18
670.76	34431.58
671.109	34550.9
671.459	34479.26
671.808	34451.24
672.157	34501.41
672.507	34278.82
672.856	34352.49
673.205	34478.81
673.554	34533.5
673.904	34320.17
674.253	34589.99
674.602	34251.92
674.951	33909.11
675.3	33854.42
675.649	34235.65
675.998	34283.11
676.346	34172.15
676.695	34437
677.044	34194.75
677.393	34141.19
677.741	34358.59
678.09	34150.68
678.438	34103.91
678.787	34237.24
679.135	34307.97
679.484	33933.29
679.832	34035.88
680.181	33848.32
680.529	34079.27
680.877	33964.25
681.225	33821.65
681.573	34061.65
681.922	33781.65
682.27	33718.83
682.618	33745.72
682.966	33644.48
683.314	33729.68
683.661	33671.6
684.009	33481.55
684.357	33460.08
684.705	33498.05
685.053	33444.26
685.4	33291.5
685.748	33221.44
686.095	33216.47
686.443	33032.07
686.79	33021
687.138	33108.45
687.485	33100.32
687.832	32959.53
688.18	33068
688.527	32796.6
688.874	32894.45
689.221	32815.35
689.568	32661.23
689.915	32537.17
690.262	32585.75
690.609	32471.63
690.956	32356.15
691.303	32275.25
691.65	32233.45
691.997	32275.48
692.344	31997.75
692.69	31997.97
693.037	32048.37
693.383	31774.48
693.73	31867.58
694.077	31662.39
694.423	31572.22
694.769	31507.36
695.116	31448.16
695.462	31478.44
695.808	31368.38
696.155	31513.24
696.501	31253.36
696.847	31167.94
697.193	30958.9
697.539	31090.43
697.885	30899.92
698.231	30807.95
698.577	30786.25
698.923	30697.89
699.269	30569.99
699.614	30458.13
699.96	30441.63
700.306	30407.73
700.651	30210
700.997	30120.73
701.342	30113.28
701.688	30097.23
702.033	29953.73
702.379	29995.99
702.724	29911.93
703.069	30026.95
703.415	29656.79
703.76	29737.92
704.105	29723
704.45	29439.85
704.795	29424.48
705.14	29339.96
705.485	29292.73
705.83	29241.66
706.175	29189.23
706.52	29124.15
706.865	29099.07
707.209	28976.81
707.554	28965.51
707.899	28994.89
708.243	28671.28
708.588	28800.99
708.932	28581.56
709.277	28561.68
709.621	28606.87
709.966	28332.53
710.31	28531.62
710.654	28222.48
710.998	28314
711.342	28357.62
711.687	28206.89
712.031	28012.77
712.375	27980.45
712.719	28097.96
713.063	27946.55
713.407	28002.15
713.75	27753.56
714.094	27823.39
714.438	27669.5
714.782	27732.55
715.125	27620.46
715.469	27615.26
715.812	27530.97
716.156	27271.54
716.499	27390.64
716.843	27430.86
717.186	27312.45
717.53	27376.85
717.873	27434.02
718.216	27106.8
718.559	27167.14
718.902	26957.43
719.246	27079.23
719.589	27000.14
719.932	26783.19
720.275	26801.95
720.617	26727.6
720.96	26893.7
721.303	26711.11
721.646	26684.21
721.989	26561.5
722.331	26595.18
722.674	26566.02
723.016	26623.88
723.359	26565.57
723.701	26591.79
724.044	26342.75
724.386	26254.39
724.729	26420.72
725.071	26315.86
725.413	26246.03
725.755	26240.16
726.097	26091.01
726.439	26063.21
726.782	26000.16
727.124	26256.65
727.465	25786.61
727.807	25943.89
728.149	25887.17
728.491	25831.81
728.833	25928.75
729.175	25757.01
729.516	25772.37
729.858	25745.48
730.199	25678.59
730.541	25719.04
730.882	25635.65
731.224	25697.8
731.565	25472.72
731.906	25504.13
732.248	25546.16
732.589	25279.5
732.93	25363.57
733.271	25297.13
733.612	25458.48
733.953	25363.57
734.294	25229.11
734.635	25246.51
734.976	25219.17
735.317	25020.53
735.658	24948.67
735.999	25033.41
736.339	25011.94
736.68	25030.7
737.021	24986.63
737.361	24846.97
737.702	24871.83
738.042	24799.74
738.383	24837.26
738.723	24738.95
739.063	24741.44
739.404	24775.79
739.744	24587.55
740.084	24621.44
740.424	24678.62
740.764	24470.71
741.104	24619.86
741.444	24421.9
741.784	24451.05
742.124	24452.18
742.464	24439.3
742.804	24278.4
743.143	24298.97
743.483	24350.04
743.823	24221.23
744.162	24258.06
744.502	24258.97
744.841	24072.08
745.181	24237.27
745.52	24139.65
745.86	24079.54
746.199	24051.74
746.538	24040.89
746.877	23954.12
747.216	24087.9
747.556	23991.86
747.895	23955.92
748.234	23825.08
748.573	23755.48
748.911	23821.69
749.25	23686.78
749.589	23682.94
749.928	23692.65
750.267	23702.82
750.605	23588.48
750.944	23554.35
751.283	23362.72
751.621	23588.25
751.96	23237.52
752.298	23316.39
752.636	23334.02
752.975	23215.6
753.313	23085.66
753.651	23224.87
753.989	23019.23
754.327	23084.31
754.666	22871.21
755.004	22974.48
755.342	22953.01
755.679	22894.48
756.017	22757.76
756.355	22782.62
756.693	22609.97
757.031	22677.99
757.368	22606.58
757.706	22522.52
758.044	22539.92
758.381	22497.43
758.719	22362.97
759.056	22364.78
759.394	22325.23
