Data from hue_210_FLMS001491_00061.txt Node
Date: Tue Feb 07 16:41:32 GMT 2017
User: dcchb
Spectrometer: FLMS00149
Trigger mode: 0
Integration Time (sec): 2.000000E-2
Scans to average: 10
Electric dark correction enabled: true
Nonlinearity correction enabled: false
Boxcar width: 0
XAxis mode: Wavelengths
Number of Pixels in Spectrum: 2048
>>>>>Begin Spectral Data<<<<<
341.393	-15.72
341.776	-15.72
342.16	-15.72
342.543	-50.52
342.927	-48.49
343.31	-63.4
343.693	-78.77
344.077	-81.25
344.46	-53.23
344.843	-47.81
345.226	-21.14
345.61	-37.64
345.993	-21.6
346.376	2.58
346.759	6.2
347.142	11.4
347.525	32.41
347.908	79.64
348.291	63.15
348.674	94.56
349.057	114.9
349.44	121.23
349.823	145.86
350.206	173.65
350.588	177.27
350.971	189.02
351.354	232.41
351.737	241.9
352.119	225.86
352.502	263.82
352.884	265.63
353.267	261.11
353.65	283.93
354.032	296.81
354.414	306.53
354.797	313.99
355.179	335.46
355.562	325.06
355.944	338.17
356.326	321.67
356.709	322.12
357.091	317.6
357.473	333.65
357.855	311.28
358.238	330.26
358.62	336.36
359.002	340.43
359.384	347.89
359.766	346.76
360.148	344.5
360.53	341.56
360.912	316.7
361.294	325.74
361.676	325.51
362.057	326.64
362.439	349.02
362.821	301.33
363.203	315.8
363.584	329.36
363.966	322.8
364.348	331.16
364.729	318.06
365.111	318.06
365.493	331.16
365.874	308.11
366.256	343.59
366.637	310.6
367.019	319.19
367.4	339.3
367.781	298.4
368.163	320.09
368.544	306.08
368.925	297.94
369.306	297.72
369.688	290.94
370.069	305.85
370.45	295.23
370.831	313.08
371.212	304.5
371.593	307.44
371.974	312.63
372.355	296.36
372.736	319.19
373.117	290.26
373.498	302.69
373.879	310.6
374.26	292.97
374.641	303.59
375.021	304.95
375.402	339.75
375.783	307.66
376.163	334.1
376.544	319.64
376.925	297.27
377.305	323.25
377.686	305.4
378.066	313.99
378.447	334.33
378.827	353.31
379.208	331.39
379.588	309.7
379.968	319.19
380.349	344.5
380.729	312.41
381.109	323.71
381.489	355.12
381.87	333.2
382.25	341.78
382.63	331.39
383.01	335.01
383.39	356.47
383.77	356.93
384.15	345.4
384.53	318.51
384.91	342.46
385.29	369.35
385.67	340.88
386.049	332.97
386.429	367.09
386.809	333.42
387.189	353.99
387.568	356.02
387.948	364.16
388.328	364.61
388.707	371.61
389.087	349.92
389.466	348.56
389.846	373.2
390.225	361.22
390.605	391.95
390.984	366.87
391.363	364.38
391.743	389.47
392.122	372.74
392.501	367.09
392.881	376.59
393.26	373.42
393.639	365.74
394.018	381.33
394.397	387.43
394.776	381.11
395.155	387.66
395.534	364.61
395.913	402.57
396.292	383.82
396.671	404.83
397.05	398.96
397.429	422.01
397.808	420.65
398.186	394.44
398.565	405.96
398.944	417.26
399.323	412.74
399.701	421.78
400.08	423.82
400.458	426.3
400.837	432.63
401.215	426.53
401.594	427.88
401.972	420.88
402.351	445.06
402.729	431.73
403.107	447.09
403.486	417.72
403.864	426.53
404.242	439.18
404.62	461.33
404.999	444.83
405.377	471.95
405.755	472.63
406.133	470.14
406.511	477.83
406.889	469.01
407.267	487.54
407.645	486.19
408.023	502.23
408.401	478.05
408.779	501.78
409.156	518.96
409.534	526.19
409.912	533.64
410.29	545.17
410.667	530.25
411.045	539.52
411.422	545.17
411.8	571.16
412.178	559.41
412.555	574.77
412.933	593.76
413.31	629.91
413.687	609.57
414.065	606.18
414.442	618.84
414.819	630.14
415.197	641.89
415.574	662.45
415.951	678.73
416.328	654.32
416.705	672.17
417.082	683.24
417.46	697.93
417.837	681.44
418.214	724.37
418.591	723.24
418.967	723.7
419.344	731.38
419.721	743.58
420.098	734.32
420.475	742.68
420.852	772.28
421.228	779.29
421.605	799.63
421.982	798.27
422.358	838.72
422.735	823.81
423.111	849.57
423.488	872.39
423.864	858.61
424.241	887.53
424.617	901.09
424.994	894.31
425.37	946.06
425.746	935.44
426.123	960.3
426.499	959.17
426.875	1015.67
427.251	1000.52
427.627	987.87
428.003	1038.72
428.379	1048.88
428.756	1075.78
429.132	1076.45
429.507	1086.4
429.883	1078.04
430.259	1104.02
430.635	1109.45
431.011	1136.57
431.387	1158.26
431.763	1173.63
432.138	1172.05
432.514	1223.12
432.89	1209.78
433.265	1254.76
433.641	1260.86
434.016	1287.75
434.392	1293.62
434.767	1323.91
435.143	1359.84
435.518	1384.47
435.894	1397.35
436.269	1407.97
436.644	1450.91
437.02	1472.38
437.395	1487.29
437.77	1526.84
438.145	1506.05
438.52	1548.53
438.895	1599.15
439.271	1626.04
439.646	1638.02
440.021	1646.61
440.395	1718.25
440.77	1663.11
441.145	1707.17
441.52	1754.63
441.895	1719.6
442.27	1769.32
442.645	1742.88
443.019	1812.25
443.394	1838.92
443.769	1841.41
444.143	1854.74
444.518	1883.67
444.892	1870.78
445.267	1890.22
445.641	1929.31
446.016	1915.98
446.39	1979.03
446.764	1966.37
447.139	1972.02
447.513	2012.02
447.887	2008.63
448.262	2039.37
448.636	2018.58
449.01	2058.12
449.384	2062.87
449.758	2101.51
450.132	2113.49
450.506	2135.41
450.88	2136.54
451.254	2150.55
451.628	2189.42
452.002	2217.44
452.376	2245.92
452.75	2256.31
453.123	2259.47
453.497	2304.45
453.871	2323.65
454.244	2380.6
454.618	2369.08
454.992	2410.43
455.365	2401.84
455.739	2460.15
456.112	2492.91
456.486	2530.2
456.859	2515.96
457.232	2549.86
457.606	2609.75
457.979	2571.1
458.352	2675.96
458.725	2699.91
459.099	2685.45
459.472	2735.85
459.845	2750.99
460.218	2809.06
460.591	2797.31
460.964	2808.16
461.337	2864.66
461.71	2916.41
462.083	2983.52
462.456	2994.37
462.829	2961.38
463.201	3025.1
463.574	3066.23
463.947	3086.8
464.32	3169.51
464.692	3195.04
465.065	3189.85
465.438	3254.25
465.81	3307.13
466.183	3291.31
466.555	3397.98
466.928	3384.64
467.3	3416.96
467.672	3465.09
468.045	3530.4
468.417	3556.39
468.789	3611.3
469.161	3632.77
469.534	3670.06
469.906	3760.68
470.278	3746.89
470.65	3774.91
471.022	3870.05
471.394	3918.64
471.766	3952.99
472.138	3964.06
472.51	4084.74
472.882	4129.71
473.253	4151.85
473.625	4206.77
473.997	4302.36
474.369	4343.26
474.74	4347.1
475.112	4403.82
475.484	4456.93
475.855	4568.79
476.227	4599.98
476.598	4699.41
476.97	4710.26
477.341	4846.75
477.713	4894.21
478.084	4922.23
478.455	5051.94
478.827	5120.42
479.198	5244.71
479.569	5186.86
479.94	5369.9
480.311	5387.08
480.682	5443.35
481.053	5549.33
481.424	5641.76
481.795	5723.34
482.166	5736.45
482.537	5882.2
482.908	5949.55
483.279	5964.46
483.65	6085.59
484.021	6159.71
484.391	6236.32
484.762	6308.41
485.133	6366.03
485.503	6446.03
485.874	6514.73
486.244	6602.86
486.615	6767.83
486.985	6749.07
487.356	6872.91
487.726	6924.44
488.097	7033.13
488.467	7011.44
488.837	7162.62
489.207	7295.73
489.578	7363.3
489.948	7352.45
490.318	7467.93
490.688	7512.67
491.058	7635.38
491.428	7698.65
491.798	7796.05
492.168	7924.86
492.538	7867.69
492.908	7956.05
493.278	8066.55
493.648	8065.88
494.017	8162.37
494.387	8217.28
494.757	8237.17
495.126	8356.26
495.496	8308.35
495.866	8387
496.235	8476.03
496.605	8550.16
496.974	8540.89
497.344	8641.68
497.713	8683.94
498.082	8713.99
498.452	8742.92
498.821	8797.83
499.19	8766.42
499.559	8871.05
499.928	8897.04
500.298	8906.31
500.667	9032.63
501.036	9029.47
501.405	9083.48
501.774	9045.96
502.143	9115.11
502.512	9151.72
502.88	9160.08
503.249	9156.02
503.618	9253.87
503.987	9280.98
504.356	9301.55
504.724	9394.2
505.093	9314.43
505.462	9405.28
505.83	9426.29
506.199	9457.48
506.567	9513.97
506.936	9564.59
507.304	9591.71
507.672	9578.83
508.041	9575.21
508.409	9631.71
508.777	9670.58
509.145	9750.8
509.514	9693.86
509.882	9746.96
510.25	9774.08
510.618	9781.08
510.986	9751.48
511.354	9816.11
511.722	9877.35
512.09	9935.43
512.458	9848.43
512.826	9924.58
513.193	9959.16
513.561	9937.69
513.929	10003.45
514.297	10016.78
514.664	10082.77
515.032	10038.7
515.4	10095.65
515.767	10158.7
516.135	10123.9
516.502	10071.92
516.869	10149.89
517.237	10191.7
517.604	10169.55
517.972	10198.7
518.339	10177.23
518.706	10200.06
519.073	10245.25
519.44	10200.06
519.808	10262.43
520.175	10181.07
520.542	10270.34
520.909	10290.68
521.276	10280.28
521.643	10445.7
522.009	10284.35
522.376	10380.16
522.743	10385.81
523.11	10399.83
523.477	10471.46
523.843	10474.4
524.21	10544.68
524.577	10526.6
524.943	10609.31
525.31	10572.93
525.676	10573.38
526.043	10590.55
526.409	10572.93
526.776	10635.07
527.142	10609.99
527.508	10621.51
527.874	10653.83
528.241	10666.49
528.607	10652.25
528.973	10654.96
529.339	10661.29
529.705	10727.05
530.071	10786.26
530.437	10666.03
530.803	10713.26
531.169	10593.94
531.535	10618.12
531.901	10618.58
532.267	10680.27
532.632	10604.11
532.998	10685.69
533.364	10613.83
533.73	10667.16
534.095	10690.67
534.461	10622.19
534.826	10647.73
535.192	10574.74
535.557	10559.14
535.923	10486.83
536.288	10533.16
536.653	10477.11
537.019	10455.64
537.384	10412.71
537.749	10402.76
538.114	10446.6
538.479	10367.06
538.845	10378.81
539.21	10362.99
539.575	10310.79
539.94	10367.06
540.305	10314.86
540.67	10233.05
541.034	10210.68
541.399	10258.36
541.764	10210.23
542.129	10210
542.494	10105.37
542.858	10091.13
543.223	10097.23
543.587	10065.6
543.952	10048.65
544.316	10024.69
544.681	9979.27
545.045	9961.87
545.41	9956.22
545.774	9954.87
546.138	9888.2
546.503	9880.07
546.867	9845.72
547.231	9824.47
547.595	9850.01
547.959	9820.41
548.324	9721.2
548.688	9736.79
549.052	9706.96
549.416	9789.67
549.779	9703.57
550.143	9650.24
550.507	9633.97
550.871	9626.74
551.235	9561.2
551.599	9656.34
551.962	9524.82
552.326	9524.59
552.689	9563.69
553.053	9448.44
553.417	9370.02
553.78	9489.57
554.143	9421.77
554.507	9424.71
554.87	9426.52
555.234	9439.4
555.597	9311.27
555.96	9350.36
556.323	9354.66
556.686	9260.65
557.05	9372.96
557.413	9268.33
557.776	9288.67
558.139	9293.19
558.502	9311.72
558.865	9245.96
559.228	9325.96
559.59	9238.5
559.953	9249.8
560.316	9303.36
560.679	9322.34
561.041	9293.87
561.404	9310.14
561.767	9259.06
562.129	9298.39
562.492	9245.51
562.854	9274.66
563.217	9181.78
563.579	9242.34
563.941	9274.66
564.304	9297.71
564.666	9282.57
565.028	9266.75
565.39	9308.33
565.753	9300.65
566.115	9306.29
566.477	9337.25
566.839	9350.14
567.201	9332.96
567.563	9313.3
567.925	9432.85
568.287	9378.84
568.648	9406.63
569.01	9357.37
569.372	9409.57
569.734	9342.68
570.095	9468.78
570.457	9509
570.819	9458.16
571.18	9419.96
571.542	9524.37
571.903	9505.39
572.265	9581.99
572.626	9537.93
572.987	9526.85
573.349	9497.48
573.71	9589.9
574.071	9561.2
574.432	9541.54
574.794	9650.69
575.155	9565.5
575.516	9568.66
575.877	9652.27
576.238	9612.28
576.599	9703.57
576.96	9649.56
577.32	9662.22
577.681	9600.07
578.042	9665.61
578.403	9699.73
578.763	9710.8
579.124	9654.53
579.485	9739.96
579.845	9762.78
580.206	9754.64
580.566	9734.08
580.927	9761.42
581.287	9757.13
581.648	9714.65
582.008	9836.68
582.368	9751.03
582.728	9830.57
583.089	9836.9
583.449	9758.03
583.809	9810.24
584.169	9920.52
584.529	9858.14
584.889	9912.61
585.249	9814.3
585.609	9846.62
585.969	9897.01
586.329	9899.5
586.688	9944.7
587.048	9870.35
587.408	9836.68
587.768	9888.2
588.127	9931.36
588.487	9908.54
588.846	9985.37
589.206	9924.58
589.565	9951.93
589.925	9943.57
590.284	9874.42
590.643	9888.43
591.003	9925.94
591.362	9952.61
591.721	9980.85
592.08	9946.96
592.44	9998.71
592.799	9995.09
593.158	10030.12
593.517	9948.99
593.876	9975.2
594.235	9938.59
594.593	10000.74
594.952	10014.75
595.311	9913.51
595.67	9957.35
596.029	9993.06
596.387	10046.39
596.746	9999.38
597.104	10003.45
597.463	9985.83
597.822	10045.71
598.18	9995.32
598.538	9938.59
598.897	10071.25
599.255	9983.11
599.613	10118.02
599.972	10029.44
600.33	10084.35
600.688	9974.3
601.046	10052.72
601.404	10083.9
601.762	10043.22
602.12	10081.42
602.478	10103.56
602.836	10029.89
603.194	10059.72
603.552	10051.36
603.91	9969.55
604.268	10021.08
604.625	10012.04
604.983	10019.72
605.341	9981.31
605.698	10027.63
606.056	10060.85
606.413	10034.86
606.771	10109.89
607.128	10086.16
607.485	10038.7
607.843	10026.73
608.2	10150.79
608.557	10089.78
608.914	10119.38
609.272	10159.83
609.629	10205.25
609.986	10151.92
610.343	10164.58
610.7	10167.74
611.057	10199.6
611.414	10178.14
611.771	10226.04
612.127	10290.22
612.484	10214.07
612.841	10270.56
613.198	10227.63
613.554	10167.29
613.911	10262.88
614.267	10277.12
614.624	10224.91
614.98	10266.04
615.337	10292.03
615.693	10296.78
616.05	10222.65
616.406	10333.39
616.762	10241.64
617.118	10317.57
617.475	10221.07
617.831	10257.46
618.187	10333.61
618.543	10254.29
618.899	10379.71
619.255	10331.13
619.611	10365.48
619.967	10307.4
620.323	10338.58
620.678	10380.62
621.034	10288.87
621.39	10316.44
621.746	10280.96
622.101	10409.09
622.457	10372.93
622.812	10330.22
623.168	10398.47
623.523	10377.68
623.879	10410.22
624.234	10293.39
624.589	10303.1
624.945	10426.49
625.3	10344.46
625.655	10357.34
626.01	10401.41
626.365	10385.14
626.72	10273.95
627.075	10310.11
627.43	10332.03
627.785	10291.81
628.14	10307.4
628.495	10408.19
628.85	10339.26
629.205	10338.36
629.559	10339.49
629.914	10295.42
630.269	10272.37
630.623	10287.29
630.978	10150.57
631.332	10239.6
631.687	10284.57
632.041	10264.91
632.396	10199.6
632.75	10203.22
633.104	10218.14
633.459	10153.05
633.813	10148.76
634.167	10201.41
634.521	10142.43
634.875	10189.21
635.229	10144.24
635.583	10064.69
635.937	10064.47
636.291	10076.44
636.645	10042.77
636.999	10088.65
637.352	10092.94
637.706	10021.53
638.06	10114.64
638.413	10024.02
638.767	9969.33
639.121	10024.92
639.474	9932.04
639.828	9958.71
640.181	9996.45
640.534	9972.72
640.888	9936.79
641.241	9957.35
641.594	9922.32
641.947	9925.71
642.301	9904.25
642.654	9911.93
643.007	9921.42
643.36	9904.02
643.713	9885.04
644.066	9843.91
644.419	9887.52
644.771	9764.59
645.124	9692.73
645.477	9683.01
645.83	9657.92
646.182	9596.46
646.535	9599.17
646.888	9530.02
647.24	9528.21
647.593	9577.93
647.945	9509.45
648.298	9557.36
648.65	9509.23
649.002	9470.36
649.355	9522.79
649.707	9546.74
650.059	9611.82
650.411	9685.27
650.763	9754.64
651.115	9825.15
651.467	9777.24
651.819	9788.54
652.171	9719.39
652.523	9715.78
652.875	9737.02
653.227	9657.47
653.578	9731.37
653.93	9748.54
654.282	9705.38
654.633	9701.54
654.985	9722.78
655.337	9726.4
655.688	9728.88
656.039	9660.18
656.391	9728.2
656.742	9698.6
657.094	9670.13
657.445	9820.41
657.796	9726.85
658.147	9764.59
658.498	9714.65
658.849	9799.62
659.2	9727.07
659.551	9681.2
659.902	9760.29
660.253	9783.8
660.604	9778.82
660.955	9763.01
661.306	9774.98
661.656	9796.23
662.007	9758.94
662.358	9752.61
662.708	9772.95
663.059	9741.09
663.409	9679.17
663.76	9798.49
664.11	9783.34
664.461	9772.95
664.811	9720.52
665.161	9752.61
665.511	9707.64
665.862	9829.44
666.212	9782.89
666.562	9796
666.912	9834.42
667.262	9799.16
667.612	9847.07
667.962	9875.77
668.312	9820.86
668.662	9760.29
669.011	9793.97
669.361	9741.54
669.711	9764.36
670.06	9748.77
670.41	9665.61
670.76	9706.28
671.109	9690.01
671.459	9794.87
671.808	9693.18
672.157	9746.96
672.507	9727.07
672.856	9707.41
673.205	9699.5
673.554	9734.53
673.904	9678.04
674.253	9734.76
674.602	9699.73
674.951	9576.34
675.3	9433.07
675.649	9657.92
675.998	9641.43
676.346	9591.26
676.695	9595.78
677.044	9586.97
677.393	9599.39
677.741	9592.16
678.09	9536.57
678.438	9601.43
678.787	9494.99
679.135	9513.07
679.484	9513.97
679.832	9456.57
680.181	9439.85
680.529	9426.52
680.877	9464.26
681.225	9461.32
681.573	9495.89
681.922	9379.74
682.27	9411.83
682.618	9415.44
682.966	9351.49
683.314	9445.95
683.661	9353.98
684.009	9316.01
684.357	9308.55
684.705	9285.05
685.053	9258.61
685.4	9249.57
685.748	9201.44
686.095	9208.22
686.443	9227.43
686.79	9126.64
687.138	9125.51
687.485	9159.63
687.832	9047.54
688.18	9083.02
688.527	9023.14
688.874	8985.85
689.221	8951.05
689.568	8940.43
689.915	8927.55
690.262	8901.56
690.609	8848
690.956	8872.41
691.303	8852.75
691.65	8795.57
691.997	8762.35
692.344	8768.91
692.69	8743.82
693.037	8725.07
693.383	8618.18
693.73	8696.14
694.077	8669.25
694.423	8608.46
694.769	8474.9
695.116	8542.7
695.462	8528.69
695.808	8491.18
696.155	8533.66
696.501	8413.21
696.847	8435.13
697.193	8306.77
697.539	8315.36
697.885	8330.5
698.231	8289.37
698.577	8230.84
698.923	8256.6
699.269	8205.53
699.614	8137.96
699.96	8115.37
700.306	8111.3
700.651	8108.13
700.997	8019.1
701.342	8022.26
701.688	8013.22
702.033	7993.79
702.379	8007.35
702.724	7940.23
703.069	7982.04
703.415	7837.18
703.76	7872.89
704.105	7850.06
704.45	7878.31
704.795	7735.49
705.14	7766
705.485	7719.9
705.83	7675.15
706.175	7690.74
706.52	7618.66
706.865	7609.16
707.209	7633.57
707.554	7614.59
707.899	7552.67
708.243	7517.19
708.588	7510.41
708.932	7497.75
709.277	7389.28
709.621	7412.33
709.966	7389.28
710.31	7469.06
710.654	7279.46
710.998	7332.11
711.342	7395.61
711.687	7318.78
712.031	7265.44
712.375	7282.62
712.719	7240.13
713.063	7301.38
713.407	7303.18
713.75	7159.91
714.094	7226.12
714.438	7170.98
714.782	7227.25
715.125	7171.44
715.469	7200.81
715.812	7143.19
716.156	7173.92
716.499	7102.06
716.843	7086.92
717.186	7121.72
717.53	7163.75
717.873	7071.78
718.216	7093.7
718.559	7050.53
718.902	7003.08
719.246	7013.7
719.589	7066.35
719.932	7036.3
720.275	7011.89
720.617	6962.4
720.96	7013.93
721.303	7017.09
721.646	6993.14
721.989	6930.76
722.331	6946.81
722.674	6954.94
723.016	6935.96
723.359	6873.14
723.701	6973.25
724.044	6874.27
724.386	6916.75
724.729	6918.56
725.071	6867.49
725.413	6876.08
725.755	6868.62
726.097	6862.07
726.439	6837.89
726.782	6843.76
727.124	6939.58
727.465	6827.26
727.807	6860.48
728.149	6799.47
728.491	6775.74
728.833	6840.37
729.175	6787.72
729.516	6822.52
729.858	6812.8
730.199	6774.38
730.541	6768.96
730.882	6780.03
731.224	6756.76
731.565	6757.21
731.906	6775.29
732.248	6859.58
732.589	6808.51
732.93	6769.19
733.271	6771.22
733.612	6766.47
733.953	6815.96
734.294	6839.69
734.635	6805.57
734.976	6820.48
735.317	6755.18
735.658	6731.22
735.999	6809.41
736.339	6805.57
736.68	6852.35
737.021	6799.69
737.361	6799.92
737.702	6808.73
738.042	6846.25
738.383	6823.65
738.723	6837.89
739.063	6787.72
739.404	6860.26
739.744	6798.34
740.084	6883.31
740.424	6884.66
740.764	6911.33
741.104	6887.15
741.444	6927.15
741.784	6899.58
742.124	6976.41
742.464	6977.54
742.804	6927.37
743.143	6950.65
743.483	6952.01
743.823	6981.84
744.162	7067.03
744.502	7028.39
744.841	7111.55
745.181	7112.91
745.52	7103.64
745.86	7159.91
746.199	7177.54
746.538	7206.01
746.877	7272.22
747.216	7377.76
747.556	7346.57
747.895	7383.86
748.234	7395.16
748.573	7441.03
748.911	7558.32
749.25	7526.23
749.589	7576.62
749.928	7700.01
750.267	7793.11
750.605	7859.33
750.944	7868.59
751.283	7954.47
751.621	8092.77
751.96	8089.38
752.298	8153.56
752.636	8335.92
752.975	8354.91
753.313	8432.87
753.651	8572.53
753.989	8672.19
754.327	8766.65
754.666	8888
755.004	9010.48
755.342	9077.37
755.679	9201.89
756.017	9270.36
756.355	9425.84
756.693	9587.64
757.031	9817.69
757.368	9861.31
757.706	9953.06
758.044	10137.01
758.381	10288.64
758.719	10447.28
759.056	10613.83
759.394	10698.35
759.731	10862.41
760.068	11050.2
760.405	11238.9
760.743	11322.29
761.08	11556.18
761.417	11760.24
761.754	11942.61
762.091	12091.98
762.428	12185.32
762.765	12357.51
763.102	12607.9
763.438	12689.48
763.775	12882.92
764.112	13119.98
764.449	13263.48
764.785	13423.7
