Data from hue_10_FLMS001491_31.txt Node
Date: Mon Feb 06 15:31:48 GMT 2017
User: dcchb
Spectrometer: FLMS00149
Trigger mode: 0
Integration Time (sec): 2.000000E-2
Scans to average: 10
Electric dark correction enabled: true
Nonlinearity correction enabled: false
Boxcar width: 0
XAxis mode: Wavelengths
Number of Pixels in Spectrum: 2048
>>>>>Begin Spectral Data<<<<<
341.393	-26.64
341.776	-26.64
342.16	-26.64
342.543	-62.34
342.927	-52.63
343.31	-72.74
343.693	-64.38
344.077	-58.28
344.46	-75
344.843	-46.98
345.226	-58.28
345.61	-30.48
345.993	-3.81
346.376	-2.01
346.759	-4.49
347.142	30.31
347.525	77.99
347.908	40.03
348.291	62.4
348.674	94.26
349.057	111.44
349.44	117.09
349.823	138.78
350.206	153.24
350.588	187.82
350.971	208.84
351.354	224.88
351.737	235.95
352.119	242.06
352.502	266.91
352.884	277.54
353.267	276.86
353.65	291.55
354.032	296.74
354.414	313.47
354.797	305.33
355.179	323.41
355.562	319.34
355.944	321.83
356.326	322.05
356.709	317.76
357.091	338.55
357.473	334.03
357.855	328.16
358.238	350.53
358.62	337.42
359.002	317.08
359.384	344.43
359.766	327.93
360.148	347.36
360.53	350.53
360.912	346.69
361.294	337.65
361.676	326.8
362.057	332.45
362.439	311.21
362.821	305.1
363.203	306.23
363.584	317.31
363.966	329.96
364.348	313.92
364.729	307.36
365.111	291.77
365.493	306.46
365.874	313.47
366.256	315.5
366.637	307.59
367.019	323.86
367.4	314.37
367.781	311.21
368.163	323.18
368.544	294.26
368.925	319.34
369.306	336.06
369.688	313.92
370.069	303.52
370.45	320.25
370.831	317.99
371.212	306.91
371.593	310.53
371.974	299
372.355	297.42
372.736	312.34
373.117	312.79
373.498	306.69
373.879	327.03
374.26	321.6
374.641	322.96
375.021	304.43
375.402	304.2
375.783	302.62
376.163	315.05
376.544	313.92
376.925	310.3
377.305	333.58
377.686	322.51
378.066	313.47
378.447	308.72
378.827	314.14
379.208	299.23
379.588	305.33
379.968	320.25
380.349	316.4
380.729	326.35
381.109	313.69
381.489	301.72
381.87	332.45
382.25	346.01
382.63	330.19
383.01	341.26
383.39	339.45
383.77	336.52
384.15	337.65
384.53	322.51
384.91	341.94
385.29	350.75
385.67	352.11
386.049	364.31
386.429	330.42
386.809	324.54
387.189	346.01
387.568	340.58
387.948	328.83
388.328	325.22
388.707	324.99
389.087	346.01
389.466	360.47
389.846	346.91
390.225	360.02
390.605	347.36
390.984	367.02
391.363	349.62
391.743	333.8
392.122	363.41
392.501	367.02
392.881	383.07
393.26	345.33
393.639	384.65
394.018	356.86
394.397	363.63
394.776	344.43
395.155	349.85
395.534	360.47
395.913	356.4
396.292	370.41
396.671	370.64
397.05	382.62
397.429	366.57
397.808	364.31
398.186	348.72
398.565	376.06
398.944	376.06
399.323	376.74
399.701	372.45
400.08	371.09
400.458	371.54
400.837	361.37
401.215	378.32
401.594	394.14
401.972	383.75
402.351	380.13
402.729	374.03
403.107	364.76
403.486	391.2
403.864	392.33
404.242	396.18
404.62	382.17
404.999	405.67
405.377	393.69
405.755	412.45
406.133	396.4
406.511	400.47
406.889	390.53
407.267	388.27
407.645	397.31
408.023	388.72
408.401	421.71
408.779	406.57
409.156	410.64
409.534	407.7
409.912	423.07
410.29	431.88
410.667	425.33
411.045	416.97
411.422	435.27
411.8	438.66
412.178	437.76
412.555	435.5
412.933	434.37
413.31	443.18
413.687	447.25
414.065	435.72
414.442	416.51
414.819	434.82
415.197	461.71
415.574	462.39
415.951	466
416.328	452.9
416.705	435.72
417.082	487.93
417.46	455.84
417.837	470.07
418.214	454.03
418.591	456.97
418.967	473.69
419.344	467.59
419.721	491.54
420.098	474.82
420.475	502.61
420.852	486.57
421.228	489.73
421.605	489.96
421.982	489.51
422.358	484.08
422.735	489.51
423.111	503.29
423.488	494.7
423.864	541.26
424.241	536.96
424.617	528.15
424.994	548.26
425.37	509.17
425.746	510.07
426.123	521.6
426.499	514.82
426.875	537.19
427.251	538.32
427.627	518.43
428.003	520.47
428.379	524.53
428.756	530.86
429.132	546.45
429.507	564.53
429.883	554.59
430.259	565.66
430.635	561.14
431.011	559.11
431.387	556.17
431.763	576.06
432.138	606.34
432.514	571.99
432.89	589.39
433.265	599.11
433.641	602.27
434.016	594.36
434.392	605.21
434.767	607.7
435.143	611.99
435.518	630.07
435.894	635.04
436.269	620.12
436.644	635.72
437.02	629.39
437.395	651.99
437.77	633.46
438.145	646.56
438.52	654.7
438.895	656.51
439.271	652.21
439.646	669.39
440.021	696.96
440.395	669.16
440.77	690.18
441.145	678.2
441.52	680.69
441.895	675.72
442.27	687.47
442.645	697.64
443.019	721.37
443.394	701.93
443.769	694.25
444.143	693.12
444.518	706.9
444.892	709.39
445.267	722.04
445.641	743.29
446.016	715.94
446.39	706.9
446.764	732.66
447.139	710.07
447.513	721.14
447.887	731.08
448.262	725.66
448.636	741.03
449.01	745.32
449.384	734.7
449.758	745.55
450.132	772.44
450.506	782.61
450.88	760.46
451.254	766.11
451.628	787.8
452.002	773.12
452.376	787.13
452.75	804.53
453.123	805.2
453.497	800.46
453.871	821.48
454.244	823.28
454.618	813.79
454.992	835.49
455.365	833.45
455.739	843.17
456.112	844.98
456.486	884.3
456.859	871.87
457.232	884.75
457.606	852.44
457.979	898.54
458.352	891.76
458.725	905.32
459.099	899.44
459.472	906.67
459.845	950.74
460.218	902.15
460.591	938.99
460.964	919.33
461.337	953.68
461.71	975.14
462.083	976.05
462.456	977.63
462.829	1015.82
463.201	998.42
463.574	980.12
463.947	1027.8
464.32	1024.18
464.692	1042.49
465.065	1045.2
465.438	1053.11
465.81	1055.14
466.183	1072.99
466.555	1108.93
466.928	1103.73
467.3	1122.71
467.672	1104.18
468.045	1148.7
468.417	1123.61
468.789	1170.39
469.161	1154.57
469.534	1181.47
469.906	1212.2
470.278	1241.35
470.65	1250.16
471.022	1234.8
471.394	1274.35
471.766	1276.15
472.138	1291.97
472.51	1276.83
472.882	1312.08
473.253	1334.91
473.625	1367.68
473.997	1401.12
474.369	1400.44
474.74	1426.21
475.112	1448.8
475.484	1488.8
475.855	1468.24
476.227	1515.24
476.598	1540.78
476.97	1555.02
477.341	1609.48
477.713	1605.86
478.084	1609.25
478.455	1680.89
478.827	1710.72
479.198	1705.29
479.569	1759.53
479.94	1776.93
480.311	1829.81
480.682	1851.96
481.053	1892.18
481.424	1911.39
481.795	1932.63
482.166	1963.37
482.537	2009.47
482.908	2053.53
483.279	2076.58
483.65	2123.14
484.021	2152.74
484.391	2196.13
484.762	2225.05
485.133	2225.05
485.503	2266.41
485.874	2319.06
486.244	2350.25
486.615	2399.06
486.985	2444.26
487.356	2441.77
487.726	2504.82
488.097	2556.12
488.467	2581.43
488.837	2649.68
489.207	2654.87
489.578	2710.69
489.948	2728.77
490.318	2768.54
490.688	2805.38
491.058	2843.57
491.428	2868.43
491.798	2933.96
492.168	2953.4
492.538	3035.65
492.908	2982.77
493.278	3069.78
493.648	3080.85
494.017	3123.11
494.387	3161.08
494.757	3159.49
495.126	3222.99
495.496	3216.89
495.866	3292.15
496.235	3295.99
496.605	3314.74
496.974	3337.57
497.344	3389.54
497.713	3433.16
498.082	3472.93
498.452	3496.66
498.821	3527.39
499.19	3513.61
499.559	3533.04
499.928	3585.7
500.298	3588.63
500.667	3652.36
501.036	3622.08
501.405	3632.25
501.774	3679.03
502.143	3749.31
502.512	3718.8
502.88	3742.3
503.249	3746.82
503.618	3781.85
503.987	3798.57
504.356	3838.35
504.724	3832.92
505.093	3896.65
505.462	3899.13
505.83	3894.62
506.199	3920.15
506.567	3974.16
506.936	3979.36
507.304	4017.1
507.672	4051.22
508.041	4054.16
508.409	4074.05
508.777	4127.83
509.145	4124.44
509.514	4141.61
509.882	4134.16
510.25	4168.28
510.618	4217.09
510.986	4192.46
511.354	4209.41
511.722	4279.01
512.09	4294.83
512.458	4303.42
512.826	4310.42
513.193	4308.16
513.561	4333.25
513.929	4363.53
514.297	4431.1
514.664	4427.03
515.032	4410.08
515.4	4423.64
515.767	4456.63
516.135	4453.92
516.502	4429.29
516.869	4533.47
517.237	4516.29
517.604	4500.47
517.972	4572.11
518.339	4548.61
518.706	4574.82
519.073	4559.91
519.44	4612.34
519.808	4637.19
520.175	4633.8
520.542	4667.93
520.909	4701.6
521.276	4711.54
521.643	4715.38
522.009	4781.15
522.376	4808.04
522.743	4791.54
523.11	4854.59
523.477	4855.27
523.843	4856.17
524.21	4928.71
524.577	4905.44
524.943	5019.56
525.31	4973.91
525.676	4994.02
526.043	5078.54
526.409	5087.58
526.776	5116.05
527.142	5105.43
527.508	5131.19
527.874	5176.84
528.241	5198.31
528.607	5302.94
528.973	5251.64
529.339	5271.75
529.705	5295.26
530.071	5344.52
530.437	5349.27
530.803	5410.28
531.169	5404.86
531.535	5408.02
531.901	5495.93
532.267	5511.75
532.632	5511.3
532.998	5533.67
533.364	5547
533.73	5537.51
534.095	5636.72
534.461	5592.88
534.826	5637.39
535.192	5681.91
535.557	5732.08
535.923	5741.12
536.288	5692.76
536.653	5754.45
537.019	5753.78
537.384	5770.05
537.749	5845.3
538.114	5838.74
538.479	5856.82
538.845	5878.52
539.21	5851.85
539.575	5904.05
539.94	5911.51
540.305	5917.84
540.67	5969.36
541.034	6010.04
541.399	6019.76
541.764	6030.6
542.129	6061.34
542.494	6085.07
542.858	6120.55
543.223	6138.17
543.587	6170.71
543.952	6224.27
544.316	6170.71
544.681	6271.28
545.045	6263.37
545.41	6305.85
545.774	6320.31
546.138	6306.3
546.503	6358.73
546.867	6330.48
547.231	6359.64
547.595	6386.98
547.959	6435.11
548.324	6482.12
548.688	6486.41
549.052	6503.36
549.416	6575.45
549.779	6512.17
550.143	6592.17
550.507	6642.34
550.871	6601.44
551.235	6632.17
551.599	6700.19
551.962	6668.55
552.326	6751.94
552.689	6758.04
553.053	6758.95
553.417	6797.14
553.78	6817.7
554.143	6835.1
554.507	6843.69
554.87	6878.72
555.234	6878.94
555.597	6887.76
555.96	6906.74
556.323	6908.32
556.686	6938.6
557.05	7001.43
557.413	7031.48
557.776	7057.92
558.139	7068.54
558.502	7027.19
558.865	7118.71
559.228	7149.44
559.59	7157.81
559.953	7194.19
560.316	7258.59
560.679	7239.61
561.041	7284.81
561.404	7297.46
561.767	7291.59
562.129	7310.8
562.492	7349.89
562.854	7392.38
563.217	7343.56
563.579	7428.76
563.941	7421.3
564.304	7436.67
564.666	7541.3
565.028	7585.59
565.39	7604.12
565.753	7622.88
566.115	7591.02
566.477	7668.75
566.839	7649.77
567.201	7735.42
567.563	7792.37
567.925	7793.27
568.287	7823.33
568.648	7830.33
569.01	7920.05
569.372	7848.41
569.734	7880.05
570.095	7944.9
570.457	7979.93
570.819	8070.78
571.18	8065.13
571.542	8147.38
571.903	8158.91
572.265	8182.41
572.626	8211.34
572.987	8282.97
573.349	8320.94
573.71	8342.63
574.071	8410.2
574.432	8430.99
574.794	8531.56
575.155	8562.29
575.516	8578.56
575.877	8610.2
576.238	8683.42
576.599	8709.86
576.96	8826.24
577.32	8867.37
577.681	8951.66
578.042	9032.11
578.403	9072.78
578.763	9220.12
579.124	9226.45
579.485	9299.44
579.845	9426.67
580.206	9513.68
580.566	9598.65
580.927	9662.37
581.287	9877.06
581.648	9896.04
582.008	10065.07
582.368	10136.94
582.728	10279.98
583.089	10463.71
583.449	10549.58
583.809	10687.2
584.169	10832.74
584.529	10950.02
584.889	11181.66
585.249	11301.43
585.609	11410.35
585.969	11718.36
586.329	11906.38
586.688	12002.42
587.048	12186.37
587.408	12356.99
587.768	12633.82
588.127	12847.83
588.487	12969.63
588.846	13326.91
589.206	13468.6
589.565	13672.44
589.925	13989.26
590.284	14230.61
590.643	14439.2
591.003	14726.87
591.362	14978.62
591.721	15220.42
592.08	15487.76
592.44	15733.4
592.799	16139.26
593.158	16241.86
593.517	16552.59
593.876	16827.83
594.235	16993.25
594.593	17341.04
594.952	17685.66
595.311	17807.92
595.67	18247.23
596.029	18508.69
596.387	18874.79
596.746	19035.23
597.104	19306.41
597.463	19533.98
597.822	19917.02
598.18	20123.79
598.538	20486.04
598.897	20854.62
599.255	20981.62
599.613	21447.83
599.972	21624.54
600.33	22028.38
600.688	22219.56
601.046	22556.05
601.404	22909.48
601.762	23097.05
602.12	23451.39
602.478	23624.94
602.836	24005.72
603.194	24156.91
603.552	24443.23
603.91	24722.99
604.268	25028.75
604.625	25148.97
604.983	25447.04
605.341	25662.4
605.698	26062.62
606.056	26321.82
606.413	26476.85
606.771	26842.94
607.128	27119.32
607.485	27251.74
607.843	27489.7
608.2	27691.05
608.557	27962
608.914	28220.3
609.272	28437.92
609.629	28701.87
609.986	28981.41
610.343	29145.02
610.7	29397.9
611.057	29708.63
611.414	29793.82
611.771	29940.48
612.127	30443.97
612.484	30458.66
612.841	30791.54
613.198	30801.03
613.554	30886.22
613.911	31322.82
614.267	31412.08
614.624	31509.03
614.98	31631.06
615.337	32047.77
615.693	32172.74
616.05	32172.74
616.406	32613.63
616.762	32566.63
617.118	32757.36
617.475	32920.29
617.831	33050.46
618.187	33184.01
618.543	33337.91
618.899	33624
619.255	33720.95
619.611	33844.79
619.967	33976.54
620.323	34329.97
620.678	34123.42
621.034	34257.66
621.39	34378.33
621.746	34317.09
622.101	34719.12
622.457	34668.04
622.812	34880.92
623.168	35065.55
623.523	35047.02
623.879	35239.55
624.234	35049.95
624.589	35413.56
624.945	35412.2
625.3	35470.06
625.655	35596.15
626.01	35710.73
626.365	35869.37
626.72	35802.93
627.075	35737.39
627.43	35933.32
627.785	36046.54
628.14	36134.45
628.495	36260.54
628.85	36098.06
629.205	36211.96
629.559	36256.93
629.914	36179.42
630.269	36299.19
630.623	36250.15
630.978	36287.21
631.332	36361.33
631.687	36620.31
632.041	36522.23
632.396	36587.09
632.75	36377.83
633.104	36613.53
633.459	36509.35
633.813	36590.93
634.167	36526.75
634.521	36606.3
634.875	36594.32
635.229	36612.62
635.583	36321.79
635.937	36533.98
636.291	36506.64
636.645	36621.44
636.999	36566.07
637.352	36657.6
637.706	36542.8
638.06	36653.08
638.413	36507.09
638.767	36514.55
639.121	36607.2
639.474	36455.11
639.828	36487.2
640.181	36672.28
640.534	36587.31
640.888	36426.64
641.241	36381.9
641.594	36531.72
641.947	36550.93
642.301	36402.01
642.654	36546.64
643.007	36557.26
643.36	36543.02
643.713	36362.69
644.066	36580.99
644.419	36324.95
644.771	36200.21
645.124	35754.12
645.477	35718.41
645.83	35587.12
646.182	35460.79
646.535	35481.81
646.888	35498.98
647.24	35330.17
647.593	35518.42
647.945	35366.78
648.298	35240.91
648.65	35192.78
649.002	35133.34
649.355	35297.18
649.707	35211.31
650.059	35408.59
650.411	35802.93
650.763	35828.24
651.115	36172.64
651.467	36037.95
651.819	36164.28
652.171	35995.69
652.523	35935.13
652.875	36030.49
653.227	35817.84
653.578	36052.64
653.93	35946.65
654.282	35708.24
654.633	35857.16
654.985	35942.59
655.337	35780.33
655.688	35956.82
656.039	36113.65
656.391	35801.8
656.742	35681.58
657.094	35890.38
657.445	35900.1
657.796	35783.95
658.147	35805.64
658.498	35731.52
658.849	35793.66
659.2	35696.26
659.551	35811.74
659.902	35817.17
660.253	35819.88
660.604	35862.14
660.955	35574.46
661.306	35871.63
661.656	35711.86
662.007	35746.66
662.358	35654.91
662.708	35684.97
663.059	35705.98
663.409	35514.35
663.76	35712.31
664.11	35715.02
664.461	35676.38
664.811	35667.79
665.161	35640.45
665.511	35433.9
665.862	35570.84
666.212	35604.52
666.562	35745.76
666.912	35591.41
667.262	35477.74
667.612	35603.16
667.962	35534.69
668.312	35549.6
668.662	35722.03
669.011	35651.75
669.361	35578.53
669.711	35576.04
670.06	35482.71
670.41	35458.76
670.76	35381.24
671.109	35466.67
671.459	35489.94
671.808	35383.05
672.157	35536.95
672.507	35227.35
672.856	35308.48
673.205	35257.18
673.554	35444.75
673.904	35241.36
674.253	35510.06
674.602	35415.82
674.951	34816.06
675.3	34785.33
675.649	35276.16
675.998	35086.56
676.346	35182.83
676.695	35235.71
677.044	35023.74
677.393	35081.59
677.741	35198.65
678.09	35065.32
678.438	35088.82
678.787	35004.53
679.135	35032.33
679.484	34832.11
679.832	35108.48
680.181	34921.6
680.529	34957.3
680.877	34803.63
681.225	34672.56
681.573	34904.2
681.922	34657.42
682.27	34560.02
682.618	34593.92
682.966	34510.08
683.314	34617.42
683.661	34437.77
684.009	34313.48
684.357	34156.64
684.705	34326.36
685.053	34240.03
685.4	34166.36
685.748	34145.12
686.095	34078.23
686.443	33938.34
686.79	33856.77
687.138	33993.71
687.485	33909.19
687.832	33814.73
688.18	33898.8
688.527	33688.86
688.874	33685.02
689.221	33483.67
689.568	33515.76
689.915	33349.21
690.262	33347.17
690.609	33347.85
690.956	33221.75
691.303	33043
691.65	33051.81
691.997	32981.08
692.344	32805.27
692.69	32826.51
693.037	32801.2
693.383	32529.34
693.73	32645.05
694.077	32488.44
694.423	32443.02
694.769	32338.61
695.116	32279.18
695.462	32184.04
695.808	32181.78
696.155	32294.09
696.501	31962.58
696.847	32011.62
697.193	31803.49
697.539	31789.93
697.885	31604.62
698.231	31509.93
698.577	31505.19
698.923	31537.73
699.269	31243.05
699.614	31186.33
699.96	31169.38
700.306	31193.56
700.651	31110.17
700.997	31001.02
701.342	30859.56
701.688	30909.05
702.033	30718.77
702.379	30751.31
702.724	30571.43
703.069	30686.68
703.415	30355.39
703.76	30417.76
704.105	30330.53
704.45	30285.11
704.795	30206.47
705.14	30067.49
705.485	30021.61
705.83	29810.54
706.175	30010.09
706.52	29831.56
706.865	29762.18
707.209	29634.28
707.554	29660.72
707.899	29723.31
708.243	29501.4
708.588	29457.11
708.932	29278.35
709.277	29337.11
709.621	29294.4
709.966	29042.65
710.31	29167.62
710.654	28965.59
710.998	29014.86
711.342	28935.31
711.687	28851.7
712.031	28776.45
712.375	28705.94
712.719	28675.43
713.063	28479.28
713.407	28614.87
713.75	28519.96
714.094	28578.03
714.438	28467.08
714.782	28360.64
715.125	28243.81
715.469	28237.03
715.812	28203.13
716.156	28055.56
716.499	27927.2
716.843	28163.58
717.186	27863.7
717.53	27994.55
717.873	28033.19
718.216	27916.81
718.559	27708
718.902	27643.6
719.246	27606.99
719.589	27622.58
719.932	27454
720.275	27530.6
720.617	27538.51
720.96	27388.01
721.303	27307.33
721.646	27380.78
721.989	27164.96
722.331	27281.8
722.674	27162.03
723.016	27254.45
723.359	27168.81
723.701	27117.73
724.044	27020.56
724.386	26837.06
724.729	26947.79
725.071	26833.22
725.413	26869.15
725.755	26808.59
726.097	26767.69
726.439	26623.06
726.782	26666.22
727.124	26680.91
727.465	26629.61
727.807	26677.29
728.149	26431.42
728.491	26465.77
728.833	26354.14
729.175	26375.38
729.516	26356.17
729.858	26319.56
730.199	26270.98
730.541	26155.27
730.882	26220.81
731.224	26283.18
731.565	26080.92
731.906	26008.38
732.248	26056.74
732.589	25883.42
732.93	25840.7
733.271	25895.84
733.612	25932
733.953	25877.99
734.294	25782.85
734.635	25781.05
734.976	25766.36
735.317	25591.9
735.658	25633.7
735.999	25695.4
736.339	25673.48
736.68	25624.21
737.021	25478
737.361	25512.35
737.702	25541.96
738.042	25475.29
738.383	25444.56
738.723	25470.54
739.063	25354.16
739.404	25423.54
739.744	25283.43
740.084	25180.84
740.424	25239.59
740.764	25121.18
741.104	25194.62
741.444	24971.35
741.784	25033.95
742.124	25099.48
742.464	24955.3
742.804	24922.54
743.143	24940.84
743.483	25018.58
743.823	24740.39
744.162	24755.54
744.502	24921.86
744.841	24758.93
745.181	24746.04
745.52	24606.84
745.86	24715.76
746.199	24704.92
746.538	24622.21
746.877	24613.39
747.216	24551.25
747.556	24515.32
747.895	24483
748.234	24476.67
748.573	24365.72
748.911	24302.44
749.25	24334.76
749.589	24235.1
749.928	24228.32
750.267	24182.22
750.605	24258.37
750.944	24129.56
751.283	24102.45
751.621	24160.75
751.96	23985.84
752.298	24047.76
752.636	24045.05
752.975	23871.49
753.313	23862.68
753.651	23972.73
753.989	23856.12
754.327	23775.45
754.666	23590.37
755.004	23742.45
755.342	23676.47
755.679	23650.48
756.017	23509.92
756.355	23529.13
756.693	23436.7
757.031	23514.89
757.368	23338.17
757.706	23332.52
758.044	23253.88
758.381	23321.22
758.719	23107.44
759.056	23012.76
759.394	23079.65
759.731	22959.42
760.068	22869.03
760.405	22812.54
760.743	22740
761.08	22861.35
