Data from hue_250_FLMS001491_00005.txt Node
Date: Tue Feb 07 16:00:27 GMT 2017
User: dcchb
Spectrometer: FLMS00149
Trigger mode: 0
Integration Time (sec): 2.000000E-2
Scans to average: 10
Electric dark correction enabled: true
Nonlinearity correction enabled: false
Boxcar width: 0
XAxis mode: Wavelengths
Number of Pixels in Spectrum: 2048
>>>>>Begin Spectral Data<<<<<
341.393	-7.98
341.776	-7.98
342.16	-7.98
342.543	-61.09
342.927	-80.29
343.31	-64.25
343.693	-47.75
344.077	-66.74
344.46	-52.5
344.843	-45.27
345.226	-31.93
345.61	-32.61
345.993	-35.32
346.376	-7.3
346.759	6.71
347.142	15.97
347.525	40.15
347.908	58.23
348.291	65.69
348.674	87.38
349.057	109.53
349.44	126.48
349.823	151.34
350.206	140.49
350.588	176.42
350.971	181.17
351.354	188.4
351.737	240.38
352.119	240.38
352.502	279.92
352.884	257.32
353.267	266.59
353.65	278.57
354.032	271.33
354.414	286.7
354.797	302.75
355.179	285.35
355.562	306.81
355.944	311.56
356.326	302.52
356.709	304.33
357.091	310.43
357.473	344.78
357.855	342.97
358.238	328.96
358.62	343.42
359.002	341.62
359.384	329.19
359.766	324.21
360.148	314.5
360.53	329.64
360.912	311.79
361.294	323.54
361.676	308.4
362.057	330.99
362.439	328.73
362.821	333.93
363.203	312.24
363.584	309.3
363.966	315.4
364.348	313.14
364.729	319.24
365.111	322.63
365.493	308.17
365.874	321.28
366.256	300.49
366.637	296.19
367.019	303.42
367.4	300.71
367.781	285.57
368.163	303.65
368.544	314.72
368.925	306.59
369.306	284.22
369.688	302.07
370.069	312.01
370.45	306.81
370.831	325.8
371.212	300.03
371.593	287.38
371.974	307.94
372.355	302.52
372.736	309.75
373.117	302.07
373.498	317.89
373.879	322.86
374.26	300.03
374.641	299.81
375.021	307.72
375.402	306.81
375.783	309.07
376.163	304.1
376.544	312.24
376.925	314.27
377.305	305.91
377.686	329.19
378.066	305.23
378.447	318.79
378.827	328.73
379.208	316.76
379.588	319.47
379.968	323.76
380.349	323.54
380.729	308.17
381.109	310.43
381.489	317.89
381.87	305.23
382.25	307.04
382.63	301.39
383.01	348.62
383.39	351.11
383.77	330.54
384.15	344.33
384.53	327.83
384.91	321.05
385.29	323.08
385.67	329.19
386.049	334.84
386.429	340.49
386.809	359.69
387.189	338.68
387.568	343.42
387.948	347.94
388.328	340.49
388.707	354.95
389.087	340.49
389.466	344.33
389.846	334.38
390.225	343.88
390.605	348.85
390.984	340.71
391.363	376.19
391.743	371.9
392.122	364.21
392.501	365.57
392.881	374.16
393.26	355.85
393.639	382.52
394.018	376.64
394.397	363.31
394.776	362.41
395.155	349.3
395.534	357.89
395.913	382.74
396.292	369.41
396.671	374.38
397.05	371.9
397.429	377.32
397.808	380.03
398.186	373.7
398.565	372.35
398.944	377.55
399.323	387.94
399.701	404.44
400.08	398.79
400.458	410.99
400.837	400.82
401.215	407.38
401.594	413.48
401.972	409.41
402.351	407.15
402.729	416.19
403.107	422.97
403.486	431.1
403.864	419.13
404.242	433.59
404.62	435.17
404.999	422.52
405.377	410.54
405.755	433.82
406.133	424.33
406.511	420.48
406.889	440.37
407.267	457.32
407.645	442.86
408.023	451.22
408.401	432.23
408.779	463.42
409.156	460.71
409.534	475.17
409.912	487.6
410.29	475.62
410.667	493.48
411.045	486.02
411.422	501.39
411.8	506.36
412.178	499.8
412.555	518.33
412.933	530.76
413.31	547.71
413.687	528.96
414.065	568.28
414.442	542.06
414.819	569.18
415.197	552.23
415.574	567.82
415.951	550.42
416.328	595.85
416.705	592.46
417.082	605.56
417.46	584.55
417.837	585
418.214	613.7
418.591	621.61
418.967	609.18
419.344	618.22
419.721	625.68
420.098	638.56
420.475	640.82
420.852	657.09
421.228	660.93
421.605	655.96
421.982	659.8
422.358	672.23
422.735	674.26
423.111	707.03
423.488	724.43
423.864	709.29
424.241	700.48
424.617	727.59
424.994	756.07
425.37	743.64
425.746	750.42
426.123	754.71
426.499	787.93
426.875	793.81
427.251	800.36
427.627	809.63
428.003	814.6
428.379	825.44
428.756	825.44
429.132	824.77
429.507	854.6
429.883	856.86
430.259	886.46
430.635	881.04
431.011	875.84
431.387	916.97
431.763	936.4
432.138	919.23
432.514	951.32
432.89	936.63
433.265	953.12
433.641	971.66
434.016	1009.17
434.392	1000.81
434.767	1027.47
435.143	1030.64
435.518	1041.94
435.894	1055.95
436.269	1100.24
436.644	1098.66
437.02	1101.14
437.395	1142.5
437.77	1151.54
438.145	1170.07
438.52	1152.44
438.895	1173.68
439.271	1192.89
439.646	1211.2
440.021	1201.71
440.395	1235.83
440.77	1244.87
441.145	1249.16
441.52	1266.56
441.895	1264.3
442.27	1287.13
442.645	1316.05
443.019	1303.4
443.394	1341.82
443.769	1339.78
444.143	1336.62
444.518	1362.83
444.892	1374.36
445.267	1387.24
445.641	1391.53
446.016	1408.48
446.39	1426.33
446.764	1408.93
447.139	1421.13
447.513	1439.89
447.887	1445.99
448.262	1440.57
448.636	1458.2
449.01	1461.59
449.384	1513.34
449.758	1474.92
450.132	1510.62
450.506	1489.38
450.88	1513.11
451.254	1511.3
451.628	1558.08
452.002	1560.57
452.376	1567.8
452.75	1601.24
453.123	1612.99
453.497	1634.01
453.871	1645.54
454.244	1650.51
454.618	1680.34
454.992	1695.25
455.365	1706.78
455.739	1736.15
456.112	1760.11
456.486	1751.97
456.859	1767.57
457.232	1829.49
457.606	1820.22
457.979	1819.77
458.352	1865.19
458.725	1858.19
459.099	1923.95
459.472	1902.25
459.845	1950.84
460.218	1955.81
460.591	1951.29
460.964	1949.71
461.337	1994.23
461.71	2002.14
462.083	2035.36
462.456	2070.16
462.829	2074.45
463.201	2073.32
463.574	2105.18
463.947	2100.21
464.32	2157.16
464.692	2190.83
465.065	2204.62
465.438	2233.99
465.81	2287.55
466.183	2241.68
466.555	2300.66
466.928	2330.49
467.3	2336.14
467.672	2386.53
468.045	2414.56
468.417	2433.31
468.789	2406.65
469.161	2448.23
469.534	2499.52
469.906	2537.26
470.278	2576.58
470.65	2588.11
471.022	2612.97
471.394	2663.14
471.766	2655.23
472.138	2702.01
472.51	2760.53
472.882	2821.55
473.253	2828.1
473.625	2838.95
473.997	2899.97
474.369	2926.63
474.74	2936.8
475.112	2971.83
475.484	3028.78
475.855	3084.82
476.227	3095.67
476.598	3171.6
476.97	3192.61
477.341	3239.17
477.713	3297.47
478.084	3300.86
478.455	3398.94
478.827	3430.12
479.198	3527.97
479.569	3475.54
479.94	3562.32
480.311	3589.67
480.682	3607.07
481.053	3730.23
481.424	3784.46
481.795	3816.33
482.166	3869.21
482.537	3932.26
482.908	3978.58
483.279	4020.39
483.65	4059.71
484.021	4100.16
484.391	4156.43
484.762	4187.16
485.133	4208.63
485.503	4275.07
485.874	4307.61
486.244	4330.66
486.615	4475.29
486.985	4474.84
487.356	4548.96
487.726	4559.81
488.097	4595.97
488.467	4708.96
488.837	4715.96
489.207	4807.94
489.578	4831.67
489.948	4894.94
490.318	4871.67
490.688	4953.25
491.058	4978.1
491.428	5064.65
491.798	5130.87
492.168	5156.18
492.538	5239.34
492.908	5226.23
493.278	5328.83
493.648	5317.76
494.017	5396.4
494.387	5363.63
494.757	5445.89
495.126	5483.85
495.496	5493.8
495.866	5514.59
496.235	5553.46
496.605	5667.8
496.974	5633.68
497.344	5677.75
497.713	5687.01
498.082	5722.94
498.452	5834.58
498.821	5749.16
499.19	5809.72
499.559	5829.15
499.928	5882.94
500.298	5900.57
500.667	5976.27
501.036	5945.31
501.405	5980.56
501.774	5999.32
502.143	6014.23
502.512	6076.38
502.88	6049.04
503.249	6102.37
503.618	6136.49
503.987	6107.11
504.356	6177.17
504.724	6149.6
505.093	6190.5
505.462	6204.29
505.83	6203.61
506.199	6219.43
506.567	6297.39
506.936	6300.78
507.304	6341.23
507.672	6352.08
508.041	6391.4
508.409	6434.79
508.777	6496.93
509.145	6459.65
509.514	6490.83
509.882	6446.54
510.25	6489.25
510.618	6510.27
510.986	6512.98
511.354	6583.49
511.722	6576.71
512.09	6637.49
512.458	6548.46
512.826	6645.4
513.193	6642.47
513.561	6719.98
513.929	6739.64
514.297	6719.53
514.664	6790.49
515.032	6772.86
515.4	6806.08
515.767	6798.17
516.135	6777.6
516.502	6748.45
516.869	6826.87
517.237	6844.27
517.604	6846.53
517.972	6846.76
518.339	6935.79
518.706	6907.09
519.073	6916.13
519.44	6950.71
519.808	6976.7
520.175	6978.73
520.542	6985.51
520.909	7036.81
521.276	7031.83
521.643	7069.57
522.009	7035.22
522.376	7080.87
522.743	7086.52
523.11	7129.69
523.477	7164.03
523.843	7142.57
524.21	7162.68
524.577	7170.36
524.943	7249.46
525.31	7254.43
525.676	7282.22
526.043	7279.51
526.409	7307.76
526.776	7338.72
527.142	7320.41
527.508	7298.95
527.874	7406.51
528.241	7407.19
528.607	7403.35
528.973	7436.34
529.339	7457.81
529.705	7445.84
530.071	7506.17
530.437	7501.65
530.803	7494.42
531.169	7486.96
531.535	7506.85
531.901	7453.97
532.267	7461.2
532.632	7473.41
532.998	7426.63
533.364	7505.04
533.73	7459.62
534.095	7539.17
534.461	7499.62
534.826	7571.03
535.192	7433.41
535.557	7521.99
535.923	7513.18
536.288	7482.44
536.653	7557.92
537.019	7501.43
537.384	7451.71
537.749	7534.87
538.114	7502.11
538.479	7501.43
538.845	7502.11
539.21	7499.39
539.575	7518.83
539.94	7574.87
540.305	7565.61
540.67	7496
541.034	7460.98
541.399	7500.52
541.764	7496.68
542.129	7434.99
542.494	7491.03
542.858	7435.21
543.223	7471.6
543.587	7474.08
543.952	7445.84
544.316	7500.75
544.681	7445.16
545.045	7531.71
545.41	7490.58
545.774	7448.55
546.138	7428.89
546.503	7380.3
546.867	7409.45
547.231	7453.97
547.595	7440.64
547.959	7417.81
548.324	7357.48
548.688	7372.84
549.052	7398.83
549.416	7423.24
549.779	7361.54
550.143	7324.03
550.507	7373.52
550.871	7383.92
551.235	7317.93
551.599	7387.31
551.962	7461.43
552.326	7337.59
552.689	7425.95
553.053	7338.27
553.417	7323.58
553.78	7418.94
554.143	7346.18
554.507	7376.68
554.87	7426.63
555.234	7440.19
555.597	7353.41
555.96	7375.55
556.323	7394.99
556.686	7381.2
557.05	7399.73
557.413	7439.28
557.776	7440.41
558.139	7341.66
558.502	7482.9
558.865	7388.66
559.228	7426.63
559.59	7483.57
559.953	7450.13
560.316	7498.04
560.679	7537.36
561.041	7506.17
561.404	7531.26
561.767	7522.44
562.129	7518.83
562.492	7573.97
562.854	7543.01
563.217	7554.76
563.579	7630.46
563.941	7653.29
564.304	7641.54
564.666	7725.83
565.028	7632.27
565.39	7740.52
565.753	7707.52
566.115	7690.57
566.477	7740.29
566.839	7683.34
567.201	7786.62
567.563	7785.49
567.925	7822.32
568.287	7814.64
568.648	7824.58
569.01	7876.56
569.372	7913.85
569.734	7857.58
570.095	7890.57
570.457	7912.04
570.819	7952.71
571.18	7928.31
571.542	8019.83
571.903	7985.48
572.265	8045.59
572.626	7981.87
572.987	8059.83
573.349	8027.97
573.71	8072.03
574.071	8135.08
574.432	8141.18
574.794	8118.13
575.155	8167.85
575.516	8118.36
575.877	8223.44
576.238	8195.65
576.599	8216.66
576.96	8276.55
577.32	8245.59
577.681	8297.79
578.042	8333.5
578.403	8355.64
578.763	8326.04
579.124	8337.79
579.485	8300.73
579.845	8414.62
580.206	8373.95
580.566	8349.77
580.927	8378.92
581.287	8477.67
581.648	8385.7
582.008	8526.71
582.368	8435.41
582.728	8497.11
583.089	8473.83
583.449	8520.84
583.809	8507.05
584.169	8600.83
584.529	8506.37
584.889	8584.56
585.249	8587.27
585.609	8531.68
585.969	8629.98
586.329	8640.61
586.688	8637.89
587.048	8612.13
587.408	8656.88
587.768	8607.39
588.127	8660.27
588.487	8678.57
588.846	8700.94
589.206	8653.71
589.565	8683.54
589.925	8689.64
590.284	8781.62
590.643	8794.73
591.003	8789.08
591.362	8771.45
591.721	8763.31
592.08	8822.07
592.44	8797.66
592.799	8764.9
593.158	8822.52
593.517	8797.66
593.876	8809.19
594.235	8827.95
594.593	8875.85
594.952	8851.22
595.311	8861.84
595.67	8892.8
596.029	8974.16
596.387	8928.73
596.746	8857.32
597.104	8898.68
597.463	8910.2
597.822	8938.68
598.18	8930.54
598.538	8867.27
598.897	8930.54
599.255	8858
599.613	9027.94
599.972	8967.15
600.33	9058
600.688	8939.36
601.046	8929.19
601.404	8973.03
601.762	8954.5
602.12	9073.36
602.478	9027.71
602.836	9015.96
603.194	9004.66
603.552	8975.51
603.91	9005.57
604.268	9010.99
604.625	8986.36
604.983	9012.8
605.341	9015.96
605.698	9024.55
606.056	9131.89
606.413	9065.23
606.771	9077.88
607.128	9133.25
607.485	9055.51
607.843	9085.11
608.2	9153.59
608.557	9143.42
608.914	9170.08
609.272	9177.77
609.629	9087.15
609.986	9202.63
610.343	9212.57
610.7	9180.03
611.057	9215.28
611.414	9192.91
611.771	9226.58
612.127	9230.2
612.484	9189.52
612.841	9290.31
613.198	9259.57
613.554	9189.74
613.911	9268.39
614.267	9270.42
614.624	9287.14
614.98	9250.53
615.337	9329.4
615.693	9338.67
616.05	9261.38
616.406	9362.85
616.762	9324.66
617.118	9342.96
617.475	9381.38
617.831	9266.8
618.187	9341.38
618.543	9267.93
618.899	9387.48
619.255	9355.16
619.611	9300.25
619.967	9419.57
620.323	9334.37
620.678	9359.91
621.034	9385.22
621.39	9419.79
621.746	9328.95
622.101	9467.93
622.457	9327.14
622.812	9356.97
623.168	9396.29
623.523	9428.61
623.879	9423.18
624.234	9389.74
624.589	9364.88
624.945	9456.86
625.3	9431.77
625.655	9420.47
626.01	9391.77
626.365	9351.32
626.72	9434.94
627.075	9381.83
627.43	9260.7
627.785	9330.98
628.14	9376.63
628.495	9415.95
628.85	9301.15
629.205	9259.57
629.559	9383.19
629.914	9327.37
630.269	9284.43
630.623	9257.31
630.978	9223.19
631.332	9301.38
631.687	9325.33
632.041	9296.86
632.396	9312.45
632.75	9250.31
633.104	9215.73
633.459	9221.16
633.813	9179.12
634.167	9173.7
634.521	9211.21
634.875	9207.6
635.229	9149.07
635.583	9116.3
635.937	9179.8
636.291	9173.02
636.645	9123.98
636.999	9116.75
637.352	9182.06
637.706	9061.61
638.06	9167.82
638.413	9120.14
638.767	9023.87
639.121	9118.79
639.474	9023.87
639.828	9049.86
640.181	9035.17
640.534	9005.57
640.888	9018.45
641.241	8933.25
641.594	8988.62
641.947	8959.47
642.301	8992.46
642.654	8992.91
643.007	8993.14
643.36	9019.13
643.713	8969.19
644.066	8936.87
644.419	8893.93
644.771	8851.22
645.124	8788.17
645.477	8714.95
645.83	8768.29
646.182	8678.8
646.535	8629.31
646.888	8641.51
647.24	8595.64
647.593	8630.66
647.945	8625.47
648.298	8606.26
648.65	8582.75
649.002	8571.91
649.355	8644.67
649.707	8630.21
650.059	8682.86
650.411	8692.58
650.763	8703.88
651.115	8803.54
651.467	8843.99
651.819	8744.11
652.171	8827.04
652.523	8765.57
652.875	8765.12
653.227	8715.86
653.578	8814.16
653.93	8820.71
654.282	8729.19
654.633	8739.59
654.985	8670.21
655.337	8724.45
655.688	8761.28
656.039	8852.58
656.391	8688.29
656.742	8783.43
657.094	8727.61
657.445	8853.26
657.796	8761.28
658.147	8732.58
658.498	8742.98
658.849	8752.47
659.2	8747.04
659.551	8682.86
659.902	8743.88
660.253	8816.42
660.604	8746.82
660.955	8748.4
661.306	8760.83
661.656	8720.83
662.007	8712.92
662.358	8695.97
662.708	8773.71
663.059	8769.42
663.409	8681.06
663.76	8731.9
664.11	8728.51
664.461	8731.23
664.811	8771.22
665.161	8710.43
665.511	8678.35
665.862	8770.55
666.212	8756.54
666.562	8698.01
666.912	8766.03
667.262	8780.49
667.612	8750.66
667.962	8752.69
668.312	8776.2
668.662	8787.72
669.011	8765.12
669.361	8710.66
669.711	8659.14
670.06	8723.32
670.41	8606.48
670.76	8690.1
671.109	8688.74
671.459	8693.49
671.808	8648.29
672.157	8704.11
672.507	8636.76
672.856	8621.4
673.205	8607.84
673.554	8671.34
673.904	8612.81
674.253	8686.71
674.602	8662.07
674.951	8475.86
675.3	8451.23
675.649	8615.75
675.998	8578.23
676.346	8589.76
676.695	8575.07
677.044	8587.05
677.393	8583.66
677.741	8599.48
678.09	8609.42
678.438	8537.11
678.787	8561.51
679.135	8525.81
679.484	8452.14
679.832	8560.83
680.181	8397
680.529	8455.3
680.877	8465.02
681.225	8455.3
681.573	8480.38
681.922	8390.22
682.27	8441.29
682.618	8414.4
682.966	8448.29
683.314	8364
683.661	8375.75
684.009	8308.41
684.357	8347.51
684.705	8304.34
685.053	8274.51
685.4	8289.65
685.748	8274.97
686.095	8239.49
686.443	8202.88
686.79	8182.54
687.138	8195.65
687.485	8169.66
687.832	8179.83
688.18	8188.41
688.527	8028.87
688.874	8093.95
689.221	7993.84
689.568	8009.21
689.915	8007.18
690.262	8001.75
690.609	7956.33
690.956	8014.86
691.303	7904.81
691.65	7903
691.997	7863.23
692.344	7796.56
692.69	7820.06
693.037	7834.53
693.383	7775.32
693.73	7825.71
694.077	7762.66
694.423	7770.57
694.769	7720.18
695.116	7643.57
695.462	7698.94
695.808	7629.79
696.155	7680.18
696.501	7513.18
696.847	7581.65
697.193	7511.6
697.539	7581.88
697.885	7476.79
698.231	7411.49
698.577	7416.91
698.923	7428.89
699.269	7348.21
699.614	7395.89
699.96	7337.14
700.306	7334.43
700.651	7297.36
700.997	7287.65
701.342	7268.89
701.688	7230.25
702.033	7211.94
702.379	7169.01
702.724	7107.99
703.069	7170.81
703.415	7071.16
703.76	7077.48
704.105	7151.61
704.45	7010.82
704.795	7034.09
705.14	6955
705.485	6983.93
705.83	6922.23
706.175	6917.94
706.52	6882.23
706.865	6890.37
707.209	6887.88
707.554	6878.17
707.899	6857.6
708.243	6850.6
708.588	6814.67
708.932	6806.76
709.277	6759.07
709.621	6685.86
709.966	6705.97
710.31	6741
710.654	6672.52
710.998	6671.84
711.342	6678.62
711.687	6670.04
712.031	6656.93
712.375	6585.74
712.719	6621.45
713.063	6599.08
713.407	6639.75
713.75	6616.48
714.094	6602.47
714.438	6589.13
714.782	6582.81
715.125	6490.38
715.469	6534.45
715.812	6489.25
716.156	6489.7
716.499	6473.43
716.843	6480.21
717.186	6424.39
717.53	6502.58
717.873	6453.32
718.216	6405.64
718.559	6408.35
718.902	6384.17
719.246	6425.98
719.589	6355.24
719.932	6343.72
720.275	6360.44
720.617	6387.78
720.96	6341.91
721.303	6316.37
721.646	6317.96
721.989	6293.78
722.331	6367.22
722.674	6321.35
723.016	6275.24
723.359	6275.24
723.701	6290.39
724.044	6270.27
724.386	6192.53
724.729	6307.11
725.071	6252.42
725.413	6279.54
725.755	6278.18
726.097	6255.58
726.439	6188.92
726.782	6243.61
727.124	6247
727.465	6217.17
727.807	6180.78
728.149	6209.71
728.491	6179.88
728.833	6162.03
729.175	6156.15
729.516	6211.74
729.858	6198.18
730.199	6219.88
730.541	6197.51
730.882	6145.76
731.224	6127.68
731.565	6169.03
731.906	6141.46
732.248	6213.33
732.589	6142.59
732.93	6119.99
733.271	6120.67
733.612	6117.96
733.953	6129.49
734.294	6144.4
734.635	6101.69
734.976	6136.72
735.317	6115.7
735.658	6134.01
735.999	6098.75
736.339	6097.85
736.68	6138.53
737.021	6158.86
737.361	6127.9
737.702	6174.91
738.042	6159.32
738.383	6150.05
738.723	6161.35
739.063	6125.64
739.404	6172.87
739.744	6144.4
740.084	6135.81
740.424	6167
740.764	6126.55
741.104	6186.89
741.444	6151.86
741.784	6155.7
742.124	6188.47
742.464	6171.29
742.804	6145.3
743.143	6162.48
743.483	6225.08
743.823	6178.3
744.162	6184.85
744.502	6272.08
744.841	6270.95
745.181	6274.57
745.52	6276.6
745.86	6286.09
746.199	6357.5
746.538	6400.21
746.877	6399.31
747.216	6485.63
747.556	6469.36
747.895	6496.26
748.234	6467.1
748.573	6505.3
748.911	6584.16
749.25	6620.77
749.589	6628
749.928	6671.17
750.267	6718.17
750.605	6735.57
750.944	6845.63
751.283	6846.53
751.621	6952.97
751.96	6946.87
752.298	6998.84
752.636	7074.55
752.975	7026.86
753.313	7195.22
753.651	7281.09
753.989	7312.28
754.327	7353.41
754.666	7450.58
755.004	7591.82
755.342	7646.73
755.679	7684.93
756.017	7736.68
756.355	7821.19
756.693	7951.58
757.031	8056.21
757.368	8139.38
757.706	8203.56
758.044	8252.59
758.381	8424.34
758.719	8517.45
759.056	8665.69
759.394	8703.2
759.731	8810.32
760.068	8892.58
760.405	8989.3
760.743	9012.12
761.08	9204.89
761.417	9306.8
761.754	9446.69
762.091	9540.7
762.428	9545.44
762.765	9651.43
763.102	9789.95
763.438	9859.11
763.775	10007.58
764.112	10096.16
764.449	10189.27
764.785	10276.04
765.122	10316.04
765.458	10476.04
765.795	10532.53
766.131	10639.2
766.467	10728.46
766.804	10801.68
767.14	10888
767.476	10970.26
767.812	10982.47
768.148	11057.27
768.485	11187.66
768.821	11264.72
769.157	11344.26
