Data from hue_350_FLMS001491_26.txt Node
Date: Mon Feb 06 15:37:48 GMT 2017
User: dcchb
Spectrometer: FLMS00149
Trigger mode: 0
Integration Time (sec): 2.000000E-2
Scans to average: 10
Electric dark correction enabled: true
Nonlinearity correction enabled: false
Boxcar width: 0
XAxis mode: Wavelengths
Number of Pixels in Spectrum: 2048
>>>>>Begin Spectral Data<<<<<
341.393	-14.59
341.776	-14.59
342.16	-14.59
342.543	-61.59
342.927	-72.22
343.31	-73.57
343.693	-92.78
344.077	-61.14
344.46	-63.4
344.843	-61.37
345.226	-44.65
345.61	-33.8
345.993	-21.82
346.376	10.49
346.759	29.48
347.142	33.32
347.525	33.09
347.908	59.53
348.291	55.46
348.674	101.79
349.057	129.36
349.44	156.25
349.823	153.54
350.206	179.08
350.588	194.22
350.971	219.53
351.354	238.74
351.737	220.21
352.119	254.33
352.502	252.3
352.884	270.83
353.267	287.55
353.65	294.33
354.032	284.84
354.414	292.07
354.797	307.21
355.179	309.47
355.562	317.6
355.944	324.84
356.326	335.46
356.709	328.9
357.091	338.4
357.473	329.58
357.855	354.67
358.238	333.2
358.62	329.36
359.002	326.19
359.384	329.36
359.766	339.75
360.148	341.78
360.53	334.78
360.912	327.55
361.294	314.44
361.676	350.82
362.057	337.04
362.439	328.9
362.821	318.96
363.203	334.1
363.584	316.47
363.966	317.83
364.348	318.96
364.729	312.86
365.111	320.32
365.493	316.7
365.874	318.96
366.256	317.6
366.637	305.63
367.019	309.24
367.4	322.12
367.781	319.19
368.163	311.73
368.544	302.01
368.925	307.21
369.306	336.59
369.688	302.01
370.069	304.27
370.45	309.02
370.831	305.4
371.212	316.47
371.593	293.42
371.974	297.94
372.355	303.82
372.736	318.73
373.117	320.32
373.498	307.44
373.879	314.44
374.26	323.25
374.641	312.18
375.021	304.27
375.402	330.49
375.783	312.18
376.163	316.25
376.544	306.08
376.925	316.93
377.305	322.35
377.686	318.51
378.066	310.83
378.447	338.17
378.827	318.96
379.208	309.7
379.588	309.02
379.968	320.09
380.349	321.45
380.729	319.86
381.109	326.19
381.489	320.54
381.87	333.88
382.25	337.72
382.63	340.43
383.01	341.33
383.39	335.01
383.77	334.33
384.15	319.86
384.53	353.99
384.91	338.85
385.29	329.13
385.67	349.02
386.049	359.86
386.429	362.12
386.809	349.24
387.189	362.35
387.568	342.69
387.948	349.92
388.328	360.77
388.707	342.01
389.087	339.75
389.466	366.19
389.846	347.89
390.225	345.17
390.605	342.24
390.984	348.34
391.363	351.28
391.743	349.24
392.122	372.97
392.501	342.24
392.881	378.62
393.26	356.93
393.639	369.81
394.018	360.54
394.397	382.46
394.776	364.61
395.155	368.9
395.534	356.25
395.913	360.54
396.292	382.91
396.671	380.2
397.05	358.51
397.429	371.61
397.808	404.83
398.186	395.79
398.565	390.82
398.944	384.04
399.323	395.34
399.701	372.52
400.08	383.37
400.458	391.05
400.837	388.11
401.215	409.81
401.594	390.15
401.972	371.39
402.351	388.11
402.729	390.6
403.107	424.04
403.486	414.55
403.864	402.57
404.242	421.56
404.62	415.23
404.999	390.37
405.377	400.09
405.755	401.22
406.133	410.48
406.511	391.5
406.889	415.46
407.267	447.77
407.645	423.36
408.023	419.52
408.401	454.78
408.779	443.03
409.156	415
409.534	443.93
409.912	447.77
410.29	440.09
410.667	440.99
411.045	440.99
411.422	440.31
411.8	449.8
412.178	443.93
412.555	454.32
412.933	464.72
413.31	460.43
413.687	471.95
414.065	474.44
414.442	490.03
414.819	482.57
415.197	487.32
415.574	476.47
415.951	490.93
416.328	494.78
416.705	497.26
417.082	489.58
417.46	491.16
417.837	528.67
418.214	525.28
418.591	515.79
418.967	515.79
419.344	494.78
419.721	529.8
420.098	529.8
420.475	530.25
420.852	525.96
421.228	548.11
421.605	524.38
421.982	539.97
422.358	528.45
422.735	529.8
423.111	536.13
423.488	562.8
423.864	555.79
424.241	548.33
424.617	554.21
424.994	555.79
425.37	561.21
425.746	559.41
426.123	575.45
426.499	575.22
426.875	592.17
427.251	597.6
427.627	582.68
428.003	598.73
428.379	622.68
428.756	609.35
429.132	606.18
429.507	606.18
429.883	615.9
430.259	617.71
430.635	652.29
431.011	655.22
431.387	645.96
431.763	663.81
432.138	659.06
432.514	639.4
432.89	643.92
433.265	671.04
433.641	670.82
434.016	668.1
434.392	694.32
434.767	712.17
435.143	691.61
435.518	715.79
435.894	724.6
436.269	706.97
436.644	716.46
437.02	692.74
437.395	733.64
437.77	734.99
438.145	727.31
438.52	742.23
438.895	760.53
439.271	730.7
439.646	730.48
440.021	759.4
440.395	755.79
440.77	774.77
441.145	783.58
441.52	786.07
441.895	792.85
442.27	798.72
442.645	791.04
443.019	801.43
443.394	784.03
443.769	795.11
444.143	801.43
444.518	794.88
444.892	804.6
445.267	833.07
445.641	800.76
446.016	842.79
446.39	839.85
446.764	832.39
447.139	826.74
447.513	818.16
447.887	831.04
448.262	869.23
448.636	857.93
449.01	875.78
449.384	854.31
449.758	841.88
450.132	848.21
450.506	890.47
450.88	877.59
451.254	885.73
451.628	891.37
452.002	901.54
452.376	901.09
452.75	895.22
453.123	898.83
453.497	911.49
453.871	925.05
454.244	939.28
454.618	939.96
454.992	954.42
455.365	934.76
455.739	945.84
456.112	975.21
456.486	970.69
456.859	991.03
457.232	979.28
457.606	995.1
457.979	1024.7
458.352	1014.08
458.725	1031.71
459.099	1034.42
459.472	1062.44
459.845	1073.74
460.218	1077.36
460.591	1072.84
460.964	1078.49
461.337	1120.75
461.71	1118.49
462.083	1127.98
462.456	1128.2
462.829	1123.91
463.201	1142.89
463.574	1148.77
463.947	1165.04
464.32	1177.7
464.692	1188.32
465.065	1197.13
465.438	1212.04
465.81	1251.82
466.183	1249.33
466.555	1242.33
466.928	1258.14
467.3	1277.35
467.672	1288.43
468.045	1307.41
468.417	1311.93
468.789	1358.03
469.161	1333.85
469.534	1359.39
469.906	1377.01
470.278	1386.28
470.65	1417.01
471.022	1428.08
471.394	1475.99
471.766	1465.82
472.138	1468.31
472.51	1509.89
472.882	1507.86
473.253	1542.88
473.625	1576.78
473.997	1615.42
474.369	1617.68
474.74	1617.01
475.112	1655.42
475.484	1681.64
475.855	1694.29
476.227	1747.62
476.598	1741.97
476.97	1775.65
477.341	1812.48
477.713	1852.03
478.084	1847.06
478.455	1895.87
478.827	1931.35
479.198	1963.66
479.569	1990.1
479.94	2040.95
480.311	2011.57
480.682	2101.06
481.053	2110.1
481.424	2157.56
481.795	2166.14
482.166	2216.31
482.537	2264.9
482.908	2292.69
483.279	2289.3
483.65	2364.33
484.021	2403.88
484.391	2425.12
484.762	2470.99
485.133	2463.54
485.503	2526.59
485.874	2574.95
486.244	2590.99
486.615	2645
486.985	2661.72
487.356	2740.14
487.726	2770.65
488.097	2787.37
488.467	2837.31
488.837	2841.61
489.207	2903.75
489.578	2948.04
489.948	2967.93
490.318	3022.17
490.688	3031.43
491.058	3064.2
491.428	3139
491.798	3148.26
492.168	3188.49
492.538	3234.82
492.908	3269.39
493.278	3313.68
493.648	3314.81
494.017	3381.93
494.387	3403.17
494.757	3465.09
495.126	3487.69
495.496	3505.77
495.866	3527.92
496.235	3577.18
496.605	3574.92
496.974	3598.42
497.344	3632.09
497.713	3671.64
498.082	3653.79
498.452	3714.13
498.821	3714.35
499.19	3762.03
499.559	3799.77
499.928	3815.59
500.298	3799.1
500.667	3822.15
501.036	3834.8
501.405	3896.27
501.774	3904.85
502.143	3905.31
502.512	3909.37
502.88	3967.9
503.249	3981.24
503.618	4032.76
503.987	4036.38
504.356	4061.69
504.724	4073.89
505.093	4080.22
505.462	4113.89
505.83	4126.77
506.199	4150.5
506.567	4228.69
506.936	4134.23
507.304	4230.95
507.672	4263.49
508.041	4237.05
508.409	4304.39
508.777	4334
509.145	4340.32
509.514	4385.75
509.882	4377.61
510.25	4333.77
510.618	4360.89
510.986	4447.44
511.354	4453.99
511.722	4441.79
512.09	4490.83
512.458	4509.58
512.826	4519.98
513.193	4539.41
513.561	4537.83
513.929	4595.01
514.297	4588
514.664	4630.71
515.032	4646.3
515.4	4684.95
515.767	4648.34
516.135	4696.02
516.502	4660.32
516.869	4711.16
517.237	4732.63
517.604	4735.57
517.972	4744.38
518.339	4762.01
518.706	4798.39
519.073	4812.18
519.44	4809.24
519.808	4871.16
520.175	4842.68
520.542	4939.86
520.909	4930.36
521.276	4966.3
521.643	4979.85
522.009	5001.78
522.376	4947.31
522.743	5021.89
523.11	5092.39
523.477	5145.73
523.843	5108.44
524.21	5185.73
524.577	5155.22
524.943	5201.54
525.31	5202
525.676	5270.92
526.043	5271.37
526.409	5301.88
526.776	5361.99
527.142	5383.69
527.508	5367.64
527.874	5373.29
528.241	5450.35
528.607	5409.9
528.973	5465.04
529.339	5495.1
529.705	5561.53
530.071	5582.55
530.437	5592.04
530.803	5665.71
531.169	5662.32
531.535	5651.25
531.901	5676.33
532.267	5722.43
532.632	5717.24
532.998	5727.63
533.364	5744.35
533.73	5786.39
534.095	5875.2
534.461	5864.13
534.826	5928.08
535.192	5863
535.557	5919.04
535.923	6056.66
536.288	5981.41
536.653	6026.61
537.019	6011.01
537.384	6072.03
537.749	6045.59
538.114	6132.14
538.479	6068.64
538.845	6109.77
539.21	6113.38
539.575	6133.95
539.94	6161.74
540.305	6274.96
540.67	6229.31
541.034	6255.75
541.399	6295.53
541.764	6324.23
542.129	6383.66
542.494	6364.45
542.858	6424.34
543.223	6452.58
543.587	6492.13
543.952	6490.78
544.316	6504.11
544.681	6482.41
545.045	6514.05
545.41	6610.55
545.774	6572.81
546.138	6593.6
546.503	6643.99
546.867	6683.09
547.231	6747.94
547.595	6736.64
547.959	6742.29
548.324	6758.34
548.688	6731.45
549.052	6748.62
549.416	6832.46
549.779	6887.83
550.143	6808.28
550.507	6934.15
550.871	6935.51
551.235	6952.68
551.599	6996.98
551.962	6933.48
552.326	6966.02
552.689	7062.51
553.053	7027.71
553.417	7054.83
553.78	7217.31
554.143	7146.8
554.507	7134.15
554.87	7204.2
555.234	7241.49
555.597	7190.19
555.96	7242.62
556.323	7276.07
556.686	7208.95
557.05	7313.13
557.413	7315.39
557.776	7316.29
558.139	7383.18
558.502	7441.94
558.865	7482.39
559.228	7472.44
559.59	7455.5
559.953	7460.24
560.316	7557.87
560.679	7548.6
561.041	7678.99
561.404	7603.97
561.767	7669.95
562.129	7660.01
562.492	7746.79
562.854	7692.78
563.217	7687.58
563.579	7790.85
563.941	7769.61
564.304	7824.07
564.666	7864.75
565.028	7854.13
565.39	7885.32
565.753	7968.7
566.115	7995.59
566.477	7973
566.839	8018.42
567.201	8065.88
567.563	8058.42
567.925	8047.12
568.287	8149.26
568.648	8161.47
569.01	8167.79
569.372	8274.01
569.734	8171.64
570.095	8288.92
570.457	8335.47
570.819	8375.02
571.18	8357.17
571.542	8430.61
571.903	8491.85
572.265	8454.34
572.626	8567.11
572.987	8619.76
573.349	8656.59
573.71	8653.2
574.071	8681.68
574.432	8749.47
574.794	8901.79
575.155	8904.27
575.516	8829.92
575.877	9000.99
576.238	9053.42
576.599	9131.38
576.96	9135.9
577.32	9213.64
577.681	9260.87
578.042	9384.94
578.403	9483.92
578.763	9509.68
579.124	9607.76
579.485	9707.87
579.845	9836.22
580.206	9929.1
580.566	10030.8
580.927	10085.94
581.287	10273.73
581.648	10338.81
582.008	10582.65
582.368	10635.3
582.728	10773.83
583.089	10816.99
583.449	11032.8
583.809	11179.47
584.169	11347.82
584.529	11456.29
584.889	11787.81
585.249	11845.21
585.609	11945.55
585.969	12213.34
586.329	12381.47
586.688	12537.62
587.048	12719.09
587.408	12909.14
587.768	13114.33
588.127	13320.2
588.487	13529.69
588.846	13949.11
589.206	13938.72
589.565	14223
589.925	14534.63
590.284	14695.53
590.643	14982.3
591.003	15333.48
591.362	15524.21
591.721	15745.22
592.08	16044.87
592.44	16340.23
592.799	16585.65
593.158	16808.7
593.517	17208.23
593.876	17408
594.235	17677.83
594.593	17835.34
594.952	18269.22
595.311	18362.1
595.67	18814.75
596.029	19180.84
596.387	19405.92
596.746	19767.49
597.104	19900.14
597.463	20200.02
597.822	20621.93
598.18	20730.4
598.538	21047
598.897	21442.25
599.255	21443.15
599.613	22101.89
599.972	22263.24
600.33	22525.16
600.688	22775.55
601.046	23065.03
601.404	23303.89
601.762	23530.33
602.12	23827.95
602.478	24106.58
602.836	24416.63
603.194	24533.01
603.552	24876.96
603.91	25017.52
604.268	25433.55
604.625	25591.97
604.983	25864.73
605.341	25963.94
605.698	26386.3
606.056	26678.49
606.413	26943.35
606.771	27243
607.128	27401.19
607.485	27695.42
607.843	27725.92
608.2	28217.44
608.557	28306.25
608.914	28444.77
609.272	28795.95
609.629	29040.47
609.986	29206.79
610.343	29345.09
610.7	29691.3
611.057	29899.2
611.414	30185.07
611.771	30303.03
612.127	30472.97
612.484	30687.88
612.841	30996.35
613.198	30972.84
613.554	31117.47
613.911	31499.38
614.267	31685.37
614.624	31781.86
614.98	31985.47
615.337	32252.58
615.693	32300.27
616.05	32473.6
616.406	32919.46
616.762	32749.07
617.118	32949.51
617.475	33122.84
617.831	33219.34
618.187	33477.41
618.543	33470.63
618.899	33854.35
619.255	33862.71
619.611	33998.75
619.967	34232.42
620.323	34381.57
620.678	34292.76
621.034	34369.14
621.39	34506.76
621.746	34609.13
622.101	35118.27
622.457	34814.32
622.812	35135.45
623.168	35076.46
623.523	35279.4
623.879	35532.95
624.234	35324.37
624.589	35534.76
624.945	35529.79
625.3	35709.22
625.655	35786.28
626.01	35808.65
626.365	35945.82
626.72	35954.18
627.075	36085.48
627.43	36020.39
627.785	36081.86
628.14	36241.18
628.495	36252.7
628.85	36327.28
629.205	36153.05
629.559	36456.77
629.914	36299.26
630.269	36304.23
630.623	36212.93
630.978	36338.58
631.332	36667.84
631.687	36643.2
632.041	36516.2
632.396	36673.71
632.75	36597.33
633.104	36640.94
633.459	36524.79
633.813	36526.37
634.167	36720.49
634.521	36659.02
634.875	36795.52
635.229	36698.57
635.583	36547.39
635.937	36663.09
636.291	36780.37
636.645	36713.48
636.999	36761.39
637.352	36930.2
637.706	36654.73
638.06	36752.13
638.413	36713.71
638.767	36668.74
639.121	36736.76
639.474	36619.47
639.828	36760.49
640.181	36805.23
640.534	36757.1
640.888	36666.93
641.241	36592.13
641.594	36570.21
641.947	36746.48
642.301	36651.56
642.654	36643.66
643.007	36593.49
643.36	36600.94
643.713	36537.67
644.066	36750.09
644.419	36480.95
644.771	36268.98
645.124	35961.64
645.477	35977.68
645.83	35678.26
646.182	35487.75
646.535	35523.91
646.888	35639.16
647.24	35304.03
647.593	35793.28
647.945	35511.03
648.298	35428.77
648.65	35179.96
649.002	35176.12
649.355	35261.09
649.707	35340.41
650.059	35509.22
650.411	35920.96
650.763	36019.94
651.115	36294.51
651.467	36270.33
651.819	36098.58
652.171	36135.19
652.523	36060.62
652.875	36019.04
653.227	35930.45
653.578	36303.1
653.93	36170.45
654.282	36043.22
654.633	35832.38
654.985	35938.14
655.337	36055.87
655.688	36000.96
656.039	36148.07
656.391	35759.38
656.742	35957.35
657.094	36025.14
657.445	36031.47
657.796	35949.66
658.147	35848.87
658.498	35822.43
658.849	36000.96
659.2	35894.52
659.551	35746.28
659.902	35899.27
660.253	35887.74
660.604	35970.9
660.955	35917.12
661.306	35997.34
661.656	35832.6
662.007	35765.49
662.358	35833.73
662.708	35823.56
663.059	35794.19
663.409	35688.88
663.76	35745.15
664.11	35746.28
664.461	35884.35
664.811	35696.56
665.161	35805.03
665.511	35703.79
665.862	35691.14
666.212	35799.84
666.562	35982.88
666.912	35825.37
667.262	35658.37
667.612	35773.4
667.962	35847.07
668.312	35705.15
668.662	35833.28
669.011	35738.82
669.361	35714.64
669.711	35626.28
670.06	35630.12
670.41	35619.73
670.76	35530.01
671.109	35587.41
671.459	35600.07
671.808	35557.36
672.157	35678.26
672.507	35480.3
672.856	35388.77
673.205	35573.4
673.554	35614.76
673.904	35465.38
674.253	35632.16
674.602	35702.44
674.951	34926.86
675.3	34803.7
675.649	35443.01
675.998	35294.09
676.346	35360.53
676.695	35533.18
677.044	35266.74
677.393	35266.74
677.741	35352.84
678.09	35174.09
678.438	35185.39
678.787	35232.17
679.135	35219.51
679.484	34985.39
679.832	35082.34
680.181	35014.55
680.529	35121.66
680.877	35002.79
681.225	34857.94
681.573	35252.51
681.922	34869.92
682.27	34857.26
682.618	34887.32
682.966	34725.74
683.314	34829.69
683.661	34714.21
684.009	34448.68
684.357	34520.77
684.705	34393.32
685.053	34455.69
685.4	34371.85
685.748	34298.63
686.095	34383.6
686.443	34180.67
686.79	34045.31
687.138	34243.27
687.485	34061.12
687.832	33863.16
688.18	34083.72
688.527	33896.38
688.874	33789.49
689.221	33708.14
689.568	33642.83
689.915	33705.43
690.262	33491.87
690.609	33425.43
690.956	33444.87
691.303	33356.28
691.65	33307.02
691.997	33202.39
692.344	33008.27
692.69	32955.16
693.037	33044.65
693.383	32812.8
693.73	32834.49
694.077	32599.24
694.423	32811.44
694.769	32589.07
695.116	32521.73
695.462	32465.01
695.808	32328.51
696.155	32380.72
696.501	32200.61
696.847	32138.69
697.193	31897.79
697.539	32041.52
697.885	31893.5
698.231	31722.88
698.577	31739.83
698.923	31723.33
699.269	31639.27
699.614	31467.75
699.96	31379.39
700.306	31415.32
700.651	31249.22
700.997	31039.28
701.342	31073.41
701.688	30997.25
702.033	30894.43
702.379	30983.92
702.724	30848.55
703.069	30920.42
703.415	30465.29
703.76	30541.89
704.105	30547.77
704.45	30552.74
704.795	30276.82
705.14	30309.13
705.485	30261.45
705.83	30193.43
706.175	30248.34
706.52	30152.07
706.865	29956.6
707.209	29837.28
707.554	29746.44
707.899	29905.3
708.243	29702.82
708.588	29590.73
708.932	29434.35
709.277	29396.84
709.621	29413.11
709.966	29256.5
710.31	29365.88
710.654	29038.88
710.998	29226
711.342	29090.86
711.687	29120.24
712.031	28931.77
712.375	28838.21
712.719	28823.52
713.063	28880.24
713.407	28872.56
713.75	28769.51
714.094	28721.83
714.438	28527.03
714.782	28705.78
715.125	28434.15
715.469	28539.01
715.812	28332.91
716.156	28209.53
716.499	28279.36
716.843	28244.1
717.186	28067.38
717.53	28203.2
717.873	28110.55
718.216	28161.39
718.559	27945.13
718.902	27684.34
719.246	27856.32
719.589	27658.81
719.932	27677.34
720.275	27520.28
720.617	27676.43
720.96	27641.18
721.303	27699.71
721.646	27546.95
721.989	27450.68
722.331	27472.14
722.674	27409.1
723.016	27420.39
723.359	27297.69
723.701	27425.59
724.044	27182.66
724.386	27076.45
724.729	27059.73
725.071	27070.57
725.413	27098.14
725.755	26962.78
726.097	26887.3
726.439	26791.48
726.782	26854.76
727.124	26930.92
727.465	26835.55
727.807	26812.95
728.149	26667.65
728.491	26641.88
728.833	26698.83
729.175	26547.65
729.516	26553.52
729.858	26548.1
730.199	26530.25
730.541	26420.87
730.882	26441.66
731.224	26492.06
731.565	26255
731.906	26225.85
732.248	26261.1
732.589	26245.06
732.93	26038.96
733.271	26145.85
733.612	26191.05
733.953	26131.84
734.294	26016.36
734.635	25848.46
734.976	25872.86
735.317	25802.81
735.658	25920.77
735.999	25789.25
736.339	25744.05
736.68	25925.74
737.021	25752.64
737.361	25612.08
737.702	25776.14
738.042	25688.46
738.383	25749.03
738.723	25711.51
739.063	25468.58
739.404	25574.57
739.744	25401.24
740.084	25384.52
740.424	25430.84
740.764	25342.03
741.104	25372.99
741.444	25233.79
741.784	25212.09
742.124	25141.81
742.464	25128.7
742.804	25176.84
743.143	25152.66
743.483	25168.93
743.823	25038.31
744.162	25037.86
744.502	24929.39
744.841	24909.5
745.181	25025.2
745.52	24937.97
745.86	24952.44
746.199	24787.02
746.538	24704.53
746.877	24833.57
747.216	24849.61
747.556	24696.17
747.895	24612.11
748.234	24505.9
748.573	24406.69
748.911	24451.21
749.25	24508.38
749.589	24414.37
749.928	24351.1
750.267	24485.1
750.605	24339.12
750.944	24352.23
751.283	24317.65
751.621	24286.69
751.96	24180.48
752.298	24110.88
752.636	24176.86
752.975	23895.29
753.313	23912.46
753.651	24079.24
753.989	23820.04
754.327	23845.12
754.666	23735.97
755.004	23782.07
755.342	23775.97
755.679	23785.69
756.017	23565.13
756.355	23710.89
756.693	23597.67
757.031	23608.29
757.368	23366.72
757.706	23446.26
758.044	23281.75
758.381	23422.31
758.719	23221.64
759.056	23154.52
759.394	23168.08
759.731	23078.81
760.068	22940.29
760.405	22863.45
760.743	22746.85
