Data from hue_30_FLMS001491_79.txt Node
Date: Mon Feb 06 15:05:56 GMT 2017
User: dcchb
Spectrometer: FLMS00149
Trigger mode: 0
Integration Time (sec): 2.000000E-2
Scans to average: 10
Electric dark correction enabled: true
Nonlinearity correction enabled: false
Boxcar width: 0
XAxis mode: Wavelengths
Number of Pixels in Spectrum: 2048
>>>>>Begin Spectral Data<<<<<
341.393	-22.29
341.776	-22.29
342.16	-22.29
342.543	-50.76
342.927	-50.76
343.31	-58.44
343.693	-60.25
344.077	-68.39
344.46	-61.83
344.843	-48.5
345.226	-38.56
345.61	-25.68
345.993	-15.96
346.376	-8.5
346.759	9.12
347.142	7.32
347.525	36.69
347.908	49.57
348.291	81.66
348.674	85.51
349.057	116.24
349.44	107.43
349.823	142.23
350.206	162.57
350.588	207.31
350.971	211.83
351.354	230.36
351.737	228.55
352.119	257.93
352.502	267.42
352.884	274.88
353.267	292.28
353.65	301.77
354.032	294.99
354.414	321.21
354.797	316.46
355.179	304.94
355.562	328.66
355.944	348.78
356.326	329.12
356.709	326.86
357.091	328.44
357.473	357.14
357.855	327.99
358.238	357.59
358.62	335.44
359.002	327.08
359.384	335.67
359.766	323.47
360.148	342.45
360.53	337.93
360.912	342
361.294	355.33
361.676	331.6
362.057	350.58
362.439	321.43
362.821	327.53
363.203	322.34
363.584	332.51
363.966	342.22
364.348	324.14
364.729	342.22
365.111	320.3
365.493	336.57
365.874	305.84
366.256	331.83
366.637	322.79
367.019	304.94
367.4	322.56
367.781	316.91
368.163	319.62
368.544	315.78
368.925	297.25
369.306	319.85
369.688	314.65
370.069	329.34
370.45	307.65
370.831	303.58
371.212	300.42
371.593	306.07
371.974	324.14
372.355	301.55
372.736	317.59
373.117	311.49
373.498	324.14
373.879	312.84
374.26	305.16
374.641	324.6
375.021	317.36
375.402	319.4
375.783	328.66
376.163	342.9
376.544	336.8
376.925	332.05
377.305	343.13
377.686	314.2
378.066	323.24
378.447	327.99
378.827	329.34
379.208	333.64
379.588	322.56
379.968	343.13
380.349	353.52
380.729	343.58
381.109	330.47
381.489	337.48
381.87	356.01
382.25	345.84
382.63	335.22
383.01	338.38
383.39	361.88
383.77	341.77
384.15	338.38
384.53	337.7
384.91	362.11
385.29	366.18
385.67	358.49
386.049	346.52
386.429	365.27
386.809	364.37
387.189	349.91
387.568	359.17
387.948	348.78
388.328	353.52
388.707	389.91
389.087	377.02
389.466	368.66
389.846	360.75
390.225	365.72
390.605	349.23
390.984	365.95
391.363	366.4
391.743	362.11
392.122	379.28
392.501	383.58
392.881	366.18
393.26	360.53
393.639	377.48
394.018	371.83
394.397	382.45
394.776	371.83
395.155	382.22
395.534	374.31
395.913	384.26
396.292	387.87
396.671	367.31
397.05	384.48
397.429	391.94
397.808	375.22
398.186	400.53
398.565	393.52
398.944	387.65
399.323	390.58
399.701	396.01
400.08	392.39
400.458	391.49
400.837	393.07
401.215	418.38
401.594	430.36
401.972	409.57
402.351	401.43
402.729	411.83
403.107	405.95
403.486	419.28
403.864	400.3
404.242	421.77
404.62	414.54
404.999	442.56
405.377	421.32
405.755	433.75
406.133	443.01
406.511	421.77
406.889	419.51
407.267	431.26
407.645	441.88
408.023	448.43
408.401	443.01
408.779	451.37
409.156	442.11
409.534	451.6
409.912	445.95
410.29	453.41
410.667	466.97
411.045	449.11
411.422	475.33
411.8	469.22
412.178	468.32
412.555	470.35
412.933	469.68
413.31	472.39
413.687	469.45
414.065	479.17
414.442	473.97
414.819	506.96
415.197	500.86
415.574	500.18
415.951	507.64
416.328	520.07
416.705	503.8
417.082	508.77
417.46	495.66
417.837	519.62
418.214	522.78
418.591	512.39
418.967	534.53
419.344	527.3
419.721	527.53
420.098	520.52
420.475	512.16
420.852	543.12
421.228	571.6
421.605	519.62
421.982	538.6
422.358	542.67
422.735	558.26
423.111	560.75
423.488	553.97
423.864	554.42
424.241	542.9
424.617	561.43
424.994	560.75
425.37	589
425.746	568.88
426.123	590.13
426.499	572.5
426.875	576.11
427.251	591.48
427.627	610.46
428.003	607.98
428.379	605.94
428.756	610.24
429.132	589.45
429.507	627.19
429.883	610.69
430.259	642.1
430.635	619.05
431.011	643.68
431.387	645.72
431.763	653.4
432.138	647.3
432.514	653.17
432.89	672.16
433.265	670.58
433.641	676
434.016	667.64
434.392	692.72
434.767	705.6
435.143	681.87
435.518	706.73
435.894	708.54
436.269	726.39
436.644	711.7
437.02	719.16
437.395	717.58
437.77	704.47
438.145	726.62
438.52	750.8
438.895	761.42
439.271	751.03
439.646	746.96
440.021	747.41
440.395	740.18
440.77	795.54
441.145	770.23
441.52	798.71
441.895	791.48
442.27	804.36
442.645	763.23
443.019	801.87
443.394	777.92
443.769	812.49
444.143	785.6
444.518	820.4
444.892	820.18
445.267	833.51
445.641	810.46
446.016	811.14
446.39	841.64
446.764	818.14
447.139	837.35
447.513	859.95
447.887	844.81
448.262	878.03
448.636	894.75
449.01	885.03
449.384	885.49
449.758	851.14
450.132	888.87
450.506	905.82
450.88	893.17
451.254	909.67
451.628	909.44
452.002	927.74
452.376	914.19
452.75	920.51
453.123	933.62
453.497	933.17
453.871	963
454.244	970.23
454.618	960.74
454.992	983.79
455.365	987.86
455.739	1013.39
456.112	986.5
456.486	1038.93
456.859	1031.24
457.232	1049.77
457.606	1038.25
457.979	1039.15
458.352	1069.44
458.725	1055.65
459.099	1082.77
459.472	1090.9
459.845	1108.08
460.218	1142.2
460.591	1122.54
460.964	1135.87
461.337	1159.15
461.71	1168.19
462.083	1180.39
462.456	1195.76
462.829	1192.6
463.201	1190.79
463.574	1242.31
463.947	1234.85
464.32	1282.99
464.692	1268.53
465.065	1276.89
465.438	1290.22
465.81	1291.8
466.183	1340.16
466.555	1364.57
466.928	1360.05
467.3	1395.75
467.672	1398.92
468.045	1419.03
468.417	1419.71
468.789	1444.34
469.161	1448.63
469.534	1463.1
469.906	1502.64
470.278	1513.27
470.65	1515.3
471.022	1603.43
471.394	1613.83
471.766	1639.59
472.138	1634.39
472.51	1657.67
472.882	1689.31
473.253	1744.9
473.625	1734.95
473.997	1732.02
474.369	1774.28
474.74	1797.55
475.112	1851.56
475.484	1880.04
475.855	1940.6
476.227	1916.42
476.598	1987.6
476.97	2013.59
477.341	2083.65
477.713	2125
478.084	2088.84
478.455	2172.46
478.827	2226.47
479.198	2299.91
479.569	2306.46
479.94	2354.15
480.311	2398.67
480.682	2484.77
481.053	2527.25
481.424	2583.52
481.795	2607.7
482.166	2661.71
482.537	2687.7
482.908	2790.52
483.279	2847.92
483.65	2881.59
484.021	2959.55
484.391	2965.88
484.762	3065.99
485.133	3123.62
485.503	3141.02
485.874	3211.53
486.244	3282.26
486.615	3299.88
486.985	3402.48
487.356	3472.76
487.726	3527.22
488.097	3605.41
488.467	3659.65
488.837	3726.99
489.207	3792.3
489.578	3880.89
489.948	3883.6
490.318	3966.99
490.688	4034.33
491.058	4126.98
491.428	4189.58
491.798	4260.99
492.168	4310.71
492.538	4350.48
492.908	4434.09
493.278	4509.12
493.648	4538.27
494.017	4613.97
494.387	4612.62
494.757	4719.06
495.126	4767.42
495.496	4820.3
495.866	4877.47
496.235	4963.8
496.605	5012.83
496.974	4997.24
497.344	5111.81
497.713	5169.67
498.082	5208.08
498.452	5282.66
498.821	5313.39
499.19	5339.15
499.559	5385.25
499.928	5446.72
500.298	5514.97
500.667	5466.38
501.036	5573.95
501.405	5603.33
501.774	5648.75
502.143	5746.6
502.512	5748.41
502.88	5804
503.249	5812.81
503.618	5886.48
503.987	5907.73
504.356	5971.91
504.724	5983.43
505.093	6019.59
505.462	6057.33
505.83	6111.79
506.199	6122.86
506.567	6268.17
506.936	6255.97
507.304	6329.64
507.672	6373.48
508.041	6389.3
508.409	6437.2
508.777	6450.99
509.145	6476.3
509.514	6515.62
509.882	6584.32
510.25	6604.88
510.618	6603.98
510.986	6634.94
511.354	6668.38
511.722	6781.83
512.09	6876.29
512.458	6821.37
512.826	6876.74
513.193	6955.38
513.561	6919.9
513.929	6962.39
514.297	7023.63
514.664	7116.28
515.032	7042.84
515.4	7139.33
515.767	7147.69
516.135	7187.92
516.502	7135.04
516.869	7290.74
517.237	7275.83
517.604	7312.89
517.972	7328.93
518.339	7382.49
518.706	7407.8
519.073	7479.44
519.44	7450.28
519.808	7536.16
520.175	7481.24
520.542	7591.75
520.909	7662.03
521.276	7585.2
521.643	7705.42
522.009	7710.62
522.376	7787.22
522.743	7817.28
523.11	7905.64
523.477	7926.88
523.843	7986.77
524.21	7981.57
524.577	8063.15
524.943	8028.8
525.31	8168.91
525.676	8195.58
526.043	8265.18
526.409	8352.18
526.776	8372.07
527.142	8457.49
527.508	8413.2
527.874	8480.54
528.241	8506.3
528.607	8574.55
528.973	8591.05
529.339	8639.18
529.705	8706.3
530.071	8823.36
530.437	8781.55
530.803	8850.47
531.169	8918.27
531.535	8923.47
531.901	8942.9
532.267	8919.4
532.632	9035.78
532.998	9023.8
533.364	9090.92
533.73	9162.56
534.095	9184.7
534.461	9274.87
534.826	9267.64
535.192	9287.98
535.557	9390.8
535.923	9400.29
536.288	9428.76
536.653	9482.1
537.019	9499.04
537.384	9568.87
537.749	9629.66
538.114	9615.88
538.479	9625.82
538.845	9732.48
539.21	9665.59
539.575	9679.6
539.94	9738.59
540.305	9815.42
540.67	9818.13
541.034	9888.41
541.399	9900.84
541.764	9991.23
542.129	9971.57
542.494	10018.13
542.858	10101.51
543.223	10110.1
543.587	10194.17
543.952	10122.76
544.316	10233.04
544.681	10276.2
545.045	10336.54
545.41	10297.89
545.774	10422.41
546.138	10477.55
546.503	10476.42
546.867	10438.68
547.231	10575.85
547.595	10629.64
547.959	10577.43
548.324	10622.18
548.688	10614.04
549.052	10782.63
549.416	10753.93
549.779	10798.22
550.143	10799.12
550.507	10882.06
550.871	10949.18
551.235	10956.63
551.599	10977.88
551.962	10979.46
552.326	11077.08
552.689	11094.93
553.053	11053.58
553.417	11128.83
553.78	11282.95
554.143	11186.91
554.507	11240.69
554.87	11242.5
555.234	11388.71
555.597	11248.83
555.96	11391.65
556.323	11373.35
556.686	11442.95
557.05	11553.91
557.413	11614.69
557.776	11609.72
558.139	11644.07
558.502	11730.85
558.865	11755.93
559.228	11738.53
559.59	11815.59
559.953	11797.51
560.316	11908.02
560.679	11994.57
561.041	11996.83
561.404	12029.6
561.767	12038.86
562.129	12046.55
562.492	12288.58
562.854	12241.57
563.217	12153.44
563.579	12250.84
563.941	12270.27
564.304	12379.19
564.666	12383.94
565.028	12417.16
565.39	12386.43
565.753	12559.53
566.115	12550.26
566.477	12645.85
566.839	12664.16
567.201	12758.39
567.563	12733.31
567.925	12865.06
568.287	12829.8
568.648	12914.32
569.01	12962.23
569.372	13021.89
569.734	13000.65
570.095	13130.36
570.457	13121.77
570.819	13269.79
571.18	13218.72
571.542	13271.15
571.903	13354.76
572.265	13491.26
572.626	13576.22
572.987	13499.62
573.349	13591.82
573.71	13704.58
574.071	13811.25
574.432	13801.53
574.794	13976.21
575.155	13929.66
575.516	14005.59
575.877	14135.31
576.238	14206.04
576.599	14317
576.96	14409.88
577.32	14485.81
577.681	14624.56
578.042	14672.92
578.403	14750.66
578.763	14900.03
579.124	15033.36
579.485	15140.93
579.845	15334.6
580.206	15335.05
580.566	15459.79
580.927	15700.91
581.287	15823.4
581.648	15951.98
582.008	16177.29
582.368	16373.21
582.728	16501.57
583.089	16646.65
583.449	16801.9
583.809	17076.47
584.169	17315.79
584.529	17369.8
584.889	17832.84
585.249	17925.26
585.609	18132.94
585.969	18344.69
586.329	18514.17
586.688	18814.05
587.048	19032.35
587.408	19242.97
587.768	19501.94
588.127	19809.73
588.487	19956.17
588.846	20286.56
589.206	20388.25
589.565	20711.63
589.925	21107.1
590.284	21181.9
590.643	21554.09
591.003	21877.02
591.362	22197.47
591.721	22294.41
592.08	22620.05
592.44	22982.08
592.799	23230.66
593.158	23588.62
593.517	23780.7
593.876	24227.7
594.235	24335.04
594.593	24631.98
594.952	25010.5
595.311	25158.75
595.67	25543.59
596.029	25879.86
596.387	26167.76
596.746	26512.61
597.104	26625.15
597.463	26951.69
597.822	27398.69
598.18	27442.3
598.538	27727.94
598.897	28202.28
599.255	28251.32
599.613	28782.83
599.972	28971.75
600.33	29357.73
600.688	29433.44
601.046	29847.66
601.404	30189.35
601.762	30362.9
602.12	30729.67
602.478	31125.14
602.836	31234.29
603.194	31306.38
603.552	31764.9
603.91	31714.05
604.268	32101.39
604.625	32292.79
604.983	32578.44
605.341	32517.65
605.698	33078.09
606.056	33246.44
606.413	33546.32
606.771	33747.22
607.128	34106.08
607.485	34091.62
607.843	34306.98
608.2	34700.87
608.557	34995.32
608.914	35081.87
609.272	35452.03
609.629	35506.5
609.986	35850.44
610.343	35770.44
610.7	36214.05
611.057	36336.53
611.414	36557.32
611.771	36650.87
612.127	36796.18
612.484	37125.66
612.841	37272.78
613.198	37238.65
613.554	37496.5
613.911	37851.07
614.267	37874.12
614.624	37852.2
614.98	38160.21
615.337	38372.41
615.693	38436.59
616.05	38657.83
616.406	39005.16
616.762	38848.78
617.118	38936.69
617.475	39076.35
617.831	39342.33
618.187	39483.79
618.543	39601.76
618.899	40016.66
619.255	39853.27
619.611	40032.03
619.967	40237.9
620.323	40307.73
620.678	40312.02
621.034	40263.66
621.39	40513.82
621.746	40441.06
622.101	40934.38
622.457	40684.44
622.812	40911.78
623.168	40996.52
623.523	41090.3
623.879	41223.18
624.234	40960.59
624.589	41240.81
624.945	41262.05
625.3	41553.34
625.655	41457.3
626.01	41423.63
626.365	41620.69
626.72	41654.81
627.075	41697.07
627.43	41802.15
627.785	41633.34
628.14	41883.73
628.495	41819.55
628.85	41874.46
629.205	41669.72
629.559	42038.75
629.914	41808.93
630.269	42006.66
630.623	41997.17
630.978	41874.24
631.332	42010.51
631.687	42018.19
632.041	41991.75
632.396	41993.78
632.75	42009.15
633.104	42177.51
633.459	41907.01
633.813	41976.38
634.167	42177.28
634.521	42081.01
634.875	42143.84
635.229	42097.51
635.583	42024.29
635.937	41909.72
636.291	41869.72
636.645	41844.86
636.999	41962.82
637.352	41945.42
637.706	41954.46
638.06	42008.92
638.413	41941.81
638.767	41761.25
639.121	41730.06
639.474	41698.42
639.828	41860
640.181	41873.11
640.534	41768.7
640.888	41763.28
641.241	41586.56
641.594	41702.04
641.947	41882.37
642.301	41738.42
642.654	41763.96
643.007	41649.16
643.36	41619.78
643.713	41576.62
644.066	41748.82
644.419	41424.76
644.771	41321.03
645.124	41117.65
645.477	40918.33
645.83	40732.8
646.182	40501.39
646.535	40456.87
646.888	40495.97
647.24	40444.22
647.593	40485.35
647.945	40541.39
648.298	40370.1
648.65	40225.69
649.002	40297.56
649.355	40409.42
649.707	40204.23
650.059	40471.56
650.411	40877.43
650.763	40858.9
651.115	41234.71
651.467	41189.51
651.819	41193.13
652.171	41091.89
652.523	41170.08
652.875	41043.53
653.227	40916.07
653.578	41076.07
653.93	40958.1
654.282	40813.25
654.633	40795.17
654.985	40794.04
655.337	40997.65
655.688	41044.88
656.039	41031.1
656.391	40589.75
656.742	40635.85
657.094	40748.17
657.445	40866.81
657.796	40710.65
658.147	40486.25
658.498	40676.53
658.849	40732.57
659.2	40705.46
659.551	40534.61
659.902	40774.38
660.253	40625.23
660.604	40839.46
660.955	40594.5
661.306	40671.33
661.656	40684.44
662.007	40679.24
662.358	40598.34
662.708	40732.35
663.059	40660.03
663.409	40413.03
663.76	40767.83
664.11	40658.9
664.461	40694.38
664.811	40637.89
665.161	40514.05
665.511	40585.23
665.862	40485.35
666.212	40554.72
666.562	40754.72
666.912	40464.33
667.262	40541.17
667.612	40486.7
667.962	40596.98
668.312	40398.12
668.662	40702.97
669.011	40508.17
669.361	40417.78
669.711	40410.32
670.06	40211.46
670.41	40336.43
670.76	40285.58
671.109	40463.43
671.459	40346.59
671.808	40198.35
672.157	40397.21
672.507	40205.58
672.856	40100.73
673.205	40115.19
673.554	40413.03
673.904	40169.2
674.253	40262.75
674.602	40202.42
674.951	39652.6
675.3	39387.75
675.649	40066.83
675.998	40233.15
676.346	40097.11
676.695	40301.4
677.044	39986.83
677.393	40120.16
677.741	39985.02
678.09	39997.9
678.438	39887.17
678.787	39965.59
679.135	39888.75
679.484	39669.78
679.832	39851.24
680.181	39611.92
680.529	39727.18
680.877	39540.06
681.225	39467.3
681.573	39790.68
681.922	39469.33
682.27	39303.23
682.618	39350.24
682.966	39257.13
683.314	39318.15
683.661	39194.08
684.009	39188.66
684.357	39007.19
684.705	39005.84
685.053	39032.5
685.4	38894.66
685.748	38818.95
686.095	38777.82
686.443	38605.4
686.79	38598.84
687.138	38552.07
687.485	38674.55
687.832	38399.08
688.18	38592.29
688.527	38247.21
688.874	38267.78
689.221	38138.74
689.568	38112.53
689.915	38140.32
690.262	38089.03
690.609	37788.47
690.956	37730.84
691.303	37842.71
691.65	37532.66
691.997	37698.75
692.344	37411.08
692.69	37400.68
693.037	37412.21
693.383	37045.44
693.73	37225.32
694.077	36999.11
694.423	36954.37
694.769	36920.7
695.116	36779.46
695.462	36830.08
695.808	36719.8
696.155	36691.1
696.501	36372.01
696.847	36433.48
697.193	36112.81
697.539	36215.86
697.885	35998.46
698.231	35909.42
698.577	35871.46
698.923	35918.46
699.269	35612.03
699.614	35609.32
699.96	35514.41
700.306	35508.08
700.651	35322.32
700.997	35231.02
701.342	35162.32
701.688	35154.64
702.033	35010.24
702.379	35043.46
702.724	35010.46
703.069	34994.64
703.415	34370.25
703.76	34565.96
704.105	34559.63
704.45	34607.08
704.795	34335.45
705.14	34316.47
705.485	34240.09
705.83	34058.17
706.175	34069.02
706.52	34119.64
706.865	33937.95
707.209	33945.63
707.554	33695.7
707.899	33846.65
708.243	33650.95
708.588	33607.11
708.932	33230.62
709.277	33216.61
709.621	33446.89
709.966	33173.22
710.31	33339.55
710.654	32852.55
710.998	32920.8
711.342	32983.62
711.687	32961.93
712.031	32797.64
712.375	32618.21
712.719	32662.05
713.063	32558.1
713.407	32662.73
713.75	32545.67
714.094	32501.83
714.438	32375.5
714.782	32339.35
715.125	32241.72
715.469	32248.5
715.812	32036.98
716.156	31942.07
716.499	31934.84
716.843	31944.33
717.186	31833.37
717.53	31864.78
717.873	31911.79
718.216	31826.37
718.559	31565.81
718.902	31431.12
719.246	31468.41
719.589	31472.25
719.932	31378.69
720.275	31337.57
720.617	31187.29
720.96	31201.98
721.303	31172.15
721.646	31239.49
721.989	31064.13
722.331	31029.78
722.674	30968.31
723.016	31010.12
723.359	30846.05
723.701	30846.05
724.044	30655.78
724.386	30521.54
724.729	30747.3
725.071	30584.37
725.413	30733.06
725.755	30515.44
726.097	30575.55
726.439	30340.98
726.782	30336.24
727.124	30451.49
727.465	30345.28
727.807	30242.45
728.149	30209.01
728.491	30186.18
728.833	30152.74
729.175	30047.66
729.516	29867.55
729.858	29895.12
730.199	29978.28
730.541	29914.33
730.882	29776.02
731.224	29818.51
731.565	29668.68
731.906	29759.53
732.248	29652.64
732.589	29385.3
732.93	29391.18
733.271	29468.01
733.612	29503.04
733.953	29487.22
734.294	29389.14
734.635	29300.56
734.976	29388.69
735.317	29328.13
735.658	29196.15
735.999	29134.91
736.339	29091.3
736.68	29234.34
737.021	29134.91
737.361	28994.35
737.702	29035.71
738.042	28986.44
738.383	28898.31
738.723	28928.14
739.063	28832.77
739.404	28852.21
739.744	28703.28
740.084	28692.44
740.424	28748.93
740.764	28539.9
741.104	28757.29
741.444	28539
741.784	28412.9
742.124	28386.46
742.464	28412.22
742.804	28401.37
743.143	28309.17
743.483	28451.77
743.823	28256.74
744.162	28252.45
744.502	28302.84
744.841	28048.61
745.181	28177.42
745.52	28095.17
745.86	28048.16
746.199	28126.12
746.538	28032.12
746.877	27987.82
747.216	27930.2
747.556	27903.53
747.895	27819.47
748.234	27743.99
748.573	27657.21
748.911	27658.11
749.25	27628.96
749.589	27556.42
749.928	27569.53
750.267	27547.38
750.605	27501.51
750.944	27354.39
751.283	27284.11
751.621	27308.29
751.96	27302.87
752.298	27342.19
752.636	27332.93
752.975	27050.67
753.313	27095.64
753.651	27196.21
753.989	26911.02
754.327	26958.02
754.666	26788.53
755.004	26798.48
755.342	26932.26
755.679	26686.16
756.017	26678.93
756.355	26799.61
756.693	26512.38
757.031	26683.9
757.368	26456.56
757.706	26536.79
758.044	26436.9
758.381	26480.07
758.719	26196.01
