Data from hue_120_FLMS001491_00001.txt Node
Date: Tue Feb 07 16:58:50 GMT 2017
User: dcchb
Spectrometer: FLMS00149
Trigger mode: 0
Integration Time (sec): 2.000000E-2
Scans to average: 10
Electric dark correction enabled: true
Nonlinearity correction enabled: false
Boxcar width: 0
XAxis mode: Wavelengths
Number of Pixels in Spectrum: 2048
>>>>>Begin Spectral Data<<<<<
341.393	-42.95
341.776	-42.95
342.16	-42.95
342.543	-71.2
342.927	-93.35
343.31	-67.13
343.693	-79.79
344.077	-61.48
344.46	-64.65
344.843	-51.31
345.226	-35.04
345.61	-10.86
345.993	-25.78
346.376	2.02
346.759	12.19
347.142	46.09
347.525	21.68
347.908	60.78
348.291	65.52
348.674	90.6
349.057	97.16
349.44	126.31
349.823	129.02
350.206	164.95
350.588	192.98
350.971	214.9
351.354	209.7
351.737	236.59
352.119	252.63
352.502	236.59
352.884	284.5
353.267	283.82
353.65	290.37
354.032	283.37
354.414	318.85
354.797	303.71
355.179	324.95
355.562	330.37
355.944	324.72
356.326	340.09
356.709	329.02
357.091	328.79
357.473	340.54
357.855	323.82
358.238	346.64
358.62	348.45
359.002	336.02
359.384	341.22
359.766	352.07
360.148	352.29
360.53	351.84
360.912	352.74
361.294	334.44
361.676	325.4
362.057	331.28
362.439	348.68
362.821	313.88
363.203	334.21
363.584	339.41
363.966	320.2
364.348	309.81
364.729	333.31
365.111	321.79
365.493	319.53
365.874	317.72
366.256	312.97
366.637	308
367.019	338.28
367.4	317.27
367.781	329.47
368.163	297.83
368.544	316.36
368.925	314.78
369.306	331.5
369.688	309.81
370.069	320.66
370.45	318.4
370.831	322.46
371.212	320.2
371.593	312.07
371.974	328.79
372.355	329.92
372.736	334.44
373.117	307.55
373.498	336.93
373.879	309.36
374.26	325.18
374.641	317.04
375.021	313.88
375.402	334.21
375.783	317.94
376.163	329.24
376.544	325.63
376.925	331.73
377.305	313.88
377.686	315.68
378.066	349.13
378.447	333.08
378.827	328.56
379.208	330.82
379.588	348.45
379.968	339.86
380.349	318.17
380.729	339.19
381.109	336.93
381.489	362.46
381.87	303.93
382.25	334.67
382.63	339.86
383.01	355.68
383.39	356.13
383.77	343.93
384.15	337.15
384.53	339.86
384.91	362.91
385.29	345.51
385.67	364.72
386.049	358.85
386.429	355
386.809	331.5
387.189	364.04
387.568	364.5
387.948	352.52
388.328	362.46
388.707	371.95
389.087	364.95
389.466	382.12
389.846	361.11
390.225	380.54
390.605	374.67
390.984	366.53
391.363	361.33
391.743	378.06
392.122	381.44
392.501	370.15
392.881	389.13
393.26	395.46
393.639	383.93
394.018	375.12
394.397	388.68
394.776	393.65
395.155	379.41
395.534	391.16
395.913	388.68
396.292	392.07
396.671	391.16
397.05	391.61
397.429	390.71
397.808	404.27
398.186	398.62
398.565	375.34
398.944	394.78
399.323	405.85
399.701	419.18
400.08	406.53
400.458	422.57
400.837	411.5
401.215	422.8
401.594	419.41
401.972	408.79
402.351	420.31
402.729	411.73
403.107	417.83
403.486	414.21
403.864	439.52
404.242	418.51
404.62	429.81
404.999	437.04
405.377	432.74
405.755	424.83
406.133	425.29
406.511	430.93
406.889	422.57
407.267	416.25
407.645	443.82
408.023	461.44
408.401	454.66
408.779	448.34
409.156	448.79
409.534	466.87
409.912	447.43
410.29	471.39
410.667	466.19
411.045	502.12
411.422	484.49
411.8	481.1
412.178	497.37
412.555	509.58
412.933	512.29
413.31	476.58
413.687	521.78
414.065	503.02
414.442	499.41
414.819	491.27
415.197	497.6
415.574	513.42
415.951	529.01
416.328	526.53
416.705	533.31
417.082	513.42
417.46	527.88
417.837	537.37
418.214	535.57
418.591	539.18
418.967	523.59
419.344	564.49
419.721	560.88
420.098	568.11
420.475	551.61
420.852	563.36
421.228	576.24
421.605	575.34
421.982	562.68
422.358	583.25
422.735	586.41
423.111	561.1
423.488	568.11
423.864	572.17
424.241	595.45
424.617	598.39
424.994	611.95
425.37	605.39
425.746	599.74
426.123	605.62
426.499	606.07
426.875	615.11
427.251	625.73
427.627	649.46
428.003	648.56
428.379	635.68
428.756	674.09
429.132	656.47
429.507	661.21
429.883	651.49
430.259	660.08
430.635	679.97
431.011	690.82
431.387	668.22
431.763	695.79
432.138	710.7
432.514	701.44
432.89	700.53
433.265	721.77
433.641	733.98
434.016	722.23
434.392	733.07
434.767	739.18
435.143	719.97
435.518	749.12
435.894	782.34
436.269	759.74
436.644	756.12
437.02	778.04
437.395	781.21
437.77	769.91
438.145	785.05
438.52	787.76
438.895	805.61
439.271	827.99
439.646	843.81
440.021	847.87
440.395	851.94
440.77	843.58
441.145	844.03
441.52	855.78
441.895	857.36
442.27	851.94
442.645	850.58
443.019	899.62
443.394	865.95
443.769	861.21
444.143	873.41
444.518	926.97
444.892	883.35
445.267	877.93
445.641	901.43
446.016	931.26
446.39	910.47
446.764	912.28
447.139	940.07
447.513	945.05
447.887	923.35
448.262	953.41
448.636	958.6
449.01	975.1
449.384	982.33
449.758	993.18
450.132	1000.41
450.506	1002.67
450.88	991.82
451.254	989.11
451.628	1014.65
452.002	1007.19
452.376	995.67
452.75	1020.98
453.123	1038.6
453.497	1049
453.871	1057.81
454.244	1072.95
454.618	1081.99
454.992	1104.14
455.365	1114.31
455.739	1140.07
456.112	1156.34
456.486	1153.18
456.859	1157.02
457.232	1208.32
457.606	1198.15
457.979	1183.46
458.352	1213.97
458.725	1225.26
459.099	1211.71
459.472	1274.98
459.845	1267.98
460.218	1295.32
460.591	1316.34
460.964	1318.37
461.337	1329.89
461.71	1378.93
462.083	1370.12
462.456	1401.98
462.829	1388.88
463.201	1433.85
463.574	1426.62
463.947	1433.39
464.32	1455.09
464.692	1478.37
465.065	1503
465.438	1544.8
465.81	1547.29
466.183	1568.08
466.555	1629.1
466.928	1650.56
467.3	1619.6
467.672	1650.11
468.045	1724.46
468.417	1714.29
468.789	1730.79
469.161	1747.96
469.534	1804.91
469.906	1833.38
470.278	1854.17
470.65	1881.29
471.022	1916.32
471.394	1971.01
471.766	2020.05
472.138	2009.2
472.51	2079.48
472.882	2141.17
473.253	2182.98
473.625	2200.83
473.997	2262.3
474.369	2310.43
474.74	2355.4
475.112	2410.09
475.484	2479.47
475.855	2493.25
476.227	2556.98
476.598	2652.35
476.97	2712.91
477.341	2807.14
477.713	2831.78
478.084	2893.47
478.455	3001.49
478.827	3060.24
479.198	3192.9
479.569	3225.44
479.94	3335.49
480.311	3408.94
480.682	3513.57
481.053	3648.25
481.424	3742.03
481.795	3812.54
482.166	3924.4
482.537	3991.75
482.908	4140.44
483.279	4224.51
483.65	4360.1
484.021	4492.98
484.391	4608.68
484.762	4693.42
485.133	4787.2
485.503	4928.9
485.874	5052.06
486.244	5205.95
486.615	5352.16
486.985	5429.67
487.356	5667.86
487.726	5692.27
488.097	5951.47
488.467	6028.75
488.837	6268.07
489.207	6341.51
489.578	6512.81
489.948	6627.83
490.318	6757.77
490.688	6901.27
491.058	7038.67
491.428	7256.29
491.798	7402.28
492.168	7559.11
492.538	7666.22
492.908	7876.61
493.278	8065.76
493.648	8121.13
494.017	8322.25
494.387	8472.31
494.757	8547.78
495.126	8756.14
495.496	8897.38
495.866	9016.02
496.235	9160.2
496.605	9349.57
496.974	9396.35
497.344	9583.46
497.713	9701.43
498.082	9885.38
498.452	9974.86
498.821	10070.91
499.19	10158.81
499.559	10374.85
499.928	10491.24
500.298	10592.93
500.667	10768.52
501.036	10766.03
501.405	10933.03
501.774	10992.92
502.143	11151.78
502.512	11198.11
502.88	11391.78
503.249	11416.63
503.618	11547.48
503.987	11606.46
504.356	11770.98
504.724	11812.78
505.093	11876.96
505.462	12039.67
505.83	12072.66
506.199	12205.77
506.567	12429.94
506.936	12378.64
507.304	12530.73
507.672	12651.4
508.041	12675.36
508.409	12732.53
508.777	12917.16
509.145	12970.49
509.514	13043.94
509.882	13075.12
510.25	13090.04
510.618	13199.86
510.986	13208.45
511.354	13403.02
511.722	13487.54
512.09	13540.42
512.458	13569.8
512.826	13631.27
513.193	13697.48
513.561	13780.19
513.929	13858.15
514.297	13935.66
514.664	13983.57
515.032	13932.27
515.4	14078.26
515.767	14172.27
516.135	14128.2
516.502	14078.49
516.869	14367.97
517.237	14311.93
517.604	14209.78
517.972	14381.3
518.339	14419.27
518.706	14476.44
519.073	14446.61
519.44	14584.24
519.808	14630.34
520.175	14567.96
520.542	14702.42
520.909	14777.9
521.276	14686.38
521.643	14812.93
522.009	14825.81
522.376	14862.42
522.743	14972.7
523.11	15007.05
523.477	15121.62
523.843	15143.32
524.21	15223.77
524.577	15281.17
524.943	15158.46
525.31	15327.72
525.676	15337.21
526.043	15348.51
526.409	15355.74
526.776	15472.12
527.142	15437.55
527.508	15426.02
527.874	15527.94
528.241	15465.57
528.607	15499.01
528.973	15583.08
529.339	15520.03
529.705	15698.78
530.071	15643.42
530.437	15593.93
530.803	15645.9
531.169	15599.12
531.535	15639.57
531.901	15529.3
532.267	15540.14
532.632	15575.62
532.998	15641.38
533.364	15546.7
533.73	15562.51
534.095	15659.91
534.461	15542.18
534.826	15627.37
535.192	15585.56
535.557	15583.53
535.923	15498.56
536.288	15541.72
536.653	15477.77
537.019	15409.75
537.384	15398.68
537.749	15374.5
538.114	15335.4
538.479	15359.81
538.845	15342.86
539.21	15209.53
539.575	15248.4
539.94	15228.96
540.305	15256.31
540.67	15165.46
541.034	15108.74
541.399	15170.43
541.764	15117.78
542.129	15077.1
542.494	15040.49
542.858	15038.01
543.223	15038.46
543.587	15029.87
543.952	14903.55
544.316	14832.14
544.681	14809.54
545.045	14819.26
545.41	14750.56
545.774	14777.22
546.138	14708.07
546.503	14675.31
546.867	14594.86
547.231	14726.6
547.595	14660.17
547.959	14555.08
548.324	14502.43
548.688	14447.74
549.052	14431.24
549.416	14443.9
549.779	14374.98
550.143	14293.85
550.507	14323.45
550.871	14254.3
551.235	14219.95
551.599	14264.7
551.962	14205.49
552.326	14062.21
552.689	14232.15
553.053	14073.06
553.417	14065.38
553.78	14168.43
554.143	14016.79
554.507	14058.15
554.87	14012.5
555.234	14036.23
555.597	13948.32
555.96	13974.31
556.323	13912.39
556.686	13847.76
557.05	13925.04
557.413	13931.14
557.776	13849.11
558.139	13964.36
558.502	13943.35
558.865	13837.81
559.228	13885.95
559.59	13831.94
559.953	13836.01
560.316	13934.53
560.679	13806.63
561.041	13896.12
561.404	13860.86
561.767	13899.28
562.129	13812.28
562.492	13897.93
562.854	13818.83
563.217	13825.16
563.579	13872.62
563.941	13958.26
564.304	13986.51
564.666	13924.82
565.028	13942.22
565.39	13947.87
565.753	13988.32
566.115	13986.06
566.477	14043.01
566.839	14085.04
567.201	14121.42
567.563	14000.75
567.925	14109.9
568.287	14029.22
568.648	14085.49
569.01	14110.8
569.372	14164.13
569.734	14088.65
570.095	14149.44
570.457	14165.94
570.819	14130.69
571.18	14166.62
571.542	14179.05
571.903	14159.84
572.265	14198.93
572.626	14204.13
572.987	14225.37
573.349	14312.6
573.71	14276.45
574.071	14310.57
574.432	14357.35
574.794	14367.52
575.155	14371.81
575.516	14221.31
575.877	14299.72
576.238	14309.67
576.599	14313.06
576.96	14348.99
577.32	14295.43
577.681	14391.02
578.042	14302.21
578.403	14322.77
578.763	14386.05
579.124	14404.58
579.485	14443.45
579.845	14419.72
580.206	14397.12
580.566	14373.62
580.927	14368.42
581.287	14392.15
581.648	14352.15
582.008	14489.77
582.368	14393.73
582.728	14397.57
583.089	14381.3
583.449	14312.83
583.809	14408.65
584.169	14402.55
584.529	14232.38
584.889	14342.66
585.249	14237.58
585.609	14172.95
585.969	14348.76
586.329	14197.8
586.688	14321.42
587.048	14288.65
587.408	14196.67
587.768	14248.42
588.127	14323.9
588.487	14191.03
588.846	14334.75
589.206	14202.1
589.565	14205.49
589.925	14169.78
590.284	14166.17
590.643	14184.25
591.003	14092.72
591.362	14228.76
591.721	14188.77
592.08	14153.74
592.44	14189.9
592.799	14111.25
593.158	14095.43
593.517	14087.98
593.876	14109.22
594.235	14084.14
594.593	14186.96
594.952	14060.63
595.311	14050.92
595.67	14136.34
596.029	14133.4
596.387	14194.64
596.746	14160.97
597.104	14082.1
597.463	14073.74
597.822	14162.33
598.18	14076.23
598.538	14083.68
598.897	14151.7
599.255	13994.42
599.613	14101.76
599.972	14088.2
600.33	14064.25
600.688	14146.73
601.046	14073.29
601.404	14024.7
601.762	14120.07
602.12	14066.51
602.478	14129.78
602.836	14111.93
603.194	14039.16
603.552	14069.22
603.91	14028.09
604.268	14016.79
604.625	14016.57
604.983	14087.53
605.341	14013.4
605.698	14082.78
606.056	14091.37
606.413	14063.8
606.771	14133.17
607.128	14107.19
607.485	14066.06
607.843	14004.36
608.2	14202.32
608.557	14246.16
608.914	14114.42
609.272	14199.61
609.629	14165.49
609.986	14263.57
610.343	14145.83
610.7	14160.97
611.057	14175.21
611.414	14189.44
611.771	14170.69
612.127	14194.64
612.484	14185.6
612.841	14218.14
613.198	14191.03
613.554	14273.28
613.911	14374.98
614.267	14191.93
614.624	14275.99
614.98	14280.74
615.337	14395.54
615.693	14348.54
616.05	14341.98
616.406	14345.6
616.762	14351.02
617.118	14397.35
617.475	14343.34
617.831	14437.57
618.187	14468.31
618.543	14412.71
618.899	14475.31
619.255	14392.15
619.611	14397.57
619.967	14411.81
620.323	14495.65
620.678	14536.55
621.034	14426.27
621.39	14438.93
621.746	14455.65
622.101	14549.66
622.457	14430.34
622.812	14530.9
623.168	14535.87
623.523	14521.41
623.879	14497.01
624.234	14369.55
624.589	14454.97
624.945	14452.71
625.3	14466.05
625.655	14499.72
626.01	14433.96
626.365	14526.38
626.72	14445.48
627.075	14463.11
627.43	14472.15
627.785	14452.26
628.14	14446.61
628.495	14415.65
628.85	14374.3
629.205	14449.55
629.559	14550.56
629.914	14437.12
630.269	14467.85
630.623	14292.27
630.978	14419.27
631.332	14407.06
631.687	14407.74
632.041	14343.11
632.396	14366.16
632.75	14369.33
633.104	14310.34
633.459	14186.28
633.813	14298.59
634.167	14217.69
634.521	14200.74
634.875	14246.62
635.229	14241.87
635.583	14105.38
635.937	14164.81
636.291	14138.37
636.645	14170.69
636.999	14069.45
637.352	14112.84
637.706	14042.1
638.06	14156.22
638.413	14050.46
638.767	14064.02
639.121	14000.75
639.474	14021.54
639.828	13975.89
640.181	13991.26
640.534	13963.91
640.888	13979.96
641.241	13977.02
641.594	13944.25
641.947	13915.1
642.301	13857.25
642.654	13948.09
643.007	13963.69
643.36	13836.46
643.713	13907.87
644.066	13965.27
644.419	13821.77
644.771	13704.48
645.124	13696.12
645.477	13589.91
645.83	13517.37
646.182	13530.93
646.535	13403.7
646.888	13498.39
647.24	13329.8
647.593	13488.9
647.945	13435.11
648.298	13418.62
648.65	13325.29
649.002	13347.66
649.355	13360.31
649.707	13407.32
650.059	13507.88
650.411	13646.86
650.763	13647.76
651.115	13711.26
651.467	13632.17
651.819	13664.03
652.171	13692.51
652.523	13694.54
652.875	13538.39
653.227	13626.29
653.578	13729.34
653.93	13736.8
654.282	13675.11
654.633	13610.48
654.985	13700.87
655.337	13742.22
655.688	13742.9
656.039	13767.99
656.391	13705.84
656.742	13702
657.094	13676.46
657.445	13720.53
657.796	13738.61
658.147	13657.03
658.498	13639.85
658.849	13629.01
659.2	13754.43
659.551	13641.66
659.902	13768.44
660.253	13724.37
660.604	13709.91
660.955	13656.35
661.306	13731.15
661.656	13719.85
662.007	13812.96
662.358	13712.62
662.708	13741.32
663.059	13640.53
663.409	13636.69
663.76	13798.72
664.11	13847.08
664.461	13821.77
664.811	13783.35
665.161	13699.74
665.511	13660.19
665.862	13774.99
666.212	13768.89
666.562	13759.85
666.912	13725.05
667.262	13680.53
667.612	13772.96
667.962	13728.66
668.312	13723.47
668.662	13743.35
669.011	13748.78
669.361	13746.52
669.711	13696.57
670.06	13698.61
670.41	13636.46
670.76	13649.57
671.109	13825.16
671.459	13686.86
671.808	13629.91
672.157	13721.43
672.507	13615
672.856	13664.26
673.205	13619.29
673.554	13650.93
673.904	13683.69
674.253	13669.91
674.602	13664.49
674.951	13407.32
675.3	13328
675.649	13577.48
675.998	13527.77
676.346	13521.21
676.695	13566.41
677.044	13497.03
677.393	13542.45
677.741	13477.15
678.09	13478.73
678.438	13504.72
678.787	13438.28
679.135	13439.86
679.484	13320.54
679.832	13367.09
680.181	13289.13
680.529	13364.15
680.877	13308.11
681.225	13251.39
681.573	13370.93
681.922	13263.37
682.27	13270.15
682.618	13241.9
682.966	13183.14
683.314	13223.82
683.661	13204.38
684.009	13110.38
684.357	13067.44
684.705	13017.04
685.053	13121.45
685.4	13007.33
685.748	12999.19
686.095	12939.53
686.443	12955.58
686.79	12909.02
687.138	12932.3
687.485	12849.14
687.832	12883.94
688.18	12897.05
688.527	12805.75
688.874	12783.6
689.221	12651.86
689.568	12675.36
689.915	12561.24
690.262	12642.59
690.609	12577.96
690.956	12525.53
691.303	12535.7
691.65	12434.01
691.997	12458.87
692.344	12347.01
692.69	12328.93
693.037	12327.8
693.383	12227.23
693.73	12265.65
694.077	12084.87
694.423	12177.97
694.769	12059.33
695.116	12045.54
695.462	11980.01
695.808	11879
696.155	11921.48
696.501	11821.6
696.847	11866.57
697.193	11790.64
697.539	11832.9
697.885	11683.07
698.231	11664.09
698.577	11709.51
698.923	11610.75
699.269	11661.83
699.614	11490.98
699.96	11469.29
700.306	11521.26
700.651	11423.41
700.997	11358.78
701.342	11385.45
701.688	11279.92
702.033	11255.28
702.379	11213.93
702.724	11191.56
703.069	11229.07
703.415	11136.42
703.76	11105
704.105	10988.85
704.45	11056.19
704.795	10959.92
705.14	10961.96
705.485	10936.2
705.83	10948.4
706.175	10905.46
706.52	10829.53
706.865	10770.32
707.209	10759.7
707.554	10719.25
707.899	10687.61
708.243	10639.93
708.588	10636.32
708.932	10514.29
709.277	10555.87
709.621	10567.39
709.966	10489.88
710.31	10527.84
710.654	10462.08
710.998	10463.21
711.342	10411.69
711.687	10382.76
712.031	10354.74
712.375	10395.64
712.719	10365.59
713.063	10327.62
713.407	10319.49
713.75	10279.94
714.094	10288.08
714.438	10195.42
714.782	10221.41
715.125	10178.7
715.469	10209.43
715.812	10169.21
716.156	10104.35
716.499	10084.47
716.843	10130.79
717.186	10083.56
717.53	10124.92
717.873	10027.29
718.216	10041.3
718.559	9996.56
718.902	9999.72
719.246	9974.64
719.589	9938.71
719.932	9904.58
720.275	9902.55
720.617	9858.26
720.96	9865.26
721.303	9914.53
721.646	9905.04
721.989	9841.76
722.331	9876.11
722.674	9844.7
723.016	9839.28
723.359	9805.6
723.701	9816
724.044	9743.68
724.386	9713.63
724.729	9776.9
725.071	9704.36
725.413	9727.19
725.755	9806.96
726.097	9660.75
726.439	9685.15
726.782	9656
727.124	9721.31
727.465	9646.51
727.807	9664.14
728.149	9662.1
728.491	9625.04
728.833	9699.39
729.175	9648.77
729.516	9686.96
729.858	9644.93
730.199	9651.03
730.541	9644.25
730.882	9654.87
731.224	9654.65
731.565	9595.89
731.906	9656
732.248	9583.24
732.589	9578.04
732.93	9565.38
733.271	9563.35
733.612	9593.63
733.953	9613.74
734.294	9504.82
734.635	9599.28
734.976	9562.45
735.317	9516.12
735.658	9493.97
735.999	9555.21
736.339	9565.84
736.68	9595.89
737.021	9597.47
737.361	9534.88
737.702	9660.75
738.042	9656.91
738.383	9590.24
738.723	9634.53
739.063	9656.68
739.404	9690.35
739.744	9694.19
740.084	9637.92
740.424	9662.33
740.764	9689.22
741.104	9727.87
741.444	9698.26
741.784	9745.49
742.124	9745.94
742.464	9764.47
742.804	9780.97
743.143	9788.2
743.483	9844.25
743.823	9840.18
744.162	9839.5
744.502	9935.32
744.841	9866.62
745.181	9997.24
745.52	9910.46
745.86	9934.41
746.199	10017.35
746.538	10047.86
746.877	10167.18
747.216	10243.78
747.556	10207.4
747.895	10204.92
748.234	10360.84
748.573	10401.52
748.911	10446.04
749.25	10495.76
749.589	10599.03
749.928	10618.69
750.267	10683.77
750.605	10752.02
750.944	10856.88
751.283	10914.95
751.621	10998.79
751.96	11067.49
752.298	11193.14
752.636	11333.93
752.975	11404.43
753.313	11511.55
753.651	11675.39
753.989	11713.12
754.327	11871.31
754.666	11872.22
755.004	12091.42
755.342	12217.74
755.679	12469.26
756.017	12565.31
756.355	12731.18
756.693	12840.1
757.031	13035.58
757.368	13080.32
757.706	13250.26
