Data from hue_280_FLMS001491_00078.txt Node
Date: Tue Feb 07 15:55:45 GMT 2017
User: dcchb
Spectrometer: FLMS00149
Trigger mode: 0
Integration Time (sec): 2.000000E-2
Scans to average: 10
Electric dark correction enabled: true
Nonlinearity correction enabled: false
Boxcar width: 0
XAxis mode: Wavelengths
Number of Pixels in Spectrum: 2048
>>>>>Begin Spectral Data<<<<<
341.393	-11.43
341.776	-11.43
342.16	-11.43
342.543	-65.66
342.927	-66.79
343.31	-88.03
343.693	-56.62
344.077	-67.47
344.46	-60.69
344.843	-46.23
345.226	-39
345.61	-35.15
345.993	-29.05
346.376	-4.19
346.759	23.6
347.142	23.38
347.525	54.33
347.908	49.14
348.291	62.92
348.674	84.39
349.057	128.68
349.44	118.51
349.823	134.11
350.206	182.24
350.588	203.71
350.971	193.31
351.354	213.65
351.737	221.34
352.119	243.48
352.502	274.44
352.884	268.11
353.267	273.76
353.65	281
354.032	308.34
354.414	312.63
354.797	309.47
355.179	302.24
355.562	307.21
355.944	328.68
356.326	325.06
356.709	344.95
357.091	325.51
357.473	337.94
357.855	342.01
358.238	344.72
358.62	354.89
359.002	335.91
359.384	336.59
359.766	320.54
360.148	342.46
360.53	344.27
360.912	320.09
361.294	325.51
361.676	326.64
362.057	308.79
362.439	339.3
362.821	314.89
363.203	329.81
363.584	314.67
363.966	320.32
364.348	315.57
364.729	320.09
365.111	304.27
365.493	297.27
365.874	328.68
366.256	313.31
366.637	331.84
367.019	308.79
367.4	305.18
367.781	298.62
368.163	314.44
368.544	308.34
368.925	301.33
369.306	301.33
369.688	322.8
370.069	318.51
370.45	308.11
370.831	309.7
371.212	308.57
371.593	321.45
371.974	318.28
372.355	323.03
372.736	292.07
373.117	313.99
373.498	329.13
373.879	311.05
374.26	318.06
374.641	309.02
375.021	319.19
375.402	305.4
375.783	328.9
376.163	335.46
376.544	336.81
376.925	325.29
377.305	323.93
377.686	331.16
378.066	328
378.447	321.67
378.827	329.36
379.208	333.42
379.588	319.41
379.968	342.69
380.349	350.6
380.729	336.14
381.109	322.12
381.489	327.32
381.87	343.14
382.25	313.99
382.63	346.98
383.01	343.59
383.39	325.74
383.77	370.94
384.15	340.2
384.53	344.72
384.91	351.28
385.29	352.86
385.67	344.04
386.049	358.96
386.429	341.56
386.809	338.85
387.189	354.21
387.568	356.02
387.948	376.36
388.328	366.19
388.707	355.12
389.087	338.4
389.466	383.82
389.846	356.25
390.225	370.71
390.605	357.38
390.984	372.07
391.363	365.06
391.743	370.94
392.122	376.81
392.501	359.86
392.881	377.72
393.26	388.34
393.639	388.56
394.018	368.45
394.397	370.48
394.776	364.61
395.155	406.87
395.534	380.65
395.913	391.73
396.292	393.08
396.671	414.55
397.05	373.65
397.429	405.29
397.808	407.09
398.186	400.54
398.565	419.52
398.944	393.31
399.323	399.86
399.701	408.22
400.08	399.41
400.458	412.74
400.837	425.4
401.215	414.33
401.594	411.39
401.972	437.15
402.351	444.38
402.729	414.1
403.107	444.61
403.486	426.98
403.864	426.3
404.242	423.82
404.62	454.78
404.999	461.33
405.377	460.88
405.755	472.63
406.133	469.24
406.511	462.01
406.889	491.84
407.267	498.16
407.645	481.89
408.023	511.5
408.401	495
408.779	493.19
409.156	510.59
409.534	498.84
409.912	490.71
410.29	511.95
410.667	504.94
411.045	527.77
411.422	516.24
411.8	533.87
412.178	539.97
412.555	561.21
412.933	560.08
413.31	573.64
413.687	588.78
414.065	570.03
414.442	574.1
414.819	592.63
415.197	580.87
415.574	611.83
415.951	626.75
416.328	617.48
416.705	645.28
417.082	647.99
417.46	625.39
417.837	645.96
418.214	664.94
418.591	665.17
418.967	679.4
419.344	673.3
419.721	687.54
420.098	667.43
420.475	684.6
420.852	687.99
421.228	709.46
421.605	733.19
421.982	718.05
422.358	746.52
422.735	751.94
423.111	755.79
423.488	745.16
423.864	777.48
424.241	769.34
424.617	805.28
424.994	800.3
425.37	809.8
425.746	824.94
426.123	810.02
426.499	824.48
426.875	844.14
427.251	849.12
427.627	868.32
428.003	885.95
428.379	906.74
428.756	916.91
429.132	934.54
429.507	906.52
429.883	921.66
430.259	951.49
430.635	968.43
431.011	949.68
431.387	967.31
431.763	974.31
432.138	996.23
432.514	1011.37
432.89	997.36
433.265	1045.95
433.641	1065.83
434.016	1054.53
434.392	1100.63
434.767	1087.53
435.143	1096.12
435.518	1111.93
435.894	1131.14
436.269	1142.22
436.644	1149.9
437.02	1186.51
437.395	1155.77
437.77	1201.88
438.145	1209.11
438.52	1191.48
438.895	1222.89
439.271	1234.19
439.646	1277.58
440.021	1291.14
440.395	1309.22
440.77	1272.83
441.145	1281.2
441.52	1315.09
441.895	1313.51
442.27	1347.41
442.645	1353.06
443.019	1361.19
443.394	1358.03
443.769	1384.24
444.143	1351.02
444.518	1376.56
444.892	1388.76
445.267	1398.93
445.641	1434.41
446.016	1444.81
446.39	1433.06
446.764	1409.55
447.139	1420.17
447.513	1423.34
447.887	1463.56
448.262	1439.38
448.636	1447.07
449.01	1486.16
449.384	1489.55
449.758	1490
450.132	1508.99
450.506	1534.52
450.88	1492.71
451.254	1509.21
451.628	1544.92
452.002	1554.18
452.376	1539.49
452.75	1543.34
453.123	1608.42
453.497	1591.24
453.871	1590.79
454.244	1625.14
454.618	1602.32
454.992	1653.61
455.365	1643.9
455.739	1708.08
456.112	1700.39
456.486	1695.87
456.859	1701.75
457.232	1724.57
457.606	1705.14
457.979	1749.88
458.352	1801.18
458.725	1838.24
459.099	1797.34
459.472	1822.42
459.845	1863.33
460.218	1866.49
460.591	1878.69
460.964	1873.04
461.337	1905.36
461.71	1972.02
462.083	1953.72
462.456	1967.28
462.829	1958.47
463.201	1959.14
463.574	1981.97
463.947	2020.61
464.32	2034.4
464.692	2050.89
465.065	2068.07
465.438	2072.81
465.81	2117.56
466.183	2146.03
466.555	2174.5
466.928	2149.19
467.3	2165.69
467.672	2212.24
468.045	2204.33
468.417	2252.92
468.789	2275.75
469.161	2283.88
469.534	2316.2
469.906	2341.28
470.278	2328.17
470.65	2403.88
471.022	2408.85
471.394	2443.2
471.766	2420.83
472.138	2481.84
472.51	2535.63
472.882	2518
473.253	2560.71
473.625	2581.05
473.997	2610.65
474.369	2643.65
474.74	2656.07
475.112	2651.1
475.484	2744.89
475.855	2784.66
476.227	2784.88
476.598	2839.12
476.97	2858.78
477.341	2918.67
477.713	2925.9
478.084	2908.72
478.455	2991.43
478.827	3031.21
479.198	3049.51
479.569	3111.43
479.94	3213.12
480.311	3134.93
480.682	3223.52
481.053	3249.5
481.424	3336.51
481.795	3363.17
482.166	3367.47
482.537	3399.33
482.908	3458.31
483.279	3515.03
483.65	3528.82
484.021	3607.24
484.391	3574.02
484.762	3582.38
485.133	3642.26
485.503	3680.23
485.874	3762.03
486.244	3778.08
486.615	3829.38
486.985	3847.46
487.356	3909.15
487.726	3914.12
488.097	3987.79
488.467	4042.7
488.837	4066.21
489.207	4081.8
489.578	4180.55
489.948	4154.79
490.318	4226.65
490.688	4220.33
491.058	4286.54
491.428	4318.63
491.798	4349.82
492.168	4371.06
492.538	4421.23
492.908	4482.24
493.278	4428.91
493.648	4521.79
494.017	4526.53
494.387	4587.55
494.757	4566.98
495.126	4627.55
495.496	4703.03
495.866	4662.12
496.235	4717.26
496.605	4721.33
496.974	4729.92
497.344	4811.95
497.713	4792.97
498.082	4752.74
498.452	4844.72
498.821	4867.99
499.19	4906.18
499.559	4892.17
499.928	4982.11
500.298	4992.28
500.667	4978.27
501.036	5037.48
501.405	5009.91
501.774	5010.14
502.143	5060.08
502.512	5037.03
502.88	5059.17
503.249	5100.53
503.618	5118.16
503.987	5102.34
504.356	5187.76
504.724	5152.05
505.093	5214.2
505.462	5186.86
505.83	5218.49
506.199	5311.15
506.567	5287.64
506.936	5338.49
507.304	5331.94
507.672	5362.44
508.041	5392.5
508.409	5378.49
508.777	5441.76
509.145	5435.89
509.514	5409.9
509.882	5478.82
510.25	5437.47
510.618	5468.2
510.986	5522.21
511.354	5523.57
511.722	5552.04
512.09	5582.32
512.458	5573.06
512.826	5604.7
513.193	5603.12
513.561	5623.68
513.929	5667.07
514.297	5773.51
514.664	5667.52
515.032	5771.25
515.4	5754.3
515.767	5766.73
516.135	5739.16
516.502	5683.79
516.869	5778.48
517.237	5759.27
517.604	5717.91
517.972	5781.42
518.339	5818.7
518.706	5852.83
519.073	5799.49
519.44	5856.22
519.808	5929.89
520.175	5856.44
520.542	6003.56
520.909	6009.88
521.276	5951.35
521.643	6029.54
522.009	6094.63
522.376	6005.59
522.743	6079.71
523.11	6094.4
523.477	6151.8
523.843	6139.6
524.21	6216.21
524.577	6261.86
524.943	6236.09
525.31	6293.27
525.676	6294.62
526.043	6313.61
526.409	6345.24
526.776	6363.77
527.142	6406.94
527.508	6386.6
527.874	6435.64
528.241	6448.06
528.607	6421.85
528.973	6472.02
529.339	6482.87
529.705	6548.18
530.071	6556.76
530.437	6533.49
530.803	6665.01
531.169	6637.66
531.535	6634.5
531.901	6645.8
532.267	6643.09
532.632	6715.4
532.998	6765.57
533.364	6765.12
533.73	6752.92
534.095	6752.92
534.461	6862.52
534.826	6888.73
535.192	6866.81
535.557	6889.41
535.923	6867.94
536.288	6840.82
536.653	6894.61
537.019	6921.05
537.384	6902.74
537.749	6907.04
538.114	6921.05
538.479	6985
538.845	6974.38
539.21	6984.55
539.575	7006.47
539.94	7015.96
540.305	7043.76
540.67	7074.04
541.034	7069.07
541.399	7069.52
541.764	7042.4
542.129	7091.21
542.494	7130.76
542.858	7120.36
543.223	7120.59
543.587	7141.61
543.952	7161.72
544.316	7174.15
544.681	7157.88
545.045	7234.26
545.41	7208.27
545.774	7245.11
546.138	7309.06
546.503	7286.91
546.867	7277.87
547.231	7334.14
547.595	7336.4
547.959	7303.18
548.324	7373.24
548.688	7340.02
549.052	7372.56
549.416	7406.68
549.779	7338.44
550.143	7335.27
550.507	7449.39
550.871	7453.46
551.235	7423.86
551.599	7437.42
551.962	7468.38
552.326	7536.17
552.689	7482.16
553.053	7441.71
553.417	7533.01
553.78	7564.42
554.143	7524.87
554.507	7575.72
554.87	7593.57
555.234	7667.69
555.597	7599
555.96	7607.36
556.323	7658.65
556.686	7688.26
557.05	7704.3
557.413	7700.46
557.776	7730.52
558.139	7758.54
558.502	7739.56
558.865	7804.19
559.228	7856.39
559.59	7810.51
559.953	7817.52
560.316	7925.77
560.679	7910.17
561.041	7985.65
561.404	7989.72
561.767	8019.1
562.129	8035.82
562.492	8086.67
562.854	7976.39
563.217	8091.86
563.579	8097.51
563.941	8193.78
564.304	8097.29
564.666	8220.9
565.028	8210.05
565.39	8212.76
565.753	8274.23
566.115	8358.07
566.477	8276.04
566.839	8343.61
567.201	8401.69
567.563	8413.66
567.925	8451.85
568.287	8468.58
568.648	8435.58
569.01	8474.68
569.372	8524.62
569.734	8523.49
570.095	8555.13
570.457	8605.07
570.819	8639.87
571.18	8702.47
571.542	8710.6
571.903	8737.72
572.265	8734.11
572.626	8772.98
572.987	8835.35
573.349	8824.73
573.71	8915.34
574.071	8956.25
574.432	8933.42
574.794	8988.34
575.155	9027.66
575.516	9026.3
575.877	9141.55
576.238	9139.97
576.599	9166.86
576.96	9177.71
577.32	9209.57
577.681	9222.46
578.042	9351.04
578.403	9361.43
578.763	9356.24
579.124	9404.37
579.485	9423.13
579.845	9532.5
580.206	9540.41
580.566	9561.66
580.927	9585.61
581.287	9688.88
581.648	9732.5
582.008	9790.12
582.368	9740.41
582.728	9867.86
583.089	9895.66
583.449	9956.45
583.809	10037.12
584.169	10021.98
584.529	10032.15
584.889	10220.62
585.249	10229.21
585.609	10205.71
585.969	10292.71
586.329	10346.72
586.688	10411.8
587.048	10480.5
587.408	10560.27
587.768	10607.05
588.127	10614.28
588.487	10697.22
588.846	10821.51
589.206	10920.49
589.565	10991.67
589.925	11072.8
590.284	11119.13
590.643	11146.92
591.003	11266.7
591.362	11363.19
591.721	11382.85
592.08	11452.91
592.44	11487.71
592.799	11646.12
593.158	11688.38
593.517	11737.42
593.876	11748.94
594.235	11875.72
594.593	11919.56
594.952	11932.44
595.311	12003.4
595.67	12137.86
596.029	12226.9
596.387	12288.36
596.746	12310.74
597.104	12280
597.463	12395.71
597.822	12531.07
598.18	12524.52
598.538	12603.61
598.897	12682.48
599.255	12608.81
599.613	12849.25
599.972	12895.35
600.33	12895.13
600.688	12900.55
601.046	13019.19
601.404	13091.73
601.762	13148.23
602.12	13181.22
602.478	13264.16
602.836	13324.72
603.194	13289.69
603.552	13327.88
603.91	13311.84
604.268	13413.98
604.625	13426.64
604.983	13539.18
605.341	13516.58
605.698	13688.33
606.056	13755.44
606.413	13711.6
606.771	13781.21
607.128	13833.86
607.485	13793.18
607.843	13847.19
608.2	13968.09
608.557	14016
608.914	13954.76
609.272	14069.56
609.629	14154.53
609.986	14279.05
610.343	14186.39
610.7	14180.97
611.057	14352.49
611.414	14377.35
611.771	14358.59
612.127	14390.45
612.484	14368.99
612.841	14459.61
613.198	14453.73
613.554	14515.2
613.911	14578.7
614.267	14528.53
614.624	14574.18
614.98	14566.5
615.337	14661.86
615.693	14637.23
616.05	14653.5
616.406	14803.55
616.762	14813.95
617.118	14816.88
617.475	14780.28
617.831	14834.96
618.187	14792.93
618.543	14914.06
618.899	15060.49
619.255	14973.72
619.611	14959.48
619.967	15015.98
620.323	15127.84
620.678	14991.34
621.034	14982.08
621.39	15077.67
621.746	15067.27
622.101	15159.93
622.457	15048.29
622.812	15062.98
623.168	15127.16
623.523	15118.8
623.879	15151.34
624.234	15140.04
624.589	15133.94
624.945	15107.5
625.3	15169.87
625.655	15198.8
626.01	15201.73
626.365	15265.01
626.72	15146.59
627.075	15135.29
627.43	15250.77
627.785	15179.36
628.14	15194.5
628.495	15189.3
628.85	15168.29
629.205	15182.3
629.559	15238.79
629.914	15135.52
630.269	15269.53
630.623	15137.33
630.978	15172.13
631.332	15237.89
631.687	15167.61
632.041	15107.5
632.396	15185.24
632.75	15141.62
633.104	15227.95
633.459	15168.97
633.813	15118.35
634.167	15002.19
634.521	15059.14
634.875	15072.92
635.229	15083.09
635.583	14933.94
635.937	15006.94
636.291	15080.15
636.645	15015.3
636.999	14988.41
637.352	15004.9
637.706	14862.08
638.06	14975.3
638.413	14908.63
638.767	14949.99
639.121	15002.87
639.474	14818.47
639.828	14917.45
640.181	14875.19
640.534	14820.05
640.888	14846.26
641.241	14838.35
641.594	14819.14
641.947	14792.48
642.301	14794.96
642.654	14870.22
643.007	14766.49
643.36	14795.42
643.713	14725.81
644.066	14813.27
644.419	14699.15
644.771	14600.17
645.124	14536.67
645.477	14462.77
645.83	14340.74
646.182	14366.05
646.535	14302.1
646.888	14290.12
647.24	14222.55
647.593	14341.19
647.945	14318.37
648.298	14254.64
648.65	14297.12
649.002	14254.64
649.355	14366.95
649.707	14266.62
650.059	14406.27
650.411	14560.39
650.763	14547.06
651.115	14625.48
651.467	14649.21
651.819	14721.07
652.171	14635.42
652.523	14586.61
652.875	14665.25
653.227	14588.42
653.578	14674.29
653.93	14577.34
654.282	14624.8
654.633	14499.83
654.985	14624.35
655.337	14660.96
655.688	14666.83
656.039	14723.1
656.391	14547.06
656.742	14681.52
657.094	14566.5
657.445	14704.35
657.796	14574.63
658.147	14686.94
658.498	14578.7
658.849	14703.22
659.2	14599.49
659.551	14568.08
659.902	14708.19
660.253	14638.81
660.604	14680.84
660.955	14628.64
661.306	14707.73
661.656	14620.28
662.007	14721.52
662.358	14717.23
662.708	14669.77
663.059	14784.12
663.409	14600.39
663.76	14707.06
664.11	14742.99
664.461	14717
664.811	14681.29
665.161	14749.32
665.511	14731.91
665.862	14663.67
666.212	14752.03
666.562	14788.41
666.912	14743.67
667.262	14684.01
667.612	14701.86
667.962	14733.5
668.312	14783.89
668.662	14712.25
669.011	14717.9
669.361	14733.04
669.711	14728.3
670.06	14621.86
670.41	14688.07
670.76	14631.58
671.109	14731.46
671.459	14697.11
671.808	14689.2
672.157	14695.98
672.507	14595.65
672.856	14530.11
673.205	14667.06
673.554	14687.4
673.904	14569.89
674.253	14631.8
674.602	14582.54
674.951	14456.67
675.3	14317.46
675.649	14544.8
675.998	14564.01
676.346	14497.12
676.695	14510.45
677.044	14463.9
677.393	14478.36
677.741	14539.83
678.09	14474.75
678.438	14448.76
678.787	14497.34
679.135	14417.57
679.484	14302.1
679.832	14422.32
680.181	14286.73
680.529	14263
680.877	14267.52
681.225	14303.68
681.573	14296.9
681.922	14235.88
682.27	14241.31
682.618	14211.7
682.966	14153.85
683.314	14161.99
683.661	14123.57
684.009	14024.59
684.357	13993.18
684.705	14042.22
685.053	14053.97
685.4	13917.7
685.748	13972.39
686.095	13990.24
686.443	13917.7
686.79	13889.45
687.138	13841.99
687.485	13850.36
687.832	13754.77
688.18	13763.35
688.527	13696.46
688.874	13674.32
689.221	13632.96
689.568	13574.66
689.915	13492.85
690.262	13559.52
690.609	13473.64
690.956	13486.3
691.303	13383.02
691.65	13292.18
691.997	13383.25
692.344	13244.72
692.69	13233.88
693.037	13239.3
693.383	13122.47
693.73	13113.65
694.077	13171.5
694.423	13055.57
694.769	12984.39
695.116	13006.99
695.462	12985.29
695.808	12875.92
696.155	12943.94
696.501	12756.6
696.847	12739.2
697.193	12707.11
697.539	12713.89
697.885	12634.34
698.231	12589.15
698.577	12554.8
698.923	12571.97
699.269	12512.76
699.614	12440.68
699.96	12340.79
700.306	12373.78
700.651	12244.75
700.997	12146.22
701.342	12178.54
701.688	12123.85
702.033	12232.32
702.379	12122.49
702.724	12074.58
703.069	12112.77
703.415	11976.06
703.76	11956.85
704.105	11958.88
704.45	11889.96
704.795	11751.88
705.14	11772.9
705.485	11776.74
705.83	11707.14
706.175	11667.36
706.52	11633.01
706.865	11581.94
707.209	11613.8
707.554	11577.65
707.899	11598.44
708.243	11468.27
708.588	11470.98
708.932	11439.57
709.277	11354.83
709.621	11372.91
709.966	11353.7
710.31	11302.63
710.654	11227.37
710.998	11267.37
711.342	11220.14
711.687	11173.14
712.031	11138.79
712.375	11141.95
712.719	11057.89
713.063	11083.2
713.407	11138.11
713.75	11060.15
714.094	11069.41
714.438	11025.12
714.782	10984.22
715.125	10904.22
715.469	10932.69
715.812	10905.35
716.156	10811.34
716.499	10837.78
716.843	10824
717.186	10753.49
717.53	10792.36
717.873	10841.85
718.216	10806.37
718.559	10716.88
718.902	10695.41
719.246	10666.71
719.589	10709.87
719.932	10699.25
720.275	10698.35
720.617	10713.72
720.96	10652.02
721.303	10661.29
721.646	10654.73
721.989	10613.83
722.331	10590.33
722.674	10520.05
723.016	10604.11
723.359	10521.4
723.701	10546.71
724.044	10499.48
724.386	10517.56
724.729	10501.29
725.071	10437.79
725.413	10492.03
725.755	10505.81
726.097	10420.84
726.439	10405.02
726.782	10425.36
727.124	10495.19
727.465	10463.1
727.807	10382.88
728.149	10398.47
728.491	10420.62
728.833	10398.7
729.175	10409.77
729.516	10297.68
729.858	10383.78
730.199	10381.52
730.541	10296.33
730.882	10336.55
731.224	10364.35
731.565	10348.75
731.906	10283.67
732.248	10392.59
732.589	10289.55
732.93	10311.24
733.271	10344.01
733.612	10328.41
733.953	10242.99
734.294	10277.57
734.635	10267.4
734.976	10344.23
735.317	10289.77
735.658	10310.56
735.999	10303.33
736.339	10254.52
736.68	10362.99
737.021	10355.31
737.361	10312.82
737.702	10383.55
738.042	10295.65
738.383	10313.95
738.723	10308.75
739.063	10331.8
739.404	10462.42
739.744	10316.66
740.084	10269.43
740.424	10404.12
740.764	10351.01
741.104	10450.67
741.444	10423.1
741.784	10391.92
742.124	10436.66
742.464	10458.81
742.804	10475.53
743.143	10451.35
743.483	10501.52
743.823	10464.23
744.162	10512.59
744.502	10581.74
744.841	10548.75
745.181	10661.51
745.52	10662.64
745.86	10754.62
746.199	10700.38
746.538	10774.73
746.877	10866.25
747.216	10817.89
747.556	10868.29
747.895	11006.14
748.234	11006.14
748.573	11085.68
748.911	11112.35
749.25	11153.25
749.589	11184.66
749.928	11239.35
750.267	11390.31
750.605	11455.16
750.944	11477.31
751.283	11547.59
751.621	11604.31
751.96	11695.16
752.298	11798.88
752.636	11918.88
752.975	11946.68
753.313	12036.84
753.651	12271.64
753.989	12280.68
754.327	12364.75
754.666	12489.94
755.004	12618.3
755.342	12696.26
755.679	12846.77
756.017	12976.71
756.355	13100.55
756.693	13183.03
757.031	13340.54
757.368	13545.28
757.706	13553.19
758.044	13753.41
758.381	13797.25
758.719	13974.19
759.056	14192.04
759.394	14227.3
759.731	14323.11
