Data from hue_160_FLMS001491_00043.txt Node
Date: Tue Feb 07 16:51:14 GMT 2017
User: dcchb
Spectrometer: FLMS00149
Trigger mode: 0
Integration Time (sec): 2.000000E-2
Scans to average: 10
Electric dark correction enabled: true
Nonlinearity correction enabled: false
Boxcar width: 0
XAxis mode: Wavelengths
Number of Pixels in Spectrum: 2048
>>>>>Begin Spectral Data<<<<<
341.393	-25.1
341.776	-25.1
342.16	-25.1
342.543	-69.62
342.927	-65.78
343.31	-81.82
343.693	-52.89
344.077	-71.88
344.46	-50.18
344.843	-59
345.226	-35.95
345.61	-35.72
345.993	-17.41
346.376	-6.79
346.759	-0.47
347.142	28.01
347.525	32.3
347.908	44.96
348.291	87.89
348.674	95.12
349.057	123.82
349.44	129.7
349.823	133.99
350.206	153.43
350.588	199.75
350.971	207.44
351.354	233.2
351.737	228
352.119	251.05
352.502	248.57
352.884	270.04
353.267	291.96
353.65	286.08
354.032	276.81
354.414	311.16
354.797	292.41
355.179	310.26
355.562	306.42
355.944	304.61
356.326	329.47
356.709	319.98
357.091	322.46
357.473	344.38
357.855	344.38
358.238	328.79
358.62	307.77
359.002	329.69
359.384	352.97
359.766	348
360.148	310.03
360.53	314.55
360.912	321.11
361.294	329.69
361.676	323.59
362.057	317.94
362.439	331.05
362.821	334.44
363.203	310.26
363.584	318.85
363.966	324.5
364.348	317.49
364.729	312.29
365.111	313.42
365.493	295.12
365.874	317.49
366.256	316.14
366.637	320.2
367.019	307.55
367.4	311.39
367.781	306.42
368.163	293.54
368.544	299.64
368.925	319.75
369.306	321.79
369.688	311.39
370.069	294.89
370.45	320.66
370.831	309.36
371.212	291.73
371.593	319.3
371.974	295.8
372.355	320.2
372.736	325.18
373.117	315.91
373.498	307.32
373.879	325.4
374.26	292.41
374.641	312.52
375.021	315.91
375.402	301.67
375.783	315.01
376.163	321.33
376.544	319.3
376.925	335.12
377.305	291.5
377.686	309.58
378.066	308.45
378.447	302.58
378.827	328.11
379.208	310.94
379.588	351.84
379.968	309.36
380.349	323.82
380.729	340.99
381.109	323.82
381.489	335.34
381.87	331.28
382.25	340.77
382.63	326.53
383.01	355.68
383.39	326.08
383.77	346.64
384.15	343.93
384.53	327.43
384.91	350.94
385.29	346.64
385.67	346.42
386.049	359.3
386.429	345.97
386.809	348
387.189	351.39
387.568	352.52
387.948	344.61
388.328	338.96
388.707	348.9
389.087	345.51
389.466	370.37
389.846	370.6
390.225	341.67
390.605	372.86
390.984	349.81
391.363	337.83
391.743	347.55
392.122	358.85
392.501	357.26
392.881	350.49
393.26	355.23
393.639	372.63
394.018	349.13
394.397	377.38
394.776	366.53
395.155	372.41
395.534	372.86
395.913	355.23
396.292	370.6
396.671	386.87
397.05	375.34
397.429	375.8
397.808	383.7
398.186	375.8
398.565	367.89
398.944	378.28
399.323	388
399.701	408.11
400.08	394.33
400.458	394.78
400.837	378.51
401.215	390.48
401.594	407.88
401.972	385.74
402.351	393.42
402.729	389.35
403.107	385.06
403.486	407.21
403.864	398.39
404.242	398.85
404.62	412.4
404.999	420.54
405.377	410.37
405.755	423.03
406.133	416.92
406.511	406.53
406.889	432.06
407.267	445.4
407.645	405.62
408.023	425.06
408.401	424.38
408.779	453.08
409.156	419.41
409.534	449.24
409.912	428.22
410.29	422.35
410.667	436.13
411.045	473.42
411.422	456.92
411.8	449.24
412.178	460.31
412.555	482.23
412.933	437.94
413.31	486.07
413.687	503.48
414.065	478.17
414.442	498.73
414.819	476.81
415.197	511.38
415.574	503.25
415.951	489.24
416.328	470.93
416.705	483.14
417.082	509.13
417.46	503.02
417.837	508.67
418.214	504.61
418.591	508
418.967	501.44
419.344	496.92
419.721	508.45
420.098	531.27
420.475	512.74
420.852	526.75
421.228	548.45
421.605	540.76
421.982	521.33
422.358	543.02
422.735	542.57
423.111	529.46
423.488	549.12
423.864	563.36
424.241	562.68
424.617	562.23
424.994	586.19
425.37	562.91
425.746	569.24
426.123	584.38
426.499	563.36
426.875	568.78
427.251	593.64
427.627	595
428.003	606.3
428.379	614.88
428.756	611.27
429.132	615.56
429.507	618.05
429.883	611.27
430.259	618.5
430.635	657.37
431.011	646.52
431.387	637.94
431.763	653.98
432.138	658.27
432.514	700.98
432.89	670.93
433.265	675.22
433.641	664.38
434.016	682.45
434.392	699.85
434.767	711.61
435.143	706.18
435.518	710.93
435.894	712.06
436.269	719.29
436.644	717.93
437.02	751.38
437.395	716.8
437.77	748.21
438.145	747.31
438.52	758.84
438.895	773.52
439.271	777.59
439.646	794.32
440.021	813.98
440.395	803.35
440.77	800.42
441.145	829.79
441.52	834.31
441.895	828.66
442.27	803.13
442.645	831.15
443.019	818.95
443.394	824.37
443.769	864.14
444.143	840.87
444.518	853.97
444.892	856.01
445.267	864.82
445.641	864.14
446.016	877.93
446.39	889.68
446.764	900.98
447.139	899.62
447.513	888.78
447.887	897.59
448.262	884.03
448.636	932.16
449.01	918.38
449.384	909.11
449.758	937.36
450.132	932.84
450.506	919.51
450.88	920.41
451.254	960.86
451.628	980.98
452.002	984.14
452.376	991.6
452.75	983.01
453.123	992.73
453.497	995.44
453.871	1040.41
454.244	1040.86
454.618	1054.2
454.992	1055.78
455.365	1058.72
455.739	1094.42
456.112	1123.12
456.486	1109.11
456.859	1124.7
457.232	1148.66
457.606	1148.43
457.979	1158.37
458.352	1185.72
458.725	1167.19
459.099	1201.76
459.472	1217.35
459.845	1218.26
460.218	1238.6
460.591	1243.57
460.964	1266.85
461.337	1284.7
461.71	1300.74
462.083	1332.15
462.456	1336.9
462.829	1356.56
463.201	1382.32
463.574	1363.11
463.947	1427.52
464.32	1415.32
464.692	1417.35
465.065	1453.73
465.438	1477.91
465.81	1509.78
466.183	1498.25
466.555	1569.89
466.928	1569.66
467.3	1550.45
467.672	1605.14
468.045	1605.59
468.417	1665.48
468.789	1668.42
469.161	1677.68
469.534	1731.24
469.906	1766.27
470.278	1847.17
470.65	1844.91
471.022	1842.2
471.394	1888.07
471.766	1872.7
472.138	1935.98
472.51	2043.1
472.882	2037.22
473.253	2076.54
473.625	2132.81
473.997	2183.43
474.369	2229.98
474.74	2291.45
475.112	2279.25
475.484	2375.52
475.855	2402.41
476.227	2453.25
476.598	2527.38
476.97	2568.73
477.341	2606.47
477.713	2754.72
478.084	2704.1
478.455	2833.13
478.827	2928.72
479.198	2980.47
479.569	3027.25
479.94	3139.34
480.311	3226.12
480.682	3301.37
481.053	3413.91
481.424	3508.37
481.795	3537.97
482.166	3639.21
482.537	3721.02
482.908	3826.1
483.279	3941.8
483.65	4027.68
484.021	4167.56
484.391	4294.34
484.762	4326.43
485.133	4429.02
485.503	4490.94
485.874	4694.33
486.244	4790.37
486.615	4893.87
486.985	4992.17
487.356	5174.54
487.726	5177.25
488.097	5402.1
488.467	5455.21
488.837	5638.71
489.207	5766.61
489.578	5923.9
489.948	5976.78
490.318	6141.29
490.688	6211.35
491.058	6331.57
491.428	6489.31
491.798	6647.49
492.168	6792.12
492.538	6880.03
492.908	6998.9
493.278	7143.75
493.648	7204.99
494.017	7384.42
494.387	7490.86
494.757	7595.27
495.126	7779.44
495.496	7751.42
495.866	7946.67
496.235	8083.16
496.605	8160.9
496.974	8265.76
497.344	8377.17
497.713	8436.6
498.082	8577.61
498.452	8674.79
498.821	8776.48
499.19	8904.38
499.559	8959.52
499.928	9088.33
500.298	9131.27
500.667	9279.29
501.036	9250.36
501.405	9457.14
501.774	9496.91
502.143	9590.47
502.512	9679.96
502.88	9695.55
503.249	9754.08
503.618	9875.88
503.987	9891.7
504.356	10008.99
504.724	10007.63
505.093	10103.9
505.462	10137.12
505.83	10295.53
506.199	10384.57
506.567	10451.69
506.936	10489.88
507.304	10631.8
507.672	10684.22
508.041	10735.75
508.409	10781.85
508.777	10801.06
509.145	10904.56
509.514	10902.52
509.882	10952.47
510.25	10971.45
510.618	11046.25
510.986	11070.88
511.354	11187.26
511.722	11250.76
512.09	11306.13
512.458	11306.13
512.826	11359.69
513.193	11490.31
513.561	11470.42
513.929	11548.83
514.297	11540.7
514.664	11610.75
515.032	11635.61
515.4	11745.44
515.767	11720.81
516.135	11784.31
516.502	11602.62
516.869	11859.11
517.237	11736.63
517.604	11697.08
517.972	11794.7
518.339	11940.24
518.706	11962.38
519.073	11941.14
519.44	11919.22
519.808	11999.67
520.175	11970.29
520.542	12131.87
520.909	12160.34
521.276	12086
521.643	12156.5
522.009	12239.66
522.376	12264.97
522.743	12291.19
523.11	12353.33
523.477	12351.53
523.843	12360.79
524.21	12441.92
524.577	12494.35
524.943	12477.17
525.31	12534.8
525.676	12534.57
526.043	12598.52
526.409	12541.13
526.776	12597.39
527.142	12558.53
527.508	12527.11
527.874	12600.33
528.241	12621.57
528.607	12577.73
528.973	12659.54
529.339	12596.49
529.705	12652.76
530.071	12763.04
530.437	12770.95
530.803	12783.15
531.169	12758.97
531.535	12593.1
531.901	12570.73
532.267	12729.82
532.632	12699.54
532.998	12677.17
533.364	12657.73
533.73	12594.68
534.095	12710.61
534.461	12569.37
534.826	12638.52
535.192	12570.05
535.557	12624.96
535.923	12538.41
536.288	12541.13
536.653	12558.53
537.019	12412.99
537.384	12412.31
537.749	12437.85
538.114	12402.15
538.479	12404.41
538.845	12401.92
539.21	12265.2
539.575	12296.61
539.94	12276.95
540.305	12289.83
540.67	12177.74
541.034	12194.02
541.399	12125.32
541.764	12195.15
542.129	12105.2
542.494	12075.6
542.858	12086.67
543.223	12027.47
543.587	12054.58
543.952	11895.27
544.316	11897.75
544.681	11903.63
545.045	11848.26
545.41	11855.27
545.774	11850.75
546.138	11729.17
546.503	11654.82
546.867	11698.21
547.231	11756.74
547.595	11701.37
547.959	11656.63
548.324	11600.13
548.688	11563.75
549.052	11493.92
549.416	11488.27
549.779	11465.9
550.143	11484.88
550.507	11463.41
550.871	11369.86
551.235	11289.86
551.599	11361.04
551.962	11328.5
552.326	11282.63
552.689	11284.89
553.053	11217.54
553.417	11145.23
553.78	11260.48
554.143	11085.8
554.507	11134.61
554.87	11131.44
555.234	11164.21
555.597	11074.72
555.96	11115.85
556.323	11058.68
556.686	11120.15
557.05	11068.85
557.413	11070.43
557.776	11053.71
558.139	11071.11
558.502	11024.55
558.865	11000.37
559.228	11016.19
559.59	11026.14
559.953	10946.14
560.316	11107.72
560.679	11034.27
561.041	11073.14
561.404	10997.89
561.767	11114.04
562.129	11008.06
562.492	10979.58
562.854	10992.24
563.217	10946.14
563.579	11016.19
563.941	11090.32
564.304	11126.92
564.666	11052.35
565.028	11072.46
565.39	11101.39
565.753	11110.88
566.115	11098.68
566.477	11075.85
566.839	11064.33
567.201	11115.17
567.563	11131.9
567.925	11167.83
568.287	11092.12
568.648	11093.25
569.01	11247.83
569.372	11183.65
569.734	11129.18
570.095	11201.73
570.457	11303.64
570.819	11251.67
571.18	11209.41
571.542	11205.34
571.903	11284.43
572.265	11239.24
572.626	11308.39
572.987	11206.47
573.349	11240.37
573.71	11277.88
574.071	11251.89
574.432	11317.2
574.794	11321.5
575.155	11333.02
575.516	11245.57
575.877	11357.65
576.238	11395.17
576.599	11341.16
576.96	11413.25
577.32	11243.98
577.681	11349.29
578.042	11344.09
578.403	11423.41
578.763	11390.19
579.124	11346.81
579.485	11355.62
579.845	11369.18
580.206	11374.38
580.566	11351.78
580.927	11395.39
581.287	11448.27
581.648	11394.94
582.008	11362.85
582.368	11340.93
582.728	11450.53
583.089	11352
583.449	11383.19
583.809	11435.84
584.169	11427.48
584.529	11371.89
584.889	11377.99
585.249	11347.94
585.609	11299.35
585.969	11322.85
586.329	11314.72
586.688	11341.61
587.048	11248.28
587.408	11288.95
587.768	11265.23
588.127	11170.54
588.487	11173.93
588.846	11271.33
589.206	11173.93
589.565	11224.55
589.925	11271.78
590.284	11147.26
590.643	11201.73
591.003	11299.8
591.362	11273.36
591.721	11264.77
592.08	11234.27
592.44	11189.97
592.799	11202.18
593.158	11181.39
593.517	11154.04
593.876	11127.6
594.235	11137.32
594.593	11165.34
594.952	11138.45
595.311	11124.89
595.67	11197.66
596.029	11166.92
596.387	11165.34
596.746	11215.06
597.104	11083.08
597.463	11138.45
597.822	11128.05
598.18	11016.87
598.538	11076.76
598.897	11100.03
599.255	11025.91
599.613	11204.21
599.972	11095.51
600.33	11138.22
600.688	11164.44
601.046	11155.17
601.404	11119.69
601.762	11147.04
602.12	11166.25
602.478	11200.37
602.836	11149.3
603.194	11080.82
603.552	11093.48
603.91	11134.38
604.268	11126.02
604.625	11050.54
604.983	11146.81
605.341	11041.05
605.698	11099.81
606.056	11053.71
606.413	11092.12
606.771	11175.06
607.128	11067.49
607.485	11126.25
607.843	11122.18
608.2	11214.61
608.557	11225.68
608.914	11094.16
609.272	11197.66
609.629	11157.66
609.986	11199.69
610.343	11114.27
610.7	11229.75
611.057	11227.94
611.414	11192.91
611.771	11210.76
612.127	11297.54
612.484	11249.63
612.841	11276.07
613.198	11280.82
613.554	11241.05
613.911	11297.99
614.267	11277.66
614.624	11255.74
614.98	11252.12
615.337	11299.12
615.693	11316.07
616.05	11335.28
616.406	11390.65
616.762	11341.38
617.118	11323.08
617.475	11375.51
617.831	11331.67
618.187	11332.57
618.543	11428.84
618.899	11381.38
619.255	11401.49
619.611	11346.35
619.967	11416.86
620.323	11437.43
620.678	11428.84
621.034	11408.27
621.39	11360.82
621.746	11349.74
622.101	11466.58
622.457	11447.82
622.812	11337.54
623.168	11411.21
623.523	11447.37
623.879	11419.12
624.234	11465
624.589	11442.17
624.945	11495.95
625.3	11449.18
625.655	11416.63
626.01	11393.81
626.365	11399.69
626.72	11423.19
627.075	11381.38
627.43	11410.31
627.785	11387.26
628.14	11393.13
628.495	11443.3
628.85	11316.07
629.205	11322.17
629.559	11437.65
629.914	11346.35
630.269	11344.32
630.623	11352.68
630.978	11327.15
631.332	11340.93
631.687	11260.25
632.041	11343.19
632.396	11327.6
632.75	11273.14
633.104	11284.89
633.459	11203.31
633.813	11216.64
634.167	11259.35
634.521	11187.04
634.875	11229.07
635.229	11202.86
635.583	11174.83
635.937	11154.27
636.291	11213.02
636.645	11172.57
636.999	11102.29
637.352	11225.91
637.706	11064.78
638.06	11205.34
638.413	11036.76
638.767	11044.67
639.121	11153.59
639.474	11017.55
639.828	11037.89
640.181	11049.19
640.534	11079.47
640.888	10927.83
641.241	10929.64
641.594	10940.49
641.947	11071.33
642.301	10973.48
642.654	10975.97
643.007	10907.5
643.36	10922.86
643.713	10891.45
644.066	10939.36
644.419	10960.83
644.771	10838.8
645.124	10668.18
645.477	10732.81
645.83	10649.42
646.182	10594.96
646.535	10585.47
646.888	10642.87
647.24	10551.12
647.593	10597.9
647.945	10523.32
648.298	10594.74
648.65	10566.49
649.002	10509.54
649.355	10618.46
649.707	10534.4
650.059	10637.22
650.411	10738.23
650.763	10716.54
651.115	10786.37
651.467	10796.76
651.819	10815.07
652.171	10765.13
652.523	10769.42
652.875	10734.84
653.227	10688.07
653.578	10790.89
653.93	10734.39
654.282	10738.46
654.633	10721.96
654.985	10795.86
655.337	10780.72
655.688	10780.27
656.039	10786.14
656.391	10693.94
656.742	10780.27
657.094	10725.58
657.445	10765.58
657.796	10812.81
658.147	10793.15
658.498	10758.35
658.849	10768.29
659.2	10780.27
659.551	10785.92
659.902	10741.17
660.253	10800.61
660.604	10814.62
660.955	10733.26
661.306	10768.06
661.656	10835.18
662.007	10813.71
662.358	10864.33
662.708	10788.63
663.059	10841.73
663.409	10776.43
663.76	10816.88
664.11	10804.45
664.461	10844.22
664.811	10800.38
665.161	10868.4
665.511	10813.49
665.862	10912.24
666.212	10874.95
666.562	10912.24
666.912	10782.08
667.262	10905.69
667.612	10835.18
667.962	10772.81
668.312	10860.27
668.662	10873.37
669.011	10906.59
669.361	10841.73
669.711	10867.72
670.06	10869.98
670.41	10813.94
670.76	10757.9
671.109	10815.07
671.459	10741.4
671.808	10841.73
672.157	10822.07
672.507	10790.66
672.856	10739.14
673.205	10718.57
673.554	10771.68
673.904	10773.49
674.253	10747.73
674.602	10752.92
674.951	10548.18
675.3	10513.16
675.649	10701.17
675.998	10656.43
676.346	10675.86
676.695	10726.71
677.044	10620.5
677.393	10667.28
677.741	10652.14
678.09	10618.92
678.438	10629.99
678.787	10634.28
679.135	10593.61
679.484	10476.55
679.832	10465.25
680.181	10487.17
680.529	10493.04
680.877	10413.5
681.225	10454.17
681.573	10566.71
681.922	10418.24
682.27	10432.25
682.618	10396.1
682.966	10422.54
683.314	10443.55
683.661	10396.55
684.009	10340.73
684.357	10240.62
684.705	10256.44
685.053	10263.9
685.4	10208.31
685.748	10160.62
686.095	10210.79
686.443	10187.29
686.79	10145.48
687.138	10128.53
687.485	10163.11
687.832	10121.3
688.18	10111.81
688.527	10052.15
688.874	10023.45
689.221	10030.23
689.568	9974.41
689.915	9957.24
690.262	9937.35
690.609	9926.96
690.956	9862.55
691.303	9876.11
691.65	9823.68
691.997	9839.05
692.344	9739.62
692.69	9699.84
693.037	9742.55
693.383	9576.01
693.73	9689.22
694.077	9549.57
694.423	9538.27
694.769	9468.44
695.116	9504.82
695.462	9470.47
695.808	9430.92
696.155	9450.58
696.501	9383.69
696.847	9336.24
697.193	9305.28
697.539	9332.62
697.885	9291.94
698.231	9278.61
698.577	9240.42
698.923	9290.14
699.269	9194.77
699.614	9086.53
699.96	9018.73
700.306	9064.38
700.651	9076.81
700.997	8977.6
701.342	9047.88
701.688	8932.41
702.033	8876.59
702.379	8896.48
702.724	8819.87
703.069	8833.43
703.415	8776.48
703.76	8726.31
704.105	8781.45
704.45	8661.45
704.795	8600.44
705.14	8620.1
705.485	8604.28
705.83	8545.52
706.175	8539.65
706.52	8555.92
706.865	8464.85
707.209	8510.04
707.554	8498.29
707.899	8486.54
708.243	8455.36
708.588	8361.57
708.932	8318.86
709.277	8347.79
709.621	8311.18
709.966	8258.07
710.31	8263.05
710.654	8210.39
710.998	8251.07
711.342	8205.65
711.687	8168.13
712.031	8209.04
712.375	8131.75
712.719	8170.84
713.063	8130.85
713.407	8129.04
713.75	8104.86
714.094	8125.65
714.438	8026.44
714.782	8062.15
715.125	8011.53
715.469	8042.03
715.812	7985.09
716.156	7967.23
716.499	7942.6
716.843	8032.99
717.186	7906.22
717.53	7955.03
717.873	7972.66
718.216	7943.05
718.559	7837.52
718.902	7848.59
719.246	7906.22
719.589	7897.41
719.932	7817.63
720.275	7837.75
720.617	7924.07
720.96	7853.56
721.303	7859.44
721.646	7815.37
721.989	7807.92
722.331	7800.91
722.674	7814.47
723.016	7750.74
723.359	7825.32
723.701	7802.94
724.044	7748.71
724.386	7708.94
724.729	7776.73
725.071	7759.78
725.413	7723.62
725.755	7723.62
726.097	7644.76
726.439	7687.02
726.782	7694.25
727.124	7700.57
727.465	7655.38
727.807	7676.17
728.149	7670.07
728.491	7682.95
728.833	7660.58
729.175	7659.9
729.516	7626.68
729.858	7647.24
730.199	7618.54
730.541	7580.8
730.882	7660.12
731.224	7632.33
731.565	7607.02
731.906	7606.11
732.248	7605.89
732.589	7565.44
732.93	7603.85
733.271	7587.13
733.612	7586.23
733.953	7577.87
734.294	7567.92
734.635	7587.58
734.976	7617.19
735.317	7540.35
735.658	7611.99
735.999	7628.49
736.339	7616.06
736.68	7611.09
737.021	7604.31
737.361	7537.87
737.702	7617.86
738.042	7645.43
738.383	7638.66
738.723	7634.14
739.063	7626.68
739.404	7694.25
739.744	7673.46
740.084	7627.13
740.424	7652.44
740.764	7690.63
741.104	7774.02
741.444	7701.48
741.784	7697.41
742.124	7760.46
742.464	7753.23
742.804	7728.82
743.143	7755.94
743.483	7761.82
743.823	7790.97
744.162	7813.34
744.502	7924.75
744.841	7888.82
745.181	7964.75
745.52	7942.6
745.86	7996.84
746.199	8015.37
746.538	8052.2
746.877	8088.59
747.216	8154.12
747.556	8102.6
747.895	8220.79
748.234	8260.33
748.573	8204.74
748.911	8266.44
749.25	8371.97
749.589	8419.88
749.928	8482.47
750.267	8534.45
750.605	8587.1
750.944	8618.29
751.283	8752.75
751.621	8847.89
751.96	8861.22
752.298	8922.69
752.636	9037.71
752.975	9101.67
753.313	9185.96
753.651	9355.45
753.989	9433.86
754.327	9566.97
754.666	9588.66
755.004	9757.92
755.342	9844.7
755.679	9955.66
756.017	10005.37
756.355	10191.58
756.693	10258.93
757.031	10510.22
757.368	10535.53
757.706	10724.68
758.044	10793.6
758.381	11061.84
758.719	11178.22
759.056	11312.91
759.394	11469.97
759.731	11549.29
