Data from hue_60_FLMS001491_67.txt Node
Date: Mon Feb 06 15:17:44 GMT 2017
User: dcchb
Spectrometer: FLMS00149
Trigger mode: 0
Integration Time (sec): 2.000000E-2
Scans to average: 10
Electric dark correction enabled: true
Nonlinearity correction enabled: false
Boxcar width: 0
XAxis mode: Wavelengths
Number of Pixels in Spectrum: 2048
>>>>>Begin Spectral Data<<<<<
341.393	21.02
341.776	21.02
342.16	21.02
342.543	-65.99
342.927	-50.39
343.31	-72.31
343.693	-60.11
344.077	-73.22
344.46	-45.42
344.843	-53.11
345.226	-32.09
345.61	-28.25
345.993	-19.21
346.376	-9.72
346.759	4.75
347.142	11.07
347.525	47
347.908	52.2
348.291	68.92
348.674	91.3
349.057	118.19
349.44	141.69
349.823	155.93
350.206	159.09
350.588	200.67
350.971	218.3
351.354	219.66
351.737	249.48
352.119	269.6
352.502	281.57
352.884	280.22
353.267	287.9
353.65	303.49
354.032	306.66
354.414	297.17
354.797	310.05
355.179	330.16
355.562	303.49
355.944	346.21
356.326	333.32
356.709	340.56
357.091	361.8
357.473	365.87
357.855	363.61
358.238	359.99
358.62	357.96
359.002	349.37
359.384	360.89
359.766	364.51
360.148	358.63
360.53	343.49
360.912	347.34
361.294	326.55
361.676	342.14
362.057	336.26
362.439	345.3
362.821	338.07
363.203	367.45
363.584	330.16
363.966	319.31
364.348	315.7
364.729	344.62
365.111	315.7
365.493	334
365.874	333.32
366.256	332.42
366.637	314.79
367.019	327.22
367.4	319.54
367.781	332.42
368.163	306.43
368.544	319.54
368.925	321.8
369.306	343.27
369.688	316.6
370.069	300.78
370.45	327.67
370.831	309.14
371.212	343.72
371.593	331.97
371.974	317.73
372.355	333.55
372.736	329.48
373.117	320.67
373.498	314.79
373.879	321.35
374.26	334.23
374.641	318.86
375.021	330.39
375.402	311.86
375.783	331.29
376.163	333.78
376.544	340.1
376.925	335.13
377.305	341.23
377.686	318.18
378.066	343.95
378.447	326.77
378.827	349.82
379.208	357.05
379.588	349.14
379.968	349.82
380.349	332.87
380.729	348.01
381.109	333.1
381.489	329.48
381.87	344.85
382.25	338.3
382.63	357.28
383.01	351.86
383.39	353.21
383.77	343.04
384.15	348.92
384.53	368.35
384.91	346.66
385.29	356.6
385.67	348.92
386.049	361.12
386.429	368.8
386.809	362.7
387.189	374
387.568	359.54
387.948	364.28
388.328	357.73
388.707	379.65
389.087	340.78
389.466	362.25
389.846	348.01
390.225	346.43
390.605	357.5
390.984	370.61
391.363	374.23
391.743	353.66
392.122	384.17
392.501	377.84
392.881	368.35
393.26	344.17
393.639	364.06
394.018	363.15
394.397	380.33
394.776	374
395.155	377.39
395.534	397.28
395.913	367.9
396.292	394.57
396.671	408.8
397.05	375.58
397.429	395.7
397.808	370.84
398.186	386.66
398.565	378.3
398.944	367
399.323	390.27
399.701	392.31
400.08	397.73
400.458	399.76
400.837	392.08
401.215	403.61
401.594	385.53
401.972	402.7
402.351	407.67
402.729	397.05
403.107	409.71
403.486	395.02
403.864	400.44
404.242	402.7
404.62	395.24
404.999	413.1
405.377	399.76
405.755	409.93
406.133	410.16
406.511	400.89
406.889	419.42
407.267	439.31
407.645	430.5
408.023	416.03
408.401	421.01
408.779	419.65
409.156	428.01
409.534	450.84
409.912	457.39
410.29	428.46
410.667	433.21
411.045	450.16
411.422	437.5
411.8	461.68
412.178	456.03
412.555	456.49
412.933	447.9
413.31	459.87
413.687	446.99
414.065	471.4
414.442	461.91
414.819	465.07
415.197	479.76
415.574	475.92
415.951	479.08
416.328	470.04
416.705	479.08
417.082	488.8
417.46	465.98
417.837	499.2
418.214	494.45
418.591	477.05
418.967	489.7
419.344	508.24
419.721	503.72
420.098	514.11
420.475	515.92
420.852	508.24
421.228	514.34
421.605	501.68
421.982	503.26
422.358	525.41
422.735	527.9
423.111	512.3
423.488	517.5
423.864	555.69
424.241	555.69
424.617	522.47
424.994	526.77
425.37	541.45
425.746	543.94
426.123	568.12
426.499	559.08
426.875	557.27
427.251	581
427.627	570.83
428.003	576.48
428.379	574.22
428.756	558.86
429.132	580.1
429.507	564.5
429.883	577.61
430.259	581.91
430.635	565.86
431.011	592.3
431.387	622.13
431.763	602.47
432.138	589.81
432.514	609.02
432.89	599.08
433.265	618.06
433.641	625.52
434.016	638.18
434.392	637.72
434.767	647.44
435.143	633.66
435.518	649.93
435.894	645.63
436.269	641.34
436.644	657.84
437.02	665.29
437.395	667.33
437.77	670.26
438.145	679.3
438.52	709.81
438.895	693.99
439.271	682.92
439.646	692.64
440.021	700.32
440.395	706.42
440.77	712.98
441.145	704.61
441.52	725.86
441.895	719.98
442.27	724.05
442.645	726.76
443.019	733.09
443.394	733.31
443.769	753.65
444.143	734.67
444.518	745.07
444.892	753.88
445.267	776.93
445.641	747.1
446.016	751.62
446.39	763.6
446.764	780.32
447.139	793.65
447.513	770.83
447.887	787.55
448.262	786.65
448.636	796.59
449.01	793.88
449.384	793.65
449.758	789.81
450.132	794.1
450.506	816.02
450.88	830.49
451.254	798.85
451.628	844.27
452.002	836.14
452.376	844.27
452.75	869.81
453.123	853.76
453.497	867.32
453.871	861.9
454.244	888.79
454.618	892.63
454.992	867.77
455.365	904.61
455.739	893.31
456.112	938.05
456.486	920.65
456.859	928.56
457.232	951.61
457.606	937.83
457.979	945.74
458.352	974.44
458.725	988
459.099	995
459.472	992.52
459.845	1013.31
460.218	1022.35
460.591	1012.4
460.964	1038.62
461.337	1062.34
461.71	1064.15
462.083	1046.75
462.456	1076.13
462.829	1105.73
463.201	1099.86
463.574	1124.26
463.947	1128.56
464.32	1152.51
464.692	1185.51
465.065	1178.05
465.438	1201.55
465.81	1195.67
466.183	1224.15
466.555	1256.01
466.928	1228.67
467.3	1265.28
467.672	1302.79
468.045	1320.42
468.417	1324.71
468.789	1369.23
469.161	1341.21
469.534	1407.87
469.906	1433.18
470.278	1445.61
470.65	1470.7
471.022	1492.16
471.394	1550.24
471.766	1578.72
472.138	1568.32
472.51	1624.82
472.882	1599.96
473.253	1664.14
473.625	1720.18
473.997	1748.2
474.369	1766.96
474.74	1828.65
475.112	1875.88
475.484	1911.14
475.855	1973.28
476.227	1983.45
476.598	2063.67
476.97	2102.32
477.341	2154.75
477.713	2242.43
478.084	2239.49
478.455	2335.98
478.827	2382.99
479.198	2502.08
479.569	2545.02
479.94	2592.25
480.311	2641.29
480.682	2737.33
481.053	2826.82
481.424	2901.84
481.795	2980.03
482.166	3073.59
482.537	3147.49
482.908	3267.03
483.279	3354.94
483.65	3444.2
484.021	3546.8
484.391	3654.82
484.762	3745.89
485.133	3832.22
485.503	3921.48
485.874	4078.99
486.244	4151.76
486.615	4283.05
486.985	4413.22
487.356	4551.97
487.726	4618.18
488.097	4803.72
488.467	4902.7
488.837	5067.44
489.207	5209.58
489.578	5321.44
489.948	5457.26
490.318	5592.85
490.688	5677.14
491.058	5855.44
491.428	6015.21
491.798	6141.31
492.168	6343.56
492.538	6468.98
492.908	6600.05
493.278	6784
493.648	6878.69
494.017	7097.44
494.387	7221.73
494.757	7386.25
495.126	7488.16
495.496	7643.64
495.866	7796.41
496.235	7976.97
496.605	8055.16
496.974	8242.72
497.344	8415.37
497.713	8518.65
498.082	8661.47
498.452	8825.3
498.821	8996.15
499.19	9063.04
499.559	9258.51
499.928	9426.87
500.298	9549.81
500.667	9709.35
501.036	9810.14
501.405	9931.04
501.774	10115.44
502.143	10197.25
502.512	10368.99
502.88	10530.57
503.249	10632.04
503.618	10806.5
503.987	10951.58
504.356	11041.52
504.724	11102.08
505.093	11303.66
505.462	11447.61
505.83	11647.6
506.199	11729.41
506.567	11894.6
506.936	11998.33
507.304	12205.33
507.672	12276.29
508.041	12424.76
508.409	12550.86
508.777	12715.6
509.145	12843.73
509.514	12961.47
509.882	13078.98
510.25	13163.5
510.618	13345.86
510.986	13397.16
511.354	13739.07
511.722	13705.18
512.09	13948.11
512.458	13929.8
512.826	14109.23
513.193	14236.24
513.561	14339.96
513.929	14535.44
514.297	14633.06
514.664	14854.98
515.032	14949.44
515.4	15117.12
515.767	15250.22
516.135	15343.33
516.502	15319.37
516.869	15627.39
517.237	15708.74
517.604	15719.81
517.972	15958.68
518.339	16066.02
518.706	16184.89
519.073	16288.61
519.44	16386.91
519.808	16525.89
520.175	16600.02
520.542	16818.77
520.909	16980.12
521.276	17058.53
521.643	17186.89
522.009	17374.23
522.376	17467.79
522.743	17658.29
523.11	17824.39
523.477	18016.02
523.843	18159.52
524.21	18269.35
524.577	18450.14
524.943	18517.93
525.31	18685.16
525.676	18816.91
526.043	18886.96
526.409	19192.26
526.776	19272.94
527.142	19358.81
527.508	19532.82
527.874	19684.91
528.241	19867.73
528.607	19826.37
528.973	20101.39
529.339	20069.08
529.705	20351.1
530.071	20508.61
530.437	20468.61
530.803	20696.18
531.169	20810.98
531.535	20807.81
531.901	20995.38
532.267	21009.17
532.632	21140.69
532.998	21285.54
533.364	21412.54
533.73	21481.92
534.095	21562.82
534.461	21724.4
534.826	21856.37
535.192	21923.27
535.557	22090.72
535.923	22005.3
536.288	22177.72
536.653	22275.12
537.019	22185.63
537.384	22307.66
537.749	22466.53
538.114	22587.65
538.479	22667.65
538.845	22699.52
539.21	22692.96
539.575	22831.04
539.94	22888.66
540.305	23009.56
540.67	23007.76
541.034	23143.57
541.399	23170.01
541.764	23306.73
542.129	23494.98
542.494	23465.82
542.858	23554.63
543.223	23558.25
543.587	23669.89
543.952	23774.29
544.316	23866.27
544.681	23845.02
545.045	23988.3
545.41	24194.62
545.774	24153.04
546.138	24206.37
546.503	24247.95
546.867	24304.45
547.231	24424.44
547.595	24560.26
547.959	24647.49
548.324	24661.5
548.688	24824.88
549.052	24823.08
549.416	24844.32
549.779	24897.88
550.143	25031.21
550.507	25201.15
550.871	25252.67
551.235	25191.43
551.599	25446.11
551.962	25482.49
552.326	25650.85
552.689	25743.96
553.053	25698.76
553.417	25749.38
553.78	26053.1
554.143	26013.78
554.507	26161.8
554.87	26270.27
555.234	26392.07
555.597	26212.42
555.96	26459.64
556.323	26604.05
556.686	26622.58
557.05	26824.15
557.413	26900.54
557.776	26903.7
558.139	27056.92
558.502	27197.48
558.865	27296.23
559.228	27446.96
559.59	27544.81
559.953	27611.48
560.316	27846.95
560.679	27930.79
561.041	28031.35
561.404	28165.36
561.767	28411.23
562.129	28239.94
562.492	28623.88
562.854	28614.84
563.217	28628.17
563.579	28722.18
563.941	28944.1
564.304	29109.07
564.666	29172.57
565.028	29370.98
565.39	29278.55
565.753	29533.91
566.115	29575.95
566.477	29857.07
566.839	29887.58
567.201	29930.74
567.563	30024.07
567.925	30358.52
568.287	30278.3
568.648	30348.81
569.01	30582.47
569.372	30802.81
569.734	30599.65
570.095	30856.14
570.457	30966.87
570.819	31049.58
571.18	31099.07
571.542	31234.43
571.903	31193.3
572.265	31301.55
572.626	31525.5
572.987	31626.74
573.349	31593.97
573.71	31807.53
574.071	31978.82
574.432	32012.04
574.794	32238.7
575.155	32173.39
575.516	32061.98
575.877	32394.85
576.238	32317.57
576.599	32406.83
576.96	32569.09
577.32	32519.37
577.681	32839.59
578.042	32911.23
578.403	32743.77
578.763	32765.24
579.124	32868.29
579.485	33053.82
579.845	33113.93
580.206	33054.72
580.566	33138.79
580.927	33083.2
581.287	33144.67
581.648	33274.38
582.008	33358.9
582.368	33293.36
582.728	33279.35
583.089	33306.69
583.449	33358.67
583.809	33331.55
584.169	33543.75
584.529	33442.51
584.889	33661.49
585.249	33469.85
585.609	33334.72
585.969	33698.77
586.329	33581.04
586.688	33681.83
587.048	33592.11
587.408	33530.64
587.768	33624.88
588.127	33680.47
588.487	33561.83
588.846	33778.77
589.206	33514.82
589.565	33625.56
589.925	33819
590.284	33748.04
590.643	33757.98
591.003	33928.15
591.362	34068.71
591.721	33947.58
592.08	33934.47
592.44	33971.08
592.799	33960.46
593.158	33865.78
593.517	34015.38
593.876	34018.54
594.235	33950.97
594.593	34059.44
594.952	34115.49
595.311	34017.64
595.67	34167.46
596.029	34284.3
596.387	34349.61
596.746	34417.63
597.104	34288.82
597.463	34252.43
597.822	34442.26
598.18	34347.8
598.538	34388.93
598.897	34620.11
599.255	34267.12
599.613	34733.1
599.972	34615.36
600.33	34614.91
600.688	34547.79
601.046	34651.97
601.404	34879.31
601.762	34698.75
602.12	34934.67
602.478	34904.84
602.836	34856.48
603.194	34611.97
603.552	34888.8
603.91	34790.05
604.268	35011.96
604.625	34985.29
604.983	35071.39
605.341	34998.18
605.698	35215.8
606.056	35202.69
606.413	35203.82
606.771	35266.87
607.128	35448.11
607.485	35317.04
607.843	35480.2
608.2	35675.9
608.557	35642.68
608.914	35478.62
609.272	35757.03
609.629	35776.91
609.986	36089.45
610.343	35777.59
610.7	35975.78
611.057	36051.26
611.414	36009.45
611.771	36074.76
612.127	36196.34
612.484	36186.62
612.841	36330.34
613.198	36223.23
613.554	36190.46
613.911	36550.9
614.267	36401.08
614.624	36495.99
614.98	36605.82
615.337	36720.84
615.693	36778.47
616.05	36647.85
616.406	36870.89
616.762	36596.1
617.118	36893.95
617.475	36879.26
617.831	36945.02
618.187	37087.84
618.543	37151.34
618.899	37389.75
619.255	37115.18
619.611	37266.59
619.967	37365.57
620.323	37508.39
620.678	37377.1
621.034	37336.87
621.39	37312.92
621.746	37176.65
622.101	37725.11
622.457	37428.85
622.812	37485.12
623.168	37691.66
623.523	37600.14
623.879	37739.8
624.234	37474.04
624.589	37717.43
624.945	37701.16
625.3	37713.81
625.655	37771.44
626.01	37823.86
626.365	37836.97
626.72	37825.67
627.075	37806.01
627.43	37683.3
627.785	37784.77
628.14	37778.22
628.495	37898.21
628.85	37815.05
629.205	37776.63
629.559	38012.56
629.914	37767.37
630.269	37872.9
630.623	37890.98
630.978	37691.44
631.332	37754.71
631.687	37876.97
632.041	37813.24
632.396	37839.91
632.75	37740.02
633.104	37763.98
633.459	37585
633.813	37693.92
634.167	37617.09
634.521	37671.1
634.875	37752.68
635.229	37662.96
635.583	37422.29
635.937	37549.3
636.291	37387.49
636.645	37515.17
636.999	37405.57
637.352	37573.02
637.706	37388.4
638.06	37500.71
638.413	37490.31
638.767	37270.21
639.121	37290.77
639.474	37155.41
639.828	37335.97
640.181	37238.34
640.534	37282.41
640.888	37140.94
641.241	36957.9
641.594	37035.64
641.947	37136.88
642.301	37017.78
642.654	37132.81
643.007	37263.65
643.36	37159.7
643.713	37044.68
644.066	37095.97
644.419	36898.46
644.771	36770.78
645.124	36418.93
645.477	36357.01
645.83	36143.23
646.182	36038.6
646.535	35919.06
646.888	36043.8
647.24	35611.49
647.593	35808.32
647.945	35906.63
648.298	35686.52
648.65	35548.9
649.002	35502.34
649.355	35702.79
649.707	35603.36
650.059	35821.43
650.411	36092.38
650.763	36224.58
651.115	36572.37
651.467	36500.96
651.819	36503.67
652.171	36369.89
652.523	36400.62
652.875	36303
653.227	36133.06
653.578	36503.9
653.93	36323.56
654.282	36120.86
654.633	36227.97
654.985	36212.61
655.337	36255.54
655.688	36237.69
656.039	36381.64
656.391	35990.24
656.742	36026.17
657.094	36152.04
657.445	36314.07
657.796	36152.5
658.147	36000.18
658.498	35895.55
658.849	36090.35
659.2	36004.25
659.551	35967.87
659.902	36089.67
660.253	36049.9
660.604	36047.64
660.955	35890.36
661.306	35891.94
661.656	35957.92
662.007	35932.84
662.358	35843.13
662.708	35972.84
663.059	35851.94
663.409	35668.67
663.76	35992.5
664.11	35972.61
664.461	35922.9
664.811	35974.42
665.161	35886.97
665.511	35810.58
665.862	35866.4
666.212	35851.03
666.562	35954.31
666.912	35837.48
667.262	35824.82
667.612	35805.61
667.962	35802.22
668.312	35815.56
668.662	35831.6
669.011	35865.27
669.361	35716.12
669.711	35771.94
670.06	35704.15
670.41	35597.48
670.76	35474.1
671.109	35660.31
671.459	35585.05
671.808	35469.58
672.157	35719.29
672.507	35431.16
672.856	35581.44
673.205	35419.18
673.554	35603.36
673.904	35517.71
674.253	35626.86
674.602	35482.68
674.951	35011.28
675.3	34865.75
675.649	35477.26
675.998	35365.4
676.346	35359.97
676.695	35442.23
677.044	35177.15
677.393	35314.1
677.741	35312.07
678.09	35201.33
678.438	35129.7
678.787	35229.13
679.135	35146.19
679.484	34917.27
679.832	35185.06
680.181	34862.36
680.529	34997.95
680.877	34898.74
681.225	34884.73
681.573	35239.53
681.922	34801.8
682.27	34707.56
682.618	34648.13
682.966	34687.68
683.314	34738.75
683.661	34668.47
684.009	34443.84
684.357	34415.82
684.705	34291.53
685.053	34573.55
685.4	34458.53
685.748	34100.8
686.095	34181.47
686.443	34031.65
686.79	34058.54
687.138	34124.98
687.485	34075.04
687.832	33987.58
688.18	33937.19
688.527	33740.13
688.874	33731.54
689.221	33663.3
689.568	33630.75
689.915	33470.08
690.262	33590.08
690.609	33393.47
690.956	33366.13
691.303	33323.19
691.65	33206.81
691.997	33160.26
692.344	33002.3
692.69	32870.32
693.037	33086.59
693.383	32775.41
693.73	32720.5
694.077	32747.61
694.423	32681.17
694.769	32597.79
695.116	32456.77
695.462	32471.69
695.808	32241.41
696.155	32286.38
696.501	32180.85
696.847	32159.38
697.193	31887.3
697.539	32026.28
697.885	31784.7
698.231	31730.47
698.577	31741.31
698.923	31666.06
699.269	31612.05
699.614	31356.01
699.96	31428.55
700.306	31402.56
700.651	31204.83
700.997	31103.59
701.342	31082.57
701.688	30896.14
702.033	30883.26
702.379	30917.61
702.724	30789.7
703.069	30796.03
703.415	30442.59
703.76	30513.77
704.105	30444.85
704.45	30441.23
704.795	30229.49
705.14	30170.28
705.485	30092.99
705.83	30020.68
706.175	30068.81
706.52	29940.46
706.865	29810.52
707.209	29790.86
707.554	29753.34
707.899	29676.06
708.243	29569.84
708.588	29571.43
708.932	29366.69
709.277	29401.94
709.621	29324.88
709.966	29166.92
710.31	29205.56
710.654	28950.88
710.998	29138.44
711.342	29072.68
711.687	29038.11
712.031	28943.65
712.375	28783.2
712.719	28869.75
713.063	28762.63
713.407	28818.45
713.75	28642.86
714.094	28551.57
714.438	28533.71
714.782	28596.99
715.125	28390.89
715.469	28487.39
715.812	28378.24
716.156	28122.65
716.499	28133.95
716.843	28085.59
717.186	28055.76
717.53	28162.2
717.873	28081.97
718.216	27942.32
718.559	27826.39
718.902	27668.65
719.246	27772.15
719.589	27679.95
719.932	27626.39
720.275	27595.66
720.617	27505.27
720.96	27468.88
721.303	27500.52
721.646	27432.27
721.989	27322.45
722.331	27493.97
722.674	27259.4
723.016	27393.63
723.359	27180.98
723.701	27227.31
724.044	27078.38
724.386	26967.43
724.729	27042.68
725.071	27037.48
725.413	27113.64
725.755	26941.89
726.097	26801.33
726.439	26814.66
726.782	26804.27
727.124	26789.58
727.465	26701.67
727.807	26591.39
728.149	26568.79
728.491	26491.51
728.833	26572.86
729.175	26403.37
729.516	26438.85
729.858	26426.42
730.199	26349.59
730.541	26315.24
730.882	26383.49
731.224	26273.89
731.565	26134.45
731.906	26170.61
732.248	26157.96
732.589	26115.02
732.93	25954.12
733.271	25966.55
733.612	26056.72
733.953	26014.23
734.294	25972.65
734.635	25803.39
734.976	25850.85
735.317	25809.26
735.658	25767.46
735.999	25745.54
736.339	25690.4
736.68	25708.48
737.021	25546.45
737.361	25496.96
737.702	25720.23
738.042	25577.18
738.383	25572.89
738.723	25459.67
739.063	25360.92
739.404	25443.17
739.744	25256.74
740.084	25228.04
740.424	25281.37
740.764	25240.47
741.104	25233.46
741.444	25163.86
741.784	25005.9
742.124	25075.95
742.464	25042.96
742.804	25030.3
743.143	24947.14
743.483	24994.82
743.823	24773.81
744.162	24990.08
744.502	24737.88
744.841	24701.05
745.181	24799.12
745.52	24641.39
745.86	24752.57
746.199	24674.15
746.538	24620.82
746.877	24621.5
747.216	24701.5
747.556	24461.05
747.895	24544.67
748.234	24404.1
748.573	24455.18
748.911	24439.81
749.25	24386.93
749.589	24274.62
749.928	24300.38
750.267	24244.11
750.605	24213.37
750.944	24064.45
751.283	24059.48
751.621	24074.17
751.96	24041.85
752.298	23986.49
752.636	23948.3
752.975	23870.11
753.313	23695.87
753.651	23813.61
753.989	23716.44
754.327	23610
754.666	23540.62
755.004	23635.54
755.342	23604.13
755.679	23420.63
756.017	23303.12
756.355	23379.05
756.693	23207.75
757.031	23313.29
757.368	23173.63
