Data from hue_190_FLMS001491_00027.txt Node
Date: Tue Feb 07 16:45:04 GMT 2017
User: dcchb
Spectrometer: FLMS00149
Trigger mode: 0
Integration Time (sec): 2.000000E-2
Scans to average: 10
Electric dark correction enabled: true
Nonlinearity correction enabled: false
Boxcar width: 0
XAxis mode: Wavelengths
Number of Pixels in Spectrum: 2048
>>>>>Begin Spectral Data<<<<<
341.393	13.53
341.776	13.53
342.16	13.53
342.543	-45.22
342.927	-55.62
343.31	-64.66
343.693	-72.79
344.077	-63.3
344.46	-54.26
344.843	-57.65
345.226	-50.2
345.61	-35.73
345.993	-35.96
346.376	-14.04
346.759	15.79
347.142	13.53
347.525	46.3
347.908	91.27
348.291	86.98
348.674	82.68
349.057	112.06
349.44	115
349.823	161.55
350.206	170.36
350.588	195.45
350.971	182.34
351.354	207.88
351.737	243.36
352.119	257.37
352.502	257.82
352.884	285.39
353.267	284.71
353.65	287.2
354.032	290.81
354.414	301.21
354.797	326.06
355.179	305.73
355.562	347.53
355.944	314.99
356.326	315.67
356.709	337.59
357.091	324.03
357.473	344.14
357.855	332.39
358.238	344.82
358.62	332.84
359.002	342.34
359.384	351.37
359.766	336.91
360.148	324.26
360.53	340.98
360.912	344.82
361.294	341.43
361.676	322.22
362.057	339.17
362.439	328.32
362.821	312.28
363.203	315.22
363.584	340.08
363.966	340.75
364.348	334.88
364.729	303.47
365.111	312.51
365.493	320.64
365.874	321.55
366.256	315.9
366.637	322
367.019	302.56
367.4	322
367.781	311.38
368.163	297.14
368.544	317.48
368.925	322.9
369.306	316.35
369.688	303.01
370.069	311.38
370.45	304.14
370.831	312.51
371.212	287.65
371.593	324.26
371.974	307.99
372.355	315.67
372.736	307.31
373.117	315.22
373.498	309.12
373.879	314.09
374.26	295.33
374.641	307.31
375.021	301.21
375.402	320.64
375.783	349.34
376.163	338.04
376.544	311.15
376.925	331.49
377.305	326.29
377.686	331.71
378.066	313.41
378.447	315.44
378.827	321.55
379.208	333.3
379.588	308.21
379.968	346.18
380.349	349.12
380.729	306.63
381.109	326.74
381.489	323.35
381.87	330.81
382.25	347.76
382.63	335.56
383.01	340.08
383.39	327.19
383.77	347.31
384.15	349.57
384.53	327.65
384.91	342.79
385.29	343.92
385.67	336.01
386.049	357.48
386.429	331.94
386.809	356.8
387.189	346.63
387.568	365.84
387.948	344.6
388.328	328.1
388.707	335.56
389.087	367.42
389.466	349.57
389.846	350.02
390.225	345.73
390.605	373.3
390.984	372.17
391.363	341.21
391.743	374.65
392.122	377.59
392.501	349.12
392.881	350.02
393.26	398.38
393.639	373.75
394.018	363.8
394.397	352.05
394.776	374.2
395.155	364.03
395.534	362.22
395.913	360.41
396.292	367.19
396.671	393.41
397.05	384.37
397.429	383.69
397.808	384.59
398.186	391.6
398.565	389.34
398.944	400.41
399.323	409.68
399.701	385.27
400.08	380.3
400.458	401.54
400.837	377.36
401.215	400.41
401.594	401.54
401.972	391.83
402.351	415.78
402.729	427.53
403.107	403.8
403.486	416.23
403.864	407.64
404.242	418.04
404.62	425.5
404.999	415.55
405.377	442.67
405.755	432.95
406.133	452.84
406.511	441.32
406.889	446.51
407.267	446.29
407.645	470.24
408.023	463.01
408.401	480.86
408.779	482.44
409.156	482.22
409.534	483.57
409.912	491.48
410.29	483.8
410.667	523.12
411.045	496.68
411.422	511.6
411.8	517.7
412.178	542.1
412.555	542.33
412.933	559.96
413.31	543.69
413.687	582.1
414.065	568.54
414.442	566.74
414.819	598.6
415.197	595.89
415.574	623.23
415.951	613.97
416.328	610.13
416.705	644.47
417.082	637.02
417.46	662.55
417.837	655.1
418.214	658.71
418.591	655.32
418.967	651.71
419.344	684.7
419.721	683.34
420.098	710.24
420.475	711.82
420.852	705.26
421.228	744.36
421.605	740.29
421.982	758.14
422.358	767.18
422.735	789.78
423.111	798.14
423.488	810.35
423.864	828.65
424.241	848.54
424.617	858.25
424.994	860.29
425.37	877.91
425.746	872.49
426.123	895.77
426.499	891.47
426.875	917.69
427.251	936.9
427.627	952.26
428.003	948.87
428.379	975.31
428.756	970.12
429.132	1037.68
429.507	1001.08
429.883	1033.39
430.259	1043.33
430.635	1042.2
431.011	1033.16
431.387	1082.43
431.763	1087.4
432.138	1090.34
432.514	1132.15
432.89	1129.66
433.265	1162.65
433.641	1186.16
434.016	1186.83
434.392	1212.6
434.767	1240.39
435.143	1245.81
435.518	1280.16
435.894	1283.1
436.269	1328.07
436.644	1352.48
437.02	1351.8
437.395	1402.87
437.77	1425.25
438.145	1426.15
438.52	1442.65
438.895	1482.19
439.271	1476.54
439.646	1510.89
440.021	1544.11
440.395	1556.09
440.77	1549.08
441.145	1605.35
441.52	1629.99
441.895	1592.7
442.27	1646.93
442.645	1664.11
443.019	1681.51
443.394	1693.49
443.769	1755.41
444.143	1724.22
444.518	1757.44
444.892	1764.22
445.267	1776.42
445.641	1779.81
446.016	1812.58
446.39	1808.74
446.764	1869.53
447.139	1838.34
447.513	1846.25
447.887	1886.25
448.262	1939.13
448.636	1920.15
449.01	1904.55
449.384	1964.67
449.758	1979.58
450.132	2014.38
450.506	2016.87
450.88	2014.83
451.254	1994.5
451.628	2054.38
452.002	2102.29
452.376	2117.43
452.75	2101.61
453.123	2156.75
453.497	2139.58
453.871	2194.72
454.244	2225.68
454.618	2228.61
454.992	2268.39
455.365	2281.72
455.739	2330.98
456.112	2340.02
456.486	2354.49
456.859	2389.51
457.232	2446.46
457.606	2411.21
457.979	2448.72
458.352	2513.58
458.725	2575.72
459.099	2562.84
459.472	2629.28
459.845	2613.46
460.218	2697.75
460.591	2723.74
460.964	2710.86
461.337	2777.3
461.71	2783.85
462.083	2861.14
462.456	2828.37
462.829	2876.96
463.201	2904.53
463.574	2965.54
463.947	2981.59
464.32	3047.58
464.692	3041.02
465.065	3091.87
465.438	3161.02
465.81	3198.98
466.183	3241.69
466.555	3336.38
466.928	3330.28
467.3	3347.68
467.672	3374.57
468.045	3469.26
468.417	3485.08
468.789	3455.47
469.161	3515.81
469.534	3571.18
469.906	3693.66
470.278	3729.14
470.65	3776.82
471.022	3821.57
471.394	3888.91
471.766	3931.62
472.138	3951.05
472.51	4062.24
472.882	4111.28
473.253	4200.31
473.625	4245.06
473.997	4317.15
474.369	4372.29
474.74	4369.8
475.112	4495.22
475.484	4554.43
475.855	4654.76
476.227	4681.88
476.598	4776.12
476.97	4821.31
477.341	4970.01
477.713	5027.64
478.084	5052.27
478.455	5225.82
478.827	5237.57
479.198	5333.39
479.569	5361.19
479.94	5551.01
480.311	5616.55
480.682	5778.35
481.053	5875.98
481.424	5971.79
481.795	6026.93
482.166	6121.84
482.537	6183.31
482.908	6295.63
483.279	6369.3
483.65	6494.49
484.021	6570.65
484.391	6705.56
484.762	6736.07
485.133	6817.87
485.503	6937.19
485.874	7041.14
486.244	7149.84
486.615	7284.53
486.985	7322.27
487.356	7516.38
487.726	7533.78
488.097	7626.89
488.467	7704.18
488.837	7889.26
489.207	7971.51
489.578	8084.96
489.948	8147.33
490.318	8229.13
490.688	8277.49
491.058	8436.36
491.428	8487.43
491.798	8569.69
492.168	8797.03
492.538	8765.62
492.908	8888.78
493.278	9012.39
493.648	8977.81
494.017	9145.27
494.387	9159.05
494.757	9198.37
495.126	9312.95
495.496	9295.77
495.866	9423.45
496.235	9410.57
496.605	9528.76
496.974	9648.98
497.344	9660.73
497.713	9784.12
498.082	9731.02
498.452	9839.49
498.821	9886.49
499.19	9840.16
499.559	10032.25
499.928	9942.76
500.298	10029.76
500.667	10109.08
501.036	10086.26
501.405	10223.88
501.774	10215.75
502.143	10289.42
502.512	10236.54
502.88	10301.85
503.249	10314.95
503.618	10382.07
503.987	10373.26
504.356	10443.76
504.724	10490.09
505.093	10534.61
505.462	10482.86
505.83	10561.28
506.199	10583.65
506.567	10669.97
506.936	10660.93
507.304	10712.46
507.672	10723.31
508.041	10791.55
508.409	10821.83
508.777	10826.58
509.145	10900.02
509.514	10849.4
509.882	10875.84
510.25	10881.49
510.618	10904.77
510.986	10930.76
511.354	10909.97
511.722	11039
512.09	11033.13
512.458	11074.71
512.826	11028.61
513.193	11093.69
513.561	11046.46
513.929	11125.55
514.297	11178.43
514.664	11145.22
515.032	11226.34
515.4	11183.63
515.767	11265.44
516.135	11207.13
516.502	11046.69
516.869	11183.86
517.237	11201.26
517.604	11086.91
517.972	11200.36
518.339	11248.72
518.706	11305.44
519.073	11206
519.44	11223.41
519.808	11252.33
520.175	11264.31
520.542	11276.51
520.909	11308.37
521.276	11251.43
521.643	11296.4
522.009	11285.1
522.376	11204.2
522.743	11343.85
523.11	11364.42
523.477	11432.44
523.843	11344.98
524.21	11484.87
524.577	11406.9
524.943	11392.21
525.31	11450.74
525.676	11371.65
526.043	11423.85
526.409	11411.42
526.776	11483.51
527.142	11319.45
527.508	11396.96
527.874	11396.73
528.241	11377.07
528.607	11305.89
528.973	11319.22
529.339	11244.42
529.705	11276.29
530.071	11288.71
530.437	11230.41
530.803	11301.14
531.169	11277.42
531.535	11108.61
531.901	11216.85
532.267	11125.1
532.632	11059.12
532.998	11024.77
533.364	11060.47
533.73	11015.05
534.095	11033.13
534.461	11054.82
534.826	10947.03
535.192	10896.18
535.557	10879.01
535.923	10741.61
536.288	10768.95
536.653	10676.3
537.019	10653.7
537.384	10579.58
537.749	10528.06
538.114	10472.01
538.479	10481.73
538.845	10388.17
539.21	10340.26
539.575	10295.75
539.94	10279.93
540.305	10220.49
540.67	10051.68
541.034	10124.23
541.399	10041.97
541.764	9947.73
542.129	10034.06
542.494	9929.65
542.858	9908.86
543.223	9833.16
543.587	9821.86
543.952	9797.68
544.316	9695.54
544.681	9656.67
545.045	9650.79
545.41	9610.34
545.774	9480.63
546.138	9417.8
546.503	9391.36
546.867	9283.8
547.231	9310.46
547.595	9199.28
547.959	9164.48
548.324	9140.3
548.688	9166.51
549.052	9111.14
549.416	9046.74
549.779	8997.48
550.143	8906.4
550.507	8943.47
550.871	8861.43
551.235	8774.43
551.599	8764.04
551.962	8682.46
552.326	8691.72
552.689	8722
553.053	8567.66
553.417	8511.84
553.78	8575.57
554.143	8480.65
554.507	8466.64
554.87	8379.41
555.234	8373.08
555.597	8272.07
555.96	8296.02
556.323	8273.2
556.686	8212.19
557.05	8199.3
557.413	8147.33
557.776	8166.76
558.139	8117.5
558.502	8027.33
558.865	8065.97
559.228	8080.89
559.59	8022.13
559.953	7931.29
560.316	7983.72
560.679	7928.12
561.041	7938.07
561.404	7859.43
561.767	7891.97
562.129	7844.74
562.492	7877.05
562.854	7868.01
563.217	7858.97
563.579	7785.08
563.941	7778.75
564.304	7773.1
564.666	7816.26
565.028	7720.22
565.39	7814
565.753	7795.92
566.115	7759.54
566.477	7747.11
566.839	7712.99
567.201	7746.43
567.563	7684.74
567.925	7755.93
568.287	7723.84
568.648	7634.35
569.01	7613.56
569.372	7661.47
569.734	7584.63
570.095	7695.14
570.457	7624.86
570.819	7658.3
571.18	7583.95
571.542	7673.44
571.903	7621.47
572.265	7619.43
572.626	7628.47
572.987	7632.31
573.349	7638.19
573.71	7621.69
574.071	7585.08
574.432	7589.6
574.794	7664.4
575.155	7611.75
575.516	7596.38
575.877	7557.06
576.238	7556.16
576.599	7565.42
576.96	7548.47
577.32	7560.68
577.681	7550.73
578.042	7542.82
578.403	7539.89
578.763	7548.47
579.124	7549.38
579.485	7520.68
579.845	7574.01
580.206	7577.17
580.566	7498.08
580.927	7463.05
581.287	7546.44
581.648	7464.86
582.008	7503.96
582.368	7523.84
582.728	7482.71
583.089	7530.4
583.449	7435.93
583.809	7466.44
584.169	7418.31
584.529	7372.43
584.889	7494.24
585.249	7422.38
585.609	7359.33
585.969	7398.65
586.329	7332.43
586.688	7375.37
587.048	7346.22
587.408	7360.23
587.768	7303.28
588.127	7320.46
588.487	7294.47
588.846	7268.93
589.206	7284.53
589.565	7211.53
589.925	7320.91
590.284	7258.31
590.643	7242.72
591.003	7199.78
591.362	7243.62
591.721	7245.66
592.08	7224.87
592.44	7276.62
592.799	7192.55
593.158	7221.7
593.517	7219.89
593.876	7209.73
594.235	7172.89
594.593	7146
594.952	7227.13
595.311	7124.76
595.67	7165.89
596.029	7147.13
596.387	7249.05
596.746	7149.84
597.104	7103.97
597.463	7100.8
597.822	7091.99
598.18	7100.58
598.538	7072.1
598.897	7092.44
599.255	6997.75
599.613	7132.44
599.972	7099.45
600.33	7054.02
600.688	6990.07
601.046	7044.98
601.404	7084.53
601.762	7112.78
602.12	7129.5
602.478	7094.93
602.836	7073.68
603.194	7050.63
603.552	7001.14
603.91	6978.09
604.268	7051.76
604.625	6967.02
604.983	7033.01
605.341	6993.46
605.698	7044.08
606.056	6983.74
606.413	7033.01
606.771	7005.21
607.128	6997.75
607.485	7025.32
607.843	7061.48
608.2	7028.49
608.557	7073.91
608.914	7005.44
609.272	7061.48
609.629	7014.93
609.986	7037.3
610.343	7011.54
610.7	7089.05
611.057	7058.32
611.414	7038.88
611.771	7030.3
612.127	7025.78
612.484	7041.14
612.841	7106.23
613.198	7077.98
613.554	7071.88
613.911	7087.92
614.267	7026.68
614.624	7024.65
614.98	7091.54
615.337	7063.06
615.693	7109.84
616.05	7052.67
616.406	7070.97
616.762	7068.94
617.118	7046.79
617.475	7056.51
617.831	7092.21
618.187	7086.79
618.543	7062.61
618.899	7109.84
619.255	7070.52
619.611	7093.34
619.967	7117.75
620.323	7145.77
620.678	7127.69
621.034	7056.96
621.39	7068.03
621.746	7083.63
622.101	7145.09
622.457	7111.65
622.812	7114.13
623.168	7124.76
623.523	7117.98
623.879	7151.65
624.234	7071.88
624.589	7115.26
624.945	7108.71
625.3	7117.3
625.655	7101.25
626.01	7064.64
626.365	7106.23
626.72	7086.11
627.075	7092.89
627.43	7055.83
627.785	7046.11
628.14	7067.36
628.495	7051.76
628.85	7084.53
629.205	7063.51
629.559	7070.52
629.914	7101.93
630.269	7062.38
630.623	7023.97
630.978	6994.82
631.332	7068.94
631.687	7078.88
632.041	7010.63
632.396	7014.25
632.75	6967.7
633.104	6971.54
633.459	6943.74
633.813	6948.94
634.167	7000.92
634.521	6943.52
634.875	7023.52
635.229	6926.8
635.583	6883.41
635.937	6952.56
636.291	6878.66
636.645	6850.19
636.999	6914.59
637.352	6962.95
637.706	6845.89
638.06	6836.85
638.413	6894.48
638.767	6861.49
639.121	6883.41
639.474	6807.93
639.828	6833.01
640.181	6795.05
640.534	6814.48
640.888	6792.11
641.241	6801.83
641.594	6808.83
641.947	6808.15
642.301	6726.12
642.654	6784.65
643.007	6727.25
643.36	6760.25
643.713	6746.69
644.066	6794.82
644.419	6751.88
644.771	6744.88
645.124	6694.94
645.477	6673.69
645.83	6644.09
646.182	6574.26
646.535	6595.05
646.888	6578.56
647.24	6557.99
647.593	6647.71
647.945	6535.39
648.298	6557.09
648.65	6550.31
649.002	6553.25
649.355	6603.19
649.707	6569.74
650.059	6576.52
650.411	6729.74
650.763	6684.32
651.115	6760.02
651.467	6729.96
651.819	6753.69
652.171	6727.03
652.523	6715.95
652.875	6687.93
653.227	6698.78
653.578	6741.26
653.93	6736.29
654.282	6714.6
654.633	6703.75
654.985	6726.8
655.337	6698.55
655.688	6757.31
656.039	6786.46
656.391	6770.87
656.742	6712.11
657.094	6727.7
657.445	6732.68
657.796	6788.04
658.147	6759.79
658.498	6638.44
658.849	6762.05
659.2	6729.29
659.551	6758.66
659.902	6830.75
660.253	6746.69
660.604	6796.18
660.955	6751.43
661.306	6795.95
661.656	6781.49
662.007	6748.95
662.358	6777.87
662.708	6786.01
663.059	6803.86
663.409	6777.65
663.76	6900.36
664.11	6826.68
664.461	6822.17
664.811	6851.09
665.161	6815.61
665.511	6840.24
665.862	6844.76
666.212	6884.31
666.562	6878.89
666.912	6876.63
667.262	6842.05
667.612	6866.01
667.962	6819.68
668.312	6851.99
668.662	6849.06
669.011	6818.55
669.361	6807.93
669.711	6817.87
670.06	6814.93
670.41	6854.25
670.76	6790.3
671.109	6829.17
671.459	6831.2
671.808	6811.54
672.157	6806.12
672.507	6789.17
672.856	6796.18
673.205	6819.45
673.554	6790.98
673.904	6743.98
674.253	6778.55
674.602	6810.19
674.951	6696.29
675.3	6641.15
675.649	6749.85
675.998	6753.47
676.346	6688.16
676.695	6786.23
677.044	6717.08
677.393	6688.38
677.741	6706.01
678.09	6647.03
678.438	6699.23
678.787	6707.59
679.135	6701.04
679.484	6627.82
679.832	6644.99
680.181	6616.97
680.529	6596.18
680.877	6643.41
681.225	6550.99
681.573	6659.23
681.922	6572
682.27	6544.43
682.618	6588.27
682.966	6543.75
683.314	6566.58
683.661	6540.36
684.009	6501.27
684.357	6485.22
684.705	6506.92
685.053	6424.21
685.4	6380.37
685.748	6443.42
686.095	6431.22
686.443	6429.63
686.79	6383.98
687.138	6365.68
687.485	6379.47
687.832	6370.2
688.18	6338.11
688.527	6289.07
688.874	6291.11
689.221	6272.8
689.568	6261.73
689.915	6201.39
690.262	6245.01
690.609	6255.63
690.956	6224.67
691.303	6155.06
691.65	6141.05
691.997	6179.92
692.344	6023.54
692.69	6098.79
693.037	6062.41
693.383	6041.39
693.73	6030.55
694.077	6003.66
694.423	5988.06
694.769	5977.44
695.116	5986.03
695.462	5944.67
695.808	5910.55
696.155	5882.98
696.501	5852.25
696.847	5846.15
697.193	5828.52
697.539	5786.94
697.885	5687.96
698.231	5722.31
698.577	5720.95
698.923	5690.44
699.269	5677.11
699.614	5612.25
699.96	5617.68
700.306	5596.66
700.651	5592.37
700.997	5628.3
701.342	5551.24
701.688	5506.95
702.033	5503.33
702.379	5506.27
702.724	5482.99
703.069	5490.22
703.415	5391.69
703.76	5379.04
704.105	5392.37
704.45	5339.94
704.795	5307.4
705.14	5327.29
705.485	5314.41
705.83	5311.7
706.175	5294.07
706.52	5292.94
706.865	5227.18
707.209	5222.43
707.554	5226.28
707.899	5228.53
708.243	5153.96
708.588	5149.21
708.932	5115.32
709.277	5097.01
709.621	5146.96
709.966	5087.75
710.31	5095.66
710.654	5087.52
710.998	5090.91
711.342	5036.45
711.687	5062.89
712.031	5041.65
712.375	5016.79
712.719	4984.02
713.063	5019.95
713.407	4989.67
713.75	5010.46
714.094	4955.77
714.438	4978.15
714.782	4956.23
715.125	4888.43
715.469	4966.39
715.812	4926.4
716.156	4883.01
716.499	4926.4
716.843	4909
717.186	4867.41
717.53	4894.98
717.873	4912.16
718.216	4863.57
718.559	4892.27
718.902	4832.61
719.246	4869.45
719.589	4809.56
719.932	4840.97
720.275	4822.44
720.617	4814.53
720.96	4836.68
721.303	4769.56
721.646	4860.18
721.989	4821.54
722.331	4832.61
722.674	4787.42
723.016	4807.75
723.359	4822.67
723.701	4792.84
724.044	4795.33
724.386	4795.33
724.729	4798.04
725.071	4754.65
725.413	4759.39
725.755	4775.89
726.097	4765.72
726.439	4752.62
726.782	4743.58
727.124	4794.65
727.465	4764.59
727.807	4745.38
728.149	4732.73
728.491	4739.28
728.833	4769.34
729.175	4777.93
729.516	4723.01
729.858	4741.54
730.199	4749.45
730.541	4753.75
730.882	4752.62
731.224	4781.54
731.565	4718.49
731.906	4762.33
732.248	4727.08
732.589	4751.26
732.93	4757.81
733.271	4745.84
733.612	4765.95
733.953	4777.93
734.294	4780.86
734.635	4760.3
734.976	4808.88
735.317	4793.29
735.658	4793.29
735.999	4823.57
736.339	4758.04
736.68	4831.71
737.021	4854.76
737.361	4857.25
737.702	4802.33
738.042	4803.24
738.383	4827.42
738.723	4852.5
739.063	4861.09
739.404	4872.61
739.744	4931.37
740.084	4887.07
740.424	4894.98
740.764	4926.4
741.104	4972.5
741.444	4971.14
741.784	4958.94
742.124	4954.87
742.464	4985.15
742.804	5030.35
743.143	5024.25
743.483	5131.14
743.823	5026.05
744.162	5077.13
744.502	5171.59
744.841	5176.33
745.181	5199.61
745.52	5264.69
745.86	5277.35
746.199	5296.33
746.538	5347.85
746.877	5388.98
747.216	5456.1
747.556	5488.19
747.895	5499.04
748.234	5548.07
748.573	5583.33
748.911	5705.58
749.25	5699.03
749.589	5715.3
749.928	5861.74
750.267	5915.97
750.605	5976.76
750.944	6083.65
751.283	6090.66
751.621	6182.63
751.96	6242.52
752.298	6393.93
752.636	6464.66
752.975	6536.52
753.313	6581.04
753.651	6816.74
753.989	6822.17
754.327	6925.21
754.666	7009.05
755.004	7160.46
755.342	7301.02
755.679	7435.71
756.017	7531.98
756.355	7754.12
756.693	7848.58
757.031	8014.9
757.368	8145.29
757.706	8282.92
758.044	8486.53
758.381	8657.6
758.719	8787.54
759.056	8940.3
759.394	9044.71
759.731	9273.17
760.068	9420.52
760.405	9537.8
760.743	9707.06
761.08	9899.6
761.417	10099.37
761.754	10240.61
762.091	10430.43
762.428	10605.34
762.765	10733.25
763.102	10972.11
763.438	11187.7
763.775	11364.19
764.112	11468.6
764.449	11741.58
764.785	11826.1
765.122	11950.17
765.458	12154.23
765.795	12370.27
766.131	12496.37
766.467	12652.52
