Data from hue_70_FLMS001491_94.txt Node
Date: Mon Feb 06 15:21:46 GMT 2017
User: dcchb
Spectrometer: FLMS00149
Trigger mode: 0
Integration Time (sec): 2.000000E-2
Scans to average: 10
Electric dark correction enabled: true
Nonlinearity correction enabled: false
Boxcar width: 0
XAxis mode: Wavelengths
Number of Pixels in Spectrum: 2048
>>>>>Begin Spectral Data<<<<<
341.393	-1.4
341.776	-1.4
342.16	-1.4
342.543	-70.77
342.927	-56.54
343.31	-70.55
343.693	-74.39
344.077	-50.66
344.46	-82.07
344.843	-41.17
345.226	-34.39
345.61	-51.11
345.993	-16.99
346.376	-2.98
346.759	4.03
347.142	35.21
347.525	22.1
347.908	78.6
348.291	86.96
348.674	91.03
349.057	106.4
349.44	114.08
349.823	141.42
350.206	174.64
350.588	180.07
350.971	209.9
351.354	216
351.737	245.15
352.119	233.62
352.502	257.13
352.884	267.75
353.267	285.37
353.65	299.16
354.032	295.77
354.414	298.48
354.797	304.81
355.179	333.96
355.562	332.38
355.944	335.09
356.326	338.48
356.709	326.5
357.091	345.94
357.473	351.36
357.855	350.23
358.238	332.83
358.62	338.48
359.002	337.12
359.384	329.67
359.766	335.09
360.148	328.99
360.53	330.12
360.912	345.26
361.294	335.32
361.676	347.75
362.057	324.47
362.439	324.02
362.821	341.64
363.203	330.12
363.584	334.19
363.966	334.86
364.348	325.82
364.729	321.76
365.111	327.63
365.493	316.79
365.874	347.75
366.256	315.66
366.637	329.44
367.019	339.16
367.4	321.31
367.781	304.13
368.163	322.44
368.544	303.23
368.925	336.22
369.306	325.15
369.688	308.2
370.069	309.55
370.45	301.87
370.831	308.2
371.212	331.47
371.593	329.21
371.974	316.56
372.355	314.07
372.736	308.88
373.117	332.38
373.498	308.2
373.879	314.53
374.26	312.04
374.641	322.44
375.021	312.72
375.402	342.1
375.783	324.69
376.163	324.02
376.544	330.34
376.925	328.99
377.305	328.08
377.686	324.92
378.066	321.76
378.447	318.59
378.827	346.39
379.208	334.41
379.588	338.25
379.968	333.73
380.349	314.75
380.729	345.94
381.109	331.7
381.489	328.08
381.87	316.33
382.25	368.08
382.63	343.9
383.01	341.42
383.39	347.97
383.77	335.09
384.15	343.45
384.53	346.16
384.91	337.12
385.29	333.28
385.67	341.64
386.049	339.84
386.429	351.59
386.809	373.28
387.189	336.45
387.568	364.24
387.948	338.25
388.328	375.99
388.707	333.73
389.087	359.72
389.466	355.43
389.846	375.31
390.225	347.75
390.605	360.4
390.984	364.24
391.363	355.43
391.743	358.59
392.122	357.69
392.501	361.76
392.881	359.27
393.26	371.25
393.639	388.87
394.018	368.76
394.397	383.68
394.776	367.63
395.155	391.36
395.534	372.6
395.913	373.28
396.292	393.85
396.671	359.5
397.05	351.36
397.429	387.07
397.808	367.18
398.186	387.29
398.565	382.09
398.944	388.2
399.323	364.92
399.701	376.44
400.08	377.8
400.458	380.74
400.837	393.17
401.215	390.68
401.594	388.65
401.972	414.41
402.351	387.29
402.729	403.79
403.107	399.04
403.486	415.77
403.864	402.88
404.242	401.08
404.62	407.4
404.999	394.07
405.377	416.9
405.755	427.97
406.133	423
406.511	420.96
406.889	403.11
407.267	414.18
407.645	430
408.023	419.61
408.401	408.53
408.779	437.01
409.156	412.6
409.534	410.57
409.912	438.14
410.29	422.55
410.667	419.61
411.045	462.54
411.422	444.24
411.8	449.66
412.178	474.52
412.555	463.9
412.933	470.68
413.31	458.48
413.687	459.61
414.065	467.97
414.442	478.59
414.819	464.13
415.197	463.22
415.574	473.39
415.951	472.71
416.328	490.57
416.705	485.59
417.082	481.98
417.46	472.04
417.837	485.59
418.214	488.31
418.591	489.89
418.967	479.04
419.344	488.98
419.721	512.03
420.098	495.09
420.475	514.07
420.852	496.89
421.228	494.18
421.605	519.49
421.982	503.22
422.358	503.9
422.735	532.6
423.111	520.17
423.488	528.98
423.864	516.33
424.241	546.84
424.617	533.95
424.994	533.28
425.37	544.35
425.746	550
426.123	555.88
426.499	542.32
426.875	547.06
427.251	548.42
427.627	566.04
428.003	561.3
428.379	578.25
428.756	550.23
429.132	579.15
429.507	592.03
429.883	583.45
430.259	578.47
430.635	587.29
431.011	575.31
431.387	604.91
431.763	605.37
432.138	597.91
432.514	610.56
432.89	603.33
433.265	621.64
433.641	614.86
434.016	629.32
434.392	635.87
434.767	644.69
435.143	633.84
435.518	630.22
435.894	632.94
436.269	655.53
436.644	666.61
437.02	663.89
437.395	676.32
437.77	681.3
438.145	671.35
438.52	660.51
438.895	702.99
439.271	687.4
439.646	684.01
440.021	695.08
440.395	706.83
440.77	716.1
441.145	722.42
441.52	704.8
441.895	700.73
442.27	735.98
442.645	704.35
443.019	741.18
443.394	743.89
443.769	729.2
444.143	734.4
444.518	746.6
444.892	744.12
445.267	783.44
445.641	787.73
446.016	796.09
446.39	801.52
446.764	770.11
447.139	756.55
447.513	768.52
447.887	781.86
448.262	778.92
448.636	813.95
449.01	790.9
449.384	814.63
449.758	786.15
450.132	822.53
450.506	832.03
450.88	811.24
451.254	829.09
451.628	839.94
452.002	864.12
452.376	836.55
452.75	861.86
453.123	880.39
453.497	870.67
453.871	896.66
454.244	882.65
454.618	887.62
454.992	902.53
455.365	889.65
455.739	914.74
456.112	929.65
456.486	915.41
456.859	939.37
457.232	923.78
457.606	959.48
457.979	979.14
458.352	1003.77
458.725	984.56
459.099	1002.64
459.472	1014.85
459.845	995.86
460.218	1019.14
460.591	1050.1
460.964	1051.46
461.337	1081.96
461.71	1074.05
462.083	1068.86
462.456	1090.55
462.829	1136.88
463.201	1128.97
463.574	1117.44
463.947	1167.38
464.32	1181.85
464.692	1204.9
465.065	1203.32
465.438	1200.38
465.81	1222.75
466.183	1250.09
466.555	1297.1
466.928	1276.53
467.3	1299.81
467.672	1303.65
468.045	1352.24
468.417	1367.38
468.789	1377.1
469.161	1406.93
469.534	1394.72
469.906	1450.31
470.278	1451.9
470.65	1489.18
471.022	1528.96
471.394	1585.45
471.766	1571.67
472.138	1618.22
472.51	1655.51
472.882	1668.39
473.253	1727.6
473.625	1750.87
473.997	1806.69
474.369	1787.26
474.74	1837.65
475.112	1876.52
475.484	1942.05
475.855	1988.38
476.227	2019.11
476.598	2065.21
476.97	2082.84
477.341	2189.28
477.713	2220.24
478.084	2281.03
478.455	2345.88
478.827	2404.87
479.198	2464.07
479.569	2526.67
479.94	2559.66
480.311	2664.52
480.682	2737.96
481.053	2831.07
481.424	2910.62
481.795	3007.34
482.166	3103.6
482.537	3171.85
482.908	3317.84
483.279	3370.94
483.65	3436.48
484.021	3551.73
484.391	3681.44
484.762	3728.45
485.133	3767.09
485.503	3892.51
485.874	4093.86
486.244	4150.58
486.615	4235.55
486.985	4402.78
487.356	4541.76
487.726	4630.8
488.097	4786.5
488.467	4866.5
488.837	5004.35
489.207	5127.28
489.578	5266.03
489.948	5402.3
490.318	5518.91
490.688	5638.23
491.058	5783.76
491.428	5911.89
491.798	6043.87
492.168	6232.34
492.538	6289.96
492.908	6463.52
493.278	6656.73
493.648	6775.37
494.017	6866.44
494.387	7062.6
494.757	7196.15
495.126	7345.08
495.496	7489.7
495.866	7542.58
496.235	7749.81
496.605	7886.53
496.974	7988.67
497.344	8184.6
497.713	8266.86
498.082	8383.69
498.452	8606.51
498.821	8714.98
499.19	8781.65
499.559	8974.86
499.928	9071.13
500.298	9237.45
500.667	9328.3
501.036	9516.32
501.405	9605.13
501.774	9768.29
502.143	9845.35
502.512	9930.54
502.88	10087.83
503.249	10126.7
503.618	10252.8
503.987	10443.3
504.356	10532.79
504.724	10632.45
505.093	10697.53
505.462	10893.23
505.83	10983.85
506.199	11094.81
506.567	11304.75
506.936	11338.64
507.304	11575.02
507.672	11624.51
508.041	11653.44
508.409	11853.43
508.777	11858.18
509.145	12094.1
509.514	12069.47
509.882	12321.22
510.25	12307.88
510.618	12462.91
510.986	12485.51
511.354	12692.73
511.722	12874.65
512.09	12900.18
512.458	12938.6
512.826	13013.85
513.193	13143.79
513.561	13197.58
513.929	13363.9
514.297	13458.59
514.664	13635.98
515.032	13710.78
515.4	13652.71
515.767	13853.83
516.135	13979.03
516.502	13932.25
516.869	14122.07
517.237	14236.87
517.604	14245.01
517.972	14452.68
518.339	14504.44
518.706	14555.73
519.073	14631.21
519.44	14667.82
519.808	14920.7
520.175	14912.33
520.542	15194.59
520.909	15221.25
521.276	15201.82
521.643	15194.13
522.009	15450.17
522.376	15445.2
522.743	15529.49
523.11	15707.34
523.477	15850.61
523.843	15905.08
524.21	16050.84
524.577	16152.53
524.943	16265.52
525.31	16302.13
525.676	16393.2
526.043	16437.72
526.409	16555.45
526.776	16757.26
527.142	16728.56
527.508	16864.82
527.874	17009.45
528.241	17024.14
528.607	17068.21
528.973	17145.72
529.339	17264.81
529.705	17342.33
530.071	17467.29
530.437	17502.1
530.803	17635.65
531.169	17693.5
531.535	17616.67
531.901	17621.64
532.267	17679.04
532.632	17898.7
532.998	17851.92
533.364	17864.8
533.73	17973.95
534.095	18062.31
534.461	18119.03
534.826	18192.25
535.192	18236.99
535.557	18321.06
535.923	18315.41
536.288	18317.22
536.653	18322.19
537.019	18299.36
537.384	18268.18
537.749	18395.18
538.114	18443.99
538.479	18398.57
538.845	18478.57
539.21	18457.1
539.575	18538.91
539.94	18587.94
540.305	18731.67
540.67	18709.52
541.034	18632.91
541.399	18686.92
541.764	18788.39
542.129	18823.19
542.494	18766.24
542.858	18834.72
543.223	18815.96
543.587	18933.7
543.952	18875.17
544.316	19006.69
544.681	18889.63
545.045	18949.74
545.41	19002.62
545.774	18978.22
546.138	18945.9
546.503	19009.4
546.867	19033.36
547.231	19137.08
547.595	19080.81
547.959	19145.22
548.324	19087.59
548.688	19088.95
549.052	19225.44
549.416	19271.77
549.779	19218.21
550.143	19188.15
550.507	19290.98
550.871	19296.4
551.235	19304.76
551.599	19373.69
551.962	19418.88
552.326	19411.88
552.689	19570.74
553.053	19414.59
553.417	19607.58
553.78	19647.8
554.143	19528.71
554.507	19625.66
554.87	19641.48
555.234	19716.05
555.597	19622.04
555.96	19731.64
556.323	19712.21
556.686	19694.81
557.05	19857.29
557.413	19864.07
557.776	19915.82
558.139	19993.33
558.502	20028.13
558.865	20050.5
559.228	20113.33
559.59	20128.69
559.953	20119.65
560.316	20354.68
560.679	20276.49
561.041	20465.63
561.404	20487.1
561.767	20520.32
562.129	20510.83
562.492	20660.66
562.854	20639.41
563.217	20753.08
563.579	20707.21
563.941	20815.46
564.304	20877.83
564.666	20996.02
565.028	21010.93
565.39	20950.82
565.753	21156.92
566.115	21134.32
566.477	21212.51
566.839	21276.69
567.201	21425.16
567.563	21288.66
567.925	21459.73
568.287	21432.16
568.648	21467.42
569.01	21593.74
569.372	21745.83
569.734	21602.33
570.095	21821.76
570.457	21913.51
570.819	21834.19
571.18	21932.04
571.542	21998.93
571.903	21908.31
572.265	22070.34
572.626	22120.51
572.987	22101.3
573.349	22217.9
573.71	22252.93
574.071	22258.36
574.432	22337
574.794	22501.51
575.155	22482.76
575.516	22392.36
575.877	22388.52
576.238	22474.62
576.599	22591.68
576.96	22488.18
577.32	22626.26
577.681	22628.29
578.042	22659.47
578.403	22659.25
578.763	22732.47
579.124	22796.65
579.485	22829.64
579.845	22850.88
580.206	22855.85
580.566	22730.21
580.927	22920.03
581.287	22947.38
581.648	22867.15
582.008	22993.93
582.368	22874.16
582.728	22886.14
583.089	22885.01
583.449	22908.06
583.809	23024.89
584.169	22930.88
584.529	22807.04
584.889	23137.2
585.249	22910.77
585.609	22838.68
585.969	22972.46
586.329	22905.12
586.688	22976.3
587.048	22872.8
587.408	22921.84
587.768	22823.76
588.127	22838.68
588.487	22815.18
588.846	23031.22
589.206	22829.41
589.565	22915.51
589.925	22944.21
590.284	22932.69
590.643	22952.57
591.003	23039.35
591.362	22969.3
591.721	23036.64
592.08	22952.8
592.44	23031.89
592.799	22962.29
593.158	22964.55
593.517	23055.62
593.876	22998.9
594.235	23015.62
594.593	22955.06
594.952	23059.01
595.311	22926.81
595.67	22928.85
596.029	23107.37
596.387	23178.56
596.746	23073.25
597.104	23069.41
597.463	23034.83
597.822	23153.02
598.18	23002.52
598.538	22885.68
598.897	23176.52
599.255	22986.02
599.613	23284.77
599.972	23110.08
600.33	23215.39
600.688	23188.27
601.046	23195.73
601.404	23288.16
601.762	23087.71
602.12	23273.47
602.478	23309.4
602.836	23419.45
603.194	23167.03
603.552	23226.01
603.91	23151.89
604.268	23233.25
604.625	23313.02
604.983	23246.35
605.341	23226.01
605.698	23310.76
606.056	23405.9
606.413	23411.77
606.771	23442.05
607.128	23510.98
607.485	23357.08
607.843	23405.9
608.2	23567.47
608.557	23602.27
608.914	23565.67
609.272	23664.42
609.629	23594.59
609.986	23661.26
610.343	23663.52
610.7	23833.46
611.057	23722.05
611.414	23739.22
611.771	23823.51
612.127	23863.06
612.484	23893.34
612.841	23914.36
613.198	23816.73
613.554	23816.73
613.911	24036.39
614.267	24024.18
614.624	23946.22
614.98	24058.31
615.337	24133.11
615.693	24154.35
616.05	24089.27
616.406	24238.64
616.762	24129.27
617.118	24079.1
617.475	24250.62
617.831	24271.18
618.187	24235.7
618.543	24210.17
618.899	24324.52
619.255	24413.1
619.611	24201.36
619.967	24316.61
620.323	24502.82
620.678	24452.65
621.034	24338.53
621.39	24509.82
621.746	24355.02
622.101	24699.42
622.457	24547.33
622.812	24554.11
623.168	24590.05
623.523	24495.36
623.879	24666.2
624.234	24464.63
624.589	24561.35
624.945	24634.11
625.3	24717.73
625.655	24612.64
626.01	24635.02
626.365	24648.58
626.72	24530.84
627.075	24574
627.43	24619.65
627.785	24596.6
628.14	24545.07
628.495	24675.47
628.85	24687.9
629.205	24455.59
629.559	24614
629.914	24594.34
630.269	24636.6
630.623	24518.86
630.978	24530.84
631.332	24470.73
631.687	24603.15
632.041	24479.99
632.396	24434.12
632.75	24452.2
633.104	24429.6
633.459	24402.25
633.813	24389.82
634.167	24404.29
634.521	24356.83
634.875	24368.13
635.229	24365.87
635.583	24196.16
635.937	24276.83
636.291	24124.3
636.645	24302.14
636.999	24208.59
637.352	24290.84
637.706	24044.07
638.06	24176.27
638.413	24068.25
638.767	23991.87
639.121	24115.93
639.474	23946.22
639.828	23980.12
640.181	24022.38
640.534	24065.31
640.888	23969.27
641.241	23853.12
641.594	23934.24
641.947	23982.15
642.301	23985.54
642.654	24041.36
643.007	23917.07
643.36	23963.85
643.713	23964.98
644.066	23998.65
644.419	23849.5
644.771	23640.92
645.124	23472.56
645.477	23423.52
645.83	23237.99
646.182	23218.56
646.535	23160.25
646.888	23145.79
647.24	23019.92
647.593	23171.33
647.945	23132.91
648.298	23008.39
648.65	22909.64
649.002	22905.34
649.355	23155.06
649.707	23052.23
650.059	23103.53
650.411	23356.63
650.763	23452
651.115	23719.56
651.467	23598.43
651.819	23567.47
652.171	23521.15
652.523	23486.8
652.875	23536.97
653.227	23432.34
653.578	23608.15
653.93	23431.66
654.282	23390.76
654.633	23383.3
654.985	23397.53
655.337	23407.03
655.688	23445.89
656.039	23537.19
656.391	23368.83
656.742	23265.56
657.094	23346.91
657.445	23485.22
657.796	23346.46
658.147	23356.63
658.498	23367.7
658.849	23447.02
659.2	23361.6
659.551	23264.66
659.902	23415.39
660.253	23298.33
660.604	23363.64
660.955	23341.94
661.306	23355.95
661.656	23259.01
662.007	23314.6
662.358	23359.57
662.708	23380.36
663.059	23404.54
663.409	23158.9
663.76	23370.19
664.11	23347.37
664.461	23401.83
664.811	23378.78
665.161	23463.52
665.511	23363.86
665.862	23384.43
666.212	23494.03
666.562	23451.77
666.912	23382.39
667.262	23289.29
667.612	23429.4
667.962	23426.69
668.312	23278.89
668.662	23410.19
669.011	23390.76
669.361	23347.82
669.711	23305.33
670.06	23290.64
670.41	23293.58
670.76	23286.58
671.109	23397.76
671.459	23367.7
671.808	23239.35
672.157	23248.84
672.507	23186.69
672.856	23165.45
673.205	23258.1
673.554	23307.14
673.904	23103.3
674.253	23308.5
674.602	23213.58
674.951	22892.46
675.3	22644.11
675.649	23087.71
675.998	23036.19
676.346	23070.31
676.695	23183.3
677.044	22966.36
677.393	23035.28
677.741	23078.45
678.09	22905.12
678.438	22915.74
678.787	23011.78
679.135	22922.74
679.484	22823.54
679.832	22869.19
680.181	22793.26
680.529	22942.86
680.877	22768.4
681.225	22757.55
681.573	22834.84
681.922	22653.15
682.27	22645.69
682.618	22581.74
682.966	22410.67
683.314	22649.53
683.661	22425.58
684.009	22543.55
684.357	22408.18
684.705	22290.67
685.053	22323.66
685.4	22292.25
685.748	22259.03
686.095	22199.83
686.443	22104.46
686.79	22122.31
687.138	22012.49
687.485	22056.1
687.832	21962.54
688.18	21925.71
688.527	21841.19
688.874	21882.32
689.221	21808.2
689.568	21783.79
689.915	21676.45
690.262	21676.22
690.609	21563.91
690.956	21500.64
691.303	21420.64
691.65	21287.99
691.997	21360.75
692.344	21282.34
692.69	21213.19
693.037	21174.77
693.383	20976.13
693.73	21193.07
694.077	20923.48
694.423	20914.89
694.769	20907.2
695.116	20888.45
695.462	20831.27
695.808	20732.07
696.155	20819.98
696.501	20567.78
696.847	20560.32
697.193	20405.3
697.539	20480.55
697.885	20367.33
698.231	20221.12
698.577	20350.61
698.923	20249.59
699.269	20123.5
699.614	19935.48
699.96	19913.56
700.306	19903.39
700.651	19818.42
700.997	19694.13
701.342	19743.39
701.688	19635.6
702.033	19631.76
702.379	19591.08
702.724	19430.63
703.069	19524.87
703.415	19266.12
703.76	19362.39
704.105	19353.57
704.45	19258.66
704.795	19120.13
705.14	19078.33
705.485	19109.06
705.83	18922.17
706.175	18974.6
706.52	18895.51
706.865	18817.99
707.209	18818.67
707.554	18699.8
707.899	18752.46
708.243	18578.9
708.588	18741.39
708.932	18426.14
709.277	18392.47
709.621	18546.81
709.966	18272.02
710.31	18479.7
710.654	18175.52
710.998	18288.29
711.342	18139.14
711.687	18131.91
712.031	18170.55
712.375	18055.08
712.719	18021.63
713.063	18045.58
713.407	17989.99
713.75	17904.8
714.094	17896.66
714.438	17882.65
714.782	17872.93
715.125	17786.16
715.469	17811.47
715.812	17741.64
716.156	17668.65
716.499	17607.63
716.843	17619.16
717.186	17563.11
717.53	17573.28
717.873	17592.72
718.216	17571.25
718.559	17456.67
718.902	17378.26
719.246	17482.66
719.589	17408.99
719.932	17321.08
720.275	17339.16
720.617	17262.55
720.96	17346.85
721.303	17277.92
721.646	17375.09
721.989	17089.9
722.331	17181.65
722.674	17133.74
723.016	17101.65
723.359	17120.64
723.701	17103.69
724.044	17047.64
724.386	16981.66
724.729	16965.16
725.071	16963.13
725.413	16970.58
725.755	16881.32
726.097	16788.22
726.439	16754.55
726.782	16872.28
727.124	16925.39
727.465	16715.68
727.807	16832.74
728.149	16780.53
728.491	16768.78
728.833	16797.93
729.175	16794.54
729.516	16713.87
729.858	16610.59
730.199	16733.53
730.541	16729.46
730.882	16561.78
731.224	16649.24
731.565	16519.98
731.906	16681.78
732.248	16628.45
732.589	16500.77
732.93	16351.84
733.271	16549.35
733.612	16493.99
733.953	16612.85
734.294	16525.62
734.635	16444.05
734.976	16499.41
735.317	16384.39
735.658	16473.87
735.999	16469.81
736.339	16419.86
736.68	16468.68
737.021	16420.09
737.361	16399.3
737.702	16472.74
738.042	16470.26
738.383	16431.16
738.723	16452.18
739.063	16343.71
739.404	16419.64
739.744	16359.3
740.084	16324.27
740.424	16319.08
740.764	16388.23
741.104	16389.58
741.444	16312.98
741.784	16313.43
742.124	16407.44
742.464	16375.57
742.804	16351.84
743.143	16373.76
743.483	16408.34
743.823	16297.16
744.162	16450.37
744.502	16386.87
744.841	16325.18
745.181	16463.25
745.52	16390.49
745.86	16548.45
746.199	16501.9
746.538	16517.94
746.877	16544.83
747.216	16531.73
747.556	16516.59
747.895	16600.88
748.234	16553.65
748.573	16590.03
748.911	16623.93
749.25	16682.23
749.589	16615.34
749.928	16742.34
750.267	16904.82
750.605	16801.1
750.944	16815.11
751.283	16903.47
751.621	17014.43
751.96	17005.39
752.298	17057.14
752.636	17131.03
752.975	17075.67
753.313	17235.21
753.651	17318.6
753.989	17286.73
754.327	17330.12
754.666	17228.88
755.004	17429.56
755.342	17552.04
755.679	17643.11
756.017	17638.59
756.355	17754.97
756.693	17823.9
757.031	17862.99
