Data from hue_350_FLMS001491_13.txt Node
Date: Mon Feb 06 15:37:39 GMT 2017
User: dcchb
Spectrometer: FLMS00149
Trigger mode: 0
Integration Time (sec): 2.000000E-2
Scans to average: 10
Electric dark correction enabled: true
Nonlinearity correction enabled: false
Boxcar width: 0
XAxis mode: Wavelengths
Number of Pixels in Spectrum: 2048
>>>>>Begin Spectral Data<<<<<
341.393	-20.83
341.776	-20.83
342.16	-20.83
342.543	-66.93
342.927	-71.23
343.31	-64.45
343.693	-64
344.077	-54.5
344.46	-68.06
344.843	-34.17
345.226	-50.21
345.61	-14.51
345.993	-16.77
346.376	7.42
346.759	-1.85
347.142	23.23
347.525	40.41
347.908	35.89
348.291	74.31
348.674	82.22
349.057	105.04
349.44	115.43
349.823	125.38
350.206	159.5
350.588	191.37
350.971	203.34
351.354	222.78
351.737	251.93
352.119	264.13
352.502	260.74
352.884	271.14
353.267	274.75
353.65	304.36
354.032	286.28
354.414	312.94
354.797	312.94
355.179	306.39
355.562	321.53
355.944	338.03
356.326	332.38
356.709	333.06
357.091	318.82
357.473	325.37
357.855	343.45
358.238	332.38
358.62	327.86
359.002	338.93
359.384	329.67
359.766	326.28
360.148	348.42
360.53	320.63
360.912	333.51
361.294	339.61
361.676	326.05
362.057	338.25
362.439	330.57
362.821	327.86
363.203	305.49
363.584	320.18
363.966	299.61
364.348	319.72
364.729	296.22
365.111	312.94
365.493	317.46
365.874	283.57
366.256	311.36
366.637	298.71
367.019	288.54
367.4	317.69
367.781	319.5
368.163	312.49
368.544	318.14
368.925	303.23
369.306	316.33
369.688	312.94
370.069	311.81
370.45	321.53
370.831	312.27
371.212	308.65
371.593	294.41
371.974	308.65
372.355	300.74
372.736	327.86
373.117	303.68
373.498	324.69
373.879	322.21
374.26	291.02
374.641	320.63
375.021	307.97
375.402	328.54
375.783	326.28
376.163	314.07
376.544	323.11
376.925	314.07
377.305	324.47
377.686	331.02
378.066	327.86
378.447	319.95
378.827	344.13
379.208	346.39
379.588	327.18
379.968	337.12
380.349	313.62
380.729	324.69
381.109	333.06
381.489	338.03
381.87	332.15
382.25	321.98
382.63	323.56
383.01	310.01
383.39	327.86
383.77	349.78
384.15	334.19
384.53	348.65
384.91	324.47
385.29	344.81
385.67	357.01
386.049	350.46
386.429	339.61
386.809	330.34
387.189	344.36
387.568	366.95
387.948	357.46
388.328	351.36
388.707	356.78
389.087	345.03
389.466	361.08
389.846	365.6
390.225	372.6
390.605	354.07
390.984	337.12
391.363	387.74
391.743	344.81
392.122	367.41
392.501	331.47
392.881	357.01
393.26	364.24
393.639	375.77
394.018	372.15
394.397	366.28
394.776	381.64
395.155	380.06
395.534	379.83
395.913	372.6
396.292	365.15
396.671	374.86
397.05	383.9
397.429	373.51
397.808	387.97
398.186	398.82
398.565	385.48
398.944	395.2
399.323	387.29
399.701	392.04
400.08	395.65
400.458	380.96
400.837	387.97
401.215	402.66
401.594	375.99
401.972	408.08
402.351	403.34
402.729	407.4
403.107	414.41
403.486	389.78
403.864	408.08
404.242	403.11
404.62	407.63
404.999	399.95
405.377	411.25
405.755	408.31
406.133	439.27
406.511	417.57
406.889	418.25
407.267	416.67
407.645	427.74
408.023	413.73
408.401	433.39
408.779	396.78
409.156	425.26
409.534	428.65
409.912	430.68
410.29	444.47
410.667	458.48
411.045	447.18
411.422	459.15
411.8	465.48
412.178	468.42
412.555	478.59
412.933	452.6
413.31	453.28
413.687	466.39
414.065	468.42
414.442	470.45
414.819	460.96
415.197	484.92
415.574	497.57
415.951	490.11
416.328	510.23
416.705	498.93
417.082	496.44
417.46	506.38
417.837	505.03
418.214	484.46
418.591	511.36
418.967	513.39
419.344	533.5
419.721	505.48
420.098	524.92
420.475	535.99
420.852	551.36
421.228	525.37
421.605	512.26
421.982	549.1
422.358	550
422.735	554.97
423.111	544.58
423.488	557.91
423.864	580.73
424.241	553.39
424.617	564.01
424.994	574.86
425.37	584.8
425.746	575.99
426.123	590.45
426.499	589.09
426.875	593.84
427.251	589.55
427.627	599.04
428.003	593.39
428.379	624.35
428.756	616.21
429.132	629.77
429.507	628.64
429.883	628.42
430.259	615.08
430.635	641.97
431.011	647.85
431.387	661.18
431.763	631.13
432.138	646.27
432.514	640.62
432.89	670.45
433.265	660.73
433.641	667.74
434.016	673.16
434.392	690.79
434.767	693.95
435.143	702.09
435.518	713.16
435.894	714.97
436.269	724.91
436.644	720.39
437.02	722.65
437.395	726.94
437.77	700.73
438.145	725.36
438.52	769.43
438.895	757.23
439.271	782.76
439.646	770.56
440.021	780.95
440.395	770.78
440.77	790.67
441.145	799.48
441.52	824.79
441.895	789.99
442.27	805.36
442.645	806.94
443.019	819.82
443.394	810.33
443.769	816.89
444.143	804.23
444.518	812.37
444.892	818.47
445.267	804
445.641	840.39
446.016	831.8
446.39	864.57
446.764	838.35
447.139	860.05
447.513	834.29
447.887	864.34
448.262	851.23
448.636	874.28
449.01	853.95
449.384	873.16
449.758	888.75
450.132	905.02
450.506	902.53
450.88	891.91
451.254	875.87
451.628	913.38
452.002	902.53
452.376	903.66
452.75	898.69
453.123	931.68
453.497	928.97
453.871	940.5
454.244	968.75
454.618	955.86
454.992	969.2
455.365	968.29
455.739	969.88
456.112	1006.71
456.486	996.77
456.859	1018.01
457.232	1047.16
457.606	1030.66
457.979	1048.52
458.352	1058.46
458.725	1069.76
459.099	1066.14
459.472	1088.97
459.845	1097.78
460.218	1095.3
460.591	1123.32
460.964	1120.61
461.337	1124.22
461.71	1160.15
462.083	1157.22
462.456	1135.75
462.829	1153.15
463.201	1193.37
463.574	1188.63
463.947	1189.98
464.32	1220.26
464.692	1241.96
465.065	1253.94
465.438	1269.75
465.81	1257.33
466.183	1284.67
466.555	1289.42
466.928	1306.36
467.3	1316.08
467.672	1350.2
468.045	1341.39
468.417	1355.18
468.789	1365.35
469.161	1392.69
469.534	1410.54
469.906	1448.28
470.278	1458.9
470.65	1478.56
471.022	1487.6
471.394	1508.62
471.766	1522.63
472.138	1518.79
472.51	1551.33
472.882	1615.28
473.253	1608.28
473.625	1619.58
473.997	1667.26
474.369	1704.77
474.74	1708.61
475.112	1719.91
475.484	1764.21
475.855	1774.6
476.227	1805.79
476.598	1826.58
476.97	1855.95
477.341	1886.24
477.713	1930.98
478.084	1912.45
478.455	2007.81
478.827	2042.62
479.198	2035.16
479.569	2062.28
479.94	2104.54
480.311	2120.13
480.682	2197.19
481.053	2217.75
481.424	2280.12
481.795	2298.2
482.166	2334.36
482.537	2359.9
482.908	2414.81
483.279	2467.92
483.65	2463.85
484.021	2535.03
484.391	2558.99
484.762	2594.24
485.133	2581.13
485.503	2656.61
485.874	2712.65
486.244	2735.25
486.615	2812.54
486.985	2819.32
487.356	2894.12
487.726	2892.76
488.097	2957.17
488.467	2963.95
488.837	3025.19
489.207	3046.88
489.578	3102.25
489.948	3153.1
490.318	3205.3
490.688	3209.59
491.058	3263.6
491.428	3294.56
491.798	3325.97
492.168	3357.16
492.538	3420.21
492.908	3425.63
493.278	3497.72
493.648	3489.13
494.017	3557.38
494.387	3628.79
494.757	3634.66
495.126	3646.87
495.496	3678.28
495.866	3713.53
496.235	3736.81
496.605	3759.18
496.974	3838.95
497.344	3863.13
497.713	3852.96
498.082	3911.72
498.452	3949.91
498.821	3958.5
499.19	3967.99
499.559	3993.75
499.928	3996.01
500.298	4059.51
500.667	4041.89
501.036	4120.75
501.405	4143.13
501.774	4099.51
502.143	4190.81
502.512	4192.39
502.88	4194.65
503.249	4226.29
503.618	4250.47
503.987	4257.25
504.356	4277.81
504.724	4258.83
505.093	4358.49
505.462	4340.41
505.83	4380.63
506.199	4395.77
506.567	4454.08
506.936	4453.85
507.304	4471.93
507.672	4487.07
508.041	4541.31
508.409	4533.85
508.777	4605.71
509.145	4584.24
509.514	4601.42
509.882	4600.29
510.25	4624.47
510.618	4652.94
510.986	4657.69
511.354	4724.13
511.722	4709.21
512.09	4772.49
512.458	4771.81
512.826	4804.13
513.193	4824.69
513.561	4821.3
513.929	4840.73
514.297	4872.37
514.664	4904.91
515.032	4943.1
515.4	4957.79
515.767	4972.93
516.135	4966.83
516.502	4926.83
516.869	4998.02
517.237	5052.48
517.604	5041.86
517.972	5067.85
518.339	5077.79
518.706	5114.85
519.073	5179.03
519.44	5107.39
519.808	5167.51
520.175	5158.69
520.542	5207.28
520.909	5269.42
521.276	5215.87
521.643	5280.04
522.009	5296.54
522.376	5330.21
522.743	5339.48
523.11	5337.44
523.477	5414.96
523.843	5440.04
524.21	5468.97
524.577	5492.92
524.943	5534.5
525.31	5496.08
525.676	5587.83
526.043	5599.13
526.409	5663.99
526.776	5681.39
527.142	5692.92
527.508	5757.32
527.874	5725.23
528.241	5810.43
528.607	5805.45
528.973	5855.4
529.339	5804.32
529.705	5898.11
530.071	5955.96
530.437	5910.31
530.803	5995.05
531.169	6034.83
531.535	6014.49
531.901	6040.25
532.267	5994.38
532.632	6099.01
532.998	6103.3
533.364	6144.88
533.73	6158.44
534.095	6235.27
534.461	6217.87
534.826	6242.96
535.192	6277.98
535.557	6308.72
535.923	6335.61
536.288	6310.3
536.653	6383.29
537.019	6385.78
537.384	6362.05
537.749	6453.57
538.114	6446.12
538.479	6517.98
538.845	6524.31
539.21	6545.1
539.575	6545.1
539.94	6594.13
540.305	6670.29
540.67	6623.96
541.034	6636.39
541.399	6696.28
541.764	6715.49
542.129	6742.38
542.494	6839.33
542.858	6783.06
543.223	6800.46
543.587	6868.48
543.952	6799.78
544.316	6884.97
544.681	6899.21
545.045	6976.5
545.41	6955.48
545.774	7022.82
546.138	6978.08
546.503	7051.07
546.867	7067.57
547.231	7106.66
547.595	7109.83
547.959	7189.15
548.324	7244.96
548.688	7209.94
549.052	7299.88
549.416	7290.84
549.779	7280.44
550.143	7314.79
550.507	7337.39
550.871	7381.68
551.235	7356.37
551.599	7442.25
551.962	7432.53
552.326	7428.91
552.689	7515.69
553.053	7426.66
553.417	7471.4
553.78	7585.97
554.143	7617.61
554.507	7657.38
554.87	7599.31
555.234	7755.01
555.597	7643.15
555.96	7712.75
556.323	7674.33
556.686	7731.51
557.05	7785.97
557.413	7768.11
557.776	7799.07
558.139	7842.46
558.502	7862.35
558.865	7885.4
559.228	7985.28
559.59	7976.7
559.953	7941.67
560.316	8026.19
560.679	8060.99
561.041	8155.22
561.404	8166.52
561.767	8154.09
562.129	8161.78
562.492	8159.52
562.854	8285.62
563.217	8215.33
563.579	8194.77
563.941	8303.47
564.304	8325.84
564.666	8394.54
565.028	8384.82
565.39	8418.04
565.753	8460.98
566.115	8480.64
566.477	8532.84
566.839	8581.88
567.201	8565.61
567.563	8637.47
567.925	8669.79
568.287	8600.64
568.648	8622.33
569.01	8791.82
569.372	8753.85
569.734	8752.27
570.095	8825.71
570.457	8845.15
570.819	8917.69
571.18	8885.83
571.542	8981.87
571.903	9046.73
572.265	9064.8
572.626	9145.48
572.987	9168.53
573.349	9188.87
573.71	9220.05
574.071	9314.06
574.432	9348.41
574.794	9430.9
575.155	9510.67
575.516	9458.01
575.877	9606.26
576.238	9612.59
576.599	9674.96
576.96	9681.51
577.32	9816.65
577.681	9908.17
578.042	9989.75
578.403	10090.99
578.763	10133.93
579.124	10158.33
579.485	10338.44
579.845	10491.21
580.206	10510.42
580.566	10618.44
580.927	10784.98
581.287	10904.3
581.648	11029.72
582.008	11128.25
582.368	11200.57
582.728	11379.32
583.089	11598.3
583.449	11649.59
583.809	11856.37
584.169	12035.12
584.529	12089.58
584.889	12323.93
585.249	12417.03
585.609	12637.82
585.969	12933.4
586.329	13016.11
586.688	13308.31
587.048	13426.05
587.408	13682.54
587.768	13848.41
588.127	14098.57
588.487	14280.03
588.846	14630.53
589.206	14742.39
589.565	15019.68
589.925	15296.05
590.284	15527.91
590.643	15856.04
591.003	16106.2
591.362	16373.99
591.721	16555.68
592.08	16891.94
592.44	17224.14
592.799	17360.63
593.158	17681.3
593.517	17989.54
593.876	18254.17
594.235	18550.66
594.593	18776.64
594.952	19072.9
595.311	19322.16
595.67	19737.74
596.029	20147.68
596.387	20362.36
596.746	20659.53
597.104	20774.78
597.463	20987.2
597.822	21488.88
598.18	21570.01
598.538	21949.44
598.897	22376.09
599.255	22426.94
599.613	23125.23
599.972	23174.26
600.33	23449.28
600.688	23749.39
601.046	24080.45
601.404	24443.83
601.762	24712.98
602.12	24939.64
602.478	25262.34
602.836	25444.94
603.194	25625.5
603.552	25946.17
603.91	26167.86
604.268	26578.92
604.625	26655.3
604.983	27034.05
605.341	27146.14
605.698	27442.4
606.056	27771.66
606.413	28049.84
606.771	28291.19
607.128	28636.04
607.485	28756.49
607.843	28923.49
608.2	29343.82
608.557	29674.21
608.914	29672.4
609.272	29940.64
609.629	30206.17
609.986	30632.82
610.343	30598.48
610.7	31028.52
611.057	31254.5
611.414	31292.24
611.771	31515.29
612.127	31835.73
612.484	31910.98
612.841	32240.69
613.198	32301.03
613.554	32359.56
613.911	32765.65
614.267	32903.27
614.624	33046.32
614.98	33209.25
615.337	33580.77
615.693	33600.88
616.05	33714.33
616.406	34176.91
616.762	33996.35
617.118	34136.69
617.475	34342.56
617.831	34625.49
618.187	34695.77
618.543	34826.84
618.899	35242.65
619.255	35202.65
619.611	35164.23
619.967	35425.47
620.323	35664.1
620.678	35659.58
621.034	35679.25
621.39	35781.39
621.746	35968.96
622.101	36411.43
622.457	36202.62
622.812	36298.44
623.168	36483.07
623.523	36565.78
623.879	36703.85
624.234	36604.64
624.589	36803.96
624.945	36888.25
625.3	36994.47
625.655	37256.38
626.01	37112.2
626.365	37210.05
626.72	37265.19
627.075	37437.84
627.43	37438.3
627.785	37534.11
628.14	37601.23
628.495	37658.63
628.85	37687.78
629.205	37639.87
629.559	37878.51
629.914	37788.79
630.269	37910.83
630.623	37715.58
630.978	37705.86
631.332	37962.58
631.687	38107.88
632.041	38011.61
632.396	38041.44
632.75	38026.53
633.104	38159.63
633.459	37963.25
633.813	37979.3
634.167	37937.04
634.521	38062.46
634.875	38278.05
635.229	38068.56
635.583	38024.27
635.937	37986.98
636.291	37977.04
636.645	38010.26
636.999	37999.64
637.352	38109.46
637.706	38032.63
638.06	38104.04
638.413	38015
638.767	37943.14
639.121	38061.1
639.474	37846.65
639.828	37980.65
640.181	37900.66
640.534	38069.47
640.888	38034.89
641.241	37787.89
641.594	37916.93
641.947	38019.97
642.301	38012.29
642.654	37991.28
643.007	37948.34
643.36	37995.12
643.713	37938.85
644.066	38010.03
644.419	37729.59
644.771	37736.37
645.124	37220.67
645.477	37193.78
645.83	36938.2
646.182	36918.31
646.535	36855.03
646.888	36945.43
647.24	36767.13
647.593	36962.15
647.945	36852.32
648.298	36805.32
648.65	36732.55
649.002	36557.41
649.355	36790.63
649.707	36759.67
650.059	36813.68
650.411	37281.46
650.763	37377.73
651.115	37698.85
651.467	37621.57
651.819	37674.22
652.171	37605.52
652.523	37535.69
652.875	37534.11
653.227	37438.3
653.578	37590.38
653.93	37595.81
654.282	37243.05
654.633	37278.07
654.985	37392.19
655.337	37463.83
655.688	37258.64
656.039	37338.86
656.391	37153.78
656.742	37264.74
657.094	37252.99
657.445	37381.57
657.796	37330.95
658.147	37239.66
658.498	37245.31
658.849	37414.34
659.2	37251.63
659.551	37165.99
659.902	37289.6
660.253	37204.86
660.604	37362.59
660.955	37081.92
661.306	37295.7
661.656	37199.21
662.007	37190.39
662.358	37202.14
662.708	37094.8
663.059	37114.69
663.409	36865.88
663.76	37110.39
664.11	37249.15
664.461	37155.82
664.811	37212.54
665.161	37022.26
665.511	37060.45
665.862	37044.63
666.212	37153.11
666.562	37139.09
666.912	37109.72
667.262	36964.64
667.612	37127.57
667.962	37154.46
668.312	37079.21
668.662	37119.66
669.011	37120.79
669.361	37022.94
669.711	37058.87
670.06	36879.44
670.41	36854.13
670.76	36831.76
671.109	37076.04
671.459	36961.92
671.808	36929.83
672.157	37007.57
672.507	36741.14
672.856	36715.38
673.205	36817.97
673.554	36919.89
673.904	36735.04
674.253	37021.81
674.602	36874.92
674.951	36332.56
675.3	36264.54
675.649	36594.25
675.998	36626.11
676.346	36649.16
676.695	36834.47
677.044	36457.08
677.393	36537.98
677.741	36657.98
678.09	36603.06
678.438	36419.56
678.787	36603.74
679.135	36614.36
679.484	36322.62
679.832	36415.95
680.181	36169.18
680.529	36429.06
680.877	36207.59
681.225	36142.51
681.573	36501.37
681.922	36117.88
682.27	36004.66
682.618	36062.96
682.966	36001.04
683.314	36071.78
683.661	35875.85
684.009	35805.57
684.357	35697.78
684.705	35674.5
685.053	35741.39
685.4	35611
685.748	35542.98
686.095	35534.39
686.443	35421.85
686.79	35317
687.138	35462.75
687.485	35395.86
687.832	35237.9
688.18	35311.35
688.527	35077.45
688.874	35131.69
689.221	35025.93
689.568	35007.17
689.915	34848.76
690.262	34833.39
690.609	34725.6
690.956	34585.49
691.303	34566.28
691.65	34476.11
691.997	34490.12
692.344	34266.85
692.69	34267.08
693.037	34282.9
693.383	33972.85
693.73	34206.97
694.077	33887.65
694.423	33897.82
694.769	33835.23
695.116	33741.67
695.462	33617.6
695.808	33611.28
696.155	33520.21
696.501	33327.44
696.847	33432.52
697.193	33074.57
697.539	33325.18
697.885	32911.18
698.231	32904.86
698.577	32841.35
698.923	32847
699.269	32731.75
699.614	32621.92
699.96	32555.71
700.306	32571.98
700.651	32415.15
700.997	32292.67
701.342	32204.76
701.688	32169.73
702.033	32118.44
702.379	32178.77
702.724	31973.35
703.069	32037.53
703.415	31717.32
703.76	31816.52
704.105	31600.93
704.45	31599.35
704.795	31425.12
705.14	31316.2
705.485	31314.61
705.83	31129.31
706.175	31228.29
706.52	31179.25
706.865	31161.17
707.209	31098.12
707.554	30832.82
707.899	30872.59
708.243	30873.95
708.588	30864.68
708.932	30539.49
709.277	30555.09
709.621	30526.84
709.966	30266.05
710.31	30458.14
710.654	30208.88
710.998	30316
711.342	30121.2
711.687	30207.07
712.031	30064.25
712.375	29985.16
712.719	29943.13
713.063	29906.97
713.407	30031.48
713.75	29832.17
714.094	29773.41
714.438	29705.62
714.782	29719.85
715.125	29584.49
715.469	29607.09
715.812	29517.83
716.156	29251.84
716.499	29348.34
716.843	29419.07
717.186	29193.54
717.53	29295.01
717.873	29169.13
718.216	29240.54
718.559	29123.94
718.902	28912.42
719.246	29065.86
719.589	28963.72
719.932	28633.78
720.275	28897.28
720.617	28748.13
720.96	28769.6
721.303	28767.79
721.646	28591.97
721.989	28470.62
722.331	28521.02
722.674	28411.87
723.016	28552.43
723.359	28317.86
723.701	28350.85
724.044	28191.08
724.386	28070.41
724.729	28205.32
725.071	28126.22
725.413	28090.52
725.755	27929.17
726.097	27914.48
726.439	27829.28
726.782	27927.13
727.124	27903.18
727.465	27820.92
727.807	27760.13
728.149	27705.44
728.491	27687.14
728.833	27603.98
729.175	27617.08
729.516	27555.17
729.858	27589.29
730.199	27551.55
730.541	27516.97
730.882	27430.87
731.224	27468.61
731.565	27320.6
731.906	27324.66
732.248	27419.35
732.589	27138.45
732.93	27164.22
733.271	27202.41
733.612	27154.72
733.953	27099.36
734.294	26973.03
734.635	26950.66
734.976	27025.01
735.317	26890.78
735.658	26903.88
735.999	26848.07
736.339	26794.96
736.68	26878.12
737.021	26711.12
737.361	26640.39
737.702	26656.43
738.042	26644.45
738.383	26535.08
738.723	26643.55
739.063	26423.44
739.404	26531.69
739.744	26422.31
740.084	26311.13
740.424	26439.94
740.764	26352.71
741.104	26401.52
741.444	26077.24
741.784	26123.34
742.124	26200.62
742.464	26192.94
742.804	26031.36
743.143	26033.85
743.483	25975.55
743.823	25789.11
744.162	25888.99
744.502	25872.27
744.841	25817.13
745.181	25929.45
745.52	25839.05
745.86	25890.8
746.199	25809.22
746.538	25665.27
746.877	25768.55
747.216	25658.27
747.556	25568.32
747.895	25678.83
748.234	25581.21
748.573	25559.96
748.911	25395.22
749.25	25430.02
749.589	25305.73
749.928	25425.28
750.267	25341.44
750.605	25222.35
750.944	25164.95
751.283	25093.08
751.621	25065.74
751.96	24923.37
752.298	25099.86
752.636	25067.55
752.975	24903.48
753.313	24737.39
753.651	24850.83
753.989	24776.48
754.327	24751.17
754.666	24604.96
755.004	24716.82
755.342	24686.99
755.679	24565.87
756.017	24475.47
756.355	24418.52
756.693	24375.59
757.031	24335.81
757.368	24334.91
757.706	24256.95
758.044	24181.24
758.381	24096.05
758.719	24070.96
759.056	24133.33
759.394	23952.1
759.731	23839.33
