Data from hue_36_FLMS001491_00008.txt Node
Date: Tue Feb 07 17:29:20 GMT 2017
User: dcchb
Spectrometer: FLMS00149
Trigger mode: 0
Integration Time (sec): 2.000000E-2
Scans to average: 10
Electric dark correction enabled: true
Nonlinearity correction enabled: false
Boxcar width: 0
XAxis mode: Wavelengths
Number of Pixels in Spectrum: 2048
>>>>>Begin Spectral Data<<<<<
341.393	-12.91
341.776	-12.91
342.16	-12.91
342.543	-55.17
342.927	-74.6
343.31	-73.25
343.693	-80.7
344.077	-71.89
344.46	-65.56
344.843	-59.24
345.226	-34.15
345.61	-19.46
345.993	-0.03
346.376	-4.32
346.759	-2.51
347.142	27.77
347.525	52.4
347.908	44.72
348.291	80.42
348.674	102.57
349.057	103.25
349.44	119.97
349.823	151.15
350.206	172.62
350.588	202.23
350.971	217.82
351.354	219.63
351.737	221.89
352.119	244.94
352.502	287.65
352.884	274.99
353.267	261.21
353.65	311.83
354.032	295.78
354.414	307.53
354.797	291.26
355.179	320.42
355.562	325.84
355.944	335.78
356.326	339.4
356.709	349.79
357.091	330.13
357.473	329.45
357.855	347.08
358.238	345.73
358.62	321.32
359.002	339.62
359.384	352.5
359.766	331.94
360.148	334.43
360.53	324.71
360.912	325.39
361.294	333.97
361.676	352.28
362.057	348.44
362.439	339.17
362.821	328.55
363.203	329.91
363.584	352.05
363.966	328.1
364.348	312.73
364.729	326.97
365.111	312.51
365.493	347.53
365.874	328.78
366.256	334.65
366.637	310.92
367.019	309.34
367.4	318.16
367.781	313.41
368.163	300.53
368.544	340.75
368.925	312.28
369.306	332.17
369.688	325.16
370.069	323.81
370.45	307.08
370.831	310.02
371.212	312.28
371.593	316.57
371.974	313.18
372.355	302.11
372.736	326.52
373.117	329.91
373.498	319.06
373.879	329.68
374.26	329.23
374.641	310.25
375.021	314.31
375.402	326.06
375.783	320.42
376.163	322.22
376.544	339.85
376.925	333.75
377.305	328.55
377.686	353.18
378.066	330.81
378.447	306.4
378.827	323.58
379.208	339.85
379.588	314.54
379.968	340.98
380.349	335.1
380.729	352.5
381.109	343.69
381.489	362.67
381.87	331.26
382.25	320.64
382.63	350.25
383.01	363.8
383.39	329.23
383.77	350.47
384.15	351.6
384.53	359.28
384.91	348.44
385.29	341.21
385.67	352.28
386.049	356.57
386.429	367.87
386.809	339.17
387.189	370.58
387.568	347.31
387.948	356.35
388.328	339.4
388.707	354.31
389.087	351.83
389.466	356.35
389.846	348.66
390.225	374.88
390.605	368.1
390.984	356.57
391.363	362.67
391.743	364.03
392.122	382.33
392.501	375.33
392.881	370.13
393.26	366.97
393.639	367.65
394.018	372.39
394.397	380.75
394.776	355.44
395.155	380.3
395.534	389.34
395.913	391.37
396.292	389.79
396.671	372.17
397.05	407.64
397.429	416.46
397.808	398.15
398.186	383.69
398.565	409.68
398.944	386.63
399.323	412.62
399.701	392.96
400.08	385.72
400.458	396.12
400.837	422.79
401.215	406.74
401.594	403.8
401.972	405.61
402.351	411.49
402.729	409.45
403.107	443.12
403.486	396.8
403.864	406.97
404.242	410.81
404.62	396.12
404.999	419.17
405.377	425.5
405.755	416.46
406.133	425.72
406.511	415.1
406.889	443.58
407.267	413.52
407.645	434.99
408.023	434.99
408.401	427.76
408.779	436.12
409.156	437.25
409.534	442.45
409.912	436.34
410.29	422.33
410.667	444.71
411.045	456.46
411.422	451.71
411.8	462.33
412.178	464.59
412.555	450.58
412.933	455.1
413.31	467.53
413.687	456.46
414.065	486.96
414.442	497.59
414.819	463.01
415.197	458.04
415.574	504.59
415.951	473.41
416.328	474.76
416.705	487.19
417.082	481.77
417.46	482.44
417.837	503.46
418.214	512.95
418.591	500.52
418.967	492.39
419.344	481.32
419.721	510.47
420.098	506.85
420.475	503.69
420.852	513.86
421.228	528.09
421.605	533.29
421.982	527.64
422.358	503.46
422.735	496.23
423.111	548.21
423.488	552.05
423.864	554.08
424.241	551.6
424.617	571.48
424.994	543.69
425.37	568.09
425.746	543.46
426.123	570.58
426.499	562.44
426.875	573.29
427.251	559.96
427.627	556.12
428.003	566.06
428.379	587.3
428.756	584.82
429.132	579.39
429.507	596.34
429.883	600.18
430.259	618.26
430.635	622.33
431.011	603.12
431.387	625.04
431.763	631.37
432.138	645.6
432.514	627.3
432.89	625.72
433.265	651.93
433.641	654.87
434.016	668.65
434.392	657.58
434.767	653.97
435.143	681.31
435.518	677.92
435.894	691.25
436.269	691.7
436.644	681.08
437.02	705.94
437.395	696.9
437.77	694.42
438.145	709.33
438.52	712.5
438.895	723.57
439.271	705.49
439.646	734.64
440.021	722.89
440.395	734.19
440.77	727.86
441.145	727.64
441.52	739.61
441.895	734.19
442.27	754.08
442.645	757.47
443.019	748.2
443.394	763.57
443.769	814.64
444.143	774.19
444.518	817.35
444.892	772.15
445.267	799.95
445.641	747.07
446.016	791.36
446.39	770.57
446.764	784.13
447.139	812.61
447.513	811.25
447.887	810.12
448.262	817.58
448.636	829.33
449.01	828.65
449.384	831.14
449.758	833.17
450.132	848.09
450.506	853.28
450.88	848.76
451.254	836.33
451.628	854.41
452.002	866.39
452.376	869.1
452.75	877.91
453.123	892.38
453.497	898.25
453.871	902.09
454.244	909.33
454.618	912.26
454.992	924.47
455.365	926.73
455.739	938.03
456.112	971.7
456.486	975.54
456.859	981.41
457.232	967.86
457.606	969.21
457.979	1015.99
458.352	1019.38
458.725	1021.19
459.099	1040.85
459.472	1047.4
459.845	1077.91
460.218	1067.74
460.591	1082.88
460.964	1108.42
461.337	1103.22
461.71	1094.63
462.083	1106.84
462.456	1141.64
462.829	1125.14
463.201	1142.09
463.574	1161.52
463.947	1168.08
464.32	1181.86
464.692	1209.66
465.065	1201.52
465.438	1235.19
465.81	1256.66
466.183	1238.36
466.555	1285.59
466.928	1268.86
467.3	1287.4
467.672	1324.91
468.045	1372.14
468.417	1371.24
468.789	1372.59
469.161	1396.55
469.534	1408.3
469.906	1459.59
470.278	1482.87
470.65	1493.49
471.022	1547.95
471.394	1536.43
471.766	1564.9
472.138	1554.51
472.51	1625.92
472.882	1677.67
473.253	1669.31
473.625	1694.62
473.997	1760.6
474.369	1742.3
474.74	1763.54
475.112	1820.26
475.484	1882.41
475.855	1902.97
476.227	1938.45
476.598	1993.59
476.97	2025.68
477.341	2085.57
477.713	2123.98
478.084	2145
478.455	2218.9
478.827	2269.29
479.198	2308.16
479.569	2390.87
479.94	2466.57
480.311	2485.78
480.682	2549.28
481.053	2664.31
481.424	2703.86
481.795	2740.92
482.166	2820.24
482.537	2864.98
482.908	2963.51
483.279	2987.24
483.65	3080.79
484.021	3159.21
484.391	3225.2
484.762	3299.09
485.133	3320.11
485.503	3414.57
485.874	3582.25
486.244	3623.15
486.615	3742.47
486.985	3784.28
487.356	3890.26
487.726	3959.19
488.097	4091.62
488.467	4123.03
488.837	4229.47
489.207	4352.4
489.578	4438.73
489.948	4516.69
490.318	4610.7
490.688	4642.11
491.058	4804.37
491.428	4918.71
491.798	4971.59
492.168	5090.23
492.538	5146.96
492.908	5277.8
493.278	5396.67
493.648	5439.6
494.017	5569.54
494.387	5669.88
494.757	5766.15
495.126	5861.74
495.496	5918.69
495.866	6015.18
496.235	6055.63
496.605	6173.14
496.974	6225.57
497.344	6317.77
497.713	6466.69
498.082	6507.82
498.452	6614.04
498.821	6640.02
499.19	6754.14
499.559	6818.32
499.928	6938.32
500.298	6923.18
500.667	7062.16
501.036	7049.28
501.405	7242.04
501.774	7281.59
502.143	7344.41
502.512	7367.46
502.88	7469.15
503.249	7546.89
503.618	7704.18
503.987	7780.33
504.356	7777.17
504.724	7849.03
505.093	7925.64
505.462	8039.31
505.83	8035.47
506.199	8138.97
506.567	8232.52
506.936	8294.89
507.304	8319.08
507.672	8434.33
508.041	8491.73
508.409	8553.19
508.777	8665.51
509.145	8698.5
509.514	8784.37
509.882	8850.81
510.25	8882.22
510.618	8951.15
510.986	8975.78
511.354	9012.84
511.722	9157.02
512.09	9240.41
512.458	9188.43
512.826	9328.09
513.193	9461.42
513.561	9419.61
513.929	9505.71
514.297	9573.73
514.664	9618.25
515.032	9699.83
515.4	9815.31
515.767	9794.97
516.135	9935.98
516.502	9834.06
516.869	10076.09
517.237	10094.62
517.604	10031.35
517.972	10185.69
518.339	10170.55
518.706	10262.07
519.073	10340.94
519.44	10388.17
519.808	10558.79
520.175	10497.77
520.542	10565.57
520.909	10637.88
521.276	10654.83
521.643	10735.96
522.009	10821.16
522.376	10928.05
522.743	10953.36
523.11	11050.53
523.477	11207.81
523.843	11215.27
524.21	11413.91
524.577	11423.85
524.943	11409.62
525.31	11527.13
525.676	11650.29
526.043	11659.78
526.409	11695.71
526.776	11839.66
527.142	11855.48
527.508	11961.24
527.874	11929.15
528.241	12105.19
528.607	12101.35
528.973	12300.44
529.339	12240.55
529.705	12384.96
530.071	12507.67
530.437	12613.43
530.803	12583.82
531.169	12559.19
531.535	12624.5
531.901	12735.91
532.267	12794.44
532.632	12851.39
532.998	12882.12
533.364	13040.08
533.73	13024.04
534.095	13183.35
534.461	13159.17
534.826	13269.91
535.192	13306.51
535.557	13393.07
535.923	13377.47
536.288	13400.3
536.653	13587.19
537.019	13473.97
537.384	13551.71
537.749	13657.92
538.114	13749.21
538.479	13734.98
538.845	13820.4
539.21	13770.23
539.575	13795.32
539.94	13895.2
540.305	14040.73
540.67	14017
541.034	14080.51
541.399	14176.32
541.764	14166.6
542.129	14248.18
542.494	14248.18
542.858	14301.29
543.223	14372.48
543.587	14471.91
543.952	14532.25
544.316	14512.13
544.681	14624.67
545.045	14684.78
545.41	14680.49
545.774	14748.96
546.138	14809.75
546.503	14861.95
546.867	14930.2
547.231	15095.17
547.595	14928.39
547.959	15064.43
548.324	15125.45
548.688	15195.05
549.052	15243.19
549.416	15270.76
549.779	15313.69
550.143	15382.39
550.507	15470.07
550.871	15499.45
551.235	15527.93
551.599	15634.59
551.962	15663.97
552.326	15700.58
552.689	15771.99
553.053	15674.14
553.417	15802.95
553.78	15952.32
554.143	15910.97
554.507	16021.7
554.87	16071.64
555.234	16136.04
555.597	16078.87
555.96	16170.17
556.323	16255.59
556.686	16271.86
557.05	16384.63
557.413	16573.55
557.776	16510.27
558.139	16597.73
558.502	16627.56
558.865	16658.74
559.228	16778.51
559.59	16771.73
559.953	16844.5
560.316	17049.24
560.679	17072.29
561.041	17117.26
561.404	17152.06
561.767	17275.68
562.129	17122.91
562.492	17443.81
562.854	17403.13
563.217	17407.2
563.579	17449.91
563.941	17542.34
564.304	17603.12
564.666	17743.91
565.028	17783.46
565.39	17820.97
565.753	17959.27
566.115	18081.76
566.477	18068.65
566.839	18021.64
567.201	18270.9
567.563	18197.69
567.925	18283.56
568.287	18429.09
568.648	18456.66
569.01	18549.09
569.372	18711.34
569.734	18693.04
570.095	18809.87
570.457	18752.02
570.819	18867.95
571.18	18941.17
571.542	19005.57
571.903	19073.14
572.265	19155.17
572.626	19156.53
572.987	19305.23
573.349	19415.28
573.71	19483.3
574.071	19651.66
574.432	19684.2
574.794	19791.77
575.155	19920.35
575.516	19827.25
575.877	20067.69
576.238	20154.7
576.599	20382.94
576.96	20397.63
577.32	20436.5
577.681	20562.82
578.042	20769.82
578.403	20834.9
578.763	20919.87
579.124	21178.17
579.485	21312.63
579.845	21376.81
580.206	21385.62
580.566	21606.41
580.927	21699.29
581.287	21961.43
581.648	21980.64
582.008	22293.62
582.368	22344.92
582.728	22608.64
583.089	22719.37
583.449	22884.79
583.809	22995.53
584.169	23296.53
584.529	23362.97
584.889	23749.63
585.249	23787.82
585.609	23958.44
585.969	24219.45
586.329	24333.8
586.688	24628.7
587.048	24837.74
587.408	24974.91
587.768	25026.88
588.127	25299.87
588.487	25466.19
588.846	25971.27
589.206	25883.36
589.565	26291.94
589.925	26503
590.284	26752.26
590.643	26953.39
591.003	27185.47
591.362	27474.96
591.721	27579.13
592.08	27942.97
592.44	28185.22
592.799	28311.09
593.158	28607.36
593.517	28707.01
593.876	29076.27
594.235	29203.05
594.593	29571.4
594.952	29616.59
595.311	29770.49
595.67	30182.91
596.029	30457.93
596.387	30593.29
596.746	30772.04
597.104	30906.96
597.463	31107.63
597.822	31435.98
598.18	31576.54
598.538	31706.71
598.897	32111.44
599.255	32002.52
599.613	32632.79
599.972	32604.99
600.33	32832.55
600.688	32974.47
601.046	33176.27
601.404	33455.82
601.762	33577.62
602.12	33958.17
602.478	33937.61
602.836	34334.44
603.194	34256.25
603.552	34562.9
603.91	34551.83
604.268	34980.29
604.625	34942.78
604.983	35334.64
605.341	35258.93
605.698	35618.7
606.056	35650.56
606.413	35841.29
606.771	36061.85
607.128	36187.49
607.485	36131.68
607.843	36325.57
608.2	36627.71
608.557	36884.2
608.914	36822.28
609.272	37104.76
609.629	37236.96
609.986	37492.55
610.343	37425.2
610.7	37824.97
611.057	37891.86
611.414	37968.69
611.771	38143.38
612.127	38406.87
612.484	38204.62
612.841	38697.94
613.198	38559.86
613.554	38619.52
613.911	38947.87
614.267	38934.99
614.624	38999.17
614.98	39166.63
615.337	39593.51
615.693	39514.86
616.05	39535.43
616.406	39808.87
616.762	39728.42
617.118	39783.78
617.475	39941.07
617.831	40175.86
618.187	40202.08
618.543	40389.19
618.899	40581.96
619.255	40564.78
619.611	40502.86
619.967	40752.35
620.323	40931.1
620.678	40828.95
621.034	40726.58
621.39	40797.32
621.746	40808.62
622.101	41380.35
622.457	40979.46
622.812	41206.8
623.168	41447.7
623.523	41382.16
623.879	41561.14
624.234	41413.12
624.589	41512.1
624.945	41550.52
625.3	41801.81
625.655	41737.41
626.01	41796.39
626.365	41814.92
626.72	41696.5
627.075	41778.76
627.43	41995.7
627.785	41750.96
628.14	41900.34
628.495	41998.87
628.85	42066.44
629.205	41926.33
629.559	42080.9
629.914	41968.13
630.269	42076.38
630.623	42015.36
630.978	42012.65
631.332	42109.37
631.687	42268.92
632.041	42042.26
632.396	42164.29
632.75	42012.88
633.104	42096.72
633.459	42054.91
633.813	42056.04
634.167	42019.88
634.521	42055.36
634.875	42145.53
635.229	41972.88
635.583	41932.88
635.937	41925.88
636.291	41994.57
636.645	41929.04
636.999	41957.74
637.352	42084.74
637.706	41734.92
638.06	41931.75
638.413	41819.66
638.767	41648.59
639.121	41902.82
639.474	41521.82
639.828	41682.49
640.181	41732.21
640.534	41718.65
640.888	41625.54
641.241	41581.93
641.594	41561.82
641.947	41766.78
642.301	41618.99
642.654	41562.95
643.007	41708.03
643.36	41733.34
643.713	41523.17
644.066	41768.14
644.419	41447.92
644.771	41193.46
645.124	40935.84
645.477	40799.8
645.83	40599.58
646.182	40443.65
646.535	40381.06
646.888	40466.93
647.24	40152.81
647.593	40560.94
647.945	40400.72
648.298	40250.21
648.65	40222.87
649.002	40101.06
649.355	40346.26
649.707	40263.77
650.059	40430.77
650.411	40902.85
650.763	40941.04
651.115	41292.22
651.467	41164.31
651.819	41135.39
652.171	40953.47
652.523	40973.81
652.875	40915.96
653.227	40815.85
653.578	41063.52
653.93	40982.62
654.282	40754.61
654.633	40630.32
654.985	40876.64
655.337	40885.45
655.688	40773.14
656.039	40946.69
656.391	40810.42
656.742	40739.01
657.094	40764.1
657.445	40950.31
657.796	40865.79
658.147	40702.18
658.498	40842.74
658.849	40785.57
659.2	40708.05
659.551	40654.95
659.902	40806.58
660.253	40716.64
660.604	40804.77
660.955	40435.52
661.306	40669.18
661.656	40630.77
662.007	40532.69
662.358	40689.52
662.708	40624.89
663.059	40542.63
663.409	40461.96
663.76	40645
664.11	40577.66
664.461	40637.55
664.811	40829.86
665.161	40599.58
665.511	40534.05
665.862	40565.91
666.212	40698.79
666.562	40645.23
666.912	40554.16
667.262	40463.99
667.612	40647.04
667.962	40663.99
668.312	40463.99
668.662	40724.1
669.011	40569.98
669.361	40544.22
669.711	40445.24
670.06	40449.3
670.41	40378.35
670.76	40325.92
671.109	40428.29
671.459	40285.92
671.808	40383.09
672.157	40375.86
672.507	40165.47
672.856	40162.98
673.205	40248.18
673.554	40260.38
673.904	40188.75
674.253	40477.33
674.602	40355.29
674.951	39725.93
675.3	39705.37
675.649	40266.26
675.998	40120.27
676.346	40148.52
676.695	40345.8
677.044	40077.56
677.393	40137.45
677.741	40293.83
678.09	40099.93
678.438	39967.51
678.787	39976.77
679.135	40046.38
679.484	39828.53
679.832	39988.75
680.181	39810.45
680.529	39936.77
680.877	39656.33
681.225	39605.48
681.573	39874.86
681.922	39671.02
682.27	39501.98
682.618	39569.33
682.966	39381.31
683.314	39541.76
683.661	39456.11
684.009	39182.22
684.357	39111.03
684.705	39014.54
685.053	39167.3
685.4	39185.61
685.748	38816.58
686.095	38857.93
686.443	38815.67
686.79	38643.02
687.138	38641.67
687.485	38890.7
687.832	38612.06
688.18	38593.31
688.527	38548.11
688.874	38546.75
689.221	38274.45
689.568	38209.59
689.915	38255.92
690.262	38368.91
690.609	38193.54
690.956	38032.19
691.303	38065.86
691.65	37789.26
691.997	37821.58
692.344	37552.66
692.69	37641.69
693.037	37699.09
693.383	37335.71
693.73	37364.86
694.077	37264.98
694.423	37152.22
694.769	37155.6
695.116	36900.02
695.462	36965.33
695.808	36846.23
696.155	36948.83
696.501	36555.85
696.847	36664.77
697.193	36380.26
697.539	36446.47
697.885	36297.1
698.231	36255.29
698.577	36104.56
698.923	36169.87
699.269	36006.71
699.614	35814.4
699.96	35777.11
700.306	35828.63
700.651	35615.53
700.997	35530.11
701.342	35391.58
701.688	35471.58
702.033	35354.3
702.379	35286.05
702.724	35162.89
703.069	35190.46
703.415	34787.76
703.76	34881.09
704.105	34951.14
704.45	34781.43
704.795	34614.43
705.14	34539.85
705.485	34469.12
705.83	34345.74
706.175	34340.31
706.52	34262.12
706.865	34241.56
707.209	34088.79
707.554	34070.26
707.899	33945.97
708.243	33802.25
708.588	33807.44
708.932	33662.59
709.277	33549.82
709.621	33493.1
709.966	33475.7
710.31	33491.75
710.654	33041.36
710.998	33274.58
711.342	33280.9
711.687	33202.26
712.031	32968.37
712.375	32958.88
712.719	33024.87
713.063	32963.85
713.407	33010.18
713.75	33010.63
714.094	32776.29
714.438	32604.76
714.782	32685.21
715.125	32456.97
715.469	32727.47
715.812	32327.03
716.156	32212.91
716.499	32261.5
716.843	32335.84
717.186	32151.44
717.53	32254.94
717.873	32204.32
718.216	32239.58
718.559	31974.05
718.902	31714.84
719.246	31805.92
719.589	31689.08
719.932	31615.41
720.275	31644.79
720.617	31597.56
720.96	31551.68
721.303	31494.28
721.646	31424.91
721.989	31367.51
722.331	31320.05
722.674	31209.55
723.016	31275.53
723.359	31114.18
723.701	31307.85
724.044	31001.42
724.386	30913.51
724.729	31066.05
725.071	30965.03
725.413	30937.24
725.755	30798.48
726.097	30723.68
726.439	30702.22
726.782	30715.55
727.124	30904.02
727.465	30652.95
727.807	30557.36
728.149	30494.99
728.491	30424.71
728.833	30464.03
729.175	30378.61
729.516	30364.37
729.858	30330.93
730.199	30244.6
730.541	30209.8
730.882	30149.24
731.224	30203.92
731.565	29981.56
731.906	30132.74
732.248	30131.38
732.589	29765.06
732.93	29857.27
733.271	29885.06
733.612	29898.17
733.953	29848.45
734.294	29769.13
734.635	29718.29
734.976	29759.42
735.317	29597.61
735.658	29542.92
735.999	29488.69
736.339	29561.23
736.68	29462.25
737.021	29356.49
737.361	29306.32
737.702	29450.04
738.042	29271.29
738.383	29155.59
738.723	29283.5
739.063	29176.83
739.404	29252.99
739.744	29187.45
740.084	29127.57
740.424	29046.89
740.764	29026.33
741.104	29132.77
741.444	28976.38
741.784	28753.57
742.124	28936.39
742.464	28819.78
742.804	28761.7
743.143	28602.38
743.483	28704.08
743.823	28464.31
744.162	28568.26
744.502	28584.98
744.841	28434.7
745.181	28595.15
745.52	28420.02
745.86	28566
746.199	28377.53
746.538	28432.44
746.877	28560.58
747.216	28329.17
747.556	28271.09
747.895	28186.12
748.234	28084.66
748.573	28113.13
748.911	28027.48
749.25	27960.82
749.589	27855.51
749.928	27953.14
750.267	27969.18
750.605	27863.42
750.944	27746.81
751.283	27653.26
751.621	27719.02
751.96	27573.48
752.298	27611.9
752.636	27672.92
752.975	27405.58
753.313	27310.44
753.651	27460.94
753.989	27348.86
754.327	27216.66
754.666	27095.53
755.004	27178.69
755.342	27131.46
755.679	27144.79
756.017	26865.71
756.355	27086.04
756.693	26869.55
