Data from hue_36_FLMS001491_00068.txt Node
Date: Tue Feb 07 17:30:08 GMT 2017
User: dcchb
Spectrometer: FLMS00149
Trigger mode: 0
Integration Time (sec): 2.000000E-2
Scans to average: 10
Electric dark correction enabled: true
Nonlinearity correction enabled: false
Boxcar width: 0
XAxis mode: Wavelengths
Number of Pixels in Spectrum: 2048
>>>>>Begin Spectral Data<<<<<
341.393	-14.31
341.776	-14.31
342.16	-14.31
342.543	-61.31
342.927	-60.18
343.31	-77.58
343.693	-51.82
344.077	-76.23
344.46	-61.54
344.843	-44.59
345.226	-43.46
345.61	-30.35
345.993	-16.79
346.376	-8.43
346.759	9.42
347.142	13.94
347.525	38.57
347.908	52.58
348.291	76.31
348.674	105.24
349.057	114.73
349.44	142.3
349.823	138
350.206	167.38
350.588	198.12
350.971	216.19
351.354	241.96
351.737	237.89
352.119	256.87
352.502	267.49
352.884	266.59
353.267	280.83
353.65	285.12
354.032	309.75
354.414	309.07
354.797	303.2
355.179	323.31
355.562	298.45
355.944	336.42
356.326	314.95
356.709	340.49
357.091	352.91
357.473	344.33
357.855	318.79
358.238	343.88
358.62	331.67
359.002	329.41
359.384	345.46
359.766	337.32
360.148	366.7
360.53	336.42
360.912	319.02
361.294	331.67
361.676	335.06
362.057	335.51
362.439	319.92
362.821	333.93
363.203	320.6
363.584	330.99
363.966	321.73
364.348	331.22
364.729	338.45
365.111	302.52
365.493	302.29
365.874	319.24
366.256	300.26
366.637	311.11
367.019	313.82
367.4	323.54
367.781	294.16
368.163	326.7
368.544	314.5
368.925	300.71
369.306	330.32
369.688	324.89
370.069	321.95
370.45	313.59
370.831	310.66
371.212	341.62
371.593	333.25
371.974	320.37
372.355	286.7
372.736	327.15
373.117	294.16
373.498	296.87
373.879	320.6
374.26	327.6
374.641	320.6
375.021	319.02
375.402	307.94
375.783	320.37
376.163	317.21
376.544	303.65
376.925	308.85
377.305	309.98
377.686	341.39
378.066	347.26
378.447	314.27
378.827	319.69
379.208	325.8
379.588	319.47
379.968	337.55
380.349	341.62
380.729	338.9
381.109	333.93
381.489	329.64
381.87	339.36
382.25	337.1
382.63	334.61
383.01	326.25
383.39	347.49
383.77	333.93
384.15	343.88
384.53	327.83
384.91	348.39
385.29	366.02
385.67	363.54
386.049	345.68
386.429	359.92
386.809	361.5
387.189	343.65
387.568	340.71
387.948	329.86
388.328	348.39
388.707	335.97
389.087	333.25
389.466	359.92
389.846	354.27
390.225	348.17
390.605	357.21
390.984	360.82
391.363	353.59
391.743	364.89
392.122	379.13
392.501	363.08
392.881	354.27
393.26	385.68
393.639	359.47
394.018	359.92
394.397	378
394.776	400.37
395.155	376.42
395.534	374.16
395.913	350.65
396.292	378
396.671	361.95
397.05	370.54
397.429	375.96
397.808	355.17
398.186	378.68
398.565	385.68
398.944	385.23
399.323	401.27
399.701	371.67
400.08	377.55
400.458	386.36
400.837	408.73
401.215	400.82
401.594	419.35
401.972	387.49
402.351	394.04
402.729	401.95
403.107	387.72
403.486	401.27
403.864	403.53
404.242	397.43
404.62	387.72
404.999	399.69
405.377	417.77
405.755	403.08
406.133	415.96
406.511	403.76
406.889	402.18
407.267	422.97
407.645	424.1
408.023	419.58
408.401	410.54
408.779	439.92
409.156	423.65
409.534	427.49
409.912	426.36
410.29	441.73
410.667	434.49
411.045	420.71
411.422	448.28
411.8	443.99
412.178	469.97
412.555	472.23
412.933	443.99
413.31	459.13
413.687	475.17
414.065	466.13
414.442	451.67
414.819	472.01
415.197	488.73
415.574	476.75
415.951	455.74
416.328	477.66
416.705	485.34
417.082	476.08
417.46	488.28
417.837	470.43
418.214	481.05
418.591	488.73
418.967	496.19
419.344	494.38
419.721	510.2
420.098	501.84
420.475	509.97
420.852	501.84
421.228	489.63
421.605	513.59
421.982	512.91
422.358	508.62
422.735	526.47
423.111	503.19
423.488	508.62
423.864	517.43
424.241	534.38
424.617	551.78
424.994	525.34
425.37	529.41
425.746	535.06
426.123	542.97
426.499	566.47
426.875	548.84
427.251	535.73
427.627	566.69
428.003	542.74
428.379	576.64
428.756	582.51
429.132	567.15
429.507	580.48
429.883	578.67
430.259	590.2
430.635	586.35
431.011	609.18
431.387	597.88
431.763	608.95
432.138	603.98
432.514	595.85
432.89	606.92
433.265	627.71
433.641	614.83
434.016	637.88
434.392	617.09
434.767	638.78
435.143	641.27
435.518	652.34
435.894	653.92
436.269	646.24
436.644	664.32
437.02	639.69
437.395	652.79
437.77	679.69
438.145	681.49
438.52	696.63
438.895	688.5
439.271	692.34
439.646	691.66
440.021	703.41
440.395	722.17
440.77	705.45
441.145	709.97
441.52	693.24
441.895	716.07
442.27	738.89
442.645	727.59
443.019	721.04
443.394	734.83
443.769	740.93
444.143	710.87
444.518	717.88
444.892	749.74
445.267	748.38
445.641	747.48
446.016	732.34
446.39	761.04
446.764	776.63
447.139	756.07
447.513	775.28
447.887	776.18
448.262	775.73
448.636	769.4
449.01	775.5
449.384	799
449.758	804.2
450.132	811.21
450.506	792.45
450.88	795.16
451.254	813.69
451.628	835.84
452.002	820.7
452.376	813.92
452.75	845.1
453.123	844.65
453.497	871.54
453.871	879
454.244	874.48
454.618	860.7
454.992	885.33
455.365	900.7
455.739	906.57
456.112	890.08
456.486	926.01
456.859	919.91
457.232	920.13
457.606	952.67
457.979	937.08
458.352	959.68
458.725	947.25
459.099	1001.26
459.472	998.77
459.845	994.48
460.218	998.32
460.591	1016.85
460.964	1020.47
461.337	1033.8
461.71	1056.62
462.083	1060.92
462.456	1036.06
462.829	1066.79
463.201	1111.09
463.574	1105.21
463.947	1100.92
464.32	1133.46
464.692	1140.01
465.065	1133.46
465.438	1176.4
465.81	1193.8
466.183	1159.9
466.555	1216.17
466.928	1229.05
467.3	1224.98
467.672	1264.53
468.045	1265.88
468.417	1261.37
468.789	1305.43
469.161	1332.32
469.534	1327.8
469.906	1368.71
470.278	1351.76
470.65	1398.54
471.022	1432.66
471.394	1471.76
471.766	1437.86
472.138	1476.95
472.51	1529.38
472.882	1548.14
473.253	1582.03
473.625	1601.47
473.997	1653.9
474.369	1668.13
474.74	1701.81
475.112	1700.45
475.484	1759.21
475.855	1806.66
476.227	1857.96
476.598	1878.3
476.97	1913.55
477.341	1978.41
477.713	2033.55
478.084	2040.33
478.455	2112.64
478.827	2149.03
479.198	2222.7
479.569	2240.32
479.94	2308.8
480.311	2364.84
480.682	2414.33
481.053	2496.81
481.424	2548.11
481.795	2588.34
482.166	2675.79
482.537	2735.68
482.908	2830.82
483.279	2888.22
483.65	2917.82
484.021	3008.89
484.391	3100.86
484.762	3168.66
485.133	3247.3
485.503	3346.73
485.874	3429.9
486.244	3454.75
486.615	3562.1
486.985	3656.78
487.356	3682.54
487.726	3806.83
488.097	3958.7
488.467	4001.18
488.837	4085.47
489.207	4147.39
489.578	4289.53
489.948	4390.55
490.318	4446.14
490.688	4485.91
491.058	4661.5
491.428	4728.62
491.798	4846.13
492.168	4932.91
492.538	4971.55
492.908	5089.29
493.278	5269.85
493.648	5277.3
494.017	5410.63
494.387	5475.72
494.757	5572.66
495.126	5681.36
495.496	5767.24
495.866	5814.01
496.235	5921.81
496.605	5981.92
496.974	6073.44
497.344	6170.16
497.713	6209.26
498.082	6321.35
498.452	6447.44
498.821	6490.15
499.19	6521.34
499.559	6669.81
499.928	6740.32
500.298	6794.78
500.667	6882.91
501.036	6931.95
501.405	6970.14
501.774	7040.65
502.143	7158.39
502.512	7195.22
502.88	7285.61
503.249	7359.06
503.618	7444.48
503.987	7548.43
504.356	7564.7
504.724	7610.8
505.093	7736.45
505.462	7751.14
505.83	7831.36
506.199	7907.97
506.567	8051.7
506.936	8077.46
507.304	8171.92
507.672	8202.43
508.041	8227.51
508.409	8344.34
508.777	8410.56
509.145	8480.84
509.514	8531.46
509.882	8571.23
510.25	8612.81
510.618	8674.28
510.986	8728.97
511.354	8788.62
511.722	8919.02
512.09	8969.19
512.458	9021.39
512.826	9081.5
513.193	9156.98
513.561	9129.18
513.929	9244.21
514.297	9357.88
514.664	9343.19
515.032	9462.73
515.4	9479.68
515.767	9590.19
516.135	9610.3
516.502	9583.86
516.869	9730.75
517.237	9796.73
517.604	9789.28
517.972	9923.74
518.339	9983.17
518.706	9945.2
519.073	10044.19
519.44	10046.9
519.808	10164.18
520.175	10208.47
520.542	10277.85
520.909	10310.17
521.276	10385.65
521.643	10475.59
522.009	10496.6
522.376	10613.44
522.743	10645.07
523.11	10722.81
523.477	10874.22
523.843	10866.08
524.21	10938.4
524.577	11059.07
524.943	11093.65
525.31	11234.44
525.676	11349.24
526.043	11315.11
526.409	11366.41
526.776	11486.41
527.142	11452.28
527.508	11571.38
527.874	11627.65
528.241	11646.18
528.607	11740.41
528.973	11894.08
529.339	11904.93
529.705	12031.25
530.071	12092.72
530.437	12106.05
530.803	12214.98
531.169	12254.07
531.535	12282.32
531.901	12360.06
532.267	12379.94
532.632	12437.79
532.998	12535.19
533.364	12609.09
533.73	12638.92
534.095	12653.38
534.461	12687.73
534.826	12824.9
535.192	12847.95
535.557	12996.65
535.923	12959.59
536.288	13007.72
536.653	13050.66
537.019	13050.89
537.384	13142.63
537.749	13190.99
538.114	13226.7
538.479	13295.17
538.845	13365
539.21	13361.16
539.575	13358
539.94	13471.44
540.305	13574.71
540.67	13565
541.034	13634.83
541.399	13647.71
541.764	13739.91
542.129	13788.95
542.494	13854.71
542.858	13882.5
543.223	13953.01
543.587	14004.08
543.952	14096.06
544.316	14109.84
544.681	14021.26
545.045	14259.22
545.41	14222.83
545.774	14315.03
546.138	14243.4
546.503	14409.49
546.867	14478.42
547.231	14536.04
547.595	14480.68
547.959	14559.09
548.324	14645.87
548.688	14675.02
549.052	14904.85
549.416	14856.94
549.779	14794.34
550.143	14922.25
550.507	15018.07
550.871	14996.15
551.235	15150.49
551.599	15211.73
551.962	15234.78
552.326	15259.87
552.689	15311.84
553.053	15292.86
553.417	15284.27
553.78	15568.11
554.143	15404.5
554.507	15514.32
554.87	15573.31
555.234	15749.12
555.597	15576.92
555.96	15720.65
556.323	15782.34
556.686	15816.24
557.05	15923.35
557.413	15838.83
557.776	16010.13
558.139	16035.67
558.502	16092.61
558.865	16098.94
559.228	16260.07
559.59	16340.74
559.953	16301.65
560.316	16529.89
560.679	16472.26
561.041	16641.75
561.404	16689.89
561.767	16671.36
562.129	16664.12
562.492	16937.56
562.854	16827.96
563.217	16876.32
563.579	16858.24
563.941	16987.28
564.304	17053.04
564.666	17152.92
565.028	17258.68
565.39	17175.3
565.753	17408.96
566.115	17448.96
566.477	17516.3
566.839	17533.03
567.201	17721.5
567.563	17601.05
567.925	17878.33
568.287	17804.88
568.648	17844.66
569.01	17937.54
569.372	18072
569.734	17999.46
570.095	18135.5
570.457	18274.03
570.819	18337.98
571.18	18286
571.542	18425.21
571.903	18530.06
572.265	18612.55
572.626	18625.2
572.987	18698.65
573.349	18756.05
573.71	18904.29
574.071	19022.03
574.432	19114
574.794	19268.58
575.155	19273.32
575.516	19336.82
575.877	19488.46
576.238	19528
576.599	19676.47
576.96	19738.85
577.32	19809.35
577.681	19958.27
578.042	20103.58
578.403	20233.3
578.763	20296.12
579.124	20443.01
579.485	20613.62
579.845	20827.18
580.206	20756.45
580.566	20968.87
580.927	21195.08
581.287	21323.66
581.648	21339.48
582.008	21705.57
582.368	21702.64
582.728	21909.64
583.089	22068.28
583.449	22227.82
583.809	22496.96
584.169	22682.27
584.529	22807.47
584.889	23168.36
585.249	23104.86
585.609	23207.91
585.969	23638.86
586.329	23786.65
586.688	23942.8
587.048	24226.41
587.408	24383.02
587.768	24502.56
588.127	24846.73
588.487	24959.95
588.846	25209.44
589.206	25427.28
589.565	25522.65
589.925	25881.73
590.284	26188.62
590.643	26304.32
591.003	26492.79
591.362	26876.74
591.721	26989.5
592.08	27105.21
592.44	27440.56
592.799	27699.09
593.158	27834.45
593.517	28153.54
593.876	28395.34
594.235	28493.64
594.593	28693.64
594.952	29022.22
595.311	29090.69
595.67	29469.89
596.029	29807.96
596.387	30082.75
596.746	30313.48
597.104	30249.98
597.463	30537.21
597.822	30790.98
598.18	30939.23
598.538	31212.22
598.897	31555.48
599.255	31486.56
599.613	32102.81
599.972	32031.86
600.33	32192.98
600.688	32350.49
601.046	32638.62
601.404	32923.81
601.762	32973.07
602.12	33393.85
602.478	33498.94
602.836	33749.78
603.194	33703.68
603.552	33899.6
603.91	34004.01
604.268	34247.39
604.625	34386.37
604.983	34484.22
605.341	34631.79
605.698	34923.76
606.056	35004.88
606.413	35085.56
606.771	35434.93
607.128	35602.38
607.485	35637.86
607.843	35701.82
608.2	36006.89
608.557	36246.43
608.914	36246.21
609.272	36566.43
609.629	36591.06
609.986	36950.14
610.343	36793.99
610.7	37146.07
611.057	37168.67
611.414	37491.82
611.771	37492.73
612.127	37714.87
612.484	37764.13
612.841	38005.26
613.198	37961.42
613.554	38030.34
613.911	38321.86
614.267	38350.79
614.624	38478.69
614.98	38540.16
615.337	38866.48
615.693	38791.23
616.05	38810.43
616.406	39212.91
616.762	39070.09
617.118	39194.61
617.475	39249.52
617.831	39574.03
618.187	39449.74
618.543	39569.28
618.899	39754.36
619.255	39784.42
619.611	39818.32
619.967	40049.05
620.323	40112.32
620.678	40043.4
621.034	40106.9
621.39	40158.65
621.746	39992.55
622.101	40656.94
622.457	40451.07
622.812	40528.36
623.168	40749.82
623.523	40846.31
623.879	40863.26
624.234	40747.78
624.589	40798.63
624.945	40968.57
625.3	40936.03
625.655	40886.31
626.01	40954.33
626.365	41081.34
626.72	41065.29
627.075	41191.16
627.43	41104.61
627.785	41104.61
628.14	41054.22
628.495	41215.79
628.85	41325.62
629.205	41177.15
629.559	41236.36
629.914	41155.23
630.269	41129.47
630.623	41288.34
630.978	41183.93
631.332	41357.94
631.687	41463.92
632.041	41269.35
632.396	41483.58
632.75	41180.99
633.104	41252.63
633.459	41072.07
633.813	41214.66
634.167	41217.38
634.521	41289.92
634.875	41384.38
635.229	41319.07
635.583	41082.92
635.937	41206.3
636.291	41200.43
636.645	41175.12
636.999	41100.09
637.352	41172.18
637.706	40956.82
638.06	41049.25
638.413	41190.94
638.767	40845.41
639.121	40971.96
639.474	40828.23
639.828	40898.52
640.181	41090.6
640.534	40978.96
640.888	40868.23
641.241	40720.67
641.594	40883.37
641.947	41022.81
642.301	40846.99
642.654	40779.42
643.007	40949.59
643.36	40835.69
643.713	40939.64
644.066	41007.66
644.419	40696.03
644.771	40382.82
645.124	40087.01
645.477	40031.65
645.83	39754.36
646.182	39790.52
646.535	39642.28
646.888	39736.06
647.24	39512.56
647.593	39644.99
647.945	39578.1
648.298	39377.88
648.65	39343.75
649.002	39216.07
649.355	39611.54
649.707	39506.46
650.059	39581.71
650.411	39962.49
650.763	39978.77
651.115	40499.43
651.467	40186.44
651.819	40316.61
652.171	40146.44
652.523	40234.58
652.875	40126.11
653.227	40016.28
653.578	40302.15
653.93	40271.19
654.282	39945.55
654.633	39913
654.985	39970.63
655.337	39901.93
655.688	40054.92
656.039	40190.74
656.391	39917.07
656.742	39869.84
657.094	39912.78
657.445	40136.95
657.796	39904.19
658.147	39932.44
658.498	39912.33
658.849	39837.53
659.2	39751.65
659.551	39691.54
659.902	39921.37
660.253	39953.23
660.604	39887.69
660.955	39879.33
661.306	39823.06
661.656	39658.77
662.007	39832.1
662.358	39806.11
662.708	39834.59
663.059	39735.83
663.409	39541.71
663.76	39857.19
664.11	39739.45
664.461	39832.55
664.811	39777.64
665.161	39792.33
665.511	39696.29
665.862	39771.09
666.212	39811.54
666.562	39710.07
666.912	39789.84
667.262	39593.46
667.612	39602.05
667.962	39734.7
668.312	39680.47
668.662	39813.35
669.011	39620.81
669.361	39690.19
669.711	39565.44
670.06	39631.88
670.41	39358.22
670.76	39319.8
671.109	39622.16
671.459	39269.63
671.808	39475.28
672.157	39473.69
672.507	39337.88
672.856	39313.02
673.205	39336.75
673.554	39517.08
673.904	39357.99
674.253	39538.32
674.602	39403.19
674.951	38831.45
675.3	38664
675.649	39332.45
675.998	39317.77
676.346	39216.98
676.695	39434.15
677.044	39059.24
677.393	39204.32
677.741	39326.35
678.09	39217.43
678.438	39033.93
678.787	39230.54
679.135	39280.48
679.484	39066.7
679.832	39003.2
680.181	38855.18
680.529	38909.41
680.877	38724.56
681.225	38735.63
681.573	39006.36
681.922	38651.79
682.27	38771.11
682.618	38618.8
682.966	38540.84
683.314	38566.6
683.661	38416.32
684.009	38306.27
684.357	38369.32
684.705	38116.22
685.053	38321.41
685.4	38213.16
685.748	37921.42
686.095	37981.53
686.443	37926.39
686.79	37796
687.138	37849.78
687.485	37779.5
687.832	37727.98
688.18	37794.42
688.527	37600.3
688.874	37621.99
689.221	37512.16
689.568	37337.93
689.915	37235.56
690.262	37412.28
690.609	37201.21
690.956	37241.44
691.303	36995.34
691.65	36956.47
691.997	36896.13
692.344	36742.24
692.69	36756.48
693.037	36761
693.383	36499.53
693.73	36410.5
694.077	36290.5
694.423	36353.32
694.769	36260.22
695.116	36231.07
695.462	36042.37
695.808	35900
696.155	36007.57
696.501	35753.57
696.847	35713.34
697.193	35504.53
697.539	35762.83
697.885	35428.38
698.231	35238.78
698.577	35364.65
698.923	35217.08
699.269	35142.06
699.614	34968.28
699.96	34902.74
700.306	34933.25
700.651	34792.91
700.997	34601.73
701.342	34565.35
701.688	34520.83
702.033	34435.18
702.379	34458.68
702.724	34443.77
703.069	34345.47
703.415	33955.42
703.76	34050.56
704.105	34110.9
704.45	33879.94
704.795	33841.07
705.14	33717.01
705.485	33641.53
705.83	33456
706.175	33582.55
706.52	33525.83
706.865	33284.25
707.209	33305.49
707.554	33269.11
707.899	33289.22
708.243	33075.9
708.588	33042.9
708.932	32903.25
709.277	32891.04
709.621	32957.71
709.966	32586.42
710.31	32708.67
710.654	32394.56
710.998	32482.24
711.342	32431.39
711.687	32435.91
712.031	32335.12
712.375	32305.52
712.719	32124.28
713.063	32095.81
713.407	32201.79
713.75	31899.66
714.094	31993.89
714.438	31908.02
714.782	31871.86
715.125	31610.17
715.469	31720
715.812	31639.55
716.156	31469.38
716.499	31414.92
716.843	31461.48
717.186	31184.65
717.53	31355.26
717.873	31353.23
718.216	31301.93
718.559	31107.81
718.902	30938.78
719.246	31152.1
719.589	30874.6
719.932	30800.02
720.275	30913.47
720.617	30652.68
720.96	30743.08
721.303	30694.49
721.646	30655.85
721.989	30444.1
722.331	30602.06
722.674	30520.03
723.016	30495.17
723.359	30496.08
723.701	30522.52
724.044	30407.04
724.386	30034.17
724.729	30413.37
725.071	30219.02
725.413	30175.41
725.755	29978.35
726.097	30072.81
726.439	29920.27
726.782	29869.88
727.124	30043.66
727.465	29872.36
727.807	29812.7
728.149	29733.16
728.491	29670.34
728.833	29739.26
729.175	29681.18
729.516	29538.59
729.858	29472.6
730.199	29662.88
730.541	29478.25
730.882	29355.99
731.224	29523.22
731.565	29217.47
731.906	29250.46
732.248	29276
732.589	29109.45
732.93	29060.86
733.271	29070.8
733.612	29211.82
733.953	29156.22
734.294	29006.85
734.635	28820.87
734.976	29001.43
735.317	28939.73
735.658	28870.81
735.999	28774.54
736.339	28750.36
736.68	28894.76
737.021	28648.67
737.361	28633.98
737.702	28732.73
738.042	28506.3
738.383	28472.63
738.723	28616.35
739.063	28524.15
739.404	28498.62
739.744	28399.86
740.084	28342.91
740.424	28228.79
740.764	28363.7
741.104	28405.51
741.444	28100.21
741.784	28003.71
742.124	28266.98
742.464	28085.07
742.804	28022.7
743.143	28000.1
743.483	28017.5
743.823	27778.41
744.162	27744.51
744.502	27822.93
744.841	27683.27
745.181	27742.48
745.52	27734.57
745.86	27760.33
746.199	27650.73
746.538	27552.65
746.877	27615.47
747.216	27702.48
747.556	27413.22
747.895	27507.68
748.234	27395.59
748.573	27370.51
748.911	27290.96
749.25	27288.7
749.589	27040.57
749.928	27196.5
750.267	27212.55
750.605	27128.71
750.944	27131.42
751.283	26870.18
751.621	27027.92
751.96	26896.85
752.298	26896.85
752.636	26825.89
752.975	26646.01
753.313	26642.39
753.651	26652.56
753.989	26632.9
754.327	26559.23
754.666	26457.99
755.004	26547.48
755.342	26519.01
755.679	26325.79
756.017	26246.02
756.355	26412.79
756.693	26277.66
757.031	26271.55
757.368	26099.81
757.706	25953.15
758.044	26002.64
