Data from hue_240_FLMS001491_00078.txt Node
Date: Tue Feb 07 16:35:56 GMT 2017
User: dcchb
Spectrometer: FLMS00149
Trigger mode: 0
Integration Time (sec): 2.000000E-2
Scans to average: 10
Electric dark correction enabled: true
Nonlinearity correction enabled: false
Boxcar width: 0
XAxis mode: Wavelengths
Number of Pixels in Spectrum: 2048
>>>>>Begin Spectral Data<<<<<
341.393	4.62
341.776	4.62
342.16	4.62
342.543	-62.95
342.927	-70.18
343.31	-79.67
343.693	-58.43
344.077	-65.21
344.46	-61.37
344.843	-57.07
345.226	-26.12
345.61	-37.64
345.993	-2.39
346.376	-10.3
346.759	14.11
347.142	10.49
347.525	47.33
347.908	57.27
348.291	89.36
348.674	87.55
349.057	92.07
349.44	133.43
349.823	152.41
350.206	171.17
350.588	190.38
350.971	204.39
351.354	201.9
351.737	235.35
352.119	231.73
352.502	251.62
352.884	275.8
353.267	259.75
353.65	297.04
354.032	300.2
354.414	304.95
354.797	313.99
355.179	320.54
355.562	318.28
355.944	330.49
356.326	339.07
356.709	317.38
357.091	345.63
357.473	335.23
357.855	318.28
358.238	309.7
358.62	325.29
359.002	330.71
359.384	325.29
359.766	334.78
360.148	342.24
360.53	334.1
360.912	324.38
361.294	340.88
361.676	319.86
362.057	326.87
362.439	327.55
362.821	324.38
363.203	316.47
363.584	316.7
363.966	318.28
364.348	326.42
364.729	321.22
365.111	293.2
365.493	304.27
365.874	324.61
366.256	317.15
366.637	286.65
367.019	315.8
367.4	305.18
367.781	313.31
368.163	336.14
368.544	307.44
368.925	314.21
369.306	317.6
369.688	299.98
370.069	314.21
370.45	309.24
370.831	330.03
371.212	310.37
371.593	324.38
371.974	305.4
372.355	314.67
372.736	309.47
373.117	316.25
373.498	313.76
373.879	319.86
374.26	296.14
374.641	298.62
375.021	312.63
375.402	317.38
375.783	288.9
376.163	307.21
376.544	313.99
376.925	332.97
377.305	328.45
377.686	326.19
378.066	294.78
378.447	304.95
378.827	329.58
379.208	336.36
379.588	335.01
379.968	321.45
380.349	327.32
380.729	317.83
381.109	334.78
381.489	333.42
381.87	340.2
382.25	333.88
382.63	353.08
383.01	328.23
383.39	347.43
383.77	339.75
384.15	352.63
384.53	337.04
384.91	337.72
385.29	325.51
385.67	332.52
386.049	351.5
386.429	353.08
386.809	338.4
387.189	346.76
387.568	360.99
387.948	327.32
388.328	368.22
388.707	331.16
389.087	366.42
389.466	352.18
389.846	395.12
390.225	361.22
390.605	374.55
390.984	347.21
391.363	334.55
391.743	368.68
392.122	365.74
392.501	363.25
392.881	372.74
393.26	367.55
393.639	376.36
394.018	379.98
394.397	384.72
394.776	363.71
395.155	379.98
395.534	377.04
395.913	385.63
396.292	380.2
396.671	392.86
397.05	404.83
397.429	385.63
397.808	374.78
398.186	393.76
398.565	413.65
398.944	375.68
399.323	393.08
399.701	412.97
400.08	408.9
400.458	398.96
400.837	411.84
401.215	418.84
401.594	417.49
401.972	410.71
402.351	421.1
402.729	424.27
403.107	420.65
403.486	422.46
403.864	431.05
404.242	426.75
404.62	437.15
404.999	432.86
405.377	449.35
405.755	443.7
406.133	440.09
406.511	436.25
406.889	444.61
407.267	453.19
407.645	462.46
408.023	453.87
408.401	458.39
408.779	449.58
409.156	476.92
409.534	483.93
409.912	470.37
410.29	477.37
410.667	505.17
411.045	510.59
411.422	512.4
411.8	527.77
412.178	516.47
412.555	518.05
412.933	550.59
413.31	557.15
413.687	542.68
414.065	550.14
414.442	578.84
414.819	572.97
415.197	549.91
415.574	549.91
415.951	589.24
416.328	595.34
416.705	568.67
417.082	589.46
417.46	602.79
417.837	602.57
418.214	605.51
418.591	615.45
418.967	637.6
419.344	611.83
419.721	636.92
420.098	652.51
420.475	650.7
420.852	661.32
421.228	664.94
421.605	670.14
421.982	676.69
422.358	692.74
422.735	694.54
423.111	704.94
423.488	709.68
423.864	726.63
424.241	760.98
424.617	744.49
424.994	765.28
425.37	762.56
425.746	765.73
426.123	764.6
426.499	769.34
426.875	794.88
427.251	781.1
427.627	830.13
428.003	838.49
428.379	841.88
428.756	821.55
429.132	845.95
429.507	842.56
429.883	863.58
430.259	880.3
430.635	901.77
431.011	891.6
431.387	913.52
431.763	923.46
432.138	936.8
432.514	951.71
432.89	957.59
433.265	966.85
433.641	984.48
434.016	999.17
434.392	994.42
434.767	1027.19
435.143	1045.95
435.518	1055.44
435.894	1061.77
436.269	1096.57
436.644	1097.02
437.02	1113.06
437.395	1128.66
437.77	1173.4
438.145	1138.83
438.52	1188.99
438.895	1178.15
439.271	1211.14
439.646	1239.39
440.021	1222.89
440.395	1216.56
440.77	1240.29
441.145	1238.48
441.52	1285.04
441.895	1280.07
442.27	1303.79
442.645	1315.54
443.019	1335.21
443.394	1313.51
443.769	1338.14
444.143	1351.93
444.518	1371.59
444.892	1375.2
445.267	1386.28
445.641	1375.66
446.016	1383.79
446.39	1400.51
446.764	1436.45
447.139	1413.85
447.513	1435.32
447.887	1465.37
448.262	1481.87
448.636	1448.87
449.01	1482.32
449.384	1487.97
449.758	1505.14
450.132	1516.22
450.506	1503.34
450.88	1530.45
451.254	1519.38
451.628	1586.95
452.002	1565.03
452.376	1574.07
452.75	1586.95
453.123	1630.11
453.497	1626.5
453.871	1631.47
454.244	1678.47
454.618	1689.09
454.992	1689.55
455.365	1713.5
455.739	1732.26
456.112	1763.44
456.486	1765.93
456.859	1781.52
457.232	1822.88
457.606	1833.72
457.979	1802.09
458.352	1862.42
458.725	1905.36
459.099	1897.68
459.472	1921.18
459.845	1938.8
460.218	1950.78
460.591	1998.01
460.964	1994.4
461.337	2036.43
461.71	2027.39
462.083	2089.99
462.456	2055.41
462.829	2089.08
463.201	2125.24
463.574	2127.95
463.947	2152.81
464.32	2214.73
464.692	2193.26
465.065	2229.87
465.438	2263.09
465.81	2256.54
466.183	2276.2
466.555	2322.75
466.928	2328.63
467.3	2387.83
467.672	2374.5
468.045	2442.75
468.417	2452.01
468.789	2440.94
469.161	2503.31
469.534	2513.03
469.906	2577.43
470.278	2563.65
470.65	2573.82
471.022	2655.85
471.394	2658.79
471.766	2679.8
472.138	2759.12
472.51	2809.29
472.882	2831.66
473.253	2873.24
473.625	2888.84
473.997	2943.52
474.369	2979.46
474.74	2951.66
475.112	3067.14
475.484	3076.85
475.855	3132.67
476.227	3165.67
476.598	3227.36
476.97	3224.19
477.341	3329.95
477.713	3370.18
478.084	3352.55
478.455	3502.38
478.827	3511.42
479.198	3561.59
479.569	3557.52
479.94	3680.91
480.311	3695.82
480.682	3728.59
481.053	3805.87
481.424	3821.92
481.795	3897.17
482.166	3962.03
482.537	3985.76
482.908	4049.94
483.279	4063.27
483.65	4147.33
484.021	4188.92
484.391	4249.7
484.762	4272.3
485.133	4357.5
485.503	4391.4
485.874	4454.9
486.244	4505.97
486.615	4601.56
486.985	4627.77
487.356	4676.13
487.726	4731.95
488.097	4825.06
488.467	4788.45
488.837	4895.79
489.207	4977.14
489.578	4995
489.948	5057.37
490.318	5080.64
490.688	5115.9
491.058	5151.83
491.428	5257.59
491.798	5268.21
492.168	5355.89
492.538	5324.7
492.908	5461.2
493.278	5465.94
493.648	5462.55
494.017	5550.01
494.387	5631.14
494.757	5652.15
495.126	5686.28
495.496	5715.65
495.866	5746.39
496.235	5813.73
496.605	5876.1
496.974	5874.29
497.344	5931.69
497.713	5960.85
498.082	5927.63
498.452	6030.45
498.821	5994.97
499.19	6082.42
499.559	6071.8
499.928	6125.36
500.298	6137.79
500.667	6184.34
501.036	6143.89
501.405	6271.12
501.774	6268.63
502.143	6314.06
502.512	6293.27
502.88	6322.19
503.249	6379.59
503.618	6366.26
503.987	6450.55
504.356	6434.05
504.724	6472.92
505.093	6449.87
505.462	6482.41
505.83	6569.87
506.199	6516.31
506.567	6611.45
506.936	6598.34
507.304	6665.69
507.672	6685.12
508.041	6697.78
508.409	6770.54
508.777	6838.56
509.145	6832.69
509.514	6844.44
509.882	6813.03
510.25	6829.75
510.618	6824.55
510.986	6863.2
511.354	6919.92
511.722	6949.07
512.09	7065.45
512.458	6963.53
512.826	7091.66
513.193	7052.57
513.561	7022.97
513.929	7057.09
514.297	7095.73
514.664	7074.72
515.032	7108.39
515.4	7217.54
515.767	7207.37
516.135	7236.74
516.502	7152.23
516.869	7324.2
517.237	7229.29
517.604	7185.9
517.972	7291.21
518.339	7286.69
518.706	7279.23
519.073	7323.07
519.44	7340.92
519.808	7357.65
520.175	7354.48
520.542	7464.31
520.909	7494.59
521.276	7465.67
521.643	7502.27
522.009	7483.29
522.376	7535.72
522.743	7511.77
523.11	7571.88
523.477	7649.62
523.843	7632.44
524.21	7682.83
524.577	7704.76
524.943	7729.61
525.31	7730.52
525.676	7762.15
526.043	7836.95
526.409	7821.14
526.776	7879.67
527.142	7896.84
527.508	7892.55
527.874	7895.03
528.241	7967.8
528.607	7914.69
528.973	7982.49
529.339	7885.32
529.705	7941.81
530.071	8010.06
530.437	8024.52
530.803	8081.92
531.169	8018.19
531.535	7991.98
531.901	8053.9
532.267	8021.13
532.632	7972.54
532.998	8044.41
533.364	8055.93
533.73	8102.71
534.095	8067.23
534.461	8106.55
534.826	8105.42
535.192	8164.86
535.557	8131.18
535.923	8110.39
536.288	8118.98
536.653	8150.17
537.019	8155.36
537.384	8107.46
537.749	8078.3
538.114	8122.6
538.479	8089.6
538.845	8101.35
539.21	8048.93
539.575	8096.84
539.94	8092.77
540.305	8149.49
540.67	8041.24
541.034	8109.04
541.399	8075.59
541.764	8113.11
542.129	8134.12
542.494	8119.89
542.858	8128.02
543.223	8108.59
543.587	8102.48
543.952	8058.87
544.316	8147.68
544.681	8066.1
545.045	8096.16
545.41	8055.48
545.774	8064.75
546.138	8023.39
546.503	8110.17
546.867	8095.03
547.231	8037.18
547.595	8073.78
547.959	8101.35
548.324	8078.53
548.688	8028.14
549.052	8016.39
549.416	8078.98
549.779	8031.3
550.143	8043.73
550.507	8051.19
550.871	8093.67
551.235	8053.67
551.599	8037.85
551.962	8024.07
552.326	8084.86
552.689	8084.41
553.053	7967.35
553.417	8021.81
553.78	8089.6
554.143	8043.5
554.507	8102.26
554.87	8062.94
555.234	8150.85
555.597	8016.61
555.96	8092.32
556.323	8079.89
556.686	8098.19
557.05	8170.96
557.413	8116.72
557.776	8133.44
558.139	8164.4
558.502	8150.85
558.865	8149.26
559.228	8183.16
559.59	8164.4
559.953	8143.39
560.316	8279.43
560.679	8178.19
561.041	8229.04
561.404	8243.5
561.767	8295.02
562.129	8247.11
562.492	8345.87
562.854	8255.02
563.217	8295.47
563.579	8339.77
563.941	8347.68
564.304	8358.07
564.666	8419.76
565.028	8410.05
565.39	8394.45
565.753	8418.63
566.115	8484.4
566.477	8488.46
566.839	8451.18
567.201	8569.37
567.563	8514
567.925	8589.03
568.287	8529.82
568.648	8539.54
569.01	8640.78
569.372	8707.67
569.734	8592.42
570.095	8681.68
570.457	8704.05
570.819	8716.25
571.18	8688.01
571.542	8761.45
571.903	8752.64
572.265	8736.59
572.626	8756.25
572.987	8841.22
573.349	8809.81
573.71	8839.64
574.071	8833.76
574.432	8904.95
574.794	8961.45
575.155	8948.34
575.516	8894.78
575.877	8963.7
576.238	8958.51
576.599	9037.6
576.96	8995.12
577.32	9043.48
577.681	9058.17
578.042	9118.05
578.403	9007.55
578.763	9088.45
579.124	9102.46
579.485	9168.9
579.845	9220.65
580.206	9206.64
580.566	9146.98
580.927	9246.64
581.287	9206.86
581.648	9267.65
582.008	9241.89
582.368	9244.6
582.728	9334.54
583.089	9278.95
583.449	9380.19
583.809	9331.6
584.169	9301.55
584.529	9327.54
584.889	9395.56
585.249	9348.78
585.609	9374.77
585.969	9443.69
586.329	9357.14
586.688	9409.79
587.048	9410.47
587.408	9365.05
587.768	9433.98
588.127	9399.17
588.487	9451.15
588.846	9516.23
589.206	9373.86
589.565	9437.36
589.925	9488.21
590.284	9413.64
590.643	9465.84
591.003	9522.79
591.362	9534.99
591.721	9587.64
592.08	9527.76
592.44	9558.27
592.799	9523.46
593.158	9480.08
593.517	9537.93
593.876	9522.11
594.235	9561.43
594.593	9580.86
594.952	9608.43
595.311	9543.35
595.67	9551.94
596.029	9648.88
596.387	9718.26
596.746	9658.83
597.104	9612.28
597.463	9589.9
597.822	9628.55
598.18	9527.31
598.538	9663.35
598.897	9729.11
599.255	9607.98
599.613	9793.74
599.972	9677.36
600.33	9706.06
600.688	9679.62
601.046	9707.87
601.404	9725.72
601.762	9723.46
602.12	9729.79
602.478	9757.36
602.836	9775.89
603.194	9663.8
603.552	9709.9
603.91	9674.42
604.268	9729.33
604.625	9716
604.983	9797.13
605.341	9770.92
605.698	9786.73
606.056	9841.42
606.413	9798.71
606.771	9838.03
607.128	9776.11
607.485	9796.45
607.843	9795.55
608.2	9834.64
608.557	9876.9
608.914	9842.55
609.272	9852.95
609.629	9892.95
609.986	9938.82
610.343	9932.27
610.7	9953.06
611.057	9836.9
611.414	9933.17
611.771	9892.27
612.127	9983.34
612.484	9932.04
612.841	10003.45
613.198	9937.24
613.554	9967.29
613.911	10042.55
614.267	10009.33
614.624	10020.63
614.98	10034.19
615.337	10045.71
615.693	10074.18
616.05	9978.14
616.406	10020.4
616.762	10074.18
617.118	10000.74
617.475	10065.37
617.831	9982.89
618.187	10041.42
618.543	10146.5
618.899	10152.15
619.255	10094.97
619.611	10086.16
619.967	10136.1
620.323	10051.81
620.678	10091.81
621.034	10090.46
621.39	10095.88
621.746	10095.65
622.101	10158.93
622.457	10104.01
622.812	10136.33
623.168	10153.96
623.523	10172.03
623.879	10124.8
624.234	10118.48
624.589	10130.68
624.945	10155.54
625.3	10170.68
625.655	10113.96
626.01	10180.85
626.365	10155.31
626.72	10116.9
627.075	10181.07
627.43	10137.69
627.785	10059.04
628.14	10126.84
628.495	10145.37
628.85	10096.78
629.205	10018.82
629.559	10125.93
629.914	10124.58
630.269	10096.78
630.623	10078.25
630.978	9984.24
631.332	10064.47
631.687	10048.65
632.041	10029.21
632.396	10016.11
632.75	9925.49
633.104	10012.49
633.459	9904.7
633.813	9964.36
634.167	10023.56
634.521	9956.9
634.875	9958.71
635.229	9931.36
635.583	9951.7
635.937	9854.53
636.291	9843.68
636.645	9902.66
636.999	9829.22
637.352	9838.26
637.706	9789.67
638.06	9843
638.413	9772.95
638.767	9755.77
639.121	9781.54
639.474	9697.47
639.828	9782.44
640.181	9788.99
640.534	9745.38
640.888	9709.45
641.241	9678.94
641.594	9694.53
641.947	9751.25
642.301	9716.45
642.654	9724.59
643.007	9733.85
643.36	9698.83
643.713	9650.01
644.066	9648.88
644.419	9688.43
644.771	9648.43
645.124	9514.65
645.477	9443.24
645.83	9467.42
646.182	9361.66
646.535	9318.05
646.888	9310.81
647.24	9304.04
647.593	9349.23
647.945	9313.3
648.298	9275.11
648.65	9317.37
649.002	9258.16
649.355	9360.76
649.707	9272.17
650.059	9381.77
650.411	9472.84
650.763	9443.92
651.115	9520.98
651.467	9563.01
651.819	9474.43
652.171	9556.23
652.523	9545.16
652.875	9510.13
653.227	9441.66
653.578	9486.4
653.93	9529.34
654.282	9456.8
654.633	9335.45
654.985	9491.83
655.337	9426.52
655.688	9411.38
656.039	9456.8
656.391	9417.7
656.742	9413.86
657.094	9415.9
657.445	9435.56
657.796	9441.21
658.147	9421.09
658.498	9429.23
658.849	9412.51
659.2	9499.51
659.551	9437.14
659.902	9476.23
660.253	9458.83
660.604	9483.92
660.955	9411.38
661.306	9454.54
661.656	9421.77
662.007	9514.88
662.358	9448.66
662.708	9422.9
663.059	9428.33
663.409	9419.29
663.76	9483.69
664.11	9459.29
664.461	9425.84
664.811	9451.6
665.161	9439.85
665.511	9455.22
665.862	9435.78
666.212	9483.01
666.562	9401.89
666.912	9504.03
667.262	9438.49
667.612	9492.5
667.962	9440.98
668.312	9397.82
668.662	9482.79
669.011	9436.69
669.361	9396.91
669.711	9405.73
670.06	9377.71
670.41	9366.63
670.76	9364.82
671.109	9347.88
671.459	9413.18
671.808	9349.46
672.157	9364.37
672.507	9353.75
672.856	9339.29
673.205	9368.67
673.554	9337.03
673.904	9326.41
674.253	9394.43
674.602	9318.5
674.951	9247.77
675.3	9205.73
675.649	9285.28
675.998	9242.57
676.346	9297.93
676.695	9316.92
677.044	9238.95
677.393	9231.04
677.741	9283.92
678.09	9259.74
678.438	9199.86
678.787	9154.43
679.135	9200.08
679.484	9162.12
679.832	9174.09
680.181	9135.68
680.529	9201.21
680.877	9140.65
681.225	9133.64
681.573	9191.27
681.922	9069.46
682.27	9065.4
682.618	9078.96
682.966	8982.46
683.314	9014.55
683.661	9011.84
684.009	8947.43
684.357	9024.27
684.705	8930.71
685.053	8933.88
685.4	8959.19
685.748	8895.01
686.095	8848.45
686.443	8902.01
686.79	8824.95
687.138	8831.96
687.485	8850.04
687.832	8818.4
688.18	8846.42
688.527	8756.7
688.874	8719.42
689.221	8656.82
689.568	8662.92
689.915	8614.34
690.262	8580.21
690.609	8596.03
690.956	8559.42
691.303	8565.3
691.65	8530.5
691.997	8582.47
692.344	8484.4
692.69	8475.58
693.037	8431.29
693.383	8321.91
693.73	8370.73
694.077	8364.17
694.423	8311.07
694.769	8283.72
695.116	8292.99
695.462	8260.22
695.808	8191.75
696.155	8272.88
696.501	8211.18
696.847	8178.41
697.193	8080.79
697.539	8134.57
697.885	8049.6
698.231	8120.34
698.577	8073.11
698.923	8012.32
699.269	7935.48
699.614	7957.63
699.96	7898.42
700.306	7921.25
700.651	7882.38
700.997	7834.92
701.342	7830.18
701.688	7822.72
702.033	7815.26
702.379	7778.88
702.724	7761.25
703.069	7744.08
703.415	7601.71
703.76	7630.18
704.105	7666.79
704.45	7616.17
704.795	7603.74
705.14	7505.89
705.485	7502.5
705.83	7514.93
706.175	7491.65
706.52	7502.73
706.865	7416.63
707.209	7488.72
707.554	7409.85
707.899	7453.01
708.243	7373.92
708.588	7390.64
708.932	7289.85
709.277	7351.54
709.621	7322.39
709.966	7268.61
710.31	7314.03
710.654	7204.43
710.998	7243.07
711.342	7272.45
711.687	7212.34
712.031	7154.04
712.375	7114.94
712.719	7119.69
713.063	7186.8
713.407	7114.94
713.75	7110.42
714.094	7055.73
714.438	7012.34
714.782	7072
715.125	7079.23
715.469	7029.97
715.812	7024.32
716.156	7002.85
716.499	6948.84
716.843	6940.93
717.186	6945.68
717.53	6940.26
717.873	6971.89
718.216	6922.18
718.559	6880.37
718.902	6897.32
719.246	6921.05
719.589	6829.98
719.932	6936.41
720.275	6821.39
720.617	6827.94
720.96	6853.93
721.303	6842.4
721.646	6796.53
721.989	6828.62
722.331	6821.84
722.674	6832.69
723.016	6862.97
723.359	6784.55
723.701	6792.01
724.044	6751.11
724.386	6712.24
724.729	6722.63
725.071	6718.79
725.413	6736.64
725.755	6757.21
726.097	6739.81
726.439	6712.01
726.782	6709.08
727.124	6739.81
727.465	6720.37
727.807	6739.36
728.149	6653.94
728.491	6636.76
728.833	6708.62
729.175	6686.48
729.516	6670.88
729.858	6713.14
730.199	6724.67
730.541	6641.51
730.882	6618.23
731.224	6657.78
731.565	6671.56
731.906	6658.68
732.248	6663.43
732.589	6628.63
732.93	6573.71
733.271	6629.08
733.612	6650.32
733.953	6620.49
734.294	6578.46
734.635	6628.85
734.976	6646.7
735.317	6568.74
735.658	6631.11
735.999	6596.31
736.339	6610.32
736.68	6626.59
737.021	6587.95
737.361	6603.99
737.702	6615.07
738.042	6595.41
738.383	6659.58
738.723	6600.83
739.063	6606.03
739.404	6666.14
739.744	6596.99
740.084	6597.67
740.424	6646.03
740.764	6665.91
741.104	6640.6
741.444	6651.68
741.784	6704.33
742.124	6656.2
742.464	6646.48
742.804	6648.51
743.143	6685.35
743.483	6708.17
743.823	6664.1
744.162	6701.62
744.502	6728.51
744.841	6742.29
745.181	6713.14
745.52	6765.57
745.86	6776.19
746.199	6831.11
746.538	6785.91
746.877	6824.78
747.216	6877.21
747.556	6865
747.895	6894.38
748.234	6901.61
748.573	6966.92
748.911	6948.62
749.25	7027.94
749.589	7037.65
749.928	7095.05
750.267	7148.39
750.605	7186.8
750.944	7261.38
751.283	7184.09
751.621	7337.53
751.96	7351.54
752.298	7397.64
752.636	7455.27
752.975	7497.98
753.313	7496.17
753.651	7640.35
753.989	7548.15
754.327	7752.21
754.666	7722.16
755.004	7888.48
755.342	7906.56
755.679	8029.94
756.017	8067.23
756.355	8154.69
756.693	8217.74
757.031	8293.21
757.368	8331.86
757.706	8413.44
758.044	8603.49
758.381	8669.48
758.719	8669.48
759.056	8801.22
759.394	8905.18
759.731	8953.08
760.068	9039.86
760.405	9158.5
760.743	9168.45
761.08	9377.03
761.417	9421.55
761.754	9574.99
762.091	9647.08
762.428	9670.13
762.765	9759.84
763.102	9883.91
763.438	9963.23
763.775	10011.36
764.112	10134.52
764.449	10237.8
764.785	10368.87
765.122	10371.58
765.458	10431.46
765.795	10496.32
766.131	10614.96
766.467	10724.79
766.804	10710.78
767.14	10841.85
767.476	10905.8
767.812	10948.06
768.148	11082.75
