Data from hue_28_FLMS001491_00071.txt Node
Date: Tue Feb 07 17:17:46 GMT 2017
User: dcchb
Spectrometer: FLMS00149
Trigger mode: 0
Integration Time (sec): 2.000000E-2
Scans to average: 10
Electric dark correction enabled: true
Nonlinearity correction enabled: false
Boxcar width: 0
XAxis mode: Wavelengths
Number of Pixels in Spectrum: 2048
>>>>>Begin Spectral Data<<<<<
341.393	7.15
341.776	7.15
342.16	7.15
342.543	-64.94
342.927	-45.73
343.31	-74.43
343.693	-69.69
344.077	-60.87
344.46	-62.91
344.843	-52.74
345.226	-48.67
345.61	-15.9
345.993	-12.51
346.376	-14.1
346.759	-0.31
347.142	4.89
347.525	59.8
347.908	62.96
348.291	75.39
348.674	86.69
349.057	122.4
349.44	160.81
349.823	154.26
350.206	184.77
350.588	214.37
350.971	213.47
351.354	250.98
351.737	251.43
352.119	269.96
352.502	286.24
352.884	288.5
353.267	287.59
353.65	291.43
354.032	328.04
354.414	329.4
354.797	324.65
355.179	330.53
355.562	335.5
355.944	343.18
356.326	343.86
356.709	362.84
357.091	341.83
357.473	349.96
357.855	347.02
358.238	329.17
358.62	348.83
359.002	347.25
359.384	339.34
359.766	342.73
360.148	336.63
360.53	332.11
360.912	340.25
361.294	333.01
361.676	322.62
362.057	342.28
362.439	340.47
362.821	344.99
363.203	334.14
363.584	338.66
363.966	323.3
364.348	327.14
364.729	330.53
365.111	327.36
365.493	323.97
365.874	322.84
366.256	337.99
366.637	333.01
367.019	352.67
367.4	349.51
367.781	315.16
368.163	317.87
368.544	308.38
368.925	305.9
369.306	312.45
369.688	323.07
370.069	320.81
370.45	336.4
370.831	307.03
371.212	324.65
371.593	336.63
371.974	344.76
372.355	326.23
372.736	322.39
373.117	314.03
373.498	323.97
373.879	320.36
374.26	308.61
374.641	323.3
375.021	323.07
375.402	319.91
375.783	320.13
376.163	330.08
376.544	330.75
376.925	327.59
377.305	339.57
377.686	327.14
378.066	343.18
378.447	342.51
378.827	342.96
379.208	342.73
379.588	343.18
379.968	351.77
380.349	344.99
380.729	347.7
381.109	354.03
381.489	340.7
381.87	336.18
382.25	371.66
382.63	347.02
383.01	331.43
383.39	356.97
383.77	375.95
384.15	323.97
384.53	346.8
384.91	350.64
385.29	346.35
385.67	365.56
386.049	360.58
386.429	377.53
386.809	366.23
387.189	352.45
387.568	387.25
387.948	368.95
388.328	365.33
388.707	369.17
389.087	379.11
389.466	361.49
389.846	374.37
390.225	373.01
390.605	379.11
390.984	389.96
391.363	387.02
391.743	358.1
392.122	374.59
392.501	379.79
392.881	388.83
393.26	381.83
393.639	395.61
394.018	382.05
394.397	389.96
394.776	386.35
395.155	388.83
395.534	380.02
395.913	389.28
396.292	382.73
396.671	416.4
397.05	383.63
397.429	398.32
397.808	390.64
398.186	393.35
398.565	396.97
398.944	398.55
399.323	400.58
399.701	387.25
400.08	400.13
400.458	414.82
400.837	427.02
401.215	420.7
401.594	432.45
401.972	419.79
402.351	414.37
402.729	439.68
403.107	411.43
403.486	404.88
403.864	415.27
404.242	401.49
404.62	433.12
404.999	436.74
405.377	439.9
405.755	404.65
406.133	425.67
406.511	434.93
406.889	441.49
407.267	448.94
407.645	431.99
408.023	446.68
408.401	449.85
408.779	459.79
409.156	457.76
409.534	445.33
409.912	457.76
410.29	471.77
410.667	468.6
411.045	456.4
411.422	468.38
411.8	466.34
412.178	484.42
412.555	464.08
412.933	481.03
413.31	478.77
413.687	496.17
414.065	487.13
414.442	486.91
414.819	500.24
415.197	504.08
415.574	495.95
415.951	501.37
416.328	524.87
416.705	514.7
417.082	470.19
417.46	489.62
417.837	521.03
418.214	508.6
418.591	518.77
418.967	533.01
419.344	531.43
419.721	530.3
420.098	538.66
420.475	552.67
420.852	556.51
421.228	549.73
421.605	545.66
421.982	556.28
422.358	546.57
422.735	539.11
423.111	560.35
423.488	597.19
423.864	563.97
424.241	569.62
424.617	547.7
424.994	579.56
425.37	558.09
425.746	564.42
426.123	587.02
426.499	607.36
426.875	570.07
427.251	584.08
427.627	603.97
428.003	591.76
428.379	610.29
428.756	629.5
429.132	617.3
429.507	592.67
429.883	623.85
430.259	617.98
430.635	662.5
431.011	640.58
431.387	639.45
431.763	661.59
432.138	664.76
432.514	658.65
432.89	659.56
433.265	685.32
433.641	689.39
434.016	676.96
434.392	694.81
434.767	697.75
435.143	714.25
435.518	697.52
435.894	734.59
436.269	696.85
436.644	713.12
437.02	738.65
437.395	730.52
437.77	723.96
438.145	741.82
438.52	761.25
438.895	735.04
439.271	752.89
439.646	757.18
440.021	759.22
440.395	756.28
440.77	776.17
441.145	766.22
441.52	772.1
441.895	785.88
442.27	768.03
442.645	784.98
443.019	795.6
443.394	798.76
443.769	814.36
444.143	802.38
444.518	840.8
444.892	806
445.267	846.9
445.641	854.81
446.016	821.14
446.39	843.73
446.764	810.29
447.139	836.28
447.513	854.81
447.887	847.35
448.262	837.63
448.636	861.59
449.01	861.81
449.384	861.14
449.758	883.96
450.132	878.76
450.506	890.74
450.88	876.95
451.254	876.95
451.628	892.55
452.002	893.9
452.376	928.25
452.75	904.75
453.123	926.22
453.497	913.11
453.871	937.29
454.244	952.43
454.618	963.05
454.992	954.69
455.365	990.85
455.739	989.49
456.112	1020
456.486	992.43
456.859	991.53
457.232	1045.76
457.606	1024.07
457.979	1025.65
458.352	1040.11
458.725	1074.01
459.099	1083.05
459.472	1096.84
459.845	1105.42
460.218	1107.46
460.591	1128.7
460.964	1127.12
461.337	1152.65
461.71	1149.94
462.083	1153.33
462.456	1191.75
462.829	1182.93
463.201	1186.55
463.574	1223.84
463.947	1228.13
464.32	1240.33
464.692	1263.84
465.065	1280.56
465.438	1297.06
465.81	1293.89
466.183	1326.66
466.555	1314.91
466.928	1342.48
467.3	1339.54
467.672	1366.88
468.045	1388.58
468.417	1417.28
468.789	1416.15
469.161	1412.76
469.534	1440.33
469.906	1517.62
470.278	1489.59
470.65	1516.49
471.022	1558.29
471.394	1582.02
471.766	1585.86
472.138	1589.93
472.51	1637.39
472.882	1645.3
473.253	1672.19
473.625	1712.64
473.997	1715.35
474.369	1785.18
474.74	1773.65
475.112	1813.43
475.484	1848.68
475.855	1903.59
476.227	1879.64
476.598	1925.74
476.97	1957.38
477.341	2017.72
477.713	2047.77
478.084	2053.42
478.455	2137.71
478.827	2137.49
479.198	2211.83
479.569	2217.94
479.94	2306.07
480.311	2317.59
480.682	2406.41
481.053	2464.26
481.424	2478.49
481.795	2553.75
482.166	2565.27
482.537	2627.64
482.908	2685.49
483.279	2748.77
483.65	2779.28
484.021	2829.9
484.391	2878.71
484.762	2928.88
485.133	2948.99
485.503	3037.35
485.874	3112.6
486.244	3149.89
486.615	3199.15
486.985	3241.19
487.356	3339.71
487.726	3359.15
488.097	3463.33
488.467	3483.21
488.837	3547.84
489.207	3620.16
489.578	3690.67
489.948	3767.95
490.318	3780.38
490.688	3809.53
491.058	3891.11
491.428	3951
491.798	4005.46
492.168	4086.36
492.538	4123.42
492.908	4180.14
493.278	4245.91
493.648	4280.03
494.017	4323.64
494.387	4384.66
494.757	4404.77
495.126	4470.08
495.496	4561.15
495.866	4564.77
496.235	4627.36
496.605	4667.59
496.974	4706.46
497.344	4743.29
497.713	4793.01
498.082	4824.65
498.452	4904.42
498.821	4932.21
499.19	4954.14
499.559	5026.9
499.928	4997.52
500.298	5047.92
500.667	5147.58
501.036	5135.37
501.405	5160.01
501.774	5256.95
502.143	5298.53
502.512	5271.19
502.88	5335.82
503.249	5378.3
503.618	5431.86
503.987	5437.51
504.356	5560.45
504.724	5552.99
505.093	5566.1
505.462	5569.71
505.83	5616.26
506.199	5616.26
506.567	5714.34
506.936	5751.18
507.304	5833.21
507.672	5784.62
508.041	5815.13
508.409	5882.02
508.777	5893.55
509.145	5934.22
509.514	5925.64
509.882	5991.62
510.25	6062.58
510.618	6060.77
510.986	6056.93
511.354	6119.75
511.722	6207.44
512.09	6158.4
512.458	6152.52
512.826	6243.37
513.193	6227.32
513.561	6357.49
513.929	6397.94
514.297	6414.66
514.664	6479.74
515.032	6436.13
515.4	6468.9
515.767	6508.44
516.135	6567.2
516.502	6465.28
516.869	6575.56
517.237	6644.49
517.604	6584.37
517.972	6654.66
518.339	6708.44
518.706	6740.08
519.073	6693.75
519.44	6735.78
519.808	6818.49
520.175	6796.8
520.542	6872.28
520.909	6927.42
521.276	6938.26
521.643	6984.82
522.009	7058.26
522.376	7069.33
522.743	7054.87
523.11	7182.33
523.477	7183
523.843	7220.29
524.21	7351.59
524.577	7336.22
524.943	7381.64
525.31	7376.9
525.676	7415.54
526.043	7456.89
526.409	7556.1
526.776	7555.2
527.142	7588.64
527.508	7663.67
527.874	7640.62
528.241	7772.37
528.607	7728.53
528.973	7853.72
529.339	7788.64
529.705	7909.31
530.071	7898.24
530.437	7940.95
530.803	7963.1
531.169	8062.3
531.535	8057.33
531.901	8060.72
532.267	8044.68
532.632	8165.12
532.998	8199.02
533.364	8307.04
533.73	8309.08
534.095	8311.79
534.461	8310.88
534.826	8401.95
535.192	8394.5
535.557	8514.95
535.923	8497.32
536.288	8505.68
536.653	8625.45
537.019	8563.53
537.384	8621.61
537.749	8652.34
538.114	8681.95
538.479	8657.31
538.845	8785.22
539.21	8789.74
539.575	8772.34
539.94	8861.6
540.305	8887.37
540.67	8849.17
541.034	8961.49
541.399	9022.73
541.764	9016.4
542.129	9061.6
542.494	9079.22
542.858	9142.95
543.223	9140.47
543.587	9206.23
543.952	9148.15
544.316	9242.61
544.681	9287.13
545.045	9355.83
545.41	9370.29
545.774	9408.71
546.138	9447.8
546.503	9460.46
546.867	9498.87
547.231	9523.05
547.595	9622.94
547.959	9653.9
548.324	9606.44
548.688	9732.99
549.052	9666.55
549.416	9686.67
549.779	9750.17
550.143	9854.35
550.507	9861.8
550.871	9842.37
551.235	9846.21
551.599	9929.15
551.962	10004.4
552.326	9971.63
552.689	10017.73
553.053	10073.1
553.417	10122.36
553.78	10163.26
554.143	10236.26
554.507	10202.36
554.87	10146.32
555.234	10361.9
555.597	10271.96
555.96	10336.82
556.323	10308.12
556.686	10373.2
557.05	10374.33
557.413	10473.99
557.776	10453.43
558.139	10546.3
558.502	10562.58
558.865	10599.41
559.228	10621.1
559.59	10688
559.953	10669.24
560.316	10763.25
560.679	10791.04
561.041	10781.1
561.404	10912.4
561.767	10960.53
562.129	10878.73
562.492	11074.43
562.854	10965.28
563.217	10991.26
563.579	11046.86
563.941	11152.39
564.304	11159.85
564.666	11231.71
565.028	11191.03
565.39	11298.6
565.753	11325.49
566.115	11321.88
566.477	11421.08
566.839	11422.44
567.201	11422.21
567.563	11520.29
567.925	11564.13
568.287	11580.85
568.648	11688.65
569.01	11711.47
569.372	11748.31
569.734	11784.46
570.095	11881.18
570.457	11847.97
570.819	11960.05
571.18	11986.94
571.542	12063.78
571.903	12133.83
572.265	12110.78
572.626	12229.65
572.987	12247.95
573.349	12230.55
573.71	12379.93
574.071	12456.31
574.432	12489.98
574.794	12556.2
575.155	12672.58
575.516	12643.88
575.877	12862.63
576.238	12774.27
576.599	12961.16
576.96	13000.25
577.32	13140.59
577.681	13191.43
578.042	13345.33
578.403	13472.78
578.763	13541.93
579.124	13661.93
579.485	13792.77
579.845	13930.17
580.206	13997.29
580.566	14145.98
580.927	14258.3
581.287	14399.54
581.648	14552.07
582.008	14651.73
582.368	14859.64
582.728	15031.84
583.089	15198.39
583.449	15368.32
583.809	15526.29
584.169	15744.13
584.529	15805.15
584.889	16232.03
585.249	16232.03
585.609	16458.92
585.969	16659.59
586.329	16926.93
586.688	17248.95
587.048	17370.08
587.408	17523.52
587.768	17743.18
588.127	18093
588.487	18329.6
588.846	18641.23
589.206	18696.37
589.565	18954.22
589.925	19402.57
590.284	19591.26
590.643	19861.77
591.003	20217.01
591.362	20483.22
591.721	20791.23
592.08	21194.61
592.44	21443.65
592.799	21599.57
593.158	21955.72
593.517	22150.07
593.876	22453.11
594.235	22653.1
594.593	22952.08
594.952	23410.37
595.311	23564.95
595.67	23961.55
596.029	24384.58
596.387	24524.24
596.746	24914.06
597.104	25057.79
597.463	25320.38
597.822	25746.81
598.18	25773.25
598.538	26150.19
598.897	26696.16
599.255	26730.74
599.613	27340.89
599.972	27463.6
600.33	27883.93
600.688	28001.21
601.046	28440.75
601.404	28822.66
601.762	28979.27
602.12	29397.11
602.478	29623.77
602.836	29919.13
603.194	29949.64
603.552	30289.51
603.91	30445.44
604.268	30915.49
604.625	30958.88
604.983	31428.47
605.341	31440.22
605.698	31890.83
606.056	32157.71
606.413	32309.12
606.771	32689.45
607.128	32759.96
607.485	32873.4
607.843	33283.56
608.2	33487.17
608.557	33743.66
608.914	33900.94
609.272	34238.11
609.629	34417.99
609.986	34838.32
610.343	34717.42
610.7	35285.09
611.057	35259.78
611.414	35443.5
611.771	35797.62
612.127	35935.24
612.484	36098.85
612.841	36229.47
613.198	36338.85
613.554	36474.89
613.911	36959.62
614.267	37085.72
614.624	37176.34
614.98	37359.16
615.337	37773.16
615.693	37620.85
616.05	37716.44
616.406	38181.28
616.762	38192.36
617.118	38320.49
617.475	38410.66
617.831	38638.9
618.187	38806.8
618.543	38999.34
618.899	39173.8
619.255	39275.49
619.611	39161.82
619.967	39483.85
620.323	39613.79
620.678	39649.72
621.034	39607.01
621.39	39770.17
621.746	39799.32
622.101	40332.19
622.457	40113.21
622.812	40228.46
623.168	40398.4
623.523	40593.42
623.879	40757.49
624.234	40545.74
624.589	40656.7
624.945	40877.26
625.3	40891.72
625.655	40959.74
626.01	41186.63
626.365	41160.19
626.72	41287.64
627.075	41070.93
627.43	41324.25
627.785	41147.31
628.14	41433.18
628.495	41506.85
628.85	41501.87
629.205	41582.55
629.559	41622.32
629.914	41548.43
630.269	41705.94
630.623	41481.54
630.978	41572.83
631.332	41653.28
631.687	41769.44
632.041	41639.05
632.396	41844.69
632.75	41752.94
633.104	41986.38
633.459	41736.44
633.813	41745.94
634.167	41787.74
634.521	41824.13
634.875	41888.08
635.229	41988.87
635.583	41688.99
635.937	41849.44
636.291	41841.53
636.645	41910
636.999	41874.75
637.352	41777.12
637.706	41644.47
638.06	41860.06
638.413	41790.68
638.767	41767.86
639.121	41734.19
639.474	41533.74
639.828	41714.3
640.181	41729.67
640.534	41590.91
640.888	41641.98
641.241	41421.88
641.594	41536.68
641.947	41716.11
642.301	41469.56
642.654	41702.55
643.007	41661.19
643.36	41690.57
643.713	41532.16
644.066	41803.56
644.419	41258.04
644.771	41185.27
645.124	40885.39
645.477	40792.29
645.83	40616.93
646.182	40554.78
646.535	40409.7
646.888	40593.42
647.24	40265.75
647.593	40456.48
647.945	40358.18
648.298	40260.78
648.65	40228.91
649.002	40140.33
649.355	40312.08
649.707	40298.97
650.059	40367.44
650.411	40874.32
650.763	40829.35
651.115	41359.73
651.467	41173.52
651.819	41177.14
652.171	41049.68
652.523	40995.67
652.875	41026.86
653.227	40881.78
653.578	41157.48
653.93	40932.85
654.282	40878.16
654.633	40845.85
654.985	40943.25
655.337	41025.96
655.688	41061.66
656.039	41044.26
656.391	40819.41
656.742	40934.43
657.094	41061.66
657.445	41087.2
657.796	40955.45
658.147	40957.03
658.498	40738.96
658.849	41048.1
659.2	40870.71
659.551	40760.2
659.902	40933.98
660.253	40846.52
660.604	40885.39
660.955	40705.51
661.306	40781.22
661.656	40872.51
662.007	40816.47
662.358	40830.71
662.708	40885.17
663.059	40676.36
663.409	40517.95
663.76	40682.91
664.11	40816.02
664.461	40803.14
664.811	40708.22
665.161	40728.11
665.511	40668.9
665.862	40743.48
666.212	40832.51
666.562	40792.51
666.912	40790.26
667.262	40703.48
667.612	40725.4
667.962	40639.07
668.312	40695.79
668.662	40835.68
669.011	40685.63
669.361	40557.27
669.711	40621.9
670.06	40618.28
670.41	40533.09
670.76	40487.89
671.109	40651.5
671.459	40630.03
671.808	40399.76
672.157	40544.39
672.507	40376.71
672.856	40351.17
673.205	40389.36
673.554	40457.61
673.904	40423.71
674.253	40532.41
674.602	40423.94
674.951	39848.58
675.3	39620.34
675.649	40283.38
675.998	40153.44
676.346	40244.73
676.695	40336.93
677.044	40109.37
677.393	40271.85
677.741	40361.34
678.09	40075.92
678.438	40178.97
678.787	40084.06
679.135	40122.48
679.484	39810.39
679.832	39974.91
680.181	39775.37
680.529	39920
680.877	39819.43
681.225	39782.82
681.573	40018.07
681.922	39629.83
682.27	39658.31
682.618	39746.44
682.966	39521.59
683.314	39739.44
683.661	39436.84
684.009	39294.93
684.357	39153.46
684.705	39329.28
685.053	39310.07
685.4	39333.12
685.748	39132.9
686.095	39144.42
686.443	38945.56
686.79	38981.04
687.138	39061.71
687.485	38997.53
687.832	38805.22
688.18	38872.79
688.527	38713.47
688.874	38659.46
689.221	38596.87
689.568	38347.61
689.915	38379.25
690.262	38445.01
690.609	38207.05
690.956	38084.11
691.303	38107.39
691.65	37928.18
691.997	37859.48
692.344	37722.31
692.69	37686.38
693.037	37683.22
693.383	37335.2
693.73	37549.44
694.077	37363.68
694.423	37313.28
694.769	37353.96
695.116	37274.87
695.462	37100.41
695.808	36964.37
696.155	37233.51
696.501	36660.87
696.847	36805.05
697.193	36634.66
697.539	36627.65
697.885	36497.94
698.231	36281.45
698.577	36441.44
698.923	36129.13
699.269	36175.69
699.614	35962.36
699.96	35831.29
700.306	35844.85
700.651	35733.66
700.997	35531.86
701.342	35611.63
701.688	35542.48
702.033	35361.02
702.379	35322.15
702.724	35356.5
703.069	35466.55
703.415	35028.15
703.76	35050.07
704.105	35100.69
704.45	34945.21
704.795	34724.43
705.14	34670.42
705.485	34661.83
705.83	34485.11
706.175	34492.12
706.52	34352.01
706.865	34405.79
707.209	34323.53
707.554	34172.12
707.899	34201.05
708.243	34055.07
708.588	33902.98
708.932	33760.84
709.277	33853.94
709.621	33710.22
709.966	33540.05
710.31	33728.07
710.654	33372.37
710.998	33490.33
711.342	33340.96
711.687	33245.37
712.031	33198.36
712.375	33034.75
712.719	33134.41
713.063	33013.28
713.407	33104.81
713.75	33033.4
714.094	32908.2
714.438	32709.79
714.782	32838.37
715.125	32601.09
715.469	32750.69
715.812	32527.87
716.156	32369.01
716.499	32354.77
716.843	32362
717.186	32181.89
717.53	32332.85
717.873	32320.65
718.216	32189.58
718.559	32210.59
718.902	31951.39
719.246	31964.72
719.589	31859.42
719.932	31766.54
720.275	31785.97
720.617	31707.33
720.96	31604.51
721.303	31597.5
721.646	31700.1
721.989	31457.17
722.331	31493.1
722.674	31350.73
723.016	31404.51
723.359	31412.42
723.701	31452.42
724.044	31215.82
724.386	31218.53
724.729	31228.92
725.071	31196.16
725.413	31147.8
725.755	31082.04
726.097	30889.72
726.439	30767.92
726.782	30826.45
727.124	30922.04
727.465	30701.93
727.807	30640.24
728.149	30614.48
728.491	30721.14
728.833	30665.78
729.175	30432.11
729.516	30413.58
729.858	30350.3
730.199	30483.63
730.541	30367.25
730.882	30429.62
731.224	30567.7
731.565	30202.74
731.906	30296.52
732.248	30193.7
732.589	29995.28
732.93	29905.8
733.271	30032.12
733.612	30070.99
733.953	30059.46
734.294	29838
734.635	29801.39
734.976	29956.19
735.317	29611.79
735.658	29704.67
735.999	29668.51
736.339	29567.73
736.68	29775.63
737.021	29593.49
737.361	29383.1
737.702	29519.14
738.042	29407.73
738.383	29438.01
738.723	29388.97
739.063	29250.67
739.404	29392.36
739.744	29247.28
740.084	29236.21
740.424	29134.74
740.764	29072.82
741.104	29158.7
741.444	29004.8
741.784	28900.17
742.124	29019.04
742.464	29011.81
742.804	28821.53
743.143	28836.67
743.483	28874.86
743.823	28615.89
744.162	28597.58
744.502	28783.34
744.841	28607.3
745.181	28739.72
745.52	28513.06
745.86	28666.96
746.199	28689.33
746.538	28619.5
746.877	28603.91
747.216	28584.7
747.556	28275.78
747.895	28399.62
748.234	28277.59
748.573	28276.46
748.911	28310.81
749.25	28121.66
749.589	28075.11
749.928	28087.99
750.267	28113.53
750.605	28067.65
750.944	27952.63
751.283	27886.19
751.621	27932.29
751.96	27805.51
752.298	27818.84
752.636	27741.78
752.975	27557.16
753.313	27485.75
753.651	27692.07
753.989	27471.96
754.327	27340.44
754.666	27364.39
755.004	27372.53
755.342	27337.95
755.679	27212.53
756.017	27081.01
756.355	27227.9
756.693	27179.31
757.031	27085.08
757.368	26937.96
757.706	26876.04
758.044	26850.51
758.381	26884.86
758.719	26740.46
759.056	26785.88
759.394	26750.17
