Data from hue_190_FLMS001491_00026.txt Node
Date: Tue Feb 07 16:45:03 GMT 2017
User: dcchb
Spectrometer: FLMS00149
Trigger mode: 0
Integration Time (sec): 2.000000E-2
Scans to average: 10
Electric dark correction enabled: true
Nonlinearity correction enabled: false
Boxcar width: 0
XAxis mode: Wavelengths
Number of Pixels in Spectrum: 2048
>>>>>Begin Spectral Data<<<<<
341.393	-11.31
341.776	-11.31
342.16	-11.31
342.543	-41.59
342.927	-74.59
343.31	-58.77
343.693	-72.1
344.077	-76.4
344.46	-44.98
344.843	-50.18
345.226	-61.48
345.61	-40.24
345.993	-29.84
346.376	-2.5
346.759	8.57
347.142	36.14
347.525	56.48
347.908	58.97
348.291	72.53
348.674	85.41
349.057	118.4
349.44	143.03
349.823	147.55
350.206	150.49
350.588	190.26
350.971	208.12
351.354	231.84
351.737	235.69
352.119	249.47
352.502	266.42
352.884	267.55
353.267	273.88
353.65	289.02
354.032	310.49
354.414	312.97
354.797	303.25
355.179	324.72
355.562	305.29
355.944	323.59
356.326	309.58
356.709	347.55
357.091	333.31
357.473	355.23
357.855	329.69
358.238	329.02
358.62	346.42
359.002	329.47
359.384	331.05
359.766	339.64
360.148	343.48
360.53	334.44
360.912	339.41
361.294	322.24
361.676	339.64
362.057	336.47
362.439	333.31
362.821	326.76
363.203	339.41
363.584	318.62
363.966	318.4
364.348	313.88
364.729	315.01
365.111	325.85
365.493	318.17
365.874	298.06
366.256	310.03
366.637	301.9
367.019	301.9
367.4	313.65
367.781	299.19
368.163	325.63
368.544	304.84
368.925	306.87
369.306	310.94
369.688	319.75
370.069	305.06
370.45	301.9
370.831	319.53
371.212	291.05
371.593	324.05
371.974	309.58
372.355	292.86
372.736	308.23
373.117	318.4
373.498	333.54
373.879	294.67
374.26	294.22
374.641	299.41
375.021	317.04
375.402	333.99
375.783	295.8
376.163	315.23
376.544	303.71
376.925	312.29
377.305	314.33
377.686	319.98
378.066	290.83
378.447	329.69
378.827	322.92
379.208	310.94
379.588	332.41
379.968	324.27
380.349	314.78
380.729	333.31
381.109	310.26
381.489	315.91
381.87	312.52
382.25	316.14
382.63	317.27
383.01	334.89
383.39	347.55
383.77	341.9
384.15	337.38
384.53	335.12
384.91	327.43
385.29	343.93
385.67	323.37
386.049	339.64
386.429	344.84
386.809	336.02
387.189	370.15
387.568	362.46
387.948	345.51
388.328	368.56
388.707	327.21
389.087	344.16
389.466	356.81
389.846	355.23
390.225	363.59
390.605	329.24
390.984	347.32
391.363	357.49
391.743	352.07
392.122	360.2
392.501	364.72
392.881	371.95
393.26	342.8
393.639	353.87
394.018	372.18
394.397	377.15
394.776	372.18
395.155	367.21
395.534	359.3
395.913	356.36
396.292	384.83
396.671	364.72
397.05	376.7
397.429	370.82
397.808	383.48
398.186	393.42
398.565	376.25
398.944	358.62
399.323	403.14
399.701	395
400.08	398.17
400.458	410.37
400.837	378.96
401.215	399.3
401.594	391.39
401.972	409.24
402.351	392.74
402.729	404.72
403.107	427.55
403.486	416.47
403.864	432.06
404.242	414.66
404.62	407.88
404.999	434.1
405.377	418.73
405.755	429.13
406.133	435.23
406.511	469.35
406.889	461.22
407.267	444.95
407.645	476.36
408.023	463.25
408.401	486.3
408.779	484.27
409.156	456.92
409.534	483.59
409.912	481.1
410.29	515.9
410.667	500.31
411.045	512.97
411.422	513.42
411.8	508
412.178	533.31
412.555	532.85
412.933	545.28
413.31	545.51
413.687	552.06
414.065	585.06
414.442	582.12
414.819	585.06
415.197	599.07
415.574	606.52
415.951	628.22
416.328	625.05
416.705	649.01
417.082	638.16
417.46	656.01
417.837	668.22
418.214	649.23
418.591	662.57
418.967	678.61
419.344	671.15
419.721	694.2
420.098	701.66
420.475	708.89
420.852	724.71
421.228	744.37
421.605	731.94
421.982	770.14
422.358	767.2
422.735	802.45
423.111	792.51
423.488	793.86
423.864	815.11
424.241	823.47
424.617	847.87
424.994	844.03
425.37	844.48
425.746	868.66
426.123	882.22
426.499	867.31
426.875	904.37
427.251	910.92
427.627	963.58
428.003	976.01
428.379	994.08
428.756	976.23
429.132	989.79
429.507	979.85
429.883	1032.05
430.259	1016.91
430.635	1038.6
431.011	1044.7
431.387	1069.34
431.763	1093.52
432.138	1101.2
432.514	1105.49
432.89	1106.4
433.265	1138.71
433.641	1175.55
434.016	1178.03
434.392	1217.13
434.767	1239.73
435.143	1240.86
435.518	1273.62
435.894	1291.48
436.269	1351.81
436.644	1350.23
437.02	1358.82
437.395	1378.93
437.77	1369.89
438.145	1422.77
438.52	1452.83
438.895	1441.53
439.271	1455.09
439.646	1540.51
440.021	1543
440.395	1546.39
440.77	1564.46
441.145	1585.03
441.52	1626.84
441.895	1623.22
442.27	1670.45
442.645	1647.85
443.019	1719.94
443.394	1689.66
443.769	1718.13
444.143	1721.07
444.518	1780.73
444.892	1759.49
445.267	1781.41
445.641	1780.5
446.016	1801.52
446.39	1837.23
446.764	1832.25
447.139	1847.17
447.513	1866.15
447.887	1908.41
448.262	1876.55
448.636	1911.57
449.01	1945.92
449.384	1931.46
449.758	1968.97
450.132	2025.02
450.506	1967.17
450.88	2034.73
451.254	2026.37
451.628	2054.17
452.002	2101.17
452.376	2064.56
452.75	2107.5
453.123	2114.28
453.497	2152.7
453.871	2193.37
454.244	2214.39
454.618	2252.13
454.992	2305.01
455.365	2285.35
455.739	2272.24
456.112	2330.77
456.486	2383.43
456.859	2394.95
457.232	2452.58
457.606	2414.39
457.979	2444.89
458.352	2557.43
458.725	2533.03
459.099	2563.08
459.472	2604.89
459.845	2643.98
460.218	2639.24
460.591	2709.07
460.964	2677.66
461.337	2763.08
461.71	2822.74
462.083	2857.09
462.456	2874.49
462.829	2830.42
463.201	2942.06
463.574	2951.55
463.947	2954.03
464.32	3076.29
464.692	3056.4
465.065	3114.48
465.438	3171.88
465.81	3226.12
466.183	3220.24
466.555	3321.71
466.928	3321.48
467.3	3334.59
467.672	3374.13
468.045	3485.09
468.417	3472.89
468.789	3526.22
469.161	3549.72
469.534	3606.44
469.906	3688.02
470.278	3695.93
470.65	3724.63
471.022	3852.31
471.394	3887.12
471.766	3929.37
472.138	3979.54
472.51	4064.74
472.882	4098.18
473.253	4112.19
473.625	4226.77
473.997	4316.71
474.369	4349.02
474.74	4411.17
475.112	4478.74
475.484	4552.86
475.855	4625.17
476.227	4693.42
476.598	4818.16
476.97	4875.34
477.341	4974.54
477.713	5029.01
478.084	5025.16
478.455	5222.9
478.827	5222
479.198	5434.87
479.569	5426.51
479.94	5545.38
480.311	5593.96
480.682	5743.34
481.053	5875.54
481.424	6001.18
481.795	6027.85
482.166	6126.38
482.537	6214.29
482.908	6312.36
483.279	6410.66
483.65	6516.2
484.021	6594.61
484.391	6614.28
484.762	6698.79
485.133	6797.1
485.503	6875.06
485.874	7068.27
486.244	7111.21
486.615	7259
486.985	7381.26
487.356	7495.38
487.726	7526.57
488.097	7633.23
488.467	7703.96
488.837	7878.87
489.207	8003.84
489.578	8116.16
489.948	8113.22
490.318	8253.55
490.688	8272.31
491.058	8407
491.428	8478.63
491.798	8618.74
492.168	8712.98
492.538	8794.33
492.908	8873.2
493.278	9009.24
493.648	8952.74
494.017	9117.94
494.387	9203.59
494.757	9167.65
495.126	9327.65
495.496	9298.05
495.866	9319.29
496.235	9508.44
496.605	9553.63
496.974	9531.94
497.344	9713.85
497.713	9718.83
498.082	9755.21
498.452	9860.97
498.821	9887.18
499.19	9916.79
499.559	9972.83
499.928	9953.17
500.298	10050.12
500.667	10100.06
501.036	10118.82
501.405	10194.07
501.774	10145.71
502.143	10241.52
502.512	10267.96
502.88	10335.53
503.249	10316.32
503.618	10343.44
503.987	10384.35
504.356	10428.41
504.724	10500.05
505.093	10511.8
505.462	10529.88
505.83	10609.42
506.199	10616.43
506.567	10764.9
506.936	10674.96
507.304	10720.16
507.672	10741.4
508.041	10785.46
508.409	10782.3
508.777	10884.22
509.145	10880.15
509.514	10809.65
509.882	10902.52
510.25	10941.17
510.618	10955.18
510.986	10934.16
511.354	11013.93
511.722	11042.18
512.09	10998.34
512.458	10994.27
512.826	11088.51
513.193	11083.31
513.561	11046.48
513.929	11132.12
514.297	11208.28
514.664	11167.38
515.032	11212.57
515.4	11295.96
515.767	11208.96
516.135	11221.39
516.502	11076.76
516.869	11223.42
517.237	11225
517.604	11179.35
517.972	11261.16
518.339	11251.44
518.706	11253.7
519.073	11255.51
519.44	11247.37
519.808	11338.44
520.175	11194.49
520.542	11318.11
520.909	11242.63
521.276	11232.46
521.643	11336.64
522.009	11332.57
522.376	11312.68
522.743	11336.18
523.11	11413.25
523.477	11369.86
523.843	11384.32
524.21	11452.79
524.577	11374.83
524.943	11416.86
525.31	11451.21
525.676	11398.33
526.043	11489.85
526.409	11445.56
526.776	11488.5
527.142	11369.18
527.508	11364.43
527.874	11341.61
528.241	11386.58
528.607	11311.33
528.973	11378.9
529.339	11225.68
529.705	11291.21
530.071	11282.63
530.437	11258.45
530.803	11266.81
531.169	11252.57
531.535	11140.94
531.901	11145.46
532.267	11116.08
532.632	11128.51
532.998	11069.3
533.364	11107.49
533.73	11056.19
534.095	10989.08
534.461	10891
534.826	10888.29
535.192	10832.02
535.557	10895.52
535.923	10735.75
536.288	10724.22
536.653	10680.83
537.019	10629.31
537.384	10587.05
537.749	10563.32
538.114	10470.45
538.479	10444.91
538.845	10420.73
539.21	10368.98
539.575	10358.36
539.94	10258.7
540.305	10258.02
540.67	10153.39
541.034	10114.97
541.399	10157.23
541.764	10058.25
542.129	10010.12
542.494	9940.29
542.858	9904.81
543.223	9801.31
543.587	9789.78
543.952	9747.07
544.316	9704.59
544.681	9627.98
545.045	9617.81
545.41	9595.21
545.774	9475.67
546.138	9444.71
546.503	9490.81
546.867	9300.08
547.231	9310.93
547.595	9203.81
547.959	9218.27
548.324	9165.39
548.688	9155
549.052	9077.49
549.416	8988.45
549.779	9045.17
550.143	8938.73
550.507	8941.9
550.871	8822.35
551.235	8761.56
551.599	8795.01
551.962	8755.24
552.326	8631.4
552.689	8635.92
553.053	8546.88
553.417	8536.94
553.78	8577.61
554.143	8477.28
554.507	8416.26
554.87	8384.85
555.234	8424.85
555.597	8368.81
555.96	8309.15
556.323	8212.88
556.686	8149.15
557.05	8223.5
557.413	8128.59
557.776	8097.17
558.139	8049.72
558.502	8087.68
558.865	8086.78
559.228	8095.82
559.59	8003.17
559.953	7972.66
560.316	7998.19
560.679	7991.87
561.041	7939.89
561.404	7936.73
561.767	7881.13
562.129	7889.27
562.492	7879.78
562.854	7833.9
563.217	7845.88
563.579	7822.83
563.941	7777.41
564.304	7769.05
564.666	7836.84
565.028	7760.69
565.39	7713.23
565.753	7801.59
566.115	7802.27
566.477	7760.23
566.839	7725.66
567.201	7694.02
567.563	7666
567.925	7698.77
568.287	7668.71
568.648	7689.05
569.01	7689.28
569.372	7676.39
569.734	7698.09
570.095	7659.67
570.457	7632.1
570.819	7648.6
571.18	7628.03
571.542	7622.61
571.903	7565.21
572.265	7633.91
572.626	7628.03
572.987	7611.31
573.349	7618.32
573.71	7644.76
574.071	7557.53
574.432	7622.16
574.794	7666
575.155	7588.49
575.516	7570.41
575.877	7540.58
576.238	7512.33
576.599	7653.34
576.96	7568.83
577.32	7565.66
577.681	7592.33
578.042	7656.73
578.403	7533.57
578.763	7584.87
579.124	7496.96
579.485	7570.18
579.845	7553.23
580.206	7476.63
580.566	7514.14
580.927	7534.03
581.287	7568.15
581.648	7505.1
582.008	7496.51
582.368	7490.86
582.728	7412.45
583.089	7454.71
583.449	7366.12
583.809	7469.17
584.169	7466
584.529	7355.72
584.889	7386.46
585.249	7391.2
585.609	7323.86
585.969	7352.56
586.329	7352.79
586.688	7385.55
587.048	7362.5
587.408	7356.4
587.768	7296.74
588.127	7288.61
588.487	7241.6
588.846	7267.59
589.206	7227.37
589.565	7289.06
589.925	7237.08
590.284	7228.5
590.643	7236.18
591.003	7234.15
591.362	7224.43
591.721	7215.16
592.08	7240.25
592.44	7223.52
592.799	7178.78
593.158	7221.49
593.517	7224.65
593.876	7239.8
594.235	7155.73
594.593	7134.71
594.952	7166.13
595.311	7145.33
595.67	7077.77
596.029	7142.85
596.387	7152.11
596.746	7174.03
597.104	7125.67
597.463	7072.57
597.822	7087.71
598.18	7118.44
598.538	7048.61
598.897	7075.96
599.255	7024.21
599.613	7097.65
599.972	7101.27
600.33	7084.32
600.688	7088.61
601.046	7051.1
601.404	7103.53
601.762	7053.13
602.12	7108.5
602.478	7035.96
602.836	7085.22
603.194	7062.63
603.552	7003.42
603.91	7000.03
604.268	7066.24
604.625	7002.51
604.983	7029.63
605.341	7004.77
605.698	7013.81
606.056	7076.18
606.413	7039.12
606.771	7034.15
607.128	7024.43
607.485	7020.37
607.843	6983.08
608.2	7031.89
608.557	7018.78
608.914	7026.92
609.272	7067.37
609.629	7056.52
609.986	7085.22
610.343	7018.56
610.7	7026.92
611.057	7031.67
611.414	7026.92
611.771	7052
612.127	7035.51
612.484	7067.6
612.841	7074.6
613.198	7038.22
613.554	7079.8
613.911	7054.04
614.267	7052.23
614.624	7017.88
614.98	7071.44
615.337	7087.26
615.693	7030.08
616.05	7025.34
616.406	7147.37
616.762	7054.49
617.118	7082.29
617.475	7072.34
617.831	7134.94
618.187	7058.11
618.543	7094.49
618.899	7141.94
619.255	7153.24
619.611	7082.74
619.967	7085
620.323	7147.14
620.678	7111.44
621.034	7097.88
621.39	7039.57
621.746	7127.93
622.101	7142.62
622.457	7102.85
622.812	7157.76
623.168	7113.02
623.523	7098.78
623.879	7082.51
624.234	7089.74
624.589	7110.53
624.945	7084.77
625.3	7141.27
625.655	7107.82
626.01	7159.57
626.365	7106.47
626.72	7033.47
627.075	7037.99
627.43	7030.54
627.785	7068.95
628.14	7050.65
628.495	7153.7
628.85	7146.46
629.205	7038.22
629.559	7122.96
629.914	6979.92
630.269	7011.55
630.623	6976.75
630.978	7095.39
631.332	7052.68
631.687	7001.38
632.041	7019.91
632.396	7059.91
632.75	6942.4
633.104	6991.67
633.459	6975.85
633.813	6956.19
634.167	6995.73
634.521	6981.95
634.875	6972.23
635.229	6901.73
635.583	6894.72
635.937	6885.91
636.291	6922.29
636.645	6935.4
636.999	6871.67
637.352	6879.13
637.706	6836.42
638.06	6945.57
638.413	6849.98
638.767	6836.42
639.121	6839.35
639.474	6807.94
639.828	6826.25
640.181	6822.63
640.534	6840.03
640.888	6826.02
641.241	6806.36
641.594	6798.9
641.947	6822.63
642.301	6757.32
642.654	6775.85
643.007	6763.88
643.36	6798.68
643.713	6728.62
644.066	6738.34
644.419	6710.54
644.771	6777.21
645.124	6686.82
645.477	6639.59
645.83	6621.73
646.182	6640.26
646.535	6583.54
646.888	6589.42
647.24	6584.45
647.593	6563.43
647.945	6591.22
648.298	6529.31
648.65	6551.68
649.002	6506.71
649.355	6565.01
649.707	6553.49
650.059	6567.04
650.411	6660.83
650.763	6685.69
651.115	6702.63
651.467	6676.87
651.819	6726.14
652.171	6743.54
652.523	6702.63
652.875	6685.23
653.227	6652.69
653.578	6786.93
653.93	6662.64
654.282	6654.05
654.633	6661.05
654.985	6721.17
655.337	6717.1
655.688	6761.62
656.039	6716.87
656.391	6730.43
656.742	6711.45
657.094	6705.12
657.445	6754.84
657.796	6768.62
658.147	6756.64
658.498	6732.92
658.849	6749.41
659.2	6752.8
659.551	6793.93
659.902	6809.75
660.253	6755.74
660.604	6758.23
660.955	6739.92
661.306	6779.92
661.656	6774.27
662.007	6759.36
662.358	6771.79
662.708	6802.97
663.059	6811.11
663.409	6777.21
663.76	6824.67
664.11	6789.41
664.461	6860.6
664.811	6793.71
665.161	6854.72
665.511	6753.71
665.862	6875.51
666.212	6816.98
666.562	6849.07
666.912	6851.78
667.262	6880.93
667.612	6820.15
667.962	6809.3
668.312	6876.42
668.662	6903.76
669.011	6867.15
669.361	6803.87
669.711	6828.05
670.06	6840.26
670.41	6795.74
670.76	6819.24
671.109	6792.8
671.459	6825.34
671.808	6778.34
672.157	6801.16
672.507	6795.74
672.856	6807.04
673.205	6743.31
673.554	6813.14
673.904	6769.07
674.253	6783.76
674.602	6740.15
674.951	6670.09
675.3	6672.13
675.649	6745.35
675.998	6696.08
676.346	6707.83
676.695	6728.17
677.044	6747.83
677.393	6703.09
677.741	6696.31
678.09	6756.64
678.438	6693.6
678.787	6666.7
679.135	6727.94
679.484	6696.31
679.832	6661.51
680.181	6589.19
680.529	6642.52
680.877	6607.04
681.225	6591
681.573	6654.5
681.922	6556.2
682.27	6502.87
682.618	6568.17
682.966	6517.55
683.314	6542.19
683.661	6505.58
684.009	6454.73
684.357	6489.98
684.705	6441.85
685.053	6434.17
685.4	6469.42
685.748	6440.95
686.095	6450.66
686.443	6361.85
686.79	6371.8
687.138	6433.49
687.485	6400.72
687.832	6374.28
688.18	6338.12
688.527	6326.15
688.874	6278.46
689.221	6299.03
689.568	6256.09
689.915	6239.6
690.262	6195.3
690.609	6200.5
690.956	6159.15
691.303	6177.45
691.65	6179.48
691.997	6112.37
692.344	6118.02
692.69	6129.54
693.037	6072.59
693.383	6070.11
693.73	6035.08
694.077	5992.37
694.423	5981.52
694.769	5936.33
695.116	5927.29
695.462	5946.04
695.808	5917.34
696.155	5926.84
696.501	5815.2
696.847	5812.26
697.193	5770.91
697.539	5778.14
697.885	5760.74
698.231	5741.53
698.577	5719.38
698.923	5718.25
699.269	5676.67
699.614	5624.24
699.96	5621.08
700.306	5611.14
700.651	5590.12
700.997	5610.91
701.342	5536.79
701.688	5555.55
702.033	5564.36
702.379	5479.62
702.724	5417.92
703.069	5479.62
703.415	5398.04
703.76	5410.24
704.105	5392.84
704.45	5359.39
704.795	5362.33
705.14	5319.39
705.485	5337.47
705.83	5266.97
706.175	5276.01
706.52	5258.38
706.865	5267.64
707.209	5288.43
707.554	5225.39
707.899	5177.48
708.243	5192.17
708.588	5205.72
708.932	5171.38
709.277	5122.11
709.621	5105.61
709.966	5087.76
710.31	5085.5
710.654	5036.24
710.998	5067.42
711.342	5104.71
711.687	5007.99
712.031	5050.25
712.375	5009.35
712.719	5009.12
713.063	4998.27
713.407	4961.44
713.75	4962.79
714.094	4922.12
714.438	4944.94
714.782	4934.55
715.125	4944.26
715.469	4887.09
715.812	4933.87
716.156	4904.26
716.499	4888.44
716.843	4910.37
717.186	4883.02
717.53	4858.84
717.873	4896.81
718.216	4900.65
718.559	4854.77
718.902	4898.84
719.246	4833.76
719.589	4835.34
719.932	4824.94
720.275	4814.32
720.617	4827.2
720.96	4826.3
721.303	4837.37
721.646	4837.82
721.989	4791.72
722.331	4847.32
722.674	4831.27
723.016	4753.08
723.359	4787.2
723.701	4814.77
724.044	4775.23
724.386	4736.36
724.729	4742.23
725.071	4790.82
725.413	4814.1
725.755	4792.4
726.097	4716.92
726.439	4779.07
726.782	4718.28
727.124	4752.18
727.465	4742.46
727.807	4715.12
728.149	4720.09
728.491	4734.55
728.833	4729.58
729.175	4728.9
729.516	4741.1
729.858	4754.89
730.199	4736.13
730.541	4720.77
730.882	4775.23
731.224	4740.2
731.565	4758.5
731.906	4771.84
732.248	4756.47
732.589	4791.27
732.93	4735
733.271	4759.41
733.612	4730.71
733.953	4803.93
734.294	4711.05
734.635	4752.63
734.976	4804.15
735.317	4778.84
735.658	4755.34
735.999	4785.4
736.339	4820.42
736.68	4812.06
737.021	4840.08
737.361	4794.66
737.702	4832.18
738.042	4838.5
738.383	4857.03
738.723	4821.33
739.063	4863.13
739.404	4893.87
739.744	4894.09
740.084	4866.75
740.424	4891.61
740.764	4925.05
741.104	4963.7
741.444	4948.56
741.784	4945.17
742.124	4975.67
742.464	5037.59
742.804	5017.48
743.143	5029.68
743.483	5038.95
743.823	5063.58
744.162	5104.94
744.502	5156.69
744.841	5156.69
745.181	5196.23
745.52	5226.06
745.86	5291.82
746.199	5322.11
746.538	5298.38
746.877	5375.66
747.216	5456.79
747.556	5462.67
747.895	5516.9
748.234	5582.66
748.573	5618.37
748.911	5647.07
749.25	5714.19
749.589	5734.07
749.928	5807.97
750.267	5909.21
750.605	5984.91
750.944	6086.38
751.283	6120.73
751.621	6225.81
751.96	6293.61
752.298	6338.58
752.636	6465.13
752.975	6492.47
753.313	6619.7
753.651	6761.39
753.989	6788.73
754.327	6957.54
754.666	7024.21
755.004	7227.82
755.342	7333.13
755.679	7444.76
756.017	7608.37
756.355	7764.08
756.693	7815.15
757.031	8036.16
757.368	8099.43
757.706	8259.66
758.044	8456.94
758.381	8642.24
758.719	8741.22
759.056	8942.8
759.394	9081.33
759.731	9221.66
760.068	9364.26
760.405	9506.4
760.743	9820.97
761.08	9975.77
761.417	10104.58
761.754	10285.37
762.091	10516.32
762.428	10625.7
762.765	10761.51
763.102	10973.26
763.438	11195.4
763.775	11285.56
764.112	11519.23
764.449	11704.99
764.785	11880.13
765.122	11987.47
765.458	12151.76
765.795	12305.43
766.131	12554.23
766.467	12691.86
766.804	12854.34
767.14	12924.62
