Data from hue_170_FLMS001491_00061.txt Node
Date: Tue Feb 07 16:49:01 GMT 2017
User: dcchb
Spectrometer: FLMS00149
Trigger mode: 0
Integration Time (sec): 2.000000E-2
Scans to average: 10
Electric dark correction enabled: true
Nonlinearity correction enabled: false
Boxcar width: 0
XAxis mode: Wavelengths
Number of Pixels in Spectrum: 2048
>>>>>Begin Spectral Data<<<<<
341.393	-19.21
341.776	-19.21
342.16	-19.21
342.543	-49.49
342.927	-58.08
343.31	-48.81
343.693	-61.02
344.077	-76.38
344.46	-69.15
344.843	-70.96
345.226	-44.29
345.61	-37.97
345.993	-10.62
346.376	-11.98
346.759	12.2
347.142	33.67
347.525	42.48
347.908	66.66
348.291	80.9
348.674	91.75
349.057	103.5
349.44	96.27
349.823	149.37
350.206	141.01
350.588	179.66
350.971	229.15
351.354	236.6
351.737	242.48
352.119	275.02
352.502	257.85
352.884	305.08
353.267	272.54
353.65	296.04
354.032	286.09
354.414	312.08
354.797	335.58
355.179	318.18
355.562	326.77
355.944	340.56
356.326	337.39
356.709	331.97
357.091	344.85
357.473	340.1
357.855	361.57
358.238	331.06
358.62	333.55
359.002	329.26
359.384	350.95
359.766	303.49
360.148	343.95
360.53	335.13
360.912	325.42
361.294	338.3
361.676	335.58
362.057	336.94
362.439	337.62
362.821	339.2
363.203	349.14
363.584	298.3
363.966	334.23
364.348	325.87
364.729	325.64
365.111	326.55
365.493	323.83
365.874	310.5
366.256	295.81
366.637	309.37
367.019	325.19
367.4	301.24
367.781	306.43
368.163	312.53
368.544	331.52
368.925	301.46
369.306	311.63
369.688	296.72
370.069	308.24
370.45	305.3
370.831	315.7
371.212	315.02
371.593	327.22
371.974	330.39
372.355	312.76
372.736	321.12
373.117	329.71
373.498	305.98
373.879	326.09
374.26	309.82
374.641	302.36
375.021	321.35
375.402	318.86
375.783	332.65
376.163	349.14
376.544	347.11
376.925	331.29
377.305	325.87
377.686	339.43
378.066	323.61
378.447	327.22
378.827	341.69
379.208	308.69
379.588	329.93
379.968	345.98
380.349	333.78
380.729	338.07
381.109	321.12
381.489	322.93
381.87	336.26
382.25	338.07
382.63	346.21
383.01	346.66
383.39	326.09
383.77	352.53
384.15	343.49
384.53	331.06
384.91	336.04
385.29	372.87
385.67	370.39
386.049	356.6
386.429	353.44
386.809	365.64
387.189	352.99
387.568	343.95
387.948	357.05
388.328	344.17
388.707	362.7
389.087	350.73
389.466	370.16
389.846	379.65
390.225	360.67
390.605	386.2
390.984	364.96
391.363	358.86
391.743	385.75
392.122	376.49
392.501	369.26
392.881	372.42
393.26	370.84
393.639	380.55
394.018	394.11
394.397	394.79
394.776	373.32
395.155	386.66
395.534	386.43
395.913	399.54
396.292	390.05
396.671	388.46
397.05	410.61
397.429	415.81
397.808	381.23
398.186	404.74
398.565	400.89
398.944	402.93
399.323	420.55
399.701	407.67
400.08	414
400.458	408.8
400.837	393.21
401.215	417.84
401.594	431.85
401.972	415.81
402.351	429.37
402.729	443.38
403.107	433.89
403.486	433.66
403.864	443.15
404.242	413.55
404.62	439.99
404.999	412.87
405.377	463.04
405.755	443.38
406.133	439.76
406.511	442.47
406.889	454.23
407.267	453.77
407.645	471.85
408.023	483.6
408.401	463.49
408.779	484.51
409.156	479.99
409.534	478.86
409.912	489.48
410.29	495.81
410.667	504.62
411.045	517.73
411.422	519.31
411.8	515.01
412.178	495.58
412.555	551.4
412.933	506.2
413.31	529.7
413.687	540.78
414.065	531.74
414.442	553.88
414.819	561.12
415.197	582.58
415.574	550.49
415.951	583.04
416.328	563.15
416.705	581.45
417.082	590.72
417.46	611.96
417.837	597.05
418.214	587.1
418.591	616.93
418.967	612.87
419.344	618.97
419.721	615.58
420.098	636.37
420.475	626.88
420.852	628.23
421.228	642.02
421.605	660.55
421.982	664.16
422.358	663.71
422.735	672.75
423.111	677.5
423.488	706.65
423.864	708
424.241	703.03
424.617	724.5
424.994	679.98
425.37	754.78
425.746	712.75
426.123	763.14
426.499	734.44
426.875	741.68
427.251	747.55
427.627	771.73
428.003	768.34
428.379	770.6
428.756	805.63
429.132	812.18
429.507	814.67
429.883	818.74
430.259	867.1
430.635	845.18
431.011	844.27
431.387	845.4
431.763	863.25
432.138	873.65
432.514	897.83
432.89	893.31
433.265	890.37
433.641	906.87
434.016	914.78
434.392	922.01
434.767	950.48
435.143	954.55
435.518	970.6
435.894	953.87
436.269	987.54
436.644	1000.65
437.02	1017.37
437.395	1041.78
437.77	1033.42
438.145	1067.99
438.52	1051.5
438.895	1092.17
439.271	1098.5
439.646	1106.86
440.021	1110.48
440.395	1124.04
440.77	1124.04
441.145	1129.24
441.52	1158.39
441.895	1147.09
442.27	1174.43
442.645	1147.09
443.019	1187.54
443.394	1220.31
443.769	1204.26
444.143	1216.01
444.518	1241.1
444.892	1242.23
445.267	1265.73
445.641	1264.6
446.016	1253.98
446.39	1287.2
446.764	1259.85
447.139	1279.06
447.513	1309.12
447.887	1316.8
448.262	1346.18
448.636	1321.77
449.01	1346.41
449.384	1371.49
449.758	1376.69
450.132	1391.6
450.506	1394.77
450.88	1392.51
451.254	1413.52
451.628	1427.99
452.002	1436.12
452.376	1434.54
452.75	1480.19
453.123	1490.58
453.497	1504.59
453.871	1508.21
454.244	1533.97
454.618	1558.6
454.992	1563.57
455.365	1609.68
455.739	1606.51
456.112	1642.89
456.486	1652.61
456.859	1657.36
457.232	1677.92
457.606	1725.15
457.979	1715.89
458.352	1768.09
458.725	1772.83
459.099	1803.34
459.472	1860.97
459.845	1841.99
460.218	1881.76
460.591	1869.56
460.964	1889.44
461.337	1931.47
461.71	1996.78
462.083	2011.7
462.456	2002.66
462.829	2019.61
463.201	2056.67
463.574	2083.34
463.947	2175.31
464.32	2163.33
464.692	2194.29
465.065	2240.17
465.438	2217.12
465.81	2282.65
466.183	2327.85
466.555	2361.75
466.928	2364.46
467.3	2398.81
467.672	2432.25
468.045	2502.53
468.417	2510.89
468.789	2566.26
469.161	2559.93
469.534	2623.21
469.906	2716.09
470.278	2712.92
470.65	2743.66
471.022	2860.72
471.394	2907.72
471.766	2948.4
472.138	3003.08
472.51	3086.02
472.882	3086.7
473.253	3123.76
473.625	3215.28
473.997	3310.87
474.369	3297.09
474.74	3387.03
475.112	3461.6
475.484	3544.77
475.855	3654.14
476.227	3685.55
476.598	3809.62
476.97	3821.14
477.341	3905.43
477.713	4039.89
478.084	4142.94
478.455	4213
478.827	4231.53
479.198	4452.31
479.569	4462.71
479.94	4563.5
480.311	4707.67
480.682	4753.55
481.053	4935.92
481.424	5027.21
481.795	5111.28
482.166	5250.03
482.537	5302.69
482.908	5455.22
483.279	5602.34
483.65	5674.43
484.021	5863.8
484.391	5945.38
484.762	6006.17
485.133	6092.27
485.503	6236.45
485.874	6486.38
486.244	6502.43
486.615	6682.54
486.985	6842.31
487.356	6912.59
487.726	7076.65
488.097	7277.32
488.467	7264.44
488.837	7539.01
489.207	7657.2
489.578	7785.11
489.948	7929.96
490.318	8060.81
490.688	8188.03
491.058	8382.6
491.428	8501.25
491.798	8521.13
492.168	8862.59
492.538	8867.56
492.908	8988.24
493.278	9121.79
493.648	9189.81
494.017	9354.56
494.387	9477.49
494.757	9595.23
495.126	9642.46
495.496	9707.99
495.866	9808.56
496.235	10087.64
496.605	10140.98
496.974	10214.87
497.344	10321.31
497.713	10402.89
498.082	10520.4
498.452	10641.98
498.821	10681.08
499.19	10692.83
499.559	10865.03
499.928	11009.43
500.298	11061.4
500.667	11160.16
501.036	11123.55
501.405	11269.53
501.774	11313.15
502.143	11455.29
502.512	11486.25
502.88	11490.77
503.249	11595.63
503.618	11704.55
503.987	11722.18
504.356	11847.37
504.724	11912.46
505.093	11907.94
505.462	11977.99
505.83	12050.98
506.199	12169.62
506.567	12290.52
506.936	12237.64
507.304	12339.79
507.672	12463.18
508.041	12465.43
508.409	12553.57
508.777	12621.14
509.145	12655.71
509.514	12746.56
509.882	12813.45
510.25	12740.46
510.618	12805.76
510.986	12886.89
511.354	12876.27
511.722	12933.9
512.09	13069.49
512.458	13014.35
512.826	13279.2
513.193	13221.35
513.561	13236.26
513.929	13239.65
514.297	13412.08
514.664	13421.34
515.032	13399.87
515.4	13538.4
515.767	13563.03
516.135	13505.63
516.502	13407.11
516.869	13673.09
517.237	13591.51
517.604	13570.26
517.972	13696.59
518.339	13716.48
518.706	13684.61
519.073	13744.5
519.44	13864.27
519.808	13909.92
520.175	13756.02
520.542	13958.73
520.909	14039.4
521.276	13919.63
521.643	13983.36
522.009	14098.84
522.376	14092.28
522.743	14128.67
523.11	14214.99
523.477	14300.41
523.843	14241.21
524.21	14364.82
524.577	14400.75
524.943	14368.21
525.31	14454.31
525.676	14481.88
526.043	14440.75
526.409	14593.29
526.776	14575.44
527.142	14610.24
527.508	14618.37
527.874	14609.56
528.241	14656.56
528.607	14663.12
528.973	14699.95
529.339	14630.58
529.705	14704.47
530.071	14771.36
530.437	14675.77
530.803	14751.93
531.169	14821.76
531.535	14701.76
531.901	14763.45
532.267	14716.68
532.632	14720.97
532.998	14657.69
533.364	14748.54
533.73	14677.35
534.095	14734.75
534.461	14663.34
534.826	14685.72
535.192	14629.67
535.557	14723
535.923	14673.29
536.288	14640.29
536.653	14609.79
537.019	14527.53
537.384	14556.23
537.749	14576.57
538.114	14471.03
538.479	14463.35
538.845	14449.79
539.21	14355.1
539.575	14330.7
539.94	14360.07
540.305	14244.37
540.67	14262
541.034	14326.4
541.399	14266.97
541.764	14214.54
542.129	14224.48
542.494	14066.75
542.858	14085.28
543.223	14087.09
543.587	14086.86
543.952	13982.68
544.316	14009.8
544.681	13928.9
545.045	13913.08
545.41	13995.11
545.774	13887.32
546.138	13799.86
546.503	13825.85
546.867	13691.62
547.231	13762.58
547.595	13711.05
547.959	13732.75
548.324	13612.75
548.688	13573.43
549.052	13547.89
549.416	13496.14
549.779	13504.28
550.143	13484.62
550.507	13508.35
550.871	13460.44
551.235	13389.48
551.599	13382.92
551.962	13255.24
552.326	13304.51
552.689	13269.93
553.053	13235.36
553.417	13136.15
553.78	13397.61
554.143	13151.07
554.507	13175.02
554.87	13115.14
555.234	13227.45
555.597	13058.19
555.96	13067.68
556.323	13112.2
556.686	13012.77
557.05	13126.89
557.413	13070.84
557.776	13068.58
558.139	13068.13
558.502	13054.57
558.865	13116.04
559.228	13042.59
559.59	13082.82
559.953	12979.55
560.316	13082.14
560.679	13107
561.041	13033.78
561.404	13056.15
561.767	13077.85
562.129	12962.15
562.492	13008.02
562.854	13040.11
563.217	12984.52
563.579	13100.9
563.941	13088.92
564.304	13075.81
564.666	13120.78
565.028	13064.06
565.39	13034.46
565.753	13021.35
566.115	13081.69
566.477	13162.59
566.839	13140.9
567.201	13177.73
567.563	13036.72
567.925	13266.09
568.287	13201.69
568.648	13107.23
569.01	13168.02
569.372	13215.25
569.734	13117.62
570.095	13209.37
570.457	13262.25
570.819	13254.57
571.18	13247.34
571.542	13293.44
571.903	13276.94
572.265	13318.07
572.626	13315.81
572.987	13311.29
573.349	13287.56
573.71	13338.86
574.071	13295.92
574.432	13388.35
574.794	13418.18
575.155	13410.95
575.516	13348.58
575.877	13328.92
576.238	13359.65
576.599	13366.88
576.96	13401.23
577.32	13355.13
577.681	13421.12
578.042	13385.64
578.403	13367.78
578.763	13422.47
579.124	13297.28
579.485	13392.19
579.845	13477.39
580.206	13410.95
580.566	13419.08
580.927	13400.78
581.287	13396.94
581.648	13378.63
582.008	13393.09
582.368	13451.85
582.728	13346.77
583.089	13328.69
583.449	13325.75
583.809	13374.34
584.169	13360.78
584.529	13325.07
584.889	13344.73
585.249	13418.86
585.609	13243.49
585.969	13386.09
586.329	13234
586.688	13282.81
587.048	13332.76
587.408	13248.47
587.768	13302.48
588.127	13245.98
588.487	13137.96
588.846	13264.96
589.206	13276.04
589.565	13234.23
589.925	13192.42
590.284	13154.23
590.643	13190.39
591.003	13088.7
591.362	13211.4
591.721	13084.4
592.08	13134.12
592.44	13139.77
592.799	13162.37
593.158	13065.65
593.517	13109.49
593.876	13070.62
594.235	13101.58
594.593	13068.13
594.952	13053.22
595.311	13011.18
595.67	13027.23
596.029	13097.06
596.387	13077.4
596.746	13054.12
597.104	13010.96
597.463	13009.83
597.822	13106.77
598.18	12964.86
598.538	12977.29
598.897	13046.21
599.255	12920.56
599.613	13017.74
599.972	13038.53
600.33	13026.78
600.688	12936.83
601.046	13001.01
601.404	13097.96
601.762	13021.13
602.12	13099.54
602.478	13016.83
602.836	13091.86
603.194	12936.16
603.552	13024.06
603.91	12996.72
604.268	12956.72
604.625	12922.37
604.983	13033.56
605.341	12946.78
605.698	12921.47
606.056	13017.96
606.413	12961.92
606.771	12986.78
607.128	13003.5
607.485	12947.23
607.843	13014.8
608.2	13047.34
608.557	13017.51
608.914	12987.68
609.272	13090.96
609.629	13089.6
609.986	13136.38
610.343	13095.02
610.7	13160.11
611.057	13114.46
611.414	13061.8
611.771	13169.6
612.127	13198.52
612.484	13128.69
612.841	13109.49
613.198	13179.31
613.554	13111.52
613.911	13268.58
614.267	13227
614.624	13157.85
614.98	13201.01
615.337	13301.12
615.693	13282.81
616.05	13236.26
616.406	13258.63
616.762	13201.91
617.118	13307.45
617.475	13297.05
617.831	13253.89
618.187	13276.04
618.543	13278.29
618.899	13368.01
619.255	13346.77
619.611	13314.9
619.967	13389.93
620.323	13398.52
620.678	13344.28
621.034	13328.69
621.39	13316.26
621.746	13295.92
622.101	13416.82
622.457	13278.07
622.812	13368.01
623.168	13335.69
623.523	13287.56
623.879	13427.44
624.234	13366.43
624.589	13290.5
624.945	13413.66
625.3	13420.66
625.655	13275.58
626.01	13374.34
626.365	13462.47
626.72	13369.82
627.075	13300.22
627.43	13332.98
627.785	13348.12
628.14	13268.13
628.495	13312.19
628.85	13279.88
629.205	13229.93
629.559	13284.62
629.914	13351.51
630.269	13234.68
630.623	13261.35
630.978	13204.85
631.332	13214.12
631.687	13172.76
632.041	13179.31
632.396	13207.11
632.75	13174.12
633.104	13182.93
633.459	13102.93
633.813	13173.44
634.167	13170.95
634.521	13088.24
634.875	13103.84
635.229	13128.92
635.583	13018.41
635.937	12989.49
636.291	13009.83
636.645	12935.25
636.999	12982.03
637.352	13047.79
637.706	12925.99
638.06	12865.42
638.413	12929.6
638.767	12911.98
639.121	12967.57
639.474	12918.98
639.828	12868.59
640.181	12765.09
640.534	12885.08
640.888	12871.53
641.241	12778.2
641.594	12776.84
641.947	12779.55
642.301	12749.27
642.654	12786.56
643.007	12731.87
643.36	12728.93
643.713	12760.34
644.066	12750.17
644.419	12658.65
644.771	12650.74
645.124	12534.81
645.477	12489.84
645.83	12405.1
646.182	12405.32
646.535	12328.72
646.888	12309.73
647.24	12283.29
647.593	12296.63
647.945	12314.25
648.298	12247.36
648.65	12262.5
649.002	12164.2
649.355	12333.91
649.707	12268.83
650.059	12357.64
650.411	12474.02
650.763	12571.65
651.115	12642.38
651.467	12635.6
651.819	12541.82
652.171	12488.49
652.523	12620.91
652.875	12470.41
653.227	12512.44
653.578	12550.4
653.93	12544.08
654.282	12521.48
654.633	12553.79
654.985	12551.08
655.337	12572.78
655.688	12569.16
656.039	12568.03
656.391	12521.93
656.742	12574.13
657.094	12517.41
657.445	12602.15
657.796	12500.46
658.147	12537.52
658.498	12580.46
658.849	12534.81
659.2	12514.7
659.551	12529.39
659.902	12586.56
660.253	12535.94
660.604	12588.6
660.955	12504.98
661.306	12611.65
661.656	12579.56
662.007	12486.45
662.358	12566.22
662.708	12521.03
663.059	12568.94
663.409	12560.12
663.76	12587.47
664.11	12620.01
664.461	12560.57
664.811	12627.01
665.161	12587.92
665.511	12584.08
665.862	12631.76
666.212	12631.53
666.562	12703.85
666.912	12668.37
667.262	12581.36
667.612	12608.71
667.962	12652.32
668.312	12735.94
668.662	12647.13
669.011	12669.72
669.361	12696.16
669.711	12640.12
670.06	12577.07
670.41	12517.41
670.76	12481.25
671.109	12595.15
671.459	12605.77
671.808	12558.77
672.157	12589.5
672.507	12428.83
672.856	12475.15
673.205	12519.9
673.554	12577.07
673.904	12488.49
674.253	12488.26
674.602	12507.24
674.951	12304.31
675.3	12296.85
675.649	12449.16
675.998	12407.36
676.346	12410.97
676.695	12433.35
677.044	12245.55
677.393	12333.01
677.741	12439.45
678.09	12372.78
678.438	12333.91
678.787	12360.8
679.135	12343.4
679.484	12290.52
679.832	12321.26
680.181	12159.45
680.529	12319.68
680.877	12219.34
681.225	12204.42
681.573	12306.34
681.922	12111.32
682.27	12144.54
682.618	12122.39
682.966	12126.46
683.314	12144.09
683.661	12089.17
684.009	11998.55
684.357	11937.77
684.705	11929.63
685.053	11980.02
685.4	11993.13
685.748	11839.91
686.095	11854.15
686.443	11792.23
686.79	11802.63
687.138	11829.75
687.485	11837.2
687.832	11742.06
688.18	11737.77
688.527	11635.63
688.874	11633.82
689.221	11620.26
689.568	11659.35
689.915	11527.61
690.262	11513.37
690.609	11500.49
690.956	11489.87
691.303	11427.72
691.65	11392.24
691.997	11316.54
692.344	11286.48
692.69	11291.45
693.037	11185.02
693.383	11124
693.73	11246.48
694.077	11178.69
694.423	11133.04
694.769	11017.56
695.116	11082.42
695.462	10956.1
695.808	10927.85
696.155	10915.87
696.501	10825.25
696.847	10815.99
697.193	10855.08
697.539	10787.51
697.885	10710.9
698.231	10656.22
698.577	10601.08
698.923	10655.31
699.269	10549.55
699.614	10488.54
699.96	10453.74
700.306	10493.28
700.651	10411.93
700.997	10366.51
701.342	10319.95
701.688	10355.43
702.033	10235.66
702.379	10283.35
702.724	10233.4
703.069	10208.77
703.415	10082.67
703.76	10203.8
704.105	10138.26
704.45	10106.63
704.795	10027.08
705.14	9980.98
705.485	9981.43
705.83	9985.27
706.175	9936.24
706.52	9899.85
706.865	9844.26
707.209	9825.73
707.554	9829.35
707.899	9779.4
708.243	9675.45
708.588	9696.47
708.932	9710.25
709.277	9626.87
709.621	9649.69
709.966	9520.2
710.31	9571.73
710.654	9445.4
710.998	9482.69
711.342	9456.25
711.687	9455.57
712.031	9412.18
712.375	9385.06
712.719	9369.7
713.063	9366.53
713.407	9348.23
713.75	9336.7
714.094	9339.19
714.438	9249.93
714.782	9301.68
715.125	9228.23
715.469	9226.2
715.812	9165.18
716.156	9148.69
716.499	9193.88
716.843	9194.56
717.186	9138.52
717.53	9148.46
717.873	9126.09
718.216	9147.33
718.559	9080.44
718.902	9047.67
719.246	9079.31
719.589	9042.93
719.932	9028.69
720.275	8979.65
720.617	9028.92
720.96	8995.24
721.303	8975.58
721.646	8952.31
721.989	8992.98
722.331	9008.8
722.674	8880.44
723.016	8895.81
723.359	8839.09
723.701	8938.52
724.044	8946.88
724.386	8840.9
724.729	8905.3
725.071	8794.57
725.413	8832.08
725.755	8870.05
726.097	8821.69
726.439	8797.28
726.782	8828.92
727.124	8822.37
727.465	8757.28
727.807	8794.12
728.149	8754.12
728.491	8780.33
728.833	8814.68
729.175	8764.74
729.516	8706.66
729.858	8668.02
730.199	8755.02
730.541	8733.33
730.882	8775.14
731.224	8758.87
731.565	8769.94
731.906	8786.66
732.248	8745.76
732.589	8667.34
732.93	8695.14
733.271	8717.06
733.612	8706.66
733.953	8771.29
734.294	8711.18
734.635	8731.3
734.976	8750.28
735.317	8686.78
735.658	8700.79
735.999	8712.54
736.339	8788.24
736.68	8809.03
737.021	8766.78
737.361	8683.84
737.702	8803.61
738.042	8732.88
738.383	8802.03
738.723	8785.08
739.063	8807.45
739.404	8778.3
739.744	8837.73
740.084	8814.68
740.424	8815.36
740.764	8823.5
741.104	8884.74
741.444	8817.62
741.784	8870.73
742.124	8891.74
742.464	8891.74
742.804	8916.38
743.143	8949.14
743.483	8936.04
743.823	8920.22
744.162	8990.27
744.502	9052.42
744.841	9054.68
745.181	9107.11
745.52	9104.85
745.86	9130.38
746.199	9181.23
746.538	9219.19
746.877	9341
747.216	9379.87
747.556	9346.19
747.895	9390.49
748.234	9381.67
748.573	9490.82
748.911	9581.67
749.25	9631.16
749.589	9651.95
749.928	9718.61
750.267	9860.08
750.605	9852.4
750.944	9930.13
751.283	10025.73
751.621	10123.12
751.96	10196.12
752.298	10323.57
752.636	10375.09
752.975	10422.32
753.313	10530.12
753.651	10650.57
753.989	10683.56
754.327	10913.16
754.666	10931.46
755.004	11146.83
755.342	11276.77
755.679	11368.74
756.017	11465.01
756.355	11649.86
756.693	11740.71
757.031	11937.99
757.368	12013.24
757.706	12192.45
