Data from hue_40_FLMS001491_62.txt Node
Date: Mon Feb 06 15:08:15 GMT 2017
User: dcchb
Spectrometer: FLMS00149
Trigger mode: 0
Integration Time (sec): 2.000000E-2
Scans to average: 10
Electric dark correction enabled: true
Nonlinearity correction enabled: false
Boxcar width: 0
XAxis mode: Wavelengths
Number of Pixels in Spectrum: 2048
>>>>>Begin Spectral Data<<<<<
341.393	-10.55
341.776	-10.55
342.16	-10.55
342.543	-60.27
342.927	-46.26
343.31	-51.23
343.693	-53.49
344.077	-62.53
344.46	-70.44
344.843	-81.74
345.226	-32.7
345.61	-24.34
345.993	-31.79
346.376	8.88
346.759	21.09
347.142	30.8
347.525	33.97
347.908	57.7
348.291	69
348.674	79.39
349.057	107.41
349.44	115.32
349.823	133.4
350.206	163.23
350.588	196
350.971	213.4
351.354	197.35
351.737	230.35
352.119	232.38
352.502	251.36
352.884	268.31
353.267	267.86
353.65	275.32
354.032	295.66
354.414	306.28
354.797	313.73
355.179	311.7
355.562	323.9
355.944	330.23
356.326	327.29
356.709	335.2
357.091	340.17
357.473	354.41
357.855	337.46
358.238	332.04
358.62	344.24
359.002	335.2
359.384	344.92
359.766	353.28
360.148	351.7
360.53	325.94
360.912	337.01
361.294	350.34
361.676	331.14
362.057	326.84
362.439	323.9
362.821	336.78
363.203	343.11
363.584	324.36
363.966	325.03
364.348	318.48
364.729	322.1
365.111	316.45
365.493	323.68
365.874	309.22
366.256	322.32
366.637	310.12
367.019	306.73
367.4	311.93
367.781	290.46
368.163	300.18
368.544	318.03
368.925	329.1
369.306	324.13
369.688	317.8
370.069	315.77
370.45	316.22
370.831	327.07
371.212	310.34
371.593	319.61
371.974	299.27
372.355	297.92
372.736	322.1
373.117	324.58
373.498	326.39
373.879	323.45
374.26	339.72
374.641	313.73
375.021	323.68
375.402	311.25
375.783	317.8
376.163	323.9
376.544	322.1
376.925	320.74
377.305	319.84
377.686	341.3
378.066	324.81
378.447	340.17
378.827	346.95
379.208	328.42
379.588	350.8
379.968	333.85
380.349	330.23
380.729	358.71
381.109	331.14
381.489	334.98
381.87	334.53
382.25	336.78
382.63	337.46
383.01	325.49
383.39	341.53
383.77	332.27
384.15	357.58
384.53	354.64
384.91	354.41
385.29	359.16
385.67	375.2
386.049	358.25
386.429	354.86
386.809	359.38
387.189	352.38
387.568	367.52
387.948	376.33
388.328	362.55
388.707	353.06
389.087	365.48
389.466	375.65
389.846	362.32
390.225	369.1
390.605	375.88
390.984	367.74
391.363	379.72
391.743	384.02
392.122	378.59
392.501	380.63
392.881	375.2
393.26	381.53
393.639	371.36
394.018	384.92
394.397	394.86
394.776	393.51
395.155	392.38
395.534	387.86
395.913	378.82
396.292	397.12
396.671	391.7
397.05	393.28
397.429	410.91
397.808	396.44
398.186	392.15
398.565	404.58
398.944	404.35
399.323	393.73
399.701	397.57
400.08	396.44
400.458	421.3
400.837	405.03
401.215	408.87
401.594	414.3
401.972	401.19
402.351	418.82
402.729	429.66
403.107	403.68
403.486	420.62
403.864	431.47
404.242	433.28
404.62	422.43
404.999	438.7
405.377	449.78
405.755	431.92
406.133	442.32
406.511	445.03
406.889	443.45
407.267	420.17
407.645	478.48
408.023	459.95
408.401	458.14
408.779	440.29
409.156	458.14
409.534	466.27
409.912	452.26
410.29	492.04
410.667	478.7
411.045	475.09
411.422	476.22
411.8	470.57
412.178	508.53
412.555	494.29
412.933	491.36
413.31	507.63
413.687	506.95
414.065	495.42
414.442	501.3
414.819	489.32
415.197	497.46
415.574	497.23
415.951	526.16
416.328	526.38
416.705	524.8
417.082	547.17
417.46	527.51
417.837	538.81
418.214	525.93
418.591	544.24
418.967	555.76
419.344	557.57
419.721	552.82
420.098	555.99
420.475	561.86
420.852	569.1
421.228	553.28
421.605	584.46
421.982	558.7
422.358	572.26
422.735	576.33
423.111	577.68
423.488	631.69
423.864	587.17
424.241	609.09
424.617	584.46
424.994	595.31
425.37	614.52
425.746	596.89
426.123	617.46
426.499	600.73
426.875	598.02
427.251	637.12
427.627	623.78
428.003	631.92
428.379	655.65
428.756	622.2
429.132	632.82
429.507	645.48
429.883	650.9
430.259	650
430.635	649.09
431.011	679.37
431.387	668.08
431.763	696.78
432.138	702.43
432.514	682.76
432.89	706.27
433.265	731.8
433.641	719.15
434.016	716.21
434.392	720.05
434.767	732.03
435.143	777.23
435.518	723.89
435.894	752.59
436.269	747.17
436.644	778.81
437.02	773.61
437.395	795.53
437.77	769.09
438.145	773.16
438.52	774.74
438.895	815.42
439.271	818.13
439.646	813.16
440.021	805.25
440.395	809.09
440.77	827.39
441.145	812.7
441.52	847.51
441.895	837.34
442.27	841.63
442.645	854.29
443.019	840.5
443.394	863.78
443.769	851.35
444.143	868.07
444.518	855.42
444.892	875.75
445.267	895.19
445.641	884.57
446.016	887.05
446.39	874.17
446.764	893.15
447.139	895.64
447.513	899.26
447.887	923.89
448.262	897.45
448.636	920.27
449.01	955.3
449.384	942.64
449.758	948.75
450.132	960.95
450.506	957.33
450.88	938.8
451.254	984.45
451.628	980.84
452.002	992.36
452.376	1007.95
452.75	991.46
453.123	1024.22
453.497	999.37
453.871	1026.26
454.244	1036.88
454.618	1058.35
454.992	1067.16
455.365	1082.08
455.739	1101.28
456.112	1084.79
456.486	1089.76
456.859	1127.5
457.232	1149.64
457.606	1138.57
457.979	1158.46
458.352	1165.92
458.725	1167.72
459.099	1194.16
459.472	1216.76
459.845	1203.65
460.218	1216.54
460.591	1239.36
460.964	1238.68
461.337	1258.57
461.71	1310.32
462.083	1292.24
462.456	1313.93
462.829	1331.79
463.201	1338.11
463.574	1341.5
463.947	1371.79
464.32	1373.59
464.692	1403.42
465.065	1430.99
465.438	1433.93
465.81	1482.97
466.183	1463.76
466.555	1474.83
466.928	1497.21
467.3	1523.65
467.672	1548.73
468.045	1621.5
468.417	1594.38
468.789	1589.63
469.161	1645
469.534	1670.54
469.906	1681.83
470.278	1685.68
470.65	1735.84
471.022	1801.38
471.394	1814.94
471.766	1815.16
472.138	1864.65
472.51	1895.39
472.882	1914.6
473.253	1971.09
473.625	2004.31
473.997	2054.25
474.369	2091.54
474.74	2123.18
475.112	2142.16
475.484	2249.28
475.855	2240.69
476.227	2255.38
476.598	2365.43
476.97	2380.35
477.341	2457.86
477.713	2496.95
478.084	2533.34
478.455	2646.78
478.827	2694.01
479.198	2787.12
479.569	2822.14
479.94	2915.02
480.311	2929.71
480.682	3062.14
481.053	3113.21
481.424	3203.83
481.795	3288.12
482.166	3308.46
482.537	3447.89
482.908	3486.08
483.279	3608.34
483.65	3682.23
484.021	3787.99
484.391	3850.59
484.762	3950.25
485.133	3994.09
485.503	4112.96
485.874	4223.24
486.244	4317.47
486.615	4448.77
486.985	4546.84
487.356	4648.76
487.726	4733.05
488.097	4874.97
488.467	4920.85
488.837	5153.38
489.207	5197.9
489.578	5281.06
489.948	5356.31
490.318	5507.27
490.688	5604.44
491.058	5718.79
491.428	5860.93
491.798	5975.73
492.168	6110.19
492.538	6177.54
492.908	6305.89
493.278	6469.51
493.648	6546.57
494.017	6687.35
494.387	6697.97
494.757	6907.01
495.126	6969.83
495.496	7044.86
495.866	7172.76
496.235	7247.34
496.605	7422.25
496.974	7475.58
497.344	7675.12
497.713	7687.1
498.082	7861.56
498.452	7928.22
498.821	8008.22
499.19	8073.98
499.559	8199.86
499.928	8342.68
500.298	8359.62
500.667	8573.18
501.036	8603.01
501.405	8677.81
501.774	8740.86
502.143	8887.07
502.512	8972.72
502.88	9023.79
503.249	9104.01
503.618	9244.35
503.987	9354.4
504.356	9388.3
504.724	9483.66
505.093	9527.96
505.462	9609.54
505.83	9756.2
506.199	9779.25
506.567	10013.82
506.936	10017.66
507.304	10063.08
507.672	10207.26
508.041	10275.05
508.409	10376.75
508.777	10426.01
509.145	10531.77
509.514	10553.01
509.882	10641.15
510.25	10659.45
510.618	10844.31
510.986	10868.49
511.354	10955.71
511.722	11142.83
512.09	11208.59
512.458	11162.26
512.826	11391.18
513.193	11410.39
513.561	11498.75
513.929	11579.88
514.297	11629.6
514.664	11768.57
515.032	11764.51
515.4	11938.29
515.767	11954.11
516.135	12059.19
516.502	12030.94
516.869	12192.74
517.237	12281.78
517.604	12281.33
517.972	12441.33
518.339	12479.52
518.706	12507.54
519.073	12657.82
519.44	12673.86
519.808	12792.28
520.175	12854.65
520.542	13060.07
520.909	13059.84
521.276	13137.58
521.643	13201.76
522.009	13329.21
522.376	13415.76
522.743	13464.58
523.11	13569.66
523.477	13682.87
523.843	13770.78
524.21	13883.55
524.577	14025.92
524.943	14109.53
525.31	14170.32
525.676	14188.62
526.043	14288.96
526.409	14402.18
526.776	14587.94
527.142	14650.98
527.508	14785.22
527.874	14831.77
528.241	14832.45
528.607	14875.39
528.973	15132.33
529.339	15119.67
529.705	15251.42
530.071	15337.52
530.437	15416.84
530.803	15473.34
531.169	15592.88
531.535	15501.58
531.901	15589.04
532.267	15826.77
532.632	15879.88
532.998	15916.71
533.364	15961.46
533.73	16075.58
534.095	16187.67
534.461	16240.1
534.826	16300.88
535.192	16372.52
535.557	16568.9
535.923	16598.28
536.288	16586.53
536.653	16639.86
537.019	16673.53
537.384	16793.53
537.749	16891.83
538.114	16868.78
538.479	16978.83
538.845	17108.77
539.21	17025.61
539.575	17241.88
539.94	17206.4
540.305	17314.19
540.67	17265.15
541.034	17413.4
541.399	17523.68
541.764	17548.08
542.129	17662.21
542.494	17644.58
542.858	17741.75
543.223	17803.9
543.587	17833.5
543.952	17929.54
544.316	17941.07
544.681	17882.99
545.045	18039.6
545.41	18188.52
545.774	18209.99
546.138	18320.49
546.503	18322.3
546.867	18344.9
547.231	18500.38
547.595	18508.06
547.959	18622.41
548.324	18626.7
548.688	18814.27
549.052	18887.26
549.416	18828.73
549.779	18927.03
550.143	18989.18
550.507	19148.72
550.871	19084.54
551.235	19084.09
551.599	19281.37
551.962	19337.19
552.326	19368.83
552.689	19506.68
553.053	19462.84
553.417	19541.93
553.78	19723.17
554.143	19637.29
554.507	19755.48
554.87	19894.01
555.234	20058.3
555.597	19887.91
555.96	19927.68
556.323	20055.36
556.686	20159.31
557.05	20386.43
557.413	20293.77
557.776	20315.69
558.139	20469.81
558.502	20461.45
558.865	20570.6
559.228	20713.65
559.59	20781.22
559.953	20775.12
560.316	21017.37
560.679	21045.17
561.041	21225.73
561.404	21314.31
561.767	21402.9
562.129	21351.83
562.492	21564.93
562.854	21522.67
563.217	21526.51
563.579	21677.69
563.941	21707.3
564.304	21857.35
564.666	22079.72
565.028	21958.82
565.39	22148.41
565.753	22250.78
566.115	22262.31
566.477	22387.73
566.839	22394.51
567.201	22517.22
567.563	22766.25
567.925	22653.26
568.287	22728.06
568.648	22775.97
569.01	23012.8
569.372	23087.37
569.734	22975.06
570.095	23162.4
570.457	23159.91
570.819	23363.98
571.18	23386.35
571.542	23571.65
571.903	23473.58
572.265	23683.06
572.626	23750.18
572.987	23819.78
573.349	24074.92
573.71	24124.86
574.071	24234.24
574.432	24294.35
574.794	24445.08
575.155	24478.52
575.516	24459.31
575.877	24711.51
576.238	24765.3
576.599	24884.16
576.96	24923.03
577.32	25095.91
577.681	25265.17
578.042	25427.2
578.403	25490.7
578.763	25605.05
579.124	25765.49
579.485	25932.5
579.845	25998.26
580.206	26250.45
580.566	26256.56
580.927	26408.42
581.287	26650.67
581.648	26639.82
582.008	26937.67
582.368	26923.43
582.728	27189.19
583.089	27141.28
583.449	27395.96
583.809	27571.1
584.169	27744.2
584.529	27926.12
584.889	28175.6
585.249	28265.32
585.609	28316.61
585.969	28617.4
586.329	28688.81
586.688	28908.24
587.048	29204.05
587.408	29183.71
587.768	29374.21
588.127	29462.35
588.487	29656.24
588.846	30084.03
589.206	29973.29
589.565	30285.38
589.925	30509.1
590.284	30559.04
590.643	30853.27
591.003	31111.79
591.362	31431.33
591.721	31369.64
592.08	31562.18
592.44	31916.52
592.799	31896.86
593.158	32203.97
593.517	32233.8
593.876	32600.57
594.235	32625.65
594.593	32866.55
594.952	33160.78
595.311	33077.62
595.67	33391.28
596.029	33715.12
596.387	33876.02
596.746	34167.08
597.104	34052.73
597.463	34134.77
597.822	34404.36
598.18	34466.96
598.538	34545.38
598.897	34915.08
599.255	34842.09
599.613	35434.39
599.972	35466.03
600.33	35629.19
600.688	35573.6
601.046	35896.08
601.404	36075.05
601.762	36409.51
602.12	36497.64
602.478	36584.87
602.836	36655.6
603.194	36597.53
603.552	36980.34
603.91	36912.32
604.268	37295.14
604.625	37214.69
604.983	37510.5
605.341	37444.28
605.698	37722.92
606.056	37885.4
606.413	37795.91
606.771	38037.94
607.128	38117.49
607.485	38101.22
607.843	38318.16
608.2	38582.33
608.557	38781.88
608.914	38697.13
609.272	38999.95
609.629	39093.05
609.986	39291.69
610.343	39270
610.7	39601.06
611.057	39465.25
611.414	39620.72
611.771	39712.92
612.127	39887.61
612.484	39880.38
612.841	40223.87
613.198	40168.51
613.554	40207.6
613.911	40476.07
614.267	40516.07
614.624	40510.19
614.98	40622.96
615.337	40896.4
615.693	40944.98
616.05	40725.1
616.406	41292.54
616.762	41087.58
617.118	41106.33
617.475	41195.15
617.831	41379.55
618.187	41473.56
618.543	41537.51
618.899	41773.44
619.255	41749.93
619.611	41816.15
619.967	42065.63
620.323	41982.92
620.678	41884.85
621.034	41851.85
621.39	41957.39
621.746	41970.94
622.101	42340.65
622.457	42197.61
622.812	42274.67
623.168	42463.81
623.523	42521.89
623.879	42619.51
624.234	42317.38
624.589	42600.76
624.945	42528.44
625.3	42710.13
625.655	42647.99
626.01	42700.64
626.365	42738.16
626.72	42661.77
627.075	42768.89
627.43	42695.67
627.785	42686.63
628.14	42815.44
628.495	42717.59
628.85	42789
629.205	42746.74
629.559	43106.96
629.914	42916.23
630.269	42880.07
630.623	42989.67
630.978	42871.94
631.332	43092.5
631.687	42951.71
632.041	42915.1
632.396	42998.49
632.75	42814.09
633.104	42930.92
633.459	42820.87
633.813	42797.59
634.167	42858.15
634.521	42817.7
634.875	42861.77
635.229	42801.66
635.583	42603.24
635.937	42722.11
636.291	42664.94
636.645	42624.71
636.999	42630.81
637.352	42758.95
637.706	42609.8
638.06	42681.43
638.413	42697.48
638.767	42445.51
639.121	42684.15
639.474	42193.76
639.828	42472.85
640.181	42463.13
640.534	42453.42
640.888	42400.76
641.241	42346.08
641.594	42335
641.947	42442.34
642.301	42269.24
642.654	42329.35
643.007	42314.89
643.36	42174.55
643.713	42287.77
644.066	42391.5
644.419	42217.94
644.771	41897.73
645.124	41562.37
645.477	41420.45
645.83	41181.36
646.182	41189.5
646.535	40979.56
646.888	41128.03
647.24	40844.42
647.593	41224.07
647.945	40896.62
648.298	40716.97
648.65	40680.36
649.002	40642.17
649.355	40886.23
649.707	40714.03
650.059	40849.17
650.411	41374.58
650.763	41409.6
651.115	41842.36
651.467	41791.06
651.819	41866.31
652.171	41759.42
652.523	41365.31
652.875	41674.68
653.227	41485.31
653.578	41652.31
653.93	41575.47
654.282	41437.85
654.633	41383.84
654.985	41205.99
655.337	41348.59
655.688	41297.97
656.039	41441.69
656.391	41218.87
656.742	41202.15
657.094	41151.76
657.445	41318.08
657.796	41331.41
658.147	41335.71
658.498	41291.64
658.849	41340.23
659.2	41187.91
659.551	41148.59
659.902	41354.24
660.253	41179.1
660.604	41263.17
660.955	40969.61
661.306	41121.25
661.656	41031.08
662.007	41053.91
662.358	41084.19
662.708	41114.7
663.059	41091.65
663.409	40708.15
663.76	41100.68
664.11	41116.28
664.461	40958.99
664.811	41116.05
665.161	41063.62
665.511	41011.87
665.862	41037.18
666.212	41041.48
666.562	41098.43
666.912	40967.13
667.262	41003.51
667.612	40929.16
667.962	41017.07
668.312	40960.12
668.662	41023.62
669.011	41025.43
669.361	40857.98
669.711	40922.16
670.06	40908.37
670.41	40791.31
670.76	40739.56
671.109	40918.32
671.459	40831.09
671.808	40718.32
672.157	40786.34
672.507	40446.46
672.856	40625.22
673.205	40656.18
673.554	40659.11
673.904	40609.17
674.253	40911.76
674.602	40762.39
674.951	40169.41
675.3	39968.96
675.649	40554.71
675.998	40511.1
676.346	40667.93
676.695	40518.1
677.044	40339.8
677.393	40489.18
677.741	40429.74
678.09	40375.28
678.438	40426.13
678.787	40369.18
679.135	40313.13
679.484	39914.95
679.832	40243.98
680.181	39978.23
680.529	40073.14
680.877	40055.97
681.225	40065.68
681.573	40235.17
681.922	39874.5
682.27	39711.34
682.618	39756.77
682.966	39757.67
683.314	39768.29
683.661	39635.19
684.009	39540.05
684.357	39618.92
684.705	39397
685.053	39366.49
685.4	39400.84
685.748	39167.63
686.095	39140.96
686.443	38962.66
686.79	39005.82
687.138	39066.61
687.485	39085.6
687.832	39040.85
688.18	38944.58
688.527	38677.47
688.874	38721.99
689.221	38660.07
689.568	38515.89
689.915	38440.19
690.262	38627.08
690.609	38297.14
690.956	38234.09
691.303	38195.22
691.65	38049.47
691.997	38089.69
692.344	37845.86
692.69	37793.88
693.037	37774.67
693.383	37536.03
693.73	37515.02
694.077	37413.1
694.423	37402.03
694.769	37310.95
695.116	37171.07
695.462	37151.86
695.808	37073.9
696.155	37221.24
696.501	36844.98
696.847	36798.43
697.193	36664.64
697.539	36630.29
697.885	36348.95
698.231	36455.16
698.577	36339.45
698.923	36321.15
699.269	36130.19
699.614	35942.4
699.96	35854.5
700.306	35998.45
700.651	35744.22
700.997	35658.57
701.342	35680.49
701.688	35522.3
702.033	35534.28
702.379	35506.26
702.724	35445.24
703.069	35360.72
703.415	34899.72
703.76	35078.47
704.105	35072.14
704.45	34942.65
704.795	34756.9
705.14	34838.02
705.485	34615.43
705.83	34475.32
706.175	34557.13
706.52	34543.12
706.865	34236.46
707.209	34333.86
707.554	34172.05
707.899	34267.42
708.243	34022.9
708.588	34044.6
708.932	33758.51
709.277	33831.05
709.621	33829.69
709.966	33585.85
710.31	33630.6
710.654	33374.11
710.998	33399.42
711.342	33410.04
711.687	33319.19
712.031	33254.34
712.375	33089.14
712.719	33159.88
713.063	33175.7
713.407	33140.44
713.75	33079.2
714.094	32893.22
714.438	32829.26
714.782	32805.08
715.125	32609.38
715.469	32651.64
715.812	32610.74
716.156	32279
716.499	32454.81
716.843	32453.68
717.186	32195.16
717.53	32357.19
717.873	32267.92
718.216	32281.71
718.559	32066.35
718.902	31838.78
719.246	32119.23
719.589	31829.74
719.932	31713.14
720.275	31755.85
720.617	31731.21
720.96	31594.95
721.303	31659.13
721.646	31683.76
721.989	31396.08
722.331	31570.99
722.674	31445.57
723.016	31390.43
723.359	31347.04
723.701	31375.97
724.044	31101.4
724.386	30993.83
724.729	31219.36
725.071	31155.86
725.413	31019.37
725.755	31013.72
726.097	30841.07
726.439	30741.64
726.782	30664.35
727.124	30805.81
727.465	30701.18
727.807	30585.93
728.149	30674.52
728.491	30626.38
728.833	30675.87
729.175	30371.7
729.516	30435.88
729.858	30199.05
730.199	30316.11
730.541	30225.94
730.882	30228.65
731.224	30202.21
731.565	30119.28
731.906	30154.53
732.248	30118.83
732.589	29897.82
732.93	29768.55
733.271	29760.19
733.612	29902.34
733.953	29827.76
734.294	29682
734.635	29626.41
734.976	29786.18
735.317	29671.83
735.658	29477.49
735.999	29656.47
736.339	29425.29
736.68	29648.56
737.021	29452.18
737.361	29394.1
737.702	29479.07
738.042	29358.17
738.383	29374.89
738.723	29338.06
739.063	29207.44
739.404	29180.32
739.744	29152.07
740.084	28989.14
740.424	29154.56
740.764	28987.11
741.104	29022.13
741.444	28959.76
741.784	28902.36
742.124	28887.67
742.464	28897.39
742.804	28834.34
743.143	28775.13
743.483	28761.35
743.823	28475.93
744.162	28548.7
744.502	28595.48
744.841	28396.16
745.181	28544.4
745.52	28378.99
745.86	28380.12
746.199	28341.02
746.538	28332.66
746.877	28350.74
747.216	28243.17
747.556	28248.82
747.895	28211.76
748.234	27990.3
748.573	27937.42
748.911	27917.98
749.25	27877.98
749.589	27871.2
749.928	27832.11
750.267	27873.01
750.605	27761.15
750.944	27767.48
751.283	27735.84
751.621	27694.26
751.96	27501.72
752.298	27561.61
752.636	27452.23
752.975	27349.41
753.313	27160.26
753.651	27391.44
753.989	27210.43
754.327	27184.89
754.666	27053.6
755.004	27244.78
755.342	27100.15
755.679	27031.45
756.017	26814.73
756.355	26974.28
756.693	26766.15
