Data from hue_290_FLMS001491_00091.txt Node
Date: Tue Feb 07 15:53:44 GMT 2017
User: dcchb
Spectrometer: FLMS00149
Trigger mode: 0
Integration Time (sec): 2.000000E-2
Scans to average: 10
Electric dark correction enabled: true
Nonlinearity correction enabled: false
Boxcar width: 0
XAxis mode: Wavelengths
Number of Pixels in Spectrum: 2048
>>>>>Begin Spectral Data<<<<<
341.393	-3.91
341.776	-3.91
342.16	-3.91
342.543	-61.76
342.927	-54.98
343.31	-74.19
343.693	-47.75
344.077	-75.1
344.46	-48.43
344.843	-37.81
345.226	-26.74
345.61	-24.02
345.993	-26.06
346.376	-20.86
346.759	-4.14
347.142	13.26
347.525	37.44
347.908	51.68
348.291	77.44
348.674	102.07
349.057	103.2
349.44	118.57
349.823	145.24
350.206	167.38
350.588	206.25
350.971	215.29
351.354	214.39
351.737	230.21
352.119	248.74
352.502	247.61
352.884	261.84
353.267	276.76
353.65	277.66
354.032	291.22
354.414	289.41
354.797	302.97
355.179	331.45
355.562	302.97
355.944	328.73
356.326	308.17
356.709	330.99
357.091	321.05
357.473	317.89
357.855	316.08
358.238	344.78
358.62	345.46
359.002	328.73
359.384	333.71
359.766	322.86
360.148	339.58
360.53	337.77
360.912	351.11
361.294	331.9
361.676	331.45
362.057	334.38
362.439	325.12
362.821	337.77
363.203	343.65
363.584	339.58
363.966	312.92
364.348	333.25
364.729	310.43
365.111	319.69
365.493	311.11
365.874	294.61
366.256	302.97
366.637	318.57
367.019	311.56
367.4	309.75
367.781	316.31
368.163	296.64
368.544	322.41
368.925	313.82
369.306	321.28
369.688	320.15
370.069	322.86
370.45	305.23
370.831	324.21
371.212	306.59
371.593	322.18
371.974	302.97
372.355	309.3
372.736	307.49
373.117	320.82
373.498	321.95
373.879	310.2
374.26	302.52
374.641	310.2
375.021	305.91
375.402	323.08
375.783	307.49
376.163	336.87
376.544	328.28
376.925	339.13
377.305	345.23
377.686	331.67
378.066	324.67
378.447	327.38
378.827	353.37
379.208	333.71
379.588	316.08
379.968	308.17
380.349	334.16
380.729	326.93
381.109	331.22
381.489	343.88
381.87	311.11
382.25	335.97
382.63	340.26
383.01	345.01
383.39	347.49
383.77	332.58
384.15	326.47
384.53	362.41
384.91	365.57
385.29	336.42
385.67	345.68
386.049	361.05
386.429	357.21
386.809	356.08
387.189	352.69
387.568	338.23
387.948	340.49
388.328	366.25
388.707	354.04
389.087	349.07
389.466	364.44
389.846	342.07
390.225	371.22
390.605	373.7
390.984	376.64
391.363	368.96
391.743	370.09
392.122	379.35
392.501	388.39
392.881	381.16
393.26	393.37
393.639	379.35
394.018	391.56
394.397	383.42
394.776	363.54
395.155	395.17
395.534	416.19
395.913	382.07
396.292	401.27
396.671	408.28
397.05	406.47
397.429	399.69
397.808	395.17
398.186	414.83
398.565	419.58
398.944	431.1
399.323	410.31
399.701	417.77
400.08	420.94
400.458	423.65
400.837	417.77
401.215	425.23
401.594	418.22
401.972	442.18
402.351	433.14
402.729	431.78
403.107	434.04
403.486	438.11
403.864	437.88
404.242	463.87
404.62	444.66
404.999	447.83
405.377	448.96
405.755	441.5
406.133	471.56
406.511	460.03
406.889	458.9
407.267	476.3
407.645	492.8
408.023	496.87
408.401	480.82
408.779	492.12
409.156	503.19
409.534	508.84
409.912	512.23
410.29	528.05
410.667	525.11
411.045	540.25
411.422	524.44
411.8	555.17
412.178	547.71
412.555	558.78
412.933	581.16
413.31	573.7
413.687	563.76
414.065	602.17
414.442	583.87
414.819	578.9
415.197	635.39
415.574	636.3
415.951	612.79
416.328	633.81
416.705	647.82
417.082	654.83
417.46	657.31
417.837	658.67
418.214	671.55
418.591	670.87
418.967	675.39
419.344	723.75
419.721	680.82
420.098	677.88
420.475	712.68
420.852	726.92
421.228	719.91
421.605	762.85
421.982	753.13
422.358	766.91
422.735	780.02
423.111	774.6
423.488	797.2
423.864	791.55
424.241	800.59
424.617	816.18
424.994	831.09
425.37	852.11
425.746	849.85
426.123	845.78
426.499	860.25
426.875	890.98
427.251	904.09
427.627	911.09
428.003	904.09
428.379	907.93
428.756	918.32
429.132	934.37
429.507	939.34
429.883	970.98
430.259	995.38
430.635	991.77
431.011	984.54
431.387	998.77
431.763	1011.65
432.138	1062.5
432.514	1067.92
432.89	1051.43
433.265	1078.77
433.641	1084.87
434.016	1126.68
434.392	1101.82
434.767	1128.71
435.143	1137.3
435.518	1133.23
435.894	1159.67
436.269	1190.18
436.644	1201.25
437.02	1230.86
437.395	1218.2
437.77	1233.34
438.145	1259.56
438.52	1258.43
438.895	1251.65
439.271	1269.27
439.646	1288.03
440.021	1305.43
440.395	1313.79
440.77	1296.84
441.145	1302.72
441.52	1343.4
441.895	1348.14
442.27	1357.18
442.645	1364.19
443.019	1378.2
443.394	1385.66
443.769	1403.28
444.143	1396.95
444.518	1388.14
444.892	1406.9
445.267	1425.43
445.641	1413.45
446.016	1426.56
446.39	1427.24
446.764	1415.71
447.139	1429.5
447.513	1464.75
447.887	1451.64
448.262	1468.59
448.636	1481.92
449.01	1478.31
449.384	1501.58
449.758	1531.19
450.132	1527.12
450.506	1508.59
450.88	1547.23
451.254	1530.28
451.628	1534.58
452.002	1575.93
452.376	1556.5
452.75	1550.17
453.123	1578.87
453.497	1603.73
453.871	1611.86
454.244	1654.58
454.618	1632.65
454.992	1645.76
455.365	1673.11
455.739	1683.73
456.112	1680.79
456.486	1707
456.859	1741.13
457.232	1749.26
457.606	1749.26
457.979	1773.22
458.352	1798.53
458.725	1776.61
459.099	1786.55
459.472	1837.85
459.845	1844.85
460.218	1875.59
460.591	1850.95
460.964	1864.74
461.337	1902.25
461.71	1922.59
462.083	1966.43
462.456	1961.46
462.829	1920.1
463.201	1963.95
463.574	1976.6
463.947	1995.13
464.32	2048.69
464.692	2029.93
465.065	2052.98
465.438	2111.06
465.81	2149.48
466.183	2111.74
466.555	2159.65
466.928	2156.71
467.3	2156.26
467.672	2140.66
468.045	2214.33
468.417	2226.54
468.789	2214.33
469.161	2247.33
469.534	2302.02
469.906	2293.2
470.278	2296.14
470.65	2348.12
471.022	2373.2
471.394	2406.19
471.766	2434.22
472.138	2469.69
472.51	2459.98
472.882	2519.41
473.253	2544.72
473.625	2536.13
473.997	2568.9
474.369	2646.87
474.74	2632.63
475.112	2670.37
475.484	2679.18
475.855	2732.74
476.227	2735.68
476.598	2760.53
476.97	2815
477.341	2854.77
477.713	2907.2
478.084	2927.76
478.455	3009.34
478.827	2969.12
479.198	3064.93
479.569	3081.43
479.94	3113.97
480.311	3142.9
480.682	3217.25
481.053	3270.35
481.424	3246.62
481.795	3295.21
482.166	3336.34
482.537	3345.15
482.908	3419.5
483.279	3457.47
483.65	3446.62
484.021	3533.85
484.391	3542.89
484.762	3576.56
485.133	3614.98
485.503	3643.68
485.874	3699.27
486.244	3705.59
486.615	3746.95
486.985	3825.59
487.356	3883.67
487.726	3871.92
488.097	3966.38
488.467	3971.8
488.837	4013.84
489.207	4000.05
489.578	4052.25
489.948	4085.7
490.318	4164.57
490.688	4142.87
491.058	4271.68
491.428	4234.62
491.798	4272.36
492.168	4337.67
492.538	4334.5
492.908	4459.47
493.278	4482.07
493.648	4463.77
494.017	4524.56
494.387	4497.89
494.757	4541.73
495.126	4604.55
495.496	4597.55
495.866	4595.06
496.235	4608.62
496.605	4647.26
496.974	4663.08
497.344	4718
497.713	4772.91
498.082	4720.94
498.452	4787.83
498.821	4838.22
499.19	4817.88
499.559	4891.33
499.928	4905.11
500.298	4951.89
500.667	4937.88
501.036	4937.43
501.405	5004.09
501.774	5017.42
502.143	5045.9
502.512	5010.19
502.88	5061.49
503.249	5026.01
503.618	5081.83
503.987	5122.73
504.356	5141.26
504.724	5144.43
505.093	5122.96
505.462	5156.18
505.83	5227.14
506.199	5265.1
506.567	5310.07
506.936	5257.19
507.304	5341.26
507.672	5354.59
508.041	5329.28
508.409	5375.16
508.777	5415.15
509.145	5417.64
509.514	5392.78
509.882	5398.43
510.25	5433.68
510.618	5474.59
510.986	5479.56
511.354	5504.19
511.722	5553.23
512.09	5588.03
512.458	5600.91
512.826	5569.05
513.193	5662.61
513.561	5653.79
513.929	5658.76
514.297	5716.39
514.664	5703.28
515.032	5705.99
515.4	5770.17
515.767	5768.82
516.135	5797.29
516.502	5736.05
516.869	5787.12
517.237	5826.67
517.604	5829.61
517.972	5856.27
518.339	5858.31
518.706	5851.3
519.073	5873.67
519.44	5927.23
519.808	5939.89
520.175	5981.47
520.542	5990.96
520.909	6007.23
521.276	5989.15
521.643	6039.32
522.009	6047.23
522.376	6111.18
522.743	6121.35
523.11	6174.68
523.477	6234.12
523.843	6220.1
524.21	6301.46
524.577	6275.02
524.943	6323.38
525.31	6324.96
525.676	6359.76
526.043	6382.81
526.409	6416.71
526.776	6463.26
527.142	6462.58
527.508	6486.09
527.874	6517.5
528.241	6566.08
528.607	6598.4
528.973	6677.95
529.339	6621.9
529.705	6675.23
530.071	6739.64
530.437	6750.71
530.803	6787.55
531.169	6823.93
531.535	6804.04
531.901	6854.89
532.267	6839.98
532.632	6914.1
532.998	6886.98
533.364	6928.33
533.73	6923.59
534.095	6962.01
534.461	6994.77
534.826	7049.01
535.192	7026.64
535.557	7040.65
535.923	7049.91
536.288	7119.06
536.653	7126.52
537.019	7097.37
537.384	7202
537.749	7212.62
538.114	7175.79
538.479	7184.6
538.845	7300.08
539.21	7158.61
539.575	7250.13
539.94	7331.49
540.305	7306.86
540.67	7323.58
541.034	7324.26
541.399	7318.61
541.764	7403.35
542.129	7367.65
542.494	7452.61
542.858	7454.2
543.223	7487.42
543.587	7534.19
543.952	7501.88
544.316	7564.93
544.681	7575.55
545.045	7612.61
545.41	7618.26
545.774	7595.21
546.138	7591.14
546.503	7662.1
546.867	7650.35
547.231	7705.26
547.595	7725.6
547.959	7770.12
548.324	7756.79
548.688	7782.78
549.052	7785.71
549.416	7820.97
549.779	7837.46
550.143	7866.62
550.507	7873.62
550.871	7896.67
551.235	7894.64
551.599	7962.66
551.962	7972.6
552.326	7956.78
552.689	8012.83
553.053	7942.55
553.417	7994.07
553.78	8020.51
554.143	7994.75
554.507	8086.27
554.87	8093.95
555.234	8200.84
555.597	8117.23
555.96	8075.42
556.323	8148.64
556.686	8153.84
557.05	8241.07
557.413	8276.1
557.776	8223.22
558.139	8286.49
558.502	8292.14
558.865	8291.01
559.228	8329.43
559.59	8347.05
559.953	8373.72
560.316	8433.61
560.679	8412.59
561.041	8453.49
561.404	8513.15
561.767	8566.71
562.129	8484.68
562.492	8644.45
562.854	8550.67
563.217	8544.56
563.579	8607.16
563.941	8649.87
564.304	8672.7
564.666	8711.34
565.028	8783.43
565.39	8774.61
565.753	8829.98
566.115	8850.32
566.477	8905.01
566.839	8846.48
567.201	8869.98
567.563	8941.16
567.925	8992.91
568.287	8980.03
568.648	8953.14
569.01	9022.07
569.372	9156.98
569.734	9089.63
570.095	9194.49
570.457	9265.22
570.819	9259.35
571.18	9217.31
571.542	9296.41
571.903	9288.72
572.265	9370.53
572.626	9381.38
572.987	9356.52
573.349	9478.55
573.71	9469.51
574.071	9485.56
574.432	9578.89
574.794	9673.35
575.155	9647.59
575.516	9590.41
575.877	9721.03
576.238	9808.94
576.599	9863.62
576.96	9865.88
577.32	9921.48
577.681	9969.16
578.042	10053.9
578.403	10085.99
578.763	10142.04
579.124	10203.95
579.485	10321.24
579.845	10408.02
580.206	10448.24
580.566	10520.1
580.927	10575.7
581.287	10663.38
581.648	10740.21
582.008	10839.87
582.368	10941.79
582.728	11065.18
583.089	11017.94
583.449	11207.32
583.809	11187.43
584.169	11415
584.529	11440.08
584.889	11697.7
585.249	11543.81
585.609	11736.12
585.969	11915.77
586.329	11989.44
586.688	12099.95
587.048	12216.33
587.408	12307.85
587.768	12389.66
588.127	12502.65
588.487	12689.99
588.846	12820.61
589.206	12916.88
589.565	13152.35
589.925	13273.7
590.284	13302.4
590.643	13505.79
591.003	13584.88
591.362	13794.37
591.721	13848.15
592.08	14126.56
592.44	14211.76
592.799	14313
593.158	14485.2
593.517	14601.81
593.876	14721.35
594.235	14880.67
594.593	14990.5
594.952	15149.14
595.311	15265.97
595.67	15437.94
596.029	15576.92
596.387	15751.83
596.746	15858.95
597.104	15978.27
597.463	16085.16
597.822	16242.67
598.18	16371.7
598.538	16445.37
598.897	16710.9
599.255	16608.76
599.613	16955.42
599.972	16951.8
600.33	17177.33
600.688	17159.7
601.046	17309.76
601.404	17471.79
601.762	17533.03
602.12	17766.02
602.478	17982.51
602.836	17966.91
603.194	17972.79
603.552	18181.37
603.91	18218.66
604.268	18336.4
604.625	18375.49
604.983	18531.65
605.341	18554.02
605.698	18793.33
606.056	18810.28
606.413	18837.63
606.771	18964.18
607.128	19044.85
607.485	19125.75
607.843	19210.05
608.2	19372.3
608.557	19421.11
608.914	19469.47
609.272	19709.69
609.629	19651.62
609.986	19802.8
610.343	19815.23
610.7	19975.22
611.057	20077.14
611.414	20075.56
611.771	20212.05
612.127	20326.63
612.484	20252.05
612.841	20498.83
613.198	20478.94
613.554	20465.38
613.911	20655.21
614.267	20713.96
614.624	20678.93
614.98	20856.56
615.337	20881.19
615.693	20984.46
616.05	20888.87
616.406	21216.55
616.762	21158.02
617.118	21207.96
617.475	21225.81
617.831	21368.41
618.187	21312.82
618.543	21486.6
618.899	21474.84
619.255	21550.78
619.611	21484.34
619.967	21591.45
620.323	21692.47
620.678	21696.08
621.034	21628.97
621.39	21693.6
621.746	21722.07
622.101	22002.29
622.457	21755.29
622.812	21920.26
623.168	21914.16
623.523	21953.93
623.879	22100.59
624.234	21871.22
624.589	22088.16
624.945	22070.99
625.3	22076.64
625.655	22153.02
626.01	22211.1
626.365	22097.65
626.72	22163.87
627.075	22125.45
627.43	22207.93
627.785	22233.24
628.14	22202.28
628.495	22240.7
628.85	22265.78
629.205	22242.06
629.559	22291.32
629.914	22173.13
630.269	22220.81
630.623	22125.45
630.978	22152.34
631.332	22198.22
631.687	22323.18
632.041	22225.11
632.396	22179.91
632.75	22198.67
633.104	22219.01
633.459	22106.92
633.813	22108.95
634.167	22082.51
634.521	21973.36
634.875	22115.96
635.229	22132
635.583	21954.61
635.937	22035.28
636.291	22045.45
636.645	22053.36
636.999	22028.5
637.352	22088.61
637.706	21922.74
638.06	22134.26
638.413	21999.58
638.767	21981.05
639.121	21995.06
639.474	21791.45
639.828	21971.1
640.181	21913.93
640.534	21944.21
640.888	21900.82
641.241	21780.15
641.594	21870.09
641.947	21873.93
642.301	21841.61
642.654	21775.18
643.007	21908.96
643.36	21918
643.713	21816.3
644.066	21791.9
644.419	21841.16
644.771	21670.55
645.124	21466.94
645.477	21389.42
645.83	21203.21
646.182	21209.09
646.535	21219.48
646.888	21240.27
647.24	21033.05
647.593	21282.31
647.945	21122.09
648.298	21137.23
648.65	21061.97
649.002	21132.71
649.355	21137.23
649.707	21162.31
650.059	21281.86
650.411	21541.74
650.763	21596.2
651.115	21787.61
651.467	21746.93
651.819	21682.75
652.171	21594.16
652.523	21630.55
652.875	21566.14
653.227	21554.62
653.578	21706.25
653.93	21719.58
654.282	21450.44
654.633	21514.17
654.985	21573.6
655.337	21685.01
655.688	21674.39
656.039	21628.74
656.391	21669.42
656.742	21565.92
657.094	21625.35
657.445	21703.54
657.796	21624.45
658.147	21659.7
658.498	21576.09
658.849	21787.61
659.2	21601.85
659.551	21618.34
659.902	21695.4
660.253	21660.83
660.604	21749.64
660.955	21583.54
661.306	21670.32
661.656	21616.99
662.007	21700.15
662.358	21640.26
662.708	21701.28
663.059	21761.39
663.409	21522.98
663.76	21751.9
664.11	21692.47
664.461	21706.7
664.811	21746.7
665.161	21800.94
665.511	21678
665.862	21674.16
666.212	21731.56
666.562	21814.72
666.912	21845.91
667.262	21686.14
667.612	21761.39
667.962	21683.43
668.312	21721.84
668.662	21808.17
669.011	21803.42
669.361	21674.39
669.711	21671.9
670.06	21692.47
670.41	21663.54
670.76	21674.84
671.109	21804.55
671.459	21708.51
671.808	21679.36
672.157	21709.19
672.507	21503.54
672.856	21601.85
673.205	21604.33
673.554	21637.33
673.904	21526.14
674.253	21568.63
674.602	21574.28
674.951	21272.59
675.3	21222.2
675.649	21506.26
675.998	21407.05
676.346	21521.62
676.695	21619.25
677.044	21301.29
677.393	21443.43
677.741	21537.44
678.09	21379.93
678.438	21274.4
678.787	21397.11
679.135	21394.17
679.484	21182.42
679.832	21269.65
680.181	21151.92
680.529	21210.67
680.877	20980.85
681.225	21162.54
681.573	21247.28
681.922	21084.8
682.27	21040.73
682.618	20950.11
682.966	20832.38
683.314	20975.2
683.661	20866.27
684.009	20831.02
684.357	20664.92
684.705	20724.13
685.053	20805.03
685.4	20707.41
685.748	20609.78
686.095	20599.84
686.443	20481.65
686.79	20525.49
687.138	20538.6
687.485	20553.29
687.832	20423.57
688.18	20472.61
688.527	20339.06
688.874	20271.94
689.221	20189.46
689.568	20087.76
689.915	20044.15
690.262	20088.89
690.609	19963.25
690.956	19966.18
691.303	19833.53
691.65	19761.44
691.997	19674.89
692.344	19687.55
692.69	19592.18
693.037	19666.98
693.383	19403.04
693.73	19625.85
694.077	19339.99
694.423	19352.19
694.769	19454.79
695.116	19316.94
695.462	19155.58
695.808	19206.88
696.155	19223.6
696.501	19062.93
696.847	18988.36
697.193	18892.77
697.539	18913.56
697.885	18783.62
698.231	18683.73
698.577	18706.33
698.923	18610.29
699.269	18556.73
699.614	18497.07
699.96	18416.39
700.306	18469.95
700.651	18286.45
700.997	18322.16
701.342	18211.43
701.688	18222.73
702.033	18144.09
702.379	18010.3
702.724	18006.01
703.069	18067.48
703.415	17814.15
703.76	17872.45
704.105	17888.05
704.45	17805.11
704.795	17700.48
705.14	17550.2
705.485	17581.16
705.83	17566.47
706.175	17504.55
706.52	17405.57
706.865	17385.46
707.209	17325.8
707.554	17192.47
707.899	17224.11
708.243	17057.33
708.588	17079.25
708.932	17004
709.277	17050.1
709.621	17015.3
709.966	16806.04
710.31	16886.72
710.654	16738.47
710.998	16797.91
711.342	16814.4
711.687	16708.42
712.031	16681.75
712.375	16593.84
712.719	16663.9
713.063	16669.32
713.407	16585.71
713.75	16574.63
714.094	16445.15
714.438	16455.99
714.782	16472.72
715.125	16349.33
715.469	16407.86
715.812	16256
716.156	16220.97
716.499	16299.39
716.843	16262.78
717.186	16190.69
717.53	16160.18
717.873	16155.89
718.216	16204.25
718.559	16079.28
718.902	15972.16
719.246	16099.85
719.589	16008.77
719.932	15929.68
720.275	16015.78
720.617	15853.98
720.96	15930.13
721.303	15936.69
721.646	15962.22
721.989	15802.68
722.331	15882.9
722.674	15813.52
723.016	15833.64
723.359	15770.36
723.701	15757.93
724.044	15714.09
724.386	15599.75
724.729	15723.13
725.071	15676.58
725.413	15618.5
725.755	15644.49
726.097	15539.63
726.439	15499.63
726.782	15522.46
727.124	15649.46
727.465	15463.7
727.807	15558.16
728.149	15499.63
728.491	15420.31
728.833	15538.28
729.175	15369.92
729.516	15467.77
729.858	15444.72
730.199	15370.6
730.541	15355.91
730.882	15414.89
731.224	15419.86
731.565	15410.15
731.906	15373.08
732.248	15348.45
732.589	15298.28
732.93	15286.31
733.271	15297.83
733.612	15328.57
733.953	15373.76
734.294	15305.52
734.635	15264.39
734.976	15245.63
735.317	15230.04
735.658	15250.15
735.999	15190.72
736.339	15337.61
736.68	15358.85
737.021	15237.27
737.361	15280.21
737.702	15371.28
738.042	15327.89
738.383	15320.88
738.723	15304.16
739.063	15348.45
739.404	15340.54
739.744	15289.24
740.084	15260.09
740.424	15300.09
740.764	15326.76
741.104	15470.94
741.444	15308.91
741.784	15214.67
742.124	15334.44
742.464	15450.37
742.804	15434.33
743.143	15349.58
743.483	15480.65
743.823	15376.93
744.162	15441.33
744.502	15408.11
744.841	15461.9
745.181	15540.76
745.52	15498.73
745.86	15606.98
746.199	15664.15
746.538	15656.47
746.877	15771.72
747.216	15890.81
747.556	15737.82
747.895	15831.83
748.234	15856.46
748.573	15948.89
748.911	15884.26
749.25	16090.13
749.589	16128.09
749.928	16190.92
750.267	16293.51
750.605	16331.25
750.944	16407.41
751.283	16405.15
751.621	16491.47
751.96	16531.02
752.298	16635.2
752.636	16740.05
752.975	16775.08
753.313	16786.61
753.651	17009.88
753.989	17069.99
754.327	17169.2
754.666	17226.6
755.004	17349.76
755.342	17487.61
755.679	17464.55
756.017	17604.21
756.355	17735.73
756.693	17750.2
757.031	17931.21
757.368	17983.19
757.706	18105.44
758.044	18151.77
758.381	18240.13
758.719	18359.45
759.056	18582.04
759.394	18580.23
