Data from hue_330_FLMS001491_25.txt Node
Date: Mon Feb 06 15:45:10 GMT 2017
User: dcchb
Spectrometer: FLMS00149
Trigger mode: 0
Integration Time (sec): 2.000000E-2
Scans to average: 10
Electric dark correction enabled: true
Nonlinearity correction enabled: false
Boxcar width: 0
XAxis mode: Wavelengths
Number of Pixels in Spectrum: 2048
>>>>>Begin Spectral Data<<<<<
341.393	-30.65
341.776	-30.65
342.16	-30.65
342.543	-67.94
342.927	-77.43
343.31	-68.84
343.693	-54.83
344.077	-61.16
344.46	-74.49
344.843	-37.65
345.226	-33.81
345.61	-40.37
345.993	-5.56
346.376	-3.3
346.759	12.51
347.142	18.39
347.525	29.24
347.908	55
348.291	81.89
348.674	81.89
349.057	101.1
349.44	122.57
349.823	121.44
350.206	160.31
350.588	189.68
350.971	195.56
351.354	209.12
351.737	238.95
352.119	252.28
352.502	255.45
352.884	275.11
353.267	271.72
353.65	286.4
354.032	288.21
354.414	298.83
354.797	297.7
355.179	305.61
355.562	315.1
355.944	311.49
356.326	338.15
356.709	337.03
357.091	319.85
357.473	332.28
357.855	335.44
358.238	357.36
358.62	334.99
359.002	320.3
359.384	313.75
359.766	336.35
360.148	339.06
360.53	320.75
360.912	321.21
361.294	307.42
361.676	311.49
362.057	329.34
362.439	331.83
362.821	320.08
363.203	318.72
363.584	318.95
363.966	318.72
364.348	323.01
364.729	313.3
365.111	313.07
365.493	323.47
365.874	313.75
366.256	310.36
366.637	293.41
367.019	319.17
367.4	304.48
367.781	296.8
368.163	330.02
368.544	304.94
368.925	312.62
369.306	304.94
369.688	307.87
370.069	331.15
370.45	331.38
370.831	316.01
371.212	335.9
371.593	311.26
371.974	304.48
372.355	302.45
372.736	294.54
373.117	300.42
373.498	304.48
373.879	313.3
374.26	311.04
374.641	322.34
375.021	284.15
375.402	329.57
375.783	303.81
376.163	299.51
376.544	334.09
376.925	322.34
377.305	333.64
377.686	330.25
378.066	304.48
378.447	339.51
378.827	326.63
379.208	329.57
379.588	317.14
379.968	319.85
380.349	326.18
380.729	334.99
381.109	340.41
381.489	334.54
381.87	331.6
382.25	315.33
382.63	337.03
383.01	332.96
383.39	324.37
383.77	332.28
384.15	338.61
384.53	330.02
384.91	330.47
385.29	339.51
385.67	347.42
386.049	360.53
386.429	337.48
386.809	341.77
387.189	324.14
387.568	337.03
387.948	353.3
388.328	346.74
388.707	346.52
389.087	351.49
389.466	342
389.846	356.91
390.225	373.18
390.605	335.67
390.984	345.61
391.363	363.92
391.743	355.78
392.122	346.06
392.501	363.24
392.881	383.58
393.26	374.76
393.639	371.15
394.018	362.34
394.397	367.76
394.776	366.85
395.155	376.8
395.534	338.83
395.913	361.21
396.292	359.62
396.671	382.45
397.05	397.81
397.429	371.6
397.808	390.36
398.186	383.8
398.565	378.38
398.944	386.97
399.323	384.26
399.701	401.66
400.08	398.94
400.458	396.91
400.837	385.39
401.215	406.63
401.594	376.8
401.972	398.04
402.351	401.43
402.729	382.67
403.107	403.46
403.486	387.87
403.864	414.09
404.242	399.85
404.62	401.43
404.999	432.84
405.377	406.4
405.755	415.22
406.133	423.8
406.511	416.8
406.889	423.12
407.267	424.25
407.645	439.85
408.023	441.88
408.401	462.67
408.779	436.23
409.156	432.16
409.534	444.37
409.912	472.16
410.29	489.11
410.667	460.41
411.045	475.1
411.422	471.94
411.8	457.47
412.178	492.5
412.555	497.7
412.933	507.64
413.31	483.46
413.687	507.87
414.065	485.27
414.442	516.68
414.819	510.35
415.197	536.79
415.574	551.48
415.951	542.9
416.328	542.67
416.705	535.21
417.082	547.87
417.46	568.88
417.837	573.85
418.214	564.82
418.591	556
418.967	579.28
419.344	585.15
419.721	593.52
420.098	581.99
420.475	608.2
420.852	626.96
421.228	631.93
421.605	630.58
421.982	604.14
422.358	623.57
422.735	635.77
423.111	645.72
423.488	624.25
423.864	659.5
424.241	647.75
424.617	659.95
424.994	655.43
425.37	671.71
425.746	683
426.123	686.85
426.499	699.5
426.875	691.37
427.251	691.59
427.627	708.77
428.003	728.65
428.379	710.57
428.756	744.02
429.132	722.33
429.507	751.93
429.883	779.05
430.259	777.24
430.635	775.88
431.011	759.16
431.387	817.69
431.763	809.78
432.138	802.55
432.514	795.32
432.89	822.21
433.265	834.41
433.641	880.51
434.016	840.74
434.392	848.65
434.767	850.01
435.143	877.12
435.518	872.15
435.894	903.34
436.269	906.05
436.644	917.12
437.02	908.54
437.395	909.89
437.77	930.46
438.145	928.65
438.52	928.2
438.895	976.78
439.271	956.44
439.646	954.86
440.021	958.7
440.395	965.94
440.77	967.52
441.145	979.27
441.52	1010.45
441.895	982.88
442.27	1010.23
442.645	982.43
443.019	1030.79
443.394	1021.3
443.769	1068.53
444.143	1020.62
444.518	1054.52
444.892	1029.44
445.267	1059.72
445.641	1049.32
446.016	1045.71
446.39	1040.74
446.764	1046.16
447.139	1052.03
447.513	1071.02
447.887	1062.2
448.262	1084.8
448.636	1079.38
449.01	1090.23
449.384	1143.33
449.758	1086.38
450.132	1106.04
450.506	1084.58
450.88	1109.21
451.254	1113.28
451.628	1126.61
452.002	1145.14
452.376	1155.99
452.75	1152.37
453.123	1140.17
453.497	1157.79
453.871	1171.81
454.244	1179.71
454.618	1200.96
454.992	1199.6
455.365	1214.52
455.739	1231.24
456.112	1217.91
456.486	1230.11
456.859	1237.79
457.232	1265.59
457.606	1249.09
457.979	1268.53
458.352	1293.16
458.725	1323.44
459.099	1297
459.472	1320.73
459.845	1318.02
460.218	1339.03
460.591	1341.29
460.964	1366.38
461.337	1375.87
461.71	1389.43
462.083	1380.84
462.456	1414.51
462.829	1381.97
463.201	1429.43
463.574	1449.09
463.947	1435.98
464.32	1470.55
464.692	1466.03
465.065	1466.03
465.438	1480.5
465.81	1488.86
466.183	1520.5
466.555	1556.2
466.928	1556.88
467.3	1568.41
467.672	1570.66
468.045	1615.41
468.417	1599.14
468.789	1577.67
469.161	1629.87
469.534	1623.77
469.906	1653.6
470.278	1683.66
470.65	1682.98
471.022	1702.41
471.394	1751.23
471.766	1757.55
472.138	1753.48
472.51	1811.11
472.882	1776.08
473.253	1831.68
473.625	1851.79
473.997	1882.75
474.369	1916.19
474.74	1900.83
475.112	1929.3
475.484	1980.15
475.855	1992.35
476.227	2021.5
476.598	2027.15
476.97	2044.55
477.341	2087.71
477.713	2095.62
478.084	2113.02
478.455	2160.93
478.827	2210.2
479.198	2227.82
479.569	2221.72
479.94	2284.77
480.311	2305.11
480.682	2340.14
481.053	2401.83
481.424	2406.8
481.795	2432.11
482.166	2503.97
482.537	2481.38
482.908	2512.34
483.279	2585.33
483.65	2590.07
484.021	2647.47
484.391	2650.86
484.762	2662.16
485.133	2696.74
485.503	2705.78
485.874	2774.48
486.244	2770.86
486.615	2813.57
486.985	2867.13
487.356	2900.35
487.726	2928.6
488.097	2999.33
488.467	2961.36
488.837	3035.94
489.207	3066.22
489.578	3089.72
489.948	3097.18
490.318	3142.15
490.688	3151.64
491.058	3235.48
491.428	3232.09
491.798	3281.58
492.168	3303.95
492.538	3289.04
492.908	3345.31
493.278	3369.04
493.648	3376.04
494.017	3439.32
494.387	3481.58
494.757	3504.4
495.126	3526.77
495.496	3534.23
495.866	3539.65
496.235	3581.69
496.605	3595.92
496.974	3628.69
497.344	3621.68
497.713	3678.63
498.082	3695.13
498.452	3720.66
498.821	3729.7
499.19	3735.58
499.559	3787.1
499.928	3755.24
500.298	3785.07
500.667	3825.97
501.036	3800.66
501.405	3891.96
501.774	3855.58
502.143	3843.15
502.512	3917.72
502.88	3936.7
503.249	3889.47
503.618	3951.39
503.987	3932.18
504.356	3960.43
504.724	3995.69
505.093	3982.8
505.462	3992.97
505.83	4059.64
506.199	4059.64
506.567	4099.86
506.936	4064.61
507.304	4115.91
507.672	4123.82
508.041	4141.67
508.409	4143.48
508.777	4203.82
509.145	4185.06
509.514	4207.66
509.882	4257.83
510.25	4192.52
510.618	4260.31
510.986	4247.43
511.354	4265.51
511.722	4293.98
512.09	4342.57
512.458	4326.75
512.826	4344.38
513.193	4388.67
513.561	4362
513.929	4375.34
514.297	4415.34
514.664	4431.38
515.032	4443.36
515.4	4455.33
515.767	4460.98
516.135	4477.03
516.502	4409.46
516.869	4499.4
517.237	4546.41
517.604	4531.94
517.972	4535.33
518.339	4594.99
518.706	4556.58
519.073	4606.97
519.44	4605.84
519.808	4619.85
520.175	4644.71
520.542	4686.74
520.909	4677.25
521.276	4624.6
521.643	4724.93
522.009	4724.25
522.376	4723.12
522.743	4721.99
523.11	4761.77
523.477	4840.86
523.843	4801.99
524.21	4840.41
524.577	4867.98
524.943	4923.8
525.31	4925.38
525.676	4962.67
526.043	4952.04
526.409	4986.39
526.776	5011.7
527.142	4994.98
527.508	5063.91
527.874	5022.33
528.241	5102.1
528.607	5127.63
528.973	5169.67
529.339	5151.36
529.705	5239.95
530.071	5260.06
530.437	5219.38
530.803	5314.52
531.169	5350.45
531.535	5273.84
531.901	5276.78
532.267	5337.35
532.632	5389.77
532.998	5372.37
533.364	5414.18
533.73	5426.61
534.095	5483.1
534.461	5478.36
534.826	5506.15
535.192	5538.47
535.557	5578.02
535.923	5547.28
536.288	5589.54
536.653	5649.2
537.019	5627.96
537.384	5681.29
537.749	5726.26
538.114	5660.05
538.479	5714.51
538.845	5776.2
539.21	5729.2
539.575	5759.26
539.94	5776.43
540.305	5795.19
540.67	5853.72
541.034	5916.09
541.399	5933.94
541.764	5884.9
542.129	5942.53
542.494	5967.84
542.858	6026.14
543.223	5994.73
543.587	6071.11
543.952	6043.32
544.316	6083.09
544.681	6106.36
545.045	6114.05
545.41	6165.8
545.774	6195.4
546.138	6194.72
546.503	6218
546.867	6218.9
547.231	6279.69
547.595	6246.25
547.959	6340.48
548.324	6297.32
548.688	6410.31
549.052	6326.7
549.416	6415.28
549.779	6388.62
550.143	6433.14
550.507	6469.97
550.871	6492.34
551.235	6484.66
551.599	6527.14
551.962	6545.9
552.326	6576.86
552.689	6583.41
553.053	6545.68
553.417	6629.97
553.78	6654.83
554.143	6636.07
554.507	6669.06
554.87	6692.34
555.234	6750.19
555.597	6702.06
555.96	6783.18
556.323	6780.47
556.686	6769.17
557.05	6808.27
557.413	6828.38
557.776	6864.09
558.139	6900.02
558.502	6915.61
558.865	6892.78
559.228	6956.29
559.59	7043.74
559.953	7027.47
560.316	7050.29
560.679	7056.85
561.041	7047.81
561.404	7074.93
561.767	7107.69
562.129	7096.4
562.492	7160.35
562.854	7143.85
563.217	7173
563.579	7137.52
563.941	7273.57
564.304	7296.62
564.666	7258.88
565.028	7313.56
565.39	7259.1
565.753	7364.86
566.115	7377.52
566.477	7410.06
566.839	7417.52
567.201	7502.03
567.563	7447.35
567.925	7490.96
568.287	7536.61
568.648	7597.17
569.01	7593.11
569.372	7614.12
569.734	7638.53
570.095	7723.5
570.457	7735.93
570.819	7737.28
571.18	7786.32
571.542	7862.7
571.903	7866.09
572.265	7939.54
572.626	7919.65
572.987	7969.37
573.349	8016.15
573.71	8091.4
574.071	8123.49
574.432	8149.02
574.794	8236.48
575.155	8299.3
575.516	8337.27
575.877	8400.09
576.238	8439.41
576.599	8522.12
576.96	8537.71
577.32	8583.59
577.681	8748.56
578.042	8834.43
578.403	8862.45
578.763	8910.81
579.124	9060.19
579.485	9172.95
579.845	9278.03
580.206	9409.55
580.566	9445.71
580.927	9570.68
581.287	9737.46
581.648	9783.78
582.008	9978.58
582.368	10111.01
582.728	10294.96
583.089	10393.03
583.449	10558.23
583.809	10691.33
584.169	10889.74
584.529	11046.12
584.889	11267.36
585.249	11416.28
585.609	11531.08
585.969	11812.88
586.329	12021.46
586.688	12218.07
587.048	12418.52
587.408	12547.55
587.768	12900.31
588.127	13111.6
588.487	13160.64
588.846	13654.64
589.206	13768.99
589.565	14000.62
589.925	14241.74
590.284	14483.09
590.643	14808.73
591.003	15031.1
591.362	15304.77
591.721	15587.02
592.08	15841.48
592.44	16139.1
592.799	16381.8
593.158	16653.21
593.517	16994.89
593.876	17261.1
594.235	17460.87
594.593	17822.89
594.952	18098.59
595.311	18309.66
595.67	18623.1
596.029	18958.91
596.387	19226.47
596.746	19504.66
597.104	19798.66
597.463	20083.85
597.822	20417.63
598.18	20734.45
598.538	20984.84
598.897	21323.14
599.255	21444.94
599.613	22041.54
599.972	22167.19
600.33	22546.38
600.688	22668.64
601.046	23016.43
601.404	23359.24
601.762	23457.77
602.12	24032.9
602.478	24111.09
602.836	24426.56
603.194	24409.84
603.552	24910.84
603.91	24960.56
604.268	25428.79
604.625	25655.68
604.983	26008.89
605.341	26049.57
605.698	26373.63
606.056	26726.84
606.413	26835.76
606.771	27164.79
607.128	27508.06
607.485	27540.15
607.843	27659.7
608.2	28069.86
608.557	28334.93
608.914	28414.25
609.272	28742.61
609.629	29052.43
609.986	29296.49
610.343	29322.93
610.7	29897.38
611.057	29852.86
611.414	30058.73
611.771	30288.78
612.127	30483.58
612.484	30746.39
612.841	30897.58
613.198	30940.97
613.554	31138.93
613.911	31479.26
614.267	31642.87
614.624	31675.41
614.98	31905.01
615.337	32196.53
615.693	32266.35
616.05	32361.27
616.406	32710.41
616.762	32806.23
617.118	32703.18
617.475	33039.89
617.831	33182.49
618.187	33360.11
618.543	33427.68
618.899	33789.93
619.255	33733.89
619.611	33911.06
619.967	34009.81
620.323	34295.91
620.678	34272.18
621.034	34264.95
621.39	34469.91
621.746	34385.17
622.101	35029.67
622.457	34670.81
622.812	34888.21
623.168	35003.46
623.523	35137.92
623.879	35301.53
624.234	35082.55
624.589	35315.09
624.945	35466.95
625.3	35489.32
625.655	35545.59
626.01	35715.98
626.365	35763.21
626.72	35788.52
627.075	35853.61
627.43	35946.48
627.785	35938.8
628.14	36110.1
628.495	36131.11
628.85	36043.2
629.205	35995.52
629.559	36378.79
629.914	36280.26
630.269	36401.16
630.623	36272.13
630.978	36257.66
631.332	36355.51
631.687	36562.97
632.041	36509.41
632.396	36564.1
632.75	36431.67
633.104	36514.38
633.459	36480.48
633.813	36561.38
634.167	36553.25
634.521	36599.12
634.875	36722.96
635.229	36647.03
635.583	36580.14
635.937	36614.04
636.291	36565.23
636.645	36627.37
636.999	36465.34
637.352	36733.13
637.706	36508.73
638.06	36741.49
638.413	36568.61
638.767	36556.41
639.121	36622.4
639.474	36393.48
639.828	36434.38
640.181	36606.35
640.534	36601.83
640.888	36446.13
641.241	36372.01
641.594	36577.65
641.947	36516.19
642.301	36419.24
642.654	36567.48
643.007	36506.02
643.36	36392.35
643.713	36347.6
644.066	36635.96
644.419	36320.26
644.771	36094.95
645.124	35828.52
645.477	35763.44
645.83	35639.83
646.182	35547.17
646.535	35455.65
646.888	35518.47
647.24	35260.85
647.593	35416.55
647.945	35400.51
648.298	35260.63
648.65	35214.98
649.002	35167.75
649.355	35422.2
649.707	35226.28
650.059	35392.37
650.411	35892.7
650.763	35869.65
651.115	36252.92
651.467	36164.33
651.819	36115.07
652.171	36221.28
652.523	36004.11
652.875	36143.09
653.227	35948.07
653.578	36263.09
653.93	36092.92
654.282	36085.46
654.633	35834.85
654.985	35938.35
655.337	35995.3
655.688	35957.11
656.039	36058.57
656.391	35853.61
656.742	35912.36
657.094	35878.69
657.445	35995.52
657.796	35828.3
658.147	35737.9
658.498	35785.13
658.849	35921.85
659.2	35828.3
659.551	35683.21
659.902	35909.2
660.253	35777.45
660.604	35840.95
660.955	35678.02
661.306	35831.46
661.656	35732.48
662.007	35642.99
662.358	35694.29
662.708	35727.05
663.059	35678.47
663.409	35431.7
663.76	35759.6
664.11	35681.63
664.461	35772.7
664.811	35717.56
665.161	35610.45
665.511	35553.95
665.862	35686.15
666.212	35774.74
666.562	35789.88
666.912	35704
667.262	35673.95
667.612	35611.35
667.962	35745.36
668.312	35792.59
668.662	35685.7
669.011	35664.91
669.361	35557.12
669.711	35608.87
670.06	35520.73
670.41	35547.17
670.76	35490.45
671.109	35649.32
671.459	35567.06
671.808	35434.18
672.157	35642.31
672.507	35414.29
672.856	35268.54
673.205	35348.31
673.554	35504.91
673.904	35440.28
674.253	35612.71
674.602	35382.88
674.951	35035.55
675.3	34717.82
675.649	35108.09
675.998	35178.59
676.346	35327.29
676.695	35325.71
677.044	35237.12
677.393	35210.46
677.741	35346.05
678.09	35064.93
678.438	35050.01
678.787	35144.25
679.135	35247.52
679.484	34951.26
679.832	35113.06
680.181	34978.15
680.529	35077.81
680.877	34803.46
681.225	34861.77
681.573	35103.79
681.922	34810.92
682.27	34811.37
682.618	34783.58
682.966	34658.16
683.314	34693.86
683.661	34576.12
684.009	34479.86
684.357	34463.59
684.705	34339.29
685.053	34537.71
685.4	34431.27
685.748	34067.44
686.095	34288.9
686.443	34157.6
686.79	34090.49
687.138	34155.34
687.485	34004.16
687.832	33888.91
688.18	34069.7
688.527	33706.32
688.874	33825.41
689.221	33706.09
689.568	33700.22
689.915	33627
690.262	33507.23
690.609	33417.06
690.956	33312.2
691.303	33417.96
691.65	33138.42
691.997	33272.2
692.344	33019.78
692.69	33082.15
693.037	33053
693.383	32679.68
693.73	32898.88
694.077	32723.07
694.423	32666.34
694.769	32724.87
695.116	32580.25
695.462	32436.75
695.808	32342.06
696.155	32510.87
696.501	32224.55
696.847	32211.89
697.193	31973.26
697.539	32129.86
697.885	31854.61
698.231	31801.51
698.577	31766.71
698.923	31773.03
699.269	31575.98
699.614	31515.87
699.96	31427.06
700.306	31285.82
700.651	31354.29
700.997	31138.93
701.342	31150.23
701.688	31124.24
702.033	30956.78
702.379	30970.12
702.724	30911.36
703.069	30824.58
703.415	30611.71
703.76	30578.04
704.105	30590.24
704.45	30500.07
704.795	30455.56
705.14	30348.89
705.485	30169.01
705.83	30192.29
706.175	30070.48
706.52	30103.93
706.865	29976.25
707.209	29898.96
707.554	29741.45
707.899	29799.53
708.243	29796.59
708.588	29749.59
708.932	29513.88
709.277	29456.03
709.621	29572.64
709.966	29414.23
710.31	29291.97
710.654	29068.92
710.998	29268.92
711.342	29313.89
711.687	29129.49
712.031	28931.75
712.375	28832.77
712.719	29047.46
713.063	28900.34
713.407	28989.38
713.75	28641.14
714.094	28753.68
714.438	28573.8
714.782	28571.76
715.125	28468.04
715.469	28446.79
715.812	28360.69
716.156	28191.89
716.499	28240.25
716.843	28300.58
717.186	28235.05
717.53	28397.3
717.873	28178.33
718.216	28112.57
718.559	27989.63
718.902	27908.28
719.246	27905.79
719.589	27827.6
719.932	27722.97
720.275	27732.01
720.617	27708.96
720.96	27673.71
721.303	27636.42
721.646	27783.54
721.989	27484.33
722.331	27548.06
722.674	27469.64
723.016	27560.04
723.359	27272.59
723.701	27390.55
724.044	27221.97
724.386	27106.72
724.729	27215.87
725.071	27091.58
725.413	27201.4
725.755	27015.42
726.097	26988.75
726.439	26877.8
726.782	26842.54
727.124	26870.11
727.465	26818.81
727.807	26683.45
728.149	26829.89
728.491	26868.08
728.833	26724.58
729.175	26643.45
729.516	26576.11
729.858	26559.61
730.199	26566.39
730.541	26353.97
730.882	26378.37
731.224	26552.15
731.565	26396.68
731.906	26330.24
732.248	26232.84
732.589	26181.32
732.93	26150.13
733.271	26202.56
733.612	26189.45
733.953	26185.61
734.294	26076.46
734.635	26019.06
734.976	25973.87
735.317	25901.32
735.658	25876.47
735.999	25876.47
736.339	25743.14
736.68	25818.84
737.021	25788.33
737.361	25688
737.702	25791.72
738.042	25690.93
738.383	25622.46
738.723	25671.95
739.063	25470.38
739.404	25485.74
739.744	25473.54
740.084	25431.96
740.424	25537.72
740.764	25450.26
741.104	25449.36
741.444	25285.07
741.784	25301.11
742.124	25290.27
742.464	25307.22
742.804	25196.48
743.143	25070.84
743.483	25064.51
743.823	24970.73
744.162	24931.63
744.502	25010.95
744.841	24888.47
745.181	25033.1
745.52	24917.17
745.86	24893.89
746.199	24808.47
746.538	24817.06
746.877	24822.71
747.216	24704.07
747.556	24777.29
747.895	24722.15
748.234	24632.88
748.573	24508.59
748.911	24548.14
749.25	24460.91
749.589	24315.38
749.928	24420.69
750.267	24440.35
750.605	24338.2
750.944	24290.97
751.283	24280.8
751.621	24292.78
751.96	24099.11
752.298	24121.48
752.636	24161.03
752.975	24041.26
753.313	23864.77
753.651	23952
753.989	23766.92
754.327	23830.19
754.666	23630.65
755.004	23784.77
755.342	23730.31
755.679	23666.13
756.017	23464.1
756.355	23449.41
756.693	23465.91
757.031	23405.8
757.368	23276.76
757.706	23346.59
758.044	23163.54
758.381	23126.71
758.719	23176.42
759.056	23227.72
759.394	23064.56
759.731	22890.1
760.068	22905.47
