Data from hue_270_FLMS001491_00052.txt Node
Date: Tue Feb 07 15:57:22 GMT 2017
User: dcchb
Spectrometer: FLMS00149
Trigger mode: 0
Integration Time (sec): 2.000000E-2
Scans to average: 10
Electric dark correction enabled: true
Nonlinearity correction enabled: false
Boxcar width: 0
XAxis mode: Wavelengths
Number of Pixels in Spectrum: 2048
>>>>>Begin Spectral Data<<<<<
341.393	-21.61
341.776	-21.61
342.16	-21.61
342.543	-78.56
342.927	-57.77
343.31	-84.88
343.693	-63.42
344.077	-62.06
344.46	-55.51
344.843	-47.15
345.226	-45.11
345.61	-26.13
345.993	-7.15
346.376	-7.6
346.759	4.38
347.142	19.52
347.525	37.6
347.908	44.83
348.291	78.27
348.674	91.61
349.057	122.79
349.44	124.6
349.823	125.51
350.206	144.26
350.588	192.4
350.971	202.79
351.354	241.89
351.737	243.69
352.119	236.01
352.502	255.45
352.884	259.29
353.267	285.95
353.65	294.77
354.032	292.73
354.414	312.84
354.797	308.55
355.179	322.79
355.562	333.86
355.944	306.29
356.326	331.38
356.709	331.15
357.091	325.05
357.473	335.9
357.855	317.36
358.238	323.47
358.62	346.29
359.002	330.25
359.384	334.31
359.766	337.48
360.148	327.31
360.53	316.01
360.912	337.48
361.294	335.9
361.676	328.66
362.057	332.96
362.439	312.62
362.821	305.61
363.203	308.33
363.584	329.57
363.966	337.7
364.348	317.59
364.729	336.57
365.111	325.27
365.493	322.34
365.874	308.55
366.256	323.69
366.637	308.33
367.019	313.52
367.4	321.43
367.781	314.88
368.163	300.64
368.544	322.34
368.925	288.44
369.306	309.46
369.688	319.4
370.069	290.92
370.45	307.2
370.831	310.59
371.212	309.91
371.593	298.83
371.974	319.62
372.355	305.84
372.736	314.2
373.117	311.49
373.498	297.03
373.879	298.38
374.26	305.84
374.641	307.42
375.021	304.03
375.402	312.17
375.783	323.92
376.163	316.91
376.544	321.43
376.925	315.78
377.305	322.79
377.686	323.24
378.066	316.46
378.447	325.05
378.827	334.77
379.208	326.86
379.588	344.26
379.968	347.65
380.349	328.89
380.729	315.78
381.109	324.37
381.489	339.28
381.87	334.54
382.25	351.04
382.63	334.09
383.01	344.71
383.39	336.35
383.77	337.93
384.15	368.89
384.53	334.54
384.91	330.02
385.29	334.77
385.67	341.54
386.049	326.63
386.429	348.1
386.809	357.82
387.189	358.49
387.568	356.01
387.948	369.79
388.328	355.78
388.707	353.97
389.087	345.61
389.466	369.79
389.846	344.71
390.225	365.72
390.605	342.9
390.984	358.49
391.363	360.75
391.743	364.82
392.122	384.71
392.501	375.22
392.881	375.44
393.26	376.57
393.639	375.67
394.018	371.6
394.397	384.71
394.776	391.03
395.155	370.47
395.534	385.61
395.913	382.9
396.292	415.89
396.671	404.37
397.05	381.09
397.429	385.16
397.808	410.7
398.186	395.1
398.565	407.31
398.944	410.47
399.323	409.11
399.701	434.65
400.08	410.47
400.458	399.85
400.837	403.01
401.215	435.33
401.594	425.61
401.972	417.47
402.351	450.69
402.729	423.35
403.107	432.84
403.486	462.9
403.864	454.08
404.242	445.95
404.62	424.03
404.999	442.56
405.377	448.66
405.755	481.65
406.133	454.54
406.511	461.77
406.889	467.64
407.267	462.9
407.645	484.82
408.023	491.37
408.401	473.52
408.779	502.67
409.156	516.91
409.534	501.09
409.912	501.09
410.29	533.63
410.667	544.93
411.045	545.38
411.422	525.49
411.8	533.63
412.178	513.29
412.555	545.38
412.933	543.57
413.31	559.62
413.687	582.44
414.065	591.71
414.442	578.6
414.819	596.91
415.197	605.49
415.574	624.7
415.951	612.72
416.328	627.41
416.705	636.9
417.082	669.45
417.46	648.66
417.837	641.65
418.214	664.02
418.591	636.23
418.967	662.89
419.344	689.11
419.721	699.95
420.098	693.17
420.475	681.42
420.852	701.76
421.228	695.89
421.605	726.85
421.982	723.91
422.358	736.34
422.735	737.47
423.111	767.3
423.488	781.53
423.864	783.12
424.241	818.82
424.617	795.54
424.994	792.15
425.37	824.92
425.746	837.35
426.123	850.23
426.499	865.82
426.875	849.78
427.251	871.25
427.627	903.11
428.003	893.39
428.379	913.28
428.756	910.57
429.132	945.37
429.507	959.83
429.883	944.24
430.259	949.44
430.635	980.4
431.011	960.51
431.387	1002.77
431.763	1020.4
432.138	1007.74
432.514	1058.81
432.89	1064.69
433.265	1065.14
433.641	1101.07
434.016	1103.33
434.392	1111.47
434.767	1138.13
435.143	1168.42
435.518	1148.98
435.894	1181.52
436.269	1203.22
436.644	1208.87
437.02	1234.85
437.395	1223.78
437.77	1252.26
438.145	1280.05
438.52	1281.18
438.895	1287.28
439.271	1316.89
439.646	1325.47
440.021	1359.15
440.395	1395.3
440.77	1422.19
441.145	1380.16
441.52	1406.38
441.895	1421.97
442.27	1435.98
442.645	1422.87
443.019	1459.71
443.394	1479.14
443.769	1487.28
444.143	1478.69
444.518	1506.71
444.892	1493.83
445.267	1542.87
445.641	1511.01
446.016	1541.06
446.39	1542.87
446.764	1576.77
447.139	1581.96
447.513	1588.74
447.887	1566.82
448.262	1586.26
448.636	1612.25
449.01	1588.07
449.384	1637.1
449.758	1645.69
450.132	1683.2
450.506	1636.65
450.88	1688.63
451.254	1653.37
451.628	1679.14
452.002	1724.79
452.376	1716.42
452.75	1727.27
453.123	1790.32
453.497	1776.99
453.871	1799.81
454.244	1814.27
454.618	1819.92
454.992	1823.31
455.365	1816.08
455.739	1903.31
456.112	1903.99
456.486	1934.05
456.859	1941.95
457.232	1972.24
457.606	1963.87
457.979	1987.15
458.352	1995.06
458.725	2019.69
459.099	2040.03
459.472	2089.3
459.845	2082.97
460.218	2082.52
460.591	2100.37
460.964	2107.6
461.337	2164.32
461.71	2246.58
462.083	2240.03
462.456	2242.51
462.829	2200.48
463.201	2278.67
463.574	2273.7
463.947	2262.62
464.32	2331.77
464.692	2329.29
465.065	2346.24
465.438	2421.04
465.81	2424.65
466.183	2428.27
466.555	2494.48
466.928	2508.95
467.3	2470.75
467.672	2501.71
468.045	2579.68
468.417	2619.9
468.789	2599.79
469.161	2615.61
469.534	2688.6
469.906	2752.55
470.278	2739.22
470.65	2750.52
471.022	2822.84
471.394	2858.31
471.766	2871.65
472.138	2878.65
472.51	2900.8
472.882	2969.27
473.253	3001.81
473.625	3010.18
473.997	3107.57
474.369	3119.55
474.74	3118.19
475.112	3195.03
475.484	3212.88
475.855	3278.87
476.227	3289.49
476.598	3368.81
476.97	3378.75
477.341	3424.18
477.713	3492.2
478.084	3507.11
478.455	3565.64
478.827	3589.37
479.198	3694.9
479.569	3721.12
479.94	3771.96
480.311	3792.08
480.682	3864.16
481.053	3918.85
481.424	4026.65
481.795	4006.08
482.166	4086.08
482.537	4115.23
482.908	4171.95
483.279	4197.94
483.65	4257.15
484.021	4353.87
484.391	4351.38
484.762	4342.8
485.133	4398.39
485.503	4462.57
485.874	4578.27
486.244	4565.61
486.615	4630.7
486.985	4717.02
487.356	4768.32
487.726	4783.01
488.097	4853.52
488.467	4871.6
488.837	4954.98
489.207	4994.08
489.578	5100.74
489.948	5089.44
490.318	5144.58
490.688	5165.82
491.058	5233.62
491.428	5286.27
491.798	5344.35
492.168	5378.93
492.538	5442.65
492.908	5472.03
493.278	5519.49
493.648	5515.19
494.017	5577.57
494.387	5624.12
494.757	5713.15
495.126	5684.23
495.496	5682.2
495.866	5765.13
496.235	5831.12
496.605	5831.8
496.974	5856.2
497.344	5923.77
497.713	5916.54
498.082	6010.32
498.452	6006.48
498.821	6022.75
499.19	6011.45
499.559	6042.41
499.928	6083.31
500.298	6093.03
500.667	6187.27
501.036	6104.78
501.405	6255.51
501.774	6214.61
502.143	6267.04
502.512	6285.57
502.88	6326.47
503.249	6298.45
503.618	6378.67
503.987	6350.88
504.356	6376.19
504.724	6383.42
505.093	6410.31
505.462	6461.61
505.83	6491.21
506.199	6519.01
506.567	6549.29
506.936	6556.07
507.304	6603.3
507.672	6578.89
508.041	6624.32
508.409	6639.46
508.777	6704.99
509.145	6710.87
509.514	6680.14
509.882	6752
510.25	6743.64
510.618	6771.43
510.986	6815.27
511.354	6788.61
511.722	6829.51
512.09	6906.8
512.458	6902.73
512.826	6960.35
513.193	6914.25
513.561	6883.75
513.929	6975.72
514.297	7056.17
514.664	7004.87
515.032	7072.89
515.4	7094.14
515.767	7112.21
516.135	7176.17
516.502	7050.97
516.869	7166.22
517.237	7157.86
517.604	7129.61
517.972	7157.64
518.339	7214.81
518.706	7187.47
519.073	7191.08
519.44	7212.1
519.808	7319.21
520.175	7226.11
520.542	7323.73
520.909	7373
521.276	7352.21
521.643	7470.4
522.009	7474.01
522.376	7472.2
522.743	7450.06
523.11	7529.6
523.477	7608.25
523.843	7524.86
524.21	7575.93
524.577	7739.09
524.943	7638.75
525.31	7689.83
525.676	7728.92
526.043	7749.26
526.409	7793.1
526.776	7816.15
527.142	7841.91
527.508	7812.53
527.874	7864.28
528.241	7884.62
528.607	7895.24
528.973	7923.27
529.339	7958.52
529.705	8036.48
530.071	8078.06
530.437	8009.82
530.803	8043.04
531.169	8107.22
531.535	8115.35
531.901	8103.37
532.267	8106.54
532.632	8139.53
532.998	8137.5
533.364	8183.15
533.73	8140.89
534.095	8228.57
534.461	8221.34
534.826	8243.26
535.192	8222.92
535.557	8349.02
535.923	8313.09
536.288	8289.58
536.653	8375.23
537.019	8296.82
537.384	8285.52
537.749	8345.63
538.114	8330.71
538.479	8370.03
538.845	8384.05
539.21	8331.62
539.575	8364.16
539.94	8404.84
540.305	8437.38
540.67	8392.63
541.034	8389.92
541.399	8474.89
541.764	8398.28
542.129	8464.04
542.494	8493.87
542.858	8459.98
543.223	8406.19
543.587	8559.41
543.952	8540.43
544.316	8543.59
544.681	8476.47
545.045	8547.43
545.41	8515.34
545.774	8555.79
546.138	8579.07
546.503	8584.49
546.867	8559.18
547.231	8654.55
547.595	8593.08
547.959	8615.68
548.324	8636.47
548.688	8628.78
549.052	8643.25
549.416	8661.33
549.779	8635.79
550.143	8671.72
550.507	8738.16
550.871	8704.04
551.235	8667.65
551.599	8758.5
551.962	8762.57
552.326	8815.45
552.689	8775
553.053	8733.87
553.417	8762.34
553.78	8882.56
554.143	8786.07
554.507	8840.76
554.87	8873.52
555.234	8902.68
555.597	8803.24
555.96	8872.85
556.323	8937.93
556.686	8965.05
557.05	9002.11
557.413	8940.64
557.776	8911.04
558.139	8951.04
558.502	9041.88
558.865	9039.17
559.228	9088.43
559.59	9046.85
559.953	9158.71
560.316	9103.8
560.679	9179.5
561.041	9210.69
561.404	9254.53
561.767	9295.43
562.129	9253.17
562.492	9291.14
562.854	9313.06
563.217	9311.7
563.579	9384.02
563.941	9376.11
564.304	9439.16
564.666	9443.23
565.028	9481.19
565.39	9503.34
565.753	9532.49
566.115	9557.12
566.477	9600.96
566.839	9570.45
567.201	9652.94
567.563	9666.5
567.925	9697.91
568.287	9707.17
568.648	9714.63
569.01	9776.32
569.372	9835.31
569.734	9842.99
570.095	9894.29
570.457	9925.93
570.819	9929.09
571.18	9987.62
571.542	9999.82
571.903	10039.14
572.265	10046.6
572.626	10136.99
572.987	10132.7
573.349	10188.52
573.71	10176.09
574.071	10272.58
574.432	10268.52
574.794	10376.54
575.155	10333.6
575.516	10282.98
575.877	10416.76
576.238	10384.22
576.599	10445.01
576.96	10497.44
577.32	10482.97
577.681	10492.24
578.042	10545.57
578.403	10498.79
578.763	10603.2
579.124	10615.85
579.485	10703.08
579.845	10706.7
580.206	10641.16
580.566	10721.16
580.927	10813.13
581.287	10832.12
581.648	10896.07
582.008	10923.64
582.368	10881.83
582.728	10943.98
583.089	10969.97
583.449	10979.01
583.809	10979.46
584.169	10989.85
584.529	11078.21
584.889	11127.93
585.249	11076.86
585.609	11148.27
585.969	11229.62
586.329	11203.18
586.688	11256.74
587.048	11236.4
587.408	11239.79
587.768	11232.11
588.127	11269.17
588.487	11299.9
588.846	11355.72
589.206	11326.34
589.565	11355.04
589.925	11472.33
590.284	11491.08
590.643	11512.32
591.003	11445.66
591.362	11563.4
591.721	11513.91
592.08	11553
592.44	11616.95
592.799	11675.71
593.158	11649.5
593.517	11689.04
593.876	11724.3
594.235	11727.69
594.593	11759.1
594.952	11792.54
595.311	11758.19
595.67	11791.87
596.029	11983.95
596.387	11925.42
596.746	11914.8
597.104	11880.45
597.463	11913.22
597.822	11960.67
598.18	11955.48
598.538	11944.4
598.897	12005.87
599.255	11941.69
599.613	12101.01
599.972	12023.72
600.33	12047.23
600.688	12021.24
601.046	12153.89
601.404	12129.48
601.762	12090.61
602.12	12174.91
602.478	12213.32
602.836	12158.18
603.194	12180.1
603.552	12234.34
603.91	12158.41
604.268	12263.04
604.625	12174
604.983	12280.67
605.341	12204.28
605.698	12311.17
606.056	12286.54
606.413	12317.73
606.771	12342.13
607.128	12404.28
607.485	12275.47
607.843	12299.87
608.2	12400.21
608.557	12455.8
608.914	12430.72
609.272	12504.84
609.629	12451.73
609.986	12502.81
610.343	12405.18
610.7	12555.69
611.057	12522.24
611.414	12457.61
611.771	12538.96
612.127	12539.42
612.484	12553.43
612.841	12666.87
613.198	12599.3
613.554	12610.37
613.911	12667.55
614.267	12701.9
614.624	12677.72
614.98	12614.44
615.337	12684.95
615.693	12669.13
616.05	12585.29
616.406	12684.72
616.762	12648.79
617.118	12708
617.475	12715.91
617.831	12802.91
618.187	12737.83
618.543	12758.39
618.899	12799.97
619.255	12824.83
619.611	12861.89
619.967	12801.78
620.323	12809.92
620.678	12799.07
621.034	12765.85
621.39	12712.29
621.746	12773.08
622.101	12942.8
622.457	12789.58
622.812	12809.69
623.168	12838.17
623.523	12916.13
623.879	12948.9
624.234	12830.03
624.589	12889.01
624.945	12975.11
625.3	12934.21
625.655	12853.31
626.01	12877.71
626.365	12901.21
626.72	12869.8
627.075	12903.25
627.43	12850.14
627.785	12830.26
628.14	12833.87
628.495	12853.31
628.85	12858.5
629.205	12820.76
629.559	12914.1
629.914	12839.97
630.269	12828.45
630.623	12742.12
630.978	12714.33
631.332	12819.86
631.687	12806.3
632.041	12728.56
632.396	12731.73
632.75	12677.49
633.104	12777.6
633.459	12620.09
633.813	12645.18
634.167	12677.49
634.521	12702.58
634.875	12685.4
635.229	12616.48
635.583	12618.51
635.937	12626.65
636.291	12606.08
636.645	12642.92
636.999	12513.43
637.352	12517.72
637.706	12575.35
638.06	12518.85
638.413	12477.5
638.767	12534.67
639.121	12488.57
639.474	12421.23
639.828	12435.01
640.181	12437.95
640.534	12478.17
640.888	12364.96
641.241	12397.72
641.594	12350.49
641.947	12432.75
642.301	12389.82
642.654	12328.12
643.007	12352.08
643.36	12347.56
643.713	12349.82
644.066	12372.41
644.419	12314.56
644.771	12311.17
645.124	12166.09
645.477	12096.49
645.83	12105.76
646.182	12072.31
646.535	11926.78
646.888	11940.34
647.24	11862.82
647.593	11898.53
647.945	11915.03
648.298	11825.54
648.65	11856.27
649.002	11839.1
649.355	11865.08
649.707	11809.72
650.059	11937.4
650.411	12080.67
650.763	12019.66
651.115	12150.27
651.467	12127.45
651.819	12158.18
652.171	12159.99
652.523	12109.6
652.875	12069.82
653.227	12063.5
653.578	12110.5
653.93	12039.54
654.282	12061.69
654.633	11962.93
654.985	12093.33
655.337	12090.61
655.688	12062.82
656.039	12151.18
656.391	12003.38
656.742	12055.59
657.094	12078.86
657.445	12056.04
657.796	12118.18
658.147	12071.41
658.498	12134.45
658.849	12143.27
659.2	12154.34
659.551	12052.65
659.902	12133.1
660.253	12083.83
660.604	12094.23
660.955	12059.43
661.306	12084.96
661.656	12070.05
662.007	12059.2
662.358	12014.68
662.708	12094
663.059	12160.44
663.409	12099.88
663.76	12128.35
664.11	12100.78
664.461	12112.53
664.811	12054.68
665.161	12103.27
665.511	12124.51
665.862	12104.17
666.212	12137.62
666.562	12215.81
666.912	12082.03
667.262	12069.15
667.612	12110.5
667.962	12111.18
668.312	12100.78
668.662	12160.44
669.011	12028.24
669.361	12016.94
669.711	12080.67
670.06	12053.55
670.41	12072.76
670.76	12020.33
671.109	11998.87
671.459	12092.65
671.808	11980.56
672.157	12061.91
672.507	11958.41
672.856	11972.65
673.205	12024.63
673.554	12000.22
673.904	11950.28
674.253	12017.17
674.602	12032.54
674.951	11815.82
675.3	11764.07
675.649	11948.25
675.998	11943.05
676.346	11945.08
676.695	12014.23
677.044	11855.59
677.393	11944.18
677.741	11911.41
678.09	11826.21
678.438	11834.8
678.787	11806.55
679.135	11805.65
679.484	11752.32
679.832	11721.36
680.181	11730.62
680.529	11756.61
680.877	11692.88
681.225	11702.83
681.573	11781.47
681.922	11606.11
682.27	11592.55
682.618	11615.15
682.966	11647.01
683.314	11567.24
683.661	11566.33
684.009	11566.79
684.357	11449.5
684.705	11463.29
685.053	11516.39
685.4	11401.82
685.748	11414.7
686.095	11423.74
686.443	11444.53
686.79	11349.84
687.138	11363.4
687.485	11344.87
687.832	11247.92
688.18	11338.54
688.527	11195.95
688.874	11192.11
689.221	11153.01
689.568	11172.45
689.915	11027.37
690.262	11044.54
690.609	11080.92
690.956	11048.16
691.303	11016.52
691.65	10988.72
691.997	10884.77
692.344	10841.16
692.69	10883.41
693.037	10808.39
693.383	10744.66
693.73	10762.06
694.077	10731.1
694.423	10676.87
694.769	10633.48
695.116	10671.44
695.462	10590.99
695.808	10610.65
696.155	10529.07
696.501	10470.77
696.847	10485.68
697.193	10350.77
697.539	10488.4
697.885	10396.87
698.231	10292.7
698.577	10374.28
698.923	10299.25
699.269	10228.29
699.614	10102.87
699.96	10123.89
700.306	10085.47
700.651	10164.56
700.997	10116.88
701.342	10045.47
701.688	10023.1
702.033	9977
702.379	9950.56
702.724	9884.34
703.069	9929.54
703.415	9731.35
703.76	9746.5
704.105	9859.03
704.45	9772.48
704.795	9734.97
705.14	9675.99
705.485	9715.54
705.83	9609.32
706.175	9570.91
706.52	9586.95
706.865	9563.68
707.209	9436.22
707.554	9527.74
707.899	9506.5
708.243	9448.88
708.588	9372.49
708.932	9385.15
709.277	9379.05
709.621	9402.78
709.966	9268.32
710.31	9306.73
710.654	9273.29
710.998	9240.29
711.342	9199.62
711.687	9173.4
712.031	9200.97
712.375	9142.44
712.719	9111.94
713.063	9176.57
713.407	9144.93
713.75	9056.12
714.094	9055.67
714.438	9034.65
714.782	9099.73
715.125	8984.03
715.469	9032.16
715.812	8926.18
716.156	8949.45
716.499	8988.77
716.843	9013.63
717.186	8886.86
717.53	8882.11
717.873	9009.79
718.216	8939.06
718.559	8850.25
718.902	8893.18
719.246	8851.15
719.589	8787.88
719.932	8767.31
720.275	8813.19
720.617	8813.64
720.96	8802.57
721.303	8750.59
721.646	8721.21
721.989	8726.41
722.331	8729.8
722.674	8671.04
723.016	8687.77
723.359	8701.55
723.701	8677.37
724.044	8629.24
724.386	8634.89
724.729	8623.59
725.071	8651.83
725.413	8615.45
725.755	8623.13
726.097	8579.29
726.439	8581.78
726.782	8560.76
727.124	8601.67
727.465	8557.15
727.807	8554.66
728.149	8538.39
728.491	8528.9
728.833	8538.62
729.175	8542.23
729.516	8511.95
729.858	8506.75
730.199	8530.26
730.541	8482.12
730.882	8446.87
731.224	8483.7
731.565	8449.58
731.906	8440.09
732.248	8429.92
732.589	8455.23
732.93	8437.15
733.271	8410.03
733.612	8471.27
733.953	8513.31
734.294	8497.26
734.635	8477.15
734.976	8547.66
735.317	8407.1
735.658	8417.26
735.999	8465.4
736.339	8403.03
736.68	8502.01
737.021	8471.27
737.361	8387.66
737.702	8496.58
738.042	8457.04
738.383	8474.44
738.723	8470.14
739.063	8471.5
739.404	8498.62
739.744	8495.91
740.084	8450.48
740.424	8507.43
740.764	8505.4
741.104	8597.37
741.444	8507.88
741.784	8504.49
742.124	8530.71
742.464	8476.92
742.804	8541.33
743.143	8547.2
743.483	8600.31
743.823	8520.31
744.162	8595.11
744.502	8563.7
744.841	8618.39
745.181	8652.29
745.52	8687.77
745.86	8674.88
746.199	8744.26
746.538	8742.23
746.877	8746.52
747.216	8836.69
747.556	8838.72
747.895	8967.98
748.234	8934.31
748.573	8979.96
748.911	9077.59
749.25	9001.2
749.589	9054.31
749.928	9166.4
750.267	9189
750.605	9308.31
750.944	9301.31
751.283	9370.23
751.621	9450.46
751.96	9486.61
752.298	9623.11
752.636	9662.2
752.975	9689.77
753.313	9776.32
753.651	9960.95
753.989	9946.94
754.327	10083.44
754.666	10112.36
755.004	10251.11
755.342	10338.57
755.679	10508.96
756.017	10494.72
756.355	10688.17
756.693	10748.5
757.031	10902.85
757.368	11049.74
757.706	11191.65
758.044	11275.95
758.381	11459.22
758.719	11520.46
759.056	11718.65
759.394	11849.49
759.731	11994.35
760.068	12044.06
760.405	12192.31
760.743	12341.23
761.08	12573.09
761.417	12653.09
761.754	12733.76
