Data from hue_320_FLMS001491_51.txt Node
Date: Mon Feb 06 15:47:23 GMT 2017
User: dcchb
Spectrometer: FLMS00149
Trigger mode: 0
Integration Time (sec): 2.000000E-2
Scans to average: 10
Electric dark correction enabled: true
Nonlinearity correction enabled: false
Boxcar width: 0
XAxis mode: Wavelengths
Number of Pixels in Spectrum: 2048
>>>>>Begin Spectral Data<<<<<
341.393	-10.86
341.776	-10.86
342.16	-10.86
342.543	-59.45
342.927	-69.39
343.31	-54.7
343.693	-73.68
344.077	-63.29
344.46	-62.61
344.843	-82.27
345.226	-46.11
345.61	-19.67
345.993	-30.07
346.376	2.7
346.759	40.21
347.142	1.12
347.525	39.76
347.908	61.68
348.291	75.92
348.674	93.54
349.057	117.5
349.44	144.39
349.823	137.16
350.206	155.24
350.588	183.71
350.971	207.66
351.354	213.09
351.737	224.39
352.119	258.74
352.502	265.06
352.884	272.3
353.267	301.9
353.65	298.28
354.032	286.98
354.414	304.38
354.797	320.88
355.179	310.26
355.562	312.29
355.944	326.3
356.326	320.66
356.709	343.71
357.091	350.71
357.473	327.43
357.855	340.54
358.238	347.77
358.62	325.18
359.002	334.44
359.384	338.06
359.766	324.5
360.148	359.3
360.53	350.26
360.912	330.82
361.294	331.73
361.676	326.08
362.057	343.25
362.439	314.78
362.821	326.53
363.203	319.98
363.584	306.64
363.966	313.88
364.348	335.34
364.729	308.23
365.111	324.27
365.493	321.79
365.874	316.81
366.256	317.27
366.637	305.29
367.019	324.5
367.4	323.37
367.781	321.56
368.163	308
368.544	322.69
368.925	326.3
369.306	323.14
369.688	311.84
370.069	303.48
370.45	329.24
370.831	300.32
371.212	310.49
371.593	314.78
371.974	300.99
372.355	310.03
372.736	320.88
373.117	328.34
373.498	320.43
373.879	330.37
374.26	310.94
374.641	307.1
375.021	319.75
375.402	333.08
375.783	315.23
376.163	300.09
376.544	336.47
376.925	333.31
377.305	317.04
377.686	299.86
378.066	323.14
378.447	332.86
378.827	348.68
379.208	317.49
379.588	323.82
379.968	305.97
380.349	333.31
380.729	330.37
381.109	328.34
381.489	312.07
381.87	330.37
382.25	312.29
382.63	351.84
383.01	358.17
383.39	339.19
383.77	330.82
384.15	327.21
384.53	323.37
384.91	346.87
385.29	341.22
385.67	341.9
386.049	368.34
386.429	382.57
386.809	351.62
387.189	346.64
387.568	337.38
387.948	360.2
388.328	340.54
388.707	343.48
389.087	347.77
389.466	350.94
389.846	380.99
390.225	361.56
390.605	337.83
390.984	357.49
391.363	370.82
391.743	385.29
392.122	372.63
392.501	360.43
392.881	359.75
393.26	374.89
393.639	370.15
394.018	383.25
394.397	373.08
394.776	369.02
395.155	379.86
395.534	373.76
395.913	363.37
396.292	402.24
396.671	374.89
397.05	361.78
397.429	388.9
397.808	365.63
398.186	388.22
398.565	387.55
398.944	400.43
399.323	394.1
399.701	393.87
400.08	392.74
400.458	402.91
400.837	407.66
401.215	397.94
401.594	393.2
401.972	410.6
402.351	411.73
402.729	395.91
403.107	395.68
403.486	422.8
403.864	439.07
404.242	432.29
404.62	422.35
404.999	438.17
405.377	414.21
405.755	430.93
406.133	437.26
406.511	441.78
406.889	463.25
407.267	475.45
407.645	443.36
408.023	451.5
408.401	450.6
408.779	477.49
409.156	467.09
409.534	471.16
409.912	462.12
410.29	470.71
410.667	483.81
411.045	484.04
411.422	501.22
411.8	493.31
412.178	490.59
412.555	522.46
412.933	502.12
413.31	502.12
413.687	522.91
414.065	522.46
414.442	527.43
414.819	538.28
415.197	541.67
415.574	571.95
415.951	560.2
416.328	576.69
416.705	566.75
417.082	570.59
417.46	585.96
417.837	587.32
418.214	580.76
418.591	594.32
418.967	605.17
419.344	599.52
419.721	617.6
420.098	629.12
420.475	647.43
420.852	647.2
421.228	657.82
421.605	655.11
421.982	660.31
422.358	659.4
422.735	671.15
423.111	663.47
423.488	685.84
423.864	675
424.241	702.11
424.617	700.76
424.994	726.52
425.37	717.26
425.746	719.74
426.123	755.45
426.499	733.3
426.875	719.29
427.251	734.2
427.627	773.52
428.003	778.95
428.379	779.63
428.756	775.56
429.132	754.99
429.507	786.63
429.883	794.99
430.259	798.16
430.635	825.95
431.011	813.3
431.387	838.83
431.763	845.39
432.138	862.56
432.514	852.17
432.89	860.08
433.265	884.93
433.641	889.68
434.016	880.87
434.392	917.93
434.767	926.74
435.143	934.65
435.518	915.22
435.894	928.32
436.269	958.15
436.644	983.69
437.02	976.01
437.395	953.18
437.77	1006.74
438.145	988.43
438.52	993.63
438.895	1022.78
439.271	1010.81
439.646	1034.08
440.021	1062.1
440.395	1063.01
440.77	1068.21
441.145	1066.4
441.52	1089.45
441.895	1062.1
442.27	1106.4
442.645	1089.67
443.019	1107.75
443.394	1105.95
443.769	1077.02
444.143	1096.23
444.518	1116.34
444.892	1104.82
445.267	1146.85
445.641	1100.07
446.016	1101.43
446.39	1140.52
446.764	1125.61
447.139	1125.15
447.513	1141.88
447.887	1142.33
448.262	1157.47
448.636	1172.16
449.01	1176.23
449.384	1186.17
449.758	1167.64
450.132	1185.72
450.506	1192.95
450.88	1178.49
451.254	1188.66
451.628	1192.72
452.002	1217.13
452.376	1213.29
452.75	1203.12
453.123	1228.2
453.497	1252.83
453.871	1228.43
454.244	1245.38
454.618	1276.79
454.992	1300.52
455.365	1292.83
455.739	1278.6
456.112	1274.08
456.486	1307.75
456.859	1331.02
457.232	1343.23
457.606	1337.58
457.979	1383.9
458.352	1385.26
458.725	1383.45
459.099	1369.44
459.472	1391.36
459.845	1387.29
460.218	1418.93
460.591	1419.38
460.964	1441.3
461.337	1484.92
461.71	1464.13
462.083	1469.78
462.456	1448.08
462.829	1460.29
463.201	1517.46
463.574	1499.61
463.947	1555.2
464.32	1539.15
464.692	1566.5
465.065	1549.32
465.438	1544.8
465.81	1586.84
466.183	1567.85
466.555	1611.24
466.928	1630.45
467.3	1633.39
467.672	1676.55
468.045	1704.12
468.417	1699.15
468.789	1706.16
469.161	1688.76
469.534	1742.31
469.906	1783.89
470.278	1771.69
470.65	1794.51
471.022	1793.61
471.394	1817.57
471.766	1812.82
472.138	1826.83
472.51	1862.08
472.882	1900.95
473.253	1912.25
473.625	1927.84
473.997	1917.68
474.369	1949.77
474.74	2005.36
475.112	1998.35
475.484	2022.98
475.855	2045.36
476.227	2085.81
476.598	2124
476.97	2122.19
477.341	2153.6
477.713	2202.64
478.084	2214.62
478.455	2203.09
478.827	2227.5
479.198	2314.73
479.569	2319.25
479.94	2384.33
480.311	2368.51
480.682	2398.34
481.053	2435.63
481.424	2480.82
481.795	2496.87
482.166	2517.89
482.537	2559.92
482.908	2556.08
483.279	2611.67
483.65	2647.15
484.021	2675.85
484.391	2716.52
484.762	2721.95
485.133	2715.85
485.503	2750.2
485.874	2775.51
486.244	2800.14
486.615	2850.76
486.985	2855.96
487.356	2924.88
487.726	2937.76
488.097	3008.27
488.467	3036.74
488.837	3049.85
489.207	3059.11
489.578	3070.41
489.948	3128.04
490.318	3172.33
490.688	3178.66
491.058	3201.71
491.428	3210.07
491.798	3268.6
492.168	3330.97
492.538	3373.46
492.908	3387.69
493.278	3347.92
493.648	3385.43
494.017	3425.21
494.387	3460.91
494.757	3503.4
495.126	3490.52
495.496	3505.88
495.866	3493.91
496.235	3553.79
496.605	3599.67
496.974	3574.58
497.344	3653
497.713	3629.04
498.082	3660.45
498.452	3684.63
498.821	3706.33
499.19	3732.77
499.559	3752.88
499.928	3763.5
500.298	3751.3
500.667	3790.85
501.036	3813.44
501.405	3823.39
501.774	3839.21
502.143	3884.18
502.512	3856.16
502.88	3858.87
503.249	3901.58
503.618	3903.84
503.987	3853.9
504.356	3987.23
504.724	3977.06
505.093	3967.57
505.462	3944.97
505.83	3993.1
506.199	3975.47
506.567	4090.73
506.936	4008.47
507.304	4105.64
507.672	4075.81
508.041	4077.84
508.409	4137.28
508.777	4137.73
509.145	4180.44
509.514	4161.01
509.882	4186.54
510.25	4196.26
510.618	4144.28
510.986	4175.02
511.354	4224.73
511.722	4255.47
512.09	4277.39
512.458	4286.65
512.826	4296.37
513.193	4301.57
513.561	4311.96
513.929	4369.36
514.297	4352.19
514.664	4331.4
515.032	4380.89
515.4	4389.47
515.767	4375.46
516.135	4383.83
516.502	4375.01
516.869	4440.55
517.237	4442.35
517.604	4456.14
517.972	4476.25
518.339	4527.32
518.706	4498.85
519.073	4511.28
519.44	4509.7
519.808	4592.41
520.175	4589.02
520.542	4579.75
520.909	4559.64
521.276	4604.84
521.643	4643.03
522.009	4671.73
522.376	4636.25
522.743	4686.42
523.11	4716.92
523.477	4755.34
523.843	4740.43
524.21	4770.26
524.577	4812.97
524.943	4797.15
525.31	4868.33
525.676	4868.33
526.043	4891.61
526.409	4932.74
526.776	4934.77
527.142	4937.48
527.508	4972.96
527.874	5018.61
528.241	5013.19
528.607	5043.02
528.973	5072.17
529.339	5068.33
529.705	5104.94
530.071	5113.52
530.437	5211.37
530.803	5212.5
531.169	5239.17
531.535	5239.85
531.901	5224.03
532.267	5294.31
532.632	5288.21
532.998	5316.23
533.364	5363.01
533.73	5332.05
534.095	5397.81
534.461	5439.16
534.826	5381.54
535.192	5463.57
535.557	5462.89
535.923	5506.96
536.288	5493.4
536.653	5541.08
537.019	5553.51
537.384	5618.37
537.749	5602.55
538.114	5598.26
538.479	5646.62
538.845	5659.95
539.21	5687.52
539.575	5690.68
539.94	5755.54
540.305	5754.41
540.67	5792.83
541.034	5791.47
541.399	5785.14
541.764	5854.3
542.129	5874.41
542.494	5871.24
542.858	5853.62
543.223	5911.92
543.587	5950.34
543.952	5956.67
544.316	5973.61
544.681	6047.74
545.045	6096.1
545.41	6122.54
545.774	6125.02
546.138	6107.4
546.503	6163.67
546.867	6178.35
547.231	6182.65
547.595	6226.94
547.959	6212.48
548.324	6267.84
548.688	6269.65
549.052	6298.8
549.416	6311.23
549.779	6305.36
550.143	6357.56
550.507	6371.57
550.871	6390.1
551.235	6422.87
551.599	6459.48
551.962	6480.27
552.326	6449.31
552.689	6523.88
553.053	6467.84
553.417	6534.28
553.78	6652.92
554.143	6575.18
554.507	6627.16
554.87	6609.08
555.234	6696.98
555.597	6611.34
555.96	6641.85
556.323	6686.14
556.686	6702.41
557.05	6728.4
557.413	6760.03
557.776	6758.23
558.139	6793.03
558.502	6786.93
558.865	6816.3
559.228	6891.33
559.59	6904.89
559.953	6912.12
560.316	6940.59
560.679	6966.36
561.041	6994.38
561.404	7023.08
561.767	7072.57
562.129	7002.51
562.492	7115.05
562.854	7081.38
563.217	7105.11
563.579	7148.72
563.941	7182.4
564.304	7156.86
564.666	7190.98
565.028	7184.2
565.39	7250.64
565.753	7314.82
566.115	7281.6
566.477	7325.22
566.839	7315.27
567.201	7388.49
567.563	7392.33
567.925	7414.48
568.287	7476.85
568.648	7464.65
569.01	7506.23
569.372	7566.11
569.734	7552.33
570.095	7593.46
570.457	7639.33
570.819	7683.17
571.18	7715.04
571.542	7751.42
571.903	7844.98
572.265	7840.91
572.626	7858.08
572.987	7898.08
573.349	7934.92
573.71	7985.76
574.071	8049.72
574.432	8084.29
574.794	8128.13
575.155	8196.15
575.516	8193.89
575.877	8261.69
576.238	8308.69
576.599	8457.62
576.96	8467.11
577.32	8542.81
577.681	8635.69
578.042	8743.26
578.403	8771.73
578.763	8904.84
579.124	8926.76
579.485	9031.16
579.845	9208.33
580.206	9228.44
580.566	9371.94
580.927	9480.19
581.287	9588.89
581.648	9686.28
582.008	9882.89
582.368	10011.7
582.728	10117.69
583.089	10298.92
583.449	10449.65
583.809	10572.14
584.169	10740.04
584.529	10942.75
584.889	11208.05
585.249	11308.16
585.609	11462.74
585.969	11671.09
586.329	11802.39
586.688	12117.41
587.048	12332.77
587.408	12549.26
587.768	12688.69
588.127	12972.98
588.487	13163.48
588.846	13494.55
589.206	13617.93
589.565	13899.96
589.925	14225.6
590.284	14494.75
590.643	14755.08
591.003	15041.62
591.362	15339.7
591.721	15579.01
592.08	15833.24
592.44	16166.79
592.799	16381.02
593.158	16655.82
593.517	17015.81
593.876	17207.89
594.235	17533.76
594.593	17848.33
594.952	18090.36
595.311	18460.74
595.67	18698.25
596.029	19091.24
596.387	19327.39
596.746	19698
597.104	19849.86
597.463	20159.23
597.822	20571.87
598.18	20761.02
598.538	21080.56
598.897	21502.02
599.255	21627.67
599.613	22097.03
599.972	22292.96
600.33	22617.24
600.688	22828.54
601.046	23206.61
601.404	23513.27
601.762	23810.21
602.12	24213.81
602.478	24389.4
602.836	24705.55
603.194	24850.41
603.552	25225.31
603.91	25439.09
604.268	25757.27
604.625	25907.55
604.983	26429.35
605.341	26450.14
605.698	26807.19
606.056	27049.22
606.413	27269.55
606.771	27602.42
607.128	27843.55
607.485	27982.98
607.843	28118.57
608.2	28611.89
608.557	28757.42
608.914	28991.54
609.272	29398.31
609.629	29455.48
609.986	29755.36
610.343	29855.25
610.7	30250.49
611.057	30452.74
611.414	30577.49
611.771	30911.72
612.127	31107.19
612.484	31237.36
612.841	31509.21
613.198	31606.84
613.554	31758.47
613.911	32039.14
614.267	32228.29
614.624	32278.69
614.98	32498.34
615.337	32802.97
615.693	32975.84
616.05	33076.63
616.406	33276.63
616.762	33375.61
617.118	33494.25
617.475	33699.66
617.831	33849.94
618.187	33999.54
618.543	34390.49
618.899	34423.49
619.255	34508.46
619.611	34611.96
619.967	34802.23
620.323	35037.26
620.678	35160.19
621.034	35039.74
621.39	35194.54
621.746	35308.21
622.101	35724.7
622.457	35563.34
622.812	35793.4
623.168	36001.53
623.523	36049.43
623.879	36160.62
624.234	35955.65
624.589	36325.58
624.945	36439.71
625.3	36401.74
625.655	36478.8
626.01	36760.15
626.365	36648.29
626.72	36715.4
627.075	36686.93
627.43	36815.29
627.785	36787.72
628.14	37058.45
628.495	37052.12
628.85	37199.23
629.205	37076.53
629.559	37332.56
629.914	37207.37
630.269	37284.43
630.623	37249.85
630.978	37196.52
631.332	37411.66
631.687	37478.55
632.041	37315.84
632.396	37596.74
632.75	37355.16
633.104	37455.72
633.459	37359.46
633.813	37369.85
634.167	37553.12
634.521	37469.06
634.875	37527.59
635.229	37472.22
635.583	37326.01
635.937	37467.02
636.291	37602.61
636.645	37568.94
636.999	37578.21
637.352	37708.6
637.706	37472.45
638.06	37666.79
638.413	37546.57
638.767	37498.66
639.121	37625.89
639.474	37475.16
639.828	37472.45
640.181	37581.6
640.534	37590.86
640.888	37596.51
641.241	37400.58
641.594	37513.35
641.947	37428.83
642.301	37508.83
642.654	37540.24
643.007	37481.49
643.36	37483.52
643.713	37431.32
644.066	37748.82
644.419	37454.59
644.771	37213.02
645.124	36855.74
645.477	36691.22
645.83	36637.67
646.182	36414.17
646.535	36376.43
646.888	36463.43
647.24	36233.61
647.593	36504.79
647.945	36425.69
648.298	36176.21
648.65	36263.67
649.002	36238.81
649.355	36406.94
649.707	36243.1
650.059	36393.83
650.411	36706.14
650.763	36919.92
651.115	37252.34
651.467	37121.72
651.819	37111.1
652.171	36929.64
652.523	37015.96
652.875	36970.77
653.227	36885.34
653.578	37120.37
653.93	36969.86
654.282	36924.44
654.633	36730.55
654.985	36890.09
655.337	37041.27
655.688	36887.38
656.039	37064.32
656.391	36607.61
656.742	36780.26
657.094	36820.49
657.445	36993.59
657.796	36817.1
658.147	36765.57
658.498	36889.19
658.849	36770.77
659.2	36830.43
659.551	36816.19
659.902	36942.29
660.253	36751.56
660.604	36941.16
660.955	36622.75
661.306	36773.71
661.656	36544.56
662.007	36722.41
662.358	36759.47
662.708	36729.64
663.059	36637.44
663.409	36512.92
663.76	36901.39
664.11	36744.56
664.461	36830.66
664.811	36845.34
665.161	36662.98
665.511	36693.94
665.862	36612.13
666.212	36728.06
666.562	36721.51
666.912	36609.87
667.262	36648.29
667.612	36552.92
667.962	36644.22
668.312	36716.08
668.662	36736.65
669.011	36627.72
669.361	36663.2
669.711	36578.69
670.06	36494.17
670.41	36420.5
670.76	36397.67
671.109	36528.97
671.459	36389.54
671.808	36491.68
672.157	36554.05
672.507	36359.71
672.856	36313.38
673.205	36480.16
673.554	36470.44
673.904	36425.69
674.253	36674.28
674.602	36518.8
674.951	36034.52
675.3	35725.6
675.649	36192.93
675.998	36347.5
676.346	36340.5
676.695	36492.36
677.044	36051.02
677.393	36214.4
677.741	36319.26
678.09	36143.67
678.438	36157.45
678.787	36274.74
679.135	36199.94
679.484	35932.6
679.832	36137.11
680.181	35891.02
680.529	36107.74
680.877	35908.87
681.225	35853.05
681.573	36108.64
681.922	35716.79
682.27	35633.4
682.618	35677.01
682.966	35637.47
683.314	35637.01
683.661	35533.29
684.009	35379.17
684.357	35352.95
684.705	35295.33
685.053	35359.96
685.4	35272.28
685.748	35209
686.095	35127.2
686.443	35042.45
686.79	34998.16
687.138	35014.88
687.485	35018.05
687.832	34844.04
688.18	34958.39
688.527	34866.41
688.874	34731.73
689.221	34683.37
689.568	34556.37
689.915	34503.03
690.262	34509.81
690.609	34450.83
690.956	34371.51
691.303	34300.55
691.65	34153.44
691.997	34085.19
692.344	33932.88
692.69	33950.96
693.037	33976.72
693.383	33574.24
693.73	33842.71
694.077	33523.85
694.423	33649.95
694.769	33454.7
695.116	33440.91
695.462	33327.02
695.808	33373.12
696.155	33244.08
696.501	33039.8
696.847	33025.33
697.193	32943.75
697.539	32921.15
697.885	32693.82
698.231	32623.08
698.577	32752.12
698.923	32528.4
699.269	32381.96
699.614	32289.08
699.96	32212.7
700.306	32254.05
700.651	31962.54
700.997	31891.8
701.342	31930.22
701.688	31883.89
702.033	31811.8
702.379	31922.08
702.724	31796.89
703.069	31793.27
703.415	31507.63
703.76	31398.26
704.105	31416.33
704.45	31357.58
704.795	31264.93
705.14	31104.93
705.485	30998.27
705.83	31000.07
706.175	31125.95
706.52	31023.8
706.865	30849.12
707.209	30779.52
707.554	30612.74
707.899	30669.46
708.243	30538.62
708.588	30570.03
708.932	30402.12
709.277	30266.76
709.621	30324.61
709.966	30146.54
710.31	30210.04
710.654	29897.5
710.998	29853.66
711.342	30026.32
711.687	29800.78
712.031	29753.33
712.375	29789.49
712.719	29784.06
713.063	29708.13
713.407	29794
713.75	29584.52
714.094	29386.56
714.438	29430.62
714.782	29493.67
715.125	29323.73
715.469	29292.1
715.812	29115.15
716.156	28977.53
716.499	29038.09
716.843	29029.96
717.186	28905.89
717.53	28979.79
717.873	28926.46
718.216	28768.95
718.559	28724.2
718.902	28597.43
719.246	28670.87
719.589	28509.07
719.932	28495.06
720.275	28433.59
720.617	28523.53
720.96	28344.1
721.303	28345.68
721.646	28299.13
721.989	28099.59
722.331	28284.89
722.674	28222.97
723.016	28308.62
723.359	28073.15
723.701	28145.69
724.044	27949.53
724.386	27808.75
724.729	27966.48
725.071	27886.71
725.413	27882.64
725.755	27810.33
726.097	27722.87
726.439	27634.51
726.782	27683.33
727.124	27772.81
727.465	27552.93
727.807	27522.43
728.149	27432.03
728.491	27535.53
728.833	27513.61
729.175	27307.52
729.516	27290.12
729.858	27129.44
730.199	27250.12
730.541	27190.91
730.882	27173.73
731.224	27186.62
731.565	27120.85
731.906	27087.18
732.248	27076.56
732.589	26951.59
732.93	26771.94
733.271	26840.64
733.612	26909.33
733.953	26845.83
734.294	26763.12
734.635	26662.56
734.976	26790.92
735.317	26621.21
735.658	26500.98
735.999	26457.82
736.339	26552.28
736.68	26613.3
737.021	26519.51
737.361	26387.09
737.702	26551.15
738.042	26288.33
738.383	26277.26
738.723	26308.22
739.063	26252.4
739.404	26350.25
739.744	26183.03
740.084	26131.05
740.424	26135.12
740.764	26146.64
741.104	26101.67
741.444	25985.07
741.784	25952.52
742.124	25905.29
742.464	25744.17
742.804	25812.19
743.143	25717.95
743.483	25806.76
743.823	25698.97
744.162	25642.02
744.502	25672.31
744.841	25588.24
745.181	25689.93
745.52	25448.58
745.86	25546.43
746.199	25434.12
746.538	25441.35
746.877	25395.25
747.216	25406.78
747.556	25385.76
747.895	25369.26
748.234	25214.46
748.573	25273.9
748.911	25181.7
749.25	25087.46
749.589	25087.91
749.928	25129.72
750.267	25033.68
750.605	24955.04
750.944	24950.06
751.283	24879.11
751.621	24866.22
751.96	24710.07
752.298	24848.15
752.636	24770.41
752.975	24589.17
753.313	24496.74
753.651	24703.07
753.989	24544.43
754.327	24436.18
754.666	24362.51
755.004	24426.01
755.342	24455.61
755.679	24333.58
756.017	24112.12
756.355	24304.88
756.693	24082.06
757.031	24139.24
757.368	24015.17
757.706	23875.52
758.044	23856.99
758.381	23848.62
758.719	23682.08
759.056	23817.89
759.394	23688.85
