Data from hue_180_FLMS001491_00041.txt Node
Date: Tue Feb 07 16:47:02 GMT 2017
User: dcchb
Spectrometer: FLMS00149
Trigger mode: 0
Integration Time (sec): 2.000000E-2
Scans to average: 10
Electric dark correction enabled: true
Nonlinearity correction enabled: false
Boxcar width: 0
XAxis mode: Wavelengths
Number of Pixels in Spectrum: 2048
>>>>>Begin Spectral Data<<<<<
341.393	-1.41
341.776	-1.41
342.16	-1.41
342.543	-66.27
342.927	-52.94
343.31	-68.53
343.693	-64.69
344.077	-52.48
344.46	-50.45
344.843	-40.28
345.226	-62.43
345.61	-40.96
345.993	-17.01
346.376	-23.56
346.759	6.72
347.142	21.64
347.525	41.98
347.908	72.48
348.291	89.21
348.674	81.75
349.057	106.61
349.44	127.4
349.823	171.01
350.206	145.7
350.588	180.96
350.971	227.51
351.354	218.69
351.737	241.07
352.119	246.04
352.502	258.47
352.884	281.97
353.267	295.08
353.65	292.37
354.032	297.34
354.414	287.62
354.797	320.84
355.179	314.74
355.562	322.87
355.944	324.45
356.326	349.99
356.709	331.46
357.091	333.49
357.473	318.35
357.855	353.15
358.238	360.84
358.62	344.12
359.002	340.5
359.384	328.52
359.766	314.29
360.148	319.48
360.53	365.13
360.912	315.42
361.294	331.91
361.676	340.05
362.057	334.4
362.439	335.3
362.821	334.17
363.203	313.61
363.584	308.41
363.966	317.22
364.348	321.74
364.729	318.58
365.111	314.51
365.493	311.35
365.874	314.51
366.256	300.05
366.637	312.93
367.019	328.07
367.4	312.25
367.781	302.99
368.163	319.03
368.544	302.53
368.925	305.02
369.306	312.93
369.688	321.97
370.069	306.15
370.45	302.76
370.831	308.86
371.212	313.16
371.593	313.16
371.974	300.73
372.355	313.38
372.736	319.94
373.117	303.89
373.498	311.8
373.879	313.16
374.26	302.76
374.641	304.12
375.021	310.67
375.402	317.22
375.783	333.04
376.163	335.3
376.544	309.54
376.925	327.84
377.305	312.93
377.686	313.83
378.066	333.49
378.447	328.75
378.827	326.94
379.208	309.99
379.588	320.61
379.968	321.29
380.349	314.96
380.729	333.27
381.109	328.52
381.489	365.58
381.87	311.57
382.25	351.12
382.63	330.1
383.01	349.31
383.39	320.16
383.77	345.25
384.15	348.86
384.53	371.69
384.91	338.92
385.29	345.92
385.67	351.35
386.049	337.79
386.429	355.87
386.809	365.13
387.189	362.87
387.568	347.96
387.948	364.23
388.328	355.87
388.707	351.57
389.087	330.33
389.466	363.78
389.846	357.9
390.225	358.8
390.605	366.04
390.984	360.84
391.363	354.06
391.743	349.09
392.122	374.85
392.501	369.2
392.881	361.06
393.26	375.07
393.639	384.34
394.018	380.95
394.397	345.02
394.776	370.56
395.155	380.27
395.534	371.23
395.913	393.38
396.292	377.33
396.671	390.67
397.05	394.96
397.429	396.32
397.808	382.98
398.186	387.28
398.565	384.57
398.944	424.79
399.323	403.32
399.701	410.1
400.08	377.56
400.458	419.37
400.837	431.8
401.215	435.41
401.594	396.09
401.972	396.54
402.351	396.77
402.729	416.88
403.107	402.42
403.486	439.03
403.864	422.53
404.242	436.77
404.62	458.91
404.999	446.94
405.377	441.29
405.755	427.5
406.133	454.17
406.511	455.52
406.889	451.46
407.267	478.35
407.645	458.01
408.023	472.47
408.401	476.99
408.779	490.55
409.156	496.2
409.534	491.23
409.912	499.14
410.29	533.71
410.667	500.95
411.045	522.42
411.422	518.8
411.8	528.52
412.178	533.04
412.555	536.88
412.933	559.48
413.31	559.48
413.687	560.83
414.065	579.14
414.442	587.5
414.819	585.01
415.197	586.14
415.574	606.26
415.951	613.94
416.328	605.8
416.705	599.7
417.082	624.11
417.46	641.96
417.837	646.48
418.214	635.86
418.591	644.9
418.967	663.2
419.344	654.62
419.721	662.98
420.098	690.55
420.475	704.78
420.852	701.39
421.228	731.45
421.605	701.17
421.982	704.56
422.358	724.67
422.735	756.53
423.111	785.69
423.488	782.97
423.864	762.64
424.241	782.75
424.617	807.38
424.994	829.53
425.37	826.36
425.746	842.41
426.123	835.4
426.499	869.98
426.875	855.74
427.251	888.06
427.627	895.97
428.003	896.64
428.379	938.9
428.756	933.25
429.132	932.8
429.507	953.82
429.883	953.14
430.259	965.34
430.635	972.57
431.011	952.46
431.387	1002.63
431.763	996.98
432.138	1022.06
432.514	1042.4
432.89	1076.98
433.265	1071.55
433.641	1084.89
434.016	1093.47
434.392	1101.84
434.767	1164.43
435.143	1139.57
435.518	1162.62
435.894	1192.45
436.269	1221.38
436.644	1226.8
437.02	1237.65
437.395	1263.19
437.77	1255.96
438.145	1289.85
438.52	1337.76
438.895	1335.73
439.271	1367.37
439.646	1382.28
440.021	1394.71
440.395	1382.96
440.77	1407.36
441.145	1420.47
441.52	1440.58
441.895	1447.14
442.27	1451.88
442.645	1458.44
443.019	1499.11
443.394	1537.08
443.769	1543.63
444.143	1547.02
444.518	1586.79
444.892	1568.72
445.267	1589.05
445.641	1577.08
446.016	1609.62
446.39	1619.56
446.764	1628.38
447.139	1632.22
447.513	1681.93
447.887	1645.32
448.262	1663.85
448.636	1684.19
449.01	1715.83
449.384	1732.33
449.758	1738.43
450.132	1806.45
450.506	1754.7
450.88	1794.92
451.254	1789.73
451.628	1817.97
452.002	1861.82
452.376	1847.13
452.75	1860.23
453.123	1874.02
453.497	1904.07
453.871	1933.68
454.244	1992.43
454.618	1986.11
454.992	2010.06
455.365	1989.95
455.739	2051.87
456.112	2094.58
456.486	2097.06
456.859	2144.52
457.232	2156.72
457.606	2184.97
457.979	2168.02
458.352	2252.31
458.725	2255.48
459.099	2295.48
459.472	2329.37
459.845	2342.03
460.218	2338.41
460.591	2394
460.964	2426.77
461.337	2478.97
461.71	2489.82
462.083	2542.93
462.456	2568.46
462.829	2543.38
463.201	2594.68
463.574	2626.54
463.947	2659.53
464.32	2751.51
464.692	2777.72
465.065	2756.48
465.438	2822.24
465.81	2867.89
466.183	2881.22
466.555	2970.03
466.928	2991.96
467.3	2995.12
467.672	3071.73
468.045	3144.04
468.417	3165.51
468.789	3134.78
469.161	3232.63
469.534	3278.05
469.906	3328.22
470.278	3370.25
470.65	3440.31
471.022	3478.95
471.394	3587.87
471.766	3589.23
472.138	3672.16
472.51	3732.73
472.882	3743.8
473.253	3854.53
473.625	3889.33
473.997	4004.58
474.369	3987.64
474.74	4066.73
475.112	4108.54
475.484	4212.71
475.855	4324.8
476.227	4334.07
476.598	4445.02
476.97	4522.08
477.341	4631.23
477.713	4706.26
478.084	4807.05
478.455	4887.27
478.827	4933.6
479.198	5086.59
479.569	5115.52
479.94	5265.12
480.311	5380.37
480.682	5494.71
481.053	5632.79
481.424	5700.36
481.795	5759.11
482.166	5878.21
482.537	5923.18
482.908	6154.58
483.279	6181.02
483.65	6304.41
484.021	6395.71
484.391	6499.66
484.762	6530.85
485.133	6619.66
485.503	6796.83
485.874	6983.26
486.244	6986.65
486.615	7127.67
486.985	7235.46
487.356	7368.56
487.726	7475.91
488.097	7623.47
488.467	7646.75
488.837	7788.21
489.207	7931.26
489.578	8069.79
489.948	8153.4
490.318	8289.9
490.688	8336
491.058	8486.95
491.428	8588.64
491.798	8682.88
492.168	8796.77
492.538	8849.43
492.908	8956.09
493.278	9069.31
493.648	9137.56
494.017	9267.04
494.387	9363.31
494.757	9351.11
495.126	9490.32
495.496	9580.71
495.866	9574.61
496.235	9709.29
496.605	9828.16
496.974	9844.2
497.344	9894.82
497.713	9942.73
498.082	10083.29
498.452	10071.32
498.821	10166
499.19	10236.51
499.559	10320.12
499.928	10331.65
500.298	10397.64
500.667	10432.21
501.036	10448.71
501.405	10639.21
501.774	10599.21
502.143	10678.08
502.512	10668.36
502.88	10823.39
503.249	10798.3
503.618	10820
503.987	10873.1
504.356	10925.08
504.724	10974.34
505.093	10989.71
505.462	11040.33
505.83	11046.66
506.199	11134.57
506.567	11229.25
506.936	11237.16
507.304	11341.11
507.672	11349.48
508.041	11338.63
508.409	11410.49
508.777	11441.45
509.145	11499.3
509.514	11469.25
509.882	11526.65
510.25	11563.26
510.618	11637.83
510.986	11597.83
511.354	11654.78
511.722	11768.45
512.09	11798.5
512.458	11737.71
512.826	11835.34
513.193	11831.95
513.561	11887.09
513.929	11913.75
514.297	11969.57
514.664	12025.84
515.032	11926.64
515.4	12046.63
515.767	12096.35
516.135	12106.07
516.502	11982.68
516.869	12135.44
517.237	12215.89
517.604	12060.64
517.972	12183.8
518.339	12187.87
518.706	12165.95
519.073	12241.2
519.44	12184.71
519.808	12337.25
520.175	12225.61
520.542	12370.01
520.909	12377.47
521.276	12374.76
521.643	12416.11
522.009	12395.78
522.376	12383.57
522.743	12442.55
523.11	12515.55
523.477	12606.84
523.843	12545.6
524.21	12560.97
524.577	12547.64
524.943	12618.14
525.31	12601.65
525.676	12637.13
526.043	12667.63
526.409	12527.98
526.776	12786.95
527.142	12635.09
527.508	12625.6
527.874	12708.76
528.241	12734.75
528.607	12671.25
528.973	12673.06
529.339	12683.9
529.705	12717.35
530.071	12738.37
530.437	12713.96
530.803	12761.42
531.169	12707.41
531.535	12586.73
531.901	12602.1
532.267	12586.96
532.632	12613.85
532.998	12599.61
533.364	12532.04
533.73	12630.12
534.095	12551.7
534.461	12495.89
534.826	12508.77
535.192	12469.22
535.557	12518.03
535.923	12389.22
536.288	12437.81
536.653	12334.99
537.019	12272.16
537.384	12235.78
537.749	12200.3
538.114	12172.5
538.479	12107.42
538.845	12101.09
539.21	12014.77
539.575	11993.07
539.94	12008.44
540.305	11966.41
540.67	11838.73
541.034	11829.46
541.399	11841.21
541.764	11826.53
542.129	11812.06
542.494	11745.17
542.858	11673.99
543.223	11710.6
543.587	11622.24
543.952	11593.54
544.316	11474.22
544.681	11448.23
545.045	11497.95
545.41	11430.6
545.774	11395.35
546.138	11289.36
546.503	11305.86
546.867	11204.39
547.231	11173.89
547.595	11155.36
547.959	11142.25
548.324	11014.8
548.688	11039.43
549.052	10977.73
549.416	10991.29
549.779	10928.92
550.143	10801.24
550.507	10850.96
550.871	10860.45
551.235	10700.45
551.599	10719.21
551.962	10744.97
552.326	10648.7
552.689	10652.32
553.053	10523.28
553.417	10549.95
553.78	10577.74
554.143	10444.19
554.507	10439.89
554.87	10361.93
555.234	10492.55
555.597	10423.17
555.96	10370.52
556.323	10364.42
556.686	10294.59
557.05	10321.48
557.413	10250.97
557.776	10313.57
558.139	10270.63
558.502	10195.16
558.865	10126.46
559.228	10182.73
559.59	10161.26
559.953	10165.78
560.316	10160.81
560.679	10167.36
561.041	10121.03
561.404	10122.84
561.767	10065.67
562.129	10083.75
562.492	10152.22
562.854	10062.73
563.217	10058.44
563.579	10076.51
563.941	10032.22
564.304	10051.88
564.666	10021.6
565.028	10027.02
565.39	10086.46
565.753	10090.98
566.115	10019.34
566.477	10028.83
566.839	10035.39
567.201	10027.93
567.563	10023.63
567.925	10067.02
568.287	10097.98
568.648	10053.69
569.01	10034.93
569.372	10056.63
569.734	10052.11
570.095	9969.62
570.457	10069.28
570.819	10010.3
571.18	9960.81
571.542	10039.23
571.903	10081.71
572.265	10027.48
572.626	10060.92
572.987	10068.15
573.349	10111.54
573.71	10090.3
574.071	10112.67
574.432	10080.36
574.794	10162.39
575.155	10113.58
575.516	10045.1
575.877	10105.89
576.238	10123.07
576.599	10075.84
576.96	10072.45
577.32	10102.95
577.681	10151.77
578.042	10074.93
578.403	10068.38
578.763	10124.65
579.124	10134.59
579.485	10098.44
579.845	10105.89
580.206	10055.05
580.566	10107.7
580.927	10037.65
581.287	10084.2
581.648	10097.31
582.008	10056.85
582.368	9999.68
582.728	10107.47
583.089	10039
583.449	10058.89
583.809	10043.07
584.169	9987.03
584.529	10006.46
584.889	9964.43
585.249	9957.87
585.609	10024.54
585.969	10038.78
586.329	9922.17
586.688	9976.18
587.048	9884.43
587.408	9858.89
587.768	9933.47
588.127	9914.71
588.487	9836.3
588.846	9941.38
589.206	9912.68
589.565	9870.87
589.925	9907.25
590.284	9790.87
590.643	9820.93
591.003	9806.47
591.362	9793.58
591.721	9795.62
592.08	9820.25
592.44	9764.66
592.799	9794.04
593.158	9771.21
593.517	9753.81
593.876	9733.7
594.235	9725.34
594.593	9810.31
594.952	9808.73
595.311	9682.85
595.67	9707.94
596.029	9755.17
596.387	9763.75
596.746	9770.76
597.104	9656.41
597.463	9721.5
597.822	9725.11
598.18	9666.81
598.538	9695.28
598.897	9733.02
599.255	9625.91
599.613	9753.36
599.972	9682.17
600.33	9690.54
600.688	9629.75
601.046	9740.03
601.404	9734.83
601.762	9696.19
602.12	9713.81
602.478	9664.77
602.836	9718.11
603.194	9616.41
603.552	9602.18
603.91	9592.23
604.268	9668.39
604.625	9600.6
604.983	9611.22
605.341	9585
605.698	9674.27
606.056	9667.03
606.413	9591.56
606.771	9685.34
607.128	9687.6
607.485	9618
607.843	9700.25
608.2	9684.66
608.557	9737.31
608.914	9586.13
609.272	9758.33
609.629	9727.6
609.986	9710.42
610.343	9676.07
610.7	9718.33
611.057	9710.65
611.414	9707.94
611.771	9720.59
612.127	9655.28
612.484	9684.89
612.841	9739.8
613.198	9733.7
613.554	9788.16
613.911	9710.2
614.267	9742.29
614.624	9729.18
614.98	9760.82
615.337	9829.06
615.693	9794.94
616.05	9778.9
616.406	9815.73
616.762	9816.86
617.118	9778.67
617.475	9758.56
617.831	9818.44
618.187	9858.22
618.543	9835.84
618.899	9876.07
619.255	9850.76
619.611	9861.38
619.967	9899.12
620.323	9880.81
620.678	9909.51
621.034	9843.07
621.39	9772.57
621.746	9817.76
622.101	9877.65
622.457	9754.94
622.812	9825.22
623.168	9837.42
623.523	9818.67
623.879	9865.45
624.234	9801.95
624.589	9861.15
624.945	9826.8
625.3	9820.48
625.655	9810.08
626.01	9856.41
626.365	9841.04
626.72	9816.41
627.075	9863.86
627.43	9786.58
627.785	9856.86
628.14	9900.93
628.495	9867.93
628.85	9810.76
629.205	9749.52
629.559	9831.1
629.914	9780.7
630.269	9817.09
630.623	9754.04
630.978	9710.42
631.332	9813.47
631.687	9745.68
632.041	9760.36
632.396	9761.49
632.75	9665.9
633.104	9727.6
633.459	9676.53
633.813	9672.23
634.167	9660.48
634.521	9653.93
634.875	9666.81
635.229	9604.44
635.583	9615.74
635.937	9571.22
636.291	9581.16
636.645	9587.49
636.999	9573.03
637.352	9508.17
637.706	9519.92
638.06	9550.2
638.413	9495.97
638.767	9533.03
639.121	9477.66
639.474	9478.34
639.828	9481.05
640.181	9483.54
640.534	9485.57
640.888	9421.84
641.241	9358.34
641.594	9428.85
641.947	9420.94
642.301	9413.48
642.654	9446.47
643.007	9446.93
643.36	9415.06
643.713	9360.38
644.066	9432.69
644.419	9415.52
644.771	9347.95
645.124	9189.08
645.477	9278.12
645.83	9153.38
646.182	9160.83
646.535	9115.64
646.888	9079.25
647.24	9078.57
647.593	9107.95
647.945	9090.33
648.298	9010.78
648.65	9017.11
649.002	9004.9
649.355	9098.69
649.707	9079.93
650.059	9141.85
650.411	9145.47
650.763	9231.57
651.115	9376.19
651.467	9301.17
651.819	9294.39
652.171	9231.79
652.523	9285.8
652.875	9247.16
653.227	9187.05
653.578	9321.05
653.93	9301.17
654.282	9229.76
654.633	9300.94
654.985	9262.98
655.337	9271.11
655.688	9219.81
656.039	9231.34
656.391	9235.41
656.742	9254.39
657.094	9246.03
657.445	9324.9
657.796	9295.52
658.147	9268.63
658.498	9300.26
658.849	9297.55
659.2	9278.57
659.551	9246.25
659.902	9341.39
660.253	9279.25
660.604	9294.39
660.955	9322.64
661.306	9313.6
661.656	9201.74
662.007	9361.28
662.358	9251
662.708	9352.69
663.059	9325.12
663.409	9319.25
663.76	9363.31
664.11	9295.07
664.461	9393.37
664.811	9417.32
665.161	9447.38
665.511	9344.33
665.862	9352.01
666.212	9360.83
666.562	9415.06
666.912	9350.21
667.262	9347.72
667.612	9346.14
667.962	9287.16
668.312	9363.54
668.662	9382.97
669.011	9336.2
669.361	9398.57
669.711	9333.71
670.06	9381.62
670.41	9266.59
670.76	9278.34
671.109	9323.99
671.459	9306.59
671.808	9245.12
672.157	9333.94
672.507	9268.17
672.856	9264.78
673.205	9366.25
673.554	9367.61
673.904	9262.75
674.253	9312.92
674.602	9263.88
674.951	9196.54
675.3	9115.86
675.649	9295.74
675.998	9211.45
676.346	9272.69
676.695	9270.43
677.044	9126.71
677.393	9224.56
677.741	9221.17
678.09	9237.67
678.438	9164.22
678.787	9177.33
679.135	9145.24
679.484	9160.61
679.832	9163.09
680.181	9046.49
680.529	9137.56
680.877	9077.44
681.225	9015.75
681.573	9118.12
681.922	9019.82
682.27	9005.13
682.618	8995.19
682.966	8962.42
683.314	8968.52
683.661	8881.52
684.009	8897.79
684.357	8842.2
684.705	8840.62
685.053	8835.19
685.4	8823.21
685.748	8848.3
686.095	8691.92
686.443	8698.02
686.79	8720.84
687.138	8807.4
687.485	8807.17
687.832	8738.02
688.18	8755.87
688.527	8677.91
688.874	8646.5
689.221	8604.91
689.568	8628.64
689.915	8634.97
690.262	8594.07
690.609	8588.19
690.956	8516.78
691.303	8486.27
691.65	8470.23
691.997	8450.57
692.344	8379.16
692.69	8324.47
693.037	8274.98
693.383	8250.57
693.73	8300.29
694.077	8248.77
694.423	8250.12
694.769	8205.15
695.116	8192.04
695.462	8141.65
695.808	8134.42
696.155	8074.76
696.501	8034.76
696.847	8028.66
697.193	7980.75
697.539	8033.86
697.885	7889.45
698.231	7892.39
698.577	7862.56
698.923	7897.36
699.269	7809.91
699.614	7762.68
699.96	7752.96
700.306	7757.25
700.651	7636.58
700.997	7681.78
701.342	7655.11
701.688	7658.5
702.033	7566.75
702.379	7547.54
702.724	7548.9
703.069	7550.03
703.415	7474.32
703.76	7388.9
704.105	7400.65
704.45	7460.99
704.795	7359.3
705.14	7338.06
705.485	7318.17
705.83	7330.6
706.175	7266.65
706.52	7246.53
706.865	7215.35
707.209	7274.78
707.554	7128.12
707.899	7235.23
708.243	7163.6
708.588	7158.4
708.932	7107.1
709.277	7104.62
709.621	7059.87
709.966	7023.04
710.31	7008.35
710.654	6996.37
710.998	7018.06
711.342	6970.61
711.687	6982.58
712.031	6931.51
712.375	6886.77
712.719	6867.33
713.063	6873.44
713.407	6878.63
713.75	6778.97
714.094	6892.19
714.438	6871.63
714.782	6839.09
715.125	6821.46
715.469	6800.22
715.812	6830.95
716.156	6686.32
716.499	6759.77
716.843	6703.27
717.186	6684.06
717.53	6767.22
717.873	6762.7
718.216	6737.62
718.559	6660.11
718.902	6629.15
719.246	6625.08
719.589	6660.79
719.932	6673.44
720.275	6613.55
720.617	6613.33
720.96	6596.38
721.303	6607.45
721.646	6621.46
721.989	6602.03
722.331	6604.97
722.674	6607.45
723.016	6585.53
723.359	6592.76
723.701	6612.2
724.044	6570.84
724.386	6544.63
724.729	6575.14
725.071	6544.63
725.413	6595.25
725.755	6568.13
726.097	6552.09
726.439	6503.05
726.782	6520.9
727.124	6536.49
727.465	6459.43
727.807	6509.38
728.149	6444.52
728.491	6510.28
728.833	6462.82
729.175	6462.6
729.516	6460.11
729.858	6471.86
730.199	6499.66
730.541	6447.46
730.882	6464.86
731.224	6485.42
731.565	6486.33
731.906	6464.18
732.248	6464.41
732.589	6457.63
732.93	6451.3
733.271	6480.45
733.612	6449.72
733.953	6518.19
734.294	6469.15
734.635	6466.89
734.976	6470.96
735.317	6469.15
735.658	6485.87
735.999	6484.52
736.339	6466.67
736.68	6538.98
737.021	6441.81
737.361	6467.57
737.702	6535.82
738.042	6525.87
738.383	6501.69
738.723	6562.26
739.063	6525.42
739.404	6573.56
739.744	6528.81
740.084	6525.65
740.424	6578.08
740.764	6611.07
741.104	6591.63
741.444	6576.49
741.784	6604.52
742.124	6684.06
742.464	6656.72
742.804	6708.02
743.143	6724.74
743.483	6717.06
743.823	6732.2
744.162	6775.58
744.502	6824.4
744.841	6840.89
745.181	6881.12
745.52	6893.32
745.86	6911.63
746.199	6940.55
746.538	7032.07
746.877	7008.57
747.216	7113.88
747.556	7105.07
747.895	7166.31
748.234	7200.21
748.573	7290.15
748.911	7374.44
749.25	7374.44
749.589	7431.39
749.928	7464.83
750.267	7630.48
750.605	7627.31
750.944	7698.5
751.283	7818.27
751.621	7944.82
751.96	7911.83
752.298	8046.06
752.636	8133.29
752.975	8203.8
753.313	8286.05
753.651	8419.38
753.989	8555.65
754.327	8675.65
754.666	8752.48
755.004	8900.27
755.342	9030.67
755.679	9117.44
756.017	9183.66
756.355	9400.6
756.693	9517.21
757.031	9677.2
757.368	9795.39
757.706	9937.54
758.044	10077.64
758.381	10296.62
758.719	10445.09
759.056	10584.75
759.394	10710.17
759.731	10907.23
760.068	10988.58
760.405	11205.07
760.743	11258.86
761.08	11469.47
761.417	11635.57
761.754	11872.63
762.091	12050.7
762.428	12158.49
762.765	12338.83
763.102	12557.58
763.438	12605.26
763.775	12765.03
764.112	13024.91
764.449	13236.21
