Data from hue_190_FLMS001491_00007.txt Node
Date: Tue Feb 07 16:44:43 GMT 2017
User: dcchb
Spectrometer: FLMS00149
Trigger mode: 0
Integration Time (sec): 2.000000E-2
Scans to average: 10
Electric dark correction enabled: true
Nonlinearity correction enabled: false
Boxcar width: 0
XAxis mode: Wavelengths
Number of Pixels in Spectrum: 2048
>>>>>Begin Spectral Data<<<<<
341.393	7.43
341.776	7.43
342.16	7.43
342.543	-78.67
342.927	-52.23
343.31	-72.34
343.693	-48.16
344.077	-55.85
344.46	-56.52
344.843	-52.68
345.226	-65.11
345.61	-32.57
345.993	-8.16
346.376	-0.93
346.759	-7.49
347.142	34.77
347.525	23.47
347.908	35.9
348.291	82.23
348.674	89.46
349.057	133.98
349.44	128.56
349.823	137.6
350.206	170.59
350.588	177.14
350.971	189.12
351.354	217.14
351.737	240.19
352.119	255.11
352.502	264.37
352.884	267.08
353.267	265.28
353.65	297.14
354.032	290.13
354.414	324.26
354.797	321.77
355.179	301.66
355.562	322.22
355.944	330.81
356.326	318.16
356.709	331.71
357.091	331.71
357.473	343.01
357.855	326.97
358.238	350.02
358.62	332.62
359.002	356.8
359.384	328.55
359.766	333.97
360.148	325.61
360.53	341.21
360.912	332.84
361.294	331.04
361.676	345.95
362.057	344.6
362.439	337.14
362.821	335.56
363.203	322.45
363.584	326.52
363.966	306.63
364.348	335.33
364.729	326.52
365.111	294.65
365.493	296.01
365.874	314.54
366.256	307.53
366.637	332.39
367.019	322.68
367.4	295.11
367.781	306.18
368.163	303.69
368.544	303.69
368.925	306.86
369.306	317.48
369.688	305.95
370.069	288.55
370.45	316.8
370.831	317.93
371.212	303.69
371.593	332.62
371.974	315.67
372.355	307.76
372.736	321.55
373.117	308.66
373.498	320.19
373.879	322.68
374.26	312.96
374.641	329.68
375.021	305.73
375.402	312.73
375.783	308.89
376.163	323.13
376.544	314.99
376.925	320.42
377.305	315.22
377.686	312.05
378.066	346.18
378.447	330.58
378.827	319.74
379.208	325.61
379.588	324.71
379.968	331.71
380.349	325.84
380.729	333.52
381.109	339.62
381.489	338.27
381.87	317.93
382.25	326.06
382.63	336.46
383.01	336.69
383.39	336.91
383.77	335.56
384.15	347.53
384.53	343.69
384.91	362.45
385.29	332.39
385.67	345.5
386.049	357.7
386.429	332.17
386.809	348.44
387.189	339.85
387.568	356.8
387.948	369.68
388.328	362.67
388.707	347.31
389.087	357.25
389.466	364.03
389.846	353.63
390.225	367.65
390.605	375.1
390.984	376.91
391.363	351.37
391.743	360.64
392.122	385.95
392.501	384.14
392.881	367.42
393.26	382.56
393.639	364.93
394.018	375.1
394.397	377.59
394.776	352.73
395.155	371.26
395.534	363.13
395.913	370.81
396.292	391.83
396.671	387.08
397.05	375.56
397.429	394.31
397.808	380.98
398.186	419.4
398.565	387.31
398.944	392.05
399.323	394.76
399.701	417.14
400.08	390.92
400.458	414.88
400.837	386.63
401.215	423.92
401.594	419.62
401.972	409.68
402.351	424.82
402.729	404.03
403.107	414.42
403.486	415.55
403.864	423.92
404.242	433.41
404.62	433.18
404.999	432.95
405.377	433.18
405.755	444.03
406.133	452.16
406.511	442.45
406.889	468.43
407.267	441.77
407.645	441.77
408.023	457.36
408.401	463.01
408.779	474.31
409.156	486.96
409.534	491.71
409.912	469.79
410.29	504.82
410.667	518.38
411.045	523.57
411.422	510.92
411.8	523.12
412.178	533.74
412.555	535.55
412.933	540.07
413.31	553.63
413.687	552.05
414.065	570.8
414.442	597.7
414.819	603.57
415.197	593.85
415.574	620.97
415.951	629.33
416.328	642.89
416.705	638.6
417.082	654.87
417.46	648.77
417.837	683.12
418.214	654.42
418.591	673.17
418.967	671.14
419.344	698.71
419.721	708.43
420.098	714.76
420.475	726.96
420.852	738.71
421.228	736.45
421.605	753.85
421.982	762.66
422.358	760.63
422.735	785.71
423.111	805.37
423.488	835.66
423.864	843.11
424.241	842.89
424.617	851.25
424.994	868.65
425.37	889.67
425.746	902.55
426.123	911.81
426.499	925.6
426.875	919.72
427.251	939.83
427.627	964.47
428.003	992.94
428.379	1009.89
428.756	968.76
429.132	1011.02
429.507	994.75
429.883	1028.42
430.259	1019.61
430.635	1047.85
431.011	1048.76
431.387	1070.45
431.763	1104.12
432.138	1115.87
432.514	1100.06
432.89	1132.82
433.265	1158.13
433.641	1206.95
434.016	1185.25
434.392	1227.74
434.767	1239.04
435.143	1248.75
435.518	1270.9
435.894	1309.32
436.269	1336.89
436.644	1373.04
437.02	1392.7
437.395	1373.49
437.77	1399.03
438.145	1444.45
438.52	1463.89
438.895	1483.55
439.271	1494.62
439.646	1528.29
440.021	1555.86
440.395	1557.67
440.77	1568.07
441.145	1583.88
441.52	1628.18
441.895	1656.2
442.27	1667.27
442.645	1655.07
443.019	1712.92
443.394	1693.26
443.769	1746.14
444.143	1740.72
444.518	1780.26
444.892	1763.99
445.267	1794.95
445.641	1805.57
446.016	1838.34
446.39	1838.79
446.764	1873.82
447.139	1840.38
447.513	1897.32
447.887	1884.44
448.262	1884.67
448.636	1930.09
449.01	1955.63
449.384	1971.45
449.758	1982.29
450.132	2022.97
450.506	2058.9
450.88	2007.83
451.254	2021.84
451.628	2065.23
452.002	2119.46
452.376	2116.3
452.75	2113.59
453.123	2126.7
453.497	2192
453.871	2225.9
454.244	2214.38
454.618	2218.22
454.992	2295.5
455.365	2269.97
455.739	2340.93
456.112	2390.64
456.486	2399.46
456.859	2349.06
457.232	2435.84
457.606	2473.58
457.979	2462.05
458.352	2501.15
458.725	2573.24
459.099	2559.23
459.472	2618.89
459.845	2634.93
460.218	2675.16
460.591	2700.47
460.964	2751.99
461.337	2777.75
461.71	2811.88
462.083	2856.62
462.456	2884.87
462.829	2866.34
463.201	2897.97
463.574	2951.76
463.947	2972.77
464.32	3070.85
464.692	3107.91
465.065	3067.01
465.438	3147.01
465.81	3169.15
466.183	3213.9
466.555	3293.22
466.928	3331.18
467.3	3334.57
467.672	3406.21
468.045	3508.81
468.417	3464.51
468.789	3465.42
469.161	3558.75
469.534	3600.78
469.906	3657.5
470.278	3732.98
470.65	3791.51
471.022	3870.83
471.394	3913.77
471.766	3936.59
472.138	3978.4
472.51	4082.8
472.882	4115.34
473.253	4177.26
473.625	4212.06
473.997	4353.98
474.369	4323.93
474.74	4379.74
475.112	4505.84
475.484	4602.34
475.855	4617.7
476.227	4654.76
476.598	4827.19
476.97	4884.36
477.341	4932.5
477.713	5070.8
478.084	5092.27
478.455	5243
478.827	5287.52
479.198	5386.5
479.569	5398.7
479.94	5600.28
480.311	5635.98
480.682	5746.26
481.053	5885.69
481.424	5998.01
481.795	6064.9
482.166	6089.76
482.537	6192.58
482.908	6314.83
483.279	6376.3
483.65	6518.67
484.021	6677.08
484.391	6716.86
484.762	6842.05
485.133	6880.69
485.503	6967.7
485.874	7134.25
486.244	7166.34
486.615	7295.6
486.985	7347.8
487.356	7496.72
487.726	7593.67
488.097	7727.23
488.467	7789.15
488.837	7871.86
489.207	8016.71
489.578	8127.22
489.948	8230.72
490.318	8363.37
490.688	8371.5
491.058	8478.84
491.428	8587.32
491.798	8649.01
492.168	8830.7
492.538	8852.39
492.908	8940.98
493.278	9022.33
493.648	9060.07
494.017	9173.29
494.387	9178.49
494.757	9321.08
495.126	9366.73
495.496	9454.19
495.866	9390.69
496.235	9487.86
496.605	9573.51
496.974	9636.1
497.344	9746.38
497.713	9795.42
498.082	9860.5
498.452	9925.13
498.821	9926.72
499.19	9969.43
499.559	10024.34
499.928	10103.21
500.298	10071.35
500.667	10140.04
501.036	10212.58
501.405	10291.23
501.774	10203.32
502.143	10323.32
502.512	10367.38
502.88	10425.69
503.249	10497.77
503.618	10475.18
503.987	10550.65
504.356	10552.46
504.724	10578.68
505.093	10554.27
505.462	10628.84
505.83	10650.99
506.199	10656.19
506.567	10817.99
506.936	10725.34
507.304	10804.66
507.672	10877.2
508.041	10832.91
508.409	10857.77
508.777	10925.33
509.145	10989.97
509.514	10966.24
509.882	10909.97
510.25	10965.11
510.618	11024.54
510.986	11064.99
511.354	11057.76
511.722	11082.39
512.09	11191.77
512.458	11085.33
512.826	11221.37
513.193	11144.09
513.561	11150.41
513.929	11248.04
514.297	11229.73
514.664	11207.13
515.032	11229.28
515.4	11270.86
515.767	11290.52
516.135	11278.32
516.502	11301.14
516.869	11356.28
517.237	11358.54
517.604	11270.64
517.972	11350.18
518.339	11345.21
518.706	11396.73
519.073	11356.51
519.44	11350.18
519.808	11452.33
520.175	11292.1
520.542	11450.07
520.909	11434.02
521.276	11352.22
521.643	11431.99
522.009	11431.54
522.376	11496.39
522.743	11502.27
523.11	11484.19
523.477	11515.6
523.843	11530.74
524.21	11505.43
524.577	11531.42
524.943	11504.53
525.31	11455.72
525.676	11542.95
526.043	11537.07
526.409	11509.05
526.776	11591.08
527.142	11507.01
527.508	11509.73
527.874	11520.12
528.241	11452.1
528.607	11457.3
528.973	11584.98
529.339	11414.81
529.705	11464.98
530.071	11426.79
530.437	11393.57
530.803	11447.13
531.169	11386.57
531.535	11335.94
531.901	11270.64
532.267	11253.46
532.632	11232.67
532.998	11222.28
533.364	11223.63
533.73	11115.84
534.095	11158.1
534.461	11153.58
534.826	11094.6
535.192	11037.2
535.557	11059.79
535.923	10965.11
536.288	10945.9
536.653	10913.58
537.019	10809.41
537.384	10776.41
537.749	10782.06
538.114	10687.15
538.479	10652.35
538.845	10641.73
539.21	10560.6
539.575	10493.93
539.94	10447.38
540.305	10460.49
540.67	10422.52
541.034	10401.05
541.399	10288.97
541.764	10224.56
542.129	10189.08
542.494	10176.43
542.858	10137.11
543.223	10059.14
543.587	10064.57
543.952	9925.36
544.316	9965.36
544.681	9826.38
545.045	9783.44
545.41	9822.99
545.774	9755.2
546.138	9680.85
546.503	9616.67
546.867	9574.64
547.231	9558.59
547.595	9511.81
547.959	9524.24
548.324	9446.28
548.688	9369.22
549.052	9332.38
549.416	9271.37
549.779	9181.2
550.143	9188.43
550.507	9179.84
550.871	9136.23
551.235	9017.36
551.599	9044.93
551.962	8949.57
552.326	8931.94
552.689	8955.67
553.053	8813.3
553.417	8806.97
553.78	8847.42
554.143	8712.51
554.507	8707.77
554.87	8662.57
555.234	8717.71
555.597	8626.64
555.96	8559.07
556.323	8595.23
556.686	8487.21
557.05	8493.53
557.413	8470.71
557.776	8453.53
558.139	8429.81
558.502	8425.29
558.865	8386.42
559.228	8402.24
559.59	8334.89
559.953	8379.86
560.316	8361.79
560.679	8338.51
561.041	8277.95
561.404	8271.62
561.767	8247.21
562.129	8276.82
562.492	8280.21
562.854	8156.59
563.217	8166.31
563.579	8184.39
563.941	8237.04
564.304	8196.82
564.666	8265.74
565.028	8232.07
565.39	8101.23
565.753	8199.3
566.115	8129.93
566.477	8168.57
566.839	8159.53
567.201	8143.49
567.563	8092.87
567.925	8136.03
568.287	8136.48
568.648	8138.06
569.01	8164.95
569.372	8122.02
569.734	8098.29
570.095	8159.08
570.457	8145.75
570.819	8123.37
571.18	8080.89
571.542	8129.93
571.903	8143.03
572.265	8095.35
572.626	8076.6
572.987	8103.26
573.349	8082.7
573.71	8105.97
574.071	8132.64
574.432	8111.85
574.794	8158.4
575.155	8119.98
575.516	8064.62
575.877	8055.35
576.238	8087.67
576.599	8115.01
576.96	8138.97
577.32	8077.5
577.681	8089.7
578.042	8096.93
578.403	8023.04
578.763	8085.86
579.124	8039.53
579.485	8101.45
579.845	8069.14
580.206	8045.86
580.566	7989.82
580.927	8028.24
581.287	8072.98
581.648	8037.27
582.008	8038.63
582.368	7981
582.728	8002.02
583.089	7958.18
583.449	7975.58
583.809	7964.06
584.169	7999.99
584.529	7943.94
584.889	8043.15
585.249	7902.36
585.609	7930.16
585.969	7989.37
586.329	7891.52
586.688	7946.2
587.048	7865.98
587.408	7828.24
587.768	7864.17
588.127	7846.09
588.487	7841.57
588.846	7906.43
589.206	7851.97
589.565	7844.29
589.925	7837.51
590.284	7840.44
590.643	7817.17
591.003	7803.16
591.362	7852.42
591.721	7836.15
592.08	7777.17
592.44	7858.75
592.799	7767.9
593.158	7721.8
593.517	7720.22
593.876	7720.45
594.235	7699.2
594.593	7745.98
594.952	7686.1
595.311	7713.67
595.67	7720.67
596.029	7750.73
596.387	7631.18
596.746	7734.23
597.104	7651.75
597.463	7682.03
597.822	7701.24
598.18	7640.22
598.538	7665.31
598.897	7635.93
599.255	7628.47
599.613	7628.7
599.972	7623.5
600.33	7668.47
600.688	7561.81
601.046	7620.34
601.404	7661.92
601.762	7608.36
602.12	7645.42
602.478	7652.2
602.836	7658.98
603.194	7593.9
603.552	7613.33
603.91	7550.96
604.268	7599.55
604.625	7583.05
604.983	7591.18
605.341	7610.85
605.698	7613.78
606.056	7625.31
606.413	7544.18
606.771	7623.95
607.128	7571.3
607.485	7603.84
607.843	7515.93
608.2	7608.59
608.557	7650.39
608.914	7585.31
609.272	7591.86
609.629	7628.25
609.986	7603.61
610.343	7614.46
610.7	7687.45
611.057	7595.7
611.414	7630.05
611.771	7676.15
612.127	7632.99
612.484	7664.4
612.841	7685.19
613.198	7630.51
613.554	7644.97
613.911	7650.62
614.267	7724.74
614.624	7726.55
614.98	7643.39
615.337	7756.15
615.693	7688.81
616.05	7660.56
616.406	7717.28
616.762	7681.8
617.118	7662.6
617.475	7608.81
617.831	7736.04
618.187	7719.09
618.543	7687.45
618.899	7735.14
619.255	7647.45
619.611	7717.73
619.967	7728.81
620.323	7691.52
620.678	7691.07
621.034	7746.43
621.39	7734.46
621.746	7642.03
622.101	7800.67
622.457	7705.76
622.812	7711.86
623.168	7778.98
623.523	7729.26
623.879	7758.41
624.234	7725.42
624.589	7702.14
624.945	7722.93
625.3	7712.31
625.655	7711.86
626.01	7737.62
626.365	7719.99
626.72	7727.68
627.075	7710.28
627.43	7739.88
627.785	7658.98
628.14	7730.16
628.495	7654.01
628.85	7690.62
629.205	7621.92
629.559	7708.47
629.914	7698.75
630.269	7662.82
630.623	7595.03
630.978	7554.12
631.332	7673.44
631.687	7599.32
632.041	7625.76
632.396	7611.07
632.75	7623.95
633.104	7641.8
633.459	7571.98
633.813	7609.49
634.167	7580.34
634.521	7556.84
634.875	7592.31
635.229	7549.6
635.583	7482.26
635.937	7498.53
636.291	7538.76
636.645	7469.61
636.999	7490.17
637.352	7527.23
637.706	7475.93
638.06	7514.58
638.413	7459.21
638.767	7437.06
639.121	7442.26
639.474	7420.12
639.828	7383.05
640.181	7397.74
640.534	7415.14
640.888	7383.51
641.241	7315.26
641.594	7393.22
641.947	7352.09
642.301	7333.34
642.654	7401.36
643.007	7420.34
643.36	7323.17
643.713	7354.58
644.066	7380.57
644.419	7317.75
644.771	7284.98
645.124	7196.39
645.477	7183.51
645.83	7109.39
646.182	7099.22
646.535	7132.44
646.888	7197.52
647.24	7089.28
647.593	7166.56
647.945	7135.38
648.298	7085.44
648.65	7153.23
649.002	7119.11
649.355	7111.88
649.707	7128.15
650.059	7142.38
650.411	7240.46
650.763	7220.12
651.115	7294.47
651.467	7330.63
651.819	7323.62
652.171	7353
652.523	7266.67
652.875	7251.53
653.227	7230.97
653.578	7291.76
653.93	7286.11
654.282	7241.82
654.633	7253.11
654.985	7273.9
655.337	7303.96
655.688	7317.97
656.039	7352.77
656.391	7271.87
656.742	7282.94
657.094	7283.17
657.445	7270.52
657.796	7301.7
658.147	7291.31
658.498	7269.61
658.849	7315.71
659.2	7294.02
659.551	7306.9
659.902	7325.2
660.253	7302.15
660.604	7330.63
660.955	7331.3
661.306	7367.24
661.656	7365.88
662.007	7348.03
662.358	7382.6
662.708	7315.94
663.059	7364.07
663.409	7335.15
663.76	7350.06
664.11	7413.56
664.461	7452.21
664.811	7396.84
665.161	7378.76
665.511	7335.15
665.862	7334.92
666.212	7423.51
666.562	7425.77
666.912	7349.83
667.262	7354.13
667.612	7354.81
667.962	7373.34
668.312	7352.32
668.662	7368.14
669.011	7373.79
669.361	7410.4
669.711	7381.47
670.06	7320.01
670.41	7259.22
670.76	7342.83
671.109	7366.56
671.459	7367.69
671.808	7286.79
672.157	7371.08
672.507	7304.86
672.856	7354.81
673.205	7338.08
673.554	7308.71
673.904	7372.43
674.253	7361.36
674.602	7313.68
674.951	7256.5
675.3	7227.8
675.649	7275.26
675.998	7277.52
676.346	7269.61
676.695	7294.7
677.044	7258.31
677.393	7242.95
677.741	7252.21
678.09	7232.1
678.438	7257.41
678.787	7291.08
679.135	7211.99
679.484	7178.54
679.832	7202.49
680.181	7171.31
680.529	7140.8
680.877	7155.94
681.225	7151.65
681.573	7160.46
681.922	7069.39
682.27	7095.83
682.618	7054.93
682.966	7090.63
683.314	7058.77
683.661	7015.61
684.009	7008.83
684.357	6978.77
684.705	6958.21
685.053	6948.94
685.4	6952.11
685.748	6896.97
686.095	6887.93
686.443	6858.1
686.79	6866.01
687.138	6916.63
687.485	6869.85
687.832	6870.3
688.18	6796.86
688.527	6848.61
688.874	6815.39
689.221	6770.64
689.568	6717.31
689.915	6715.95
690.262	6736.74
690.609	6687.71
690.956	6689.06
691.303	6670.53
691.65	6684.09
691.997	6670.98
692.344	6603.64
692.69	6594.37
693.037	6557.54
693.383	6517.99
693.73	6485.22
694.077	6491.55
694.423	6487.26
694.769	6434.83
695.116	6391.22
695.462	6376.53
695.808	6405.23
696.155	6419.69
696.501	6332.69
696.847	6318
697.193	6269.41
697.539	6284.55
697.885	6268.73
698.231	6179.02
698.577	6193.93
698.923	6167.27
699.269	6212.69
699.614	6120.04
699.96	6085.69
700.306	6091.79
700.651	6011.11
700.997	6033.94
701.342	6024.45
701.688	6043.65
702.033	5946.03
702.379	6006.37
702.724	5958.23
703.069	5974.96
703.415	5906.94
703.76	5872.81
704.105	5907.16
704.45	5911.23
704.795	5765.92
705.14	5807.5
705.485	5751.68
705.83	5750.78
706.175	5705.36
706.52	5781.29
706.865	5726.6
707.209	5709.88
707.554	5700.84
707.899	5634.4
708.243	5631.01
708.588	5631.69
708.932	5582.2
709.277	5577.23
709.621	5561.18
709.966	5534.74
710.31	5546.94
710.654	5519.83
710.998	5498.13
711.342	5503.1
711.687	5520.28
712.031	5489.32
712.375	5426.04
712.719	5482.99
713.063	5450.22
713.407	5468.98
713.75	5427.63
714.094	5430.11
714.438	5422.88
714.782	5393.28
715.125	5387.4
715.469	5355.76
715.812	5357.8
716.156	5336.78
716.499	5343.33
716.843	5343.11
717.186	5321.87
717.53	5337.68
717.873	5334.97
718.216	5327.52
718.559	5288.87
718.902	5231.47
719.246	5267.63
719.589	5267.86
719.932	5256.1
720.275	5244.35
720.617	5269.66
720.96	5292.04
721.303	5226.73
721.646	5219.04
721.989	5151.02
722.331	5234.18
722.674	5140.85
723.016	5176.56
723.359	5201.42
723.701	5226.5
724.044	5158.48
724.386	5183.34
724.729	5206.61
725.071	5190.12
725.413	5192.6
725.755	5195.54
726.097	5165.49
726.439	5185.37
726.782	5191.02
727.124	5209.1
727.465	5184.24
727.807	5191.93
728.149	5190.34
728.491	5138.14
728.833	5153.28
729.175	5153.73
729.516	5185.37
729.858	5159.38
730.199	5156.45
730.541	5176.56
730.882	5166.16
731.224	5200.06
731.565	5131.14
731.906	5179.04
732.248	5150.12
732.589	5133.4
732.93	5119.61
733.271	5163
733.612	5167.52
733.953	5155.09
734.294	5169.1
734.635	5161.19
734.976	5221.76
735.317	5183.11
735.658	5159.84
735.999	5205.26
736.339	5201.87
736.68	5179.95
737.021	5230.79
737.361	5185.6
737.702	5212.04
738.042	5227.63
738.383	5207.07
738.723	5251.59
739.063	5232.6
739.404	5243.9
739.744	5265.6
740.084	5286.16
740.424	5304.47
740.764	5340.17
741.104	5248.87
741.444	5273.73
741.784	5325.26
742.124	5313.73
742.464	5345.59
742.804	5398.25
743.143	5438.47
743.483	5409.32
743.823	5393.95
744.162	5443.67
744.502	5458.59
744.841	5527.96
745.181	5526.61
745.52	5591.69
745.86	5591.92
746.199	5636.21
746.538	5682.99
746.877	5695.87
747.216	5763.89
747.556	5749.2
747.895	5850.21
748.234	5888.63
748.573	5892.02
748.911	5944.22
749.25	6007.5
749.589	6061.06
749.928	6099.25
750.267	6182.18
750.605	6228.51
750.944	6294.95
751.283	6407.26
751.621	6475.51
751.96	6548.5
752.298	6611.55
752.636	6708.72
752.975	6759.79
753.313	6862.84
753.651	7006.57
753.989	7121.14
754.327	7206.56
754.666	7259.22
755.004	7436.39
755.342	7578.3
755.679	7717.28
756.017	7833.89
756.355	7941.46
756.693	8047.22
757.031	8314.33
757.368	8329.24
757.706	8478.17
758.044	8594.77
758.381	8861.21
758.719	8980.07
759.056	9133.06
759.394	9255.77
759.731	9464.58
760.068	9567.18
760.405	9764.01
760.743	9902.54
761.08	10068.41
761.417	10213.71
761.754	10518.79
762.091	10644.66
762.428	10753.36
762.765	10941.83
763.102	11048.95
763.438	11272.22
763.775	11504.53
764.112	11651.19
764.449	11878.53
764.785	12099.54
765.122	12088.47
765.458	12254.79
765.795	12465.18
766.131	12690.03
766.467	12813.65
