Data from hue_350_FLMS001491_86.txt Node
Date: Mon Feb 06 15:38:39 GMT 2017
User: dcchb
Spectrometer: FLMS00149
Trigger mode: 0
Integration Time (sec): 2.000000E-2
Scans to average: 10
Electric dark correction enabled: true
Nonlinearity correction enabled: false
Boxcar width: 0
XAxis mode: Wavelengths
Number of Pixels in Spectrum: 2048
>>>>>Begin Spectral Data<<<<<
341.393	-10.16
341.776	-10.16
342.16	-10.16
342.543	-66.65
342.927	-69.14
343.31	-65.97
343.693	-41.34
344.077	-61.68
344.46	-64.16
344.843	-70.94
345.226	-49.25
345.61	-41.79
345.993	-15.58
346.376	-16.26
346.759	10.64
347.142	42.72
347.525	50.63
347.908	49.96
348.291	76.85
348.674	82.5
349.057	113.68
349.44	135.83
349.823	153.23
350.206	172.89
350.588	189.16
350.971	190.74
351.354	220.35
351.737	237.97
352.119	243.62
352.502	252.44
352.884	261.25
353.267	269.61
353.65	298.09
354.032	306.22
354.414	310.74
354.797	322.72
355.179	302.83
355.562	319.1
355.944	310.06
356.326	340.8
356.709	338.76
357.091	310.74
357.473	344.41
357.855	334.24
358.238	355.03
358.62	326.33
359.002	331.76
359.384	322.72
359.766	340.34
360.148	341.25
360.53	357.97
360.912	319.1
361.294	305.77
361.676	314.81
362.057	310.06
362.439	334.69
362.821	311.42
363.203	322.94
363.584	314.36
363.966	315.26
364.348	303.73
364.729	337.18
365.111	322.04
365.493	295.37
365.874	310.06
366.256	305.99
366.637	322.27
367.019	300.57
367.4	294.47
367.781	318.88
368.163	318.65
368.544	287.92
368.925	306.9
369.306	320.46
369.688	310.74
370.069	321.14
370.45	314.58
370.831	309.61
371.212	317.07
371.593	319.78
371.974	314.13
372.355	316.16
372.736	316.62
373.117	272.32
373.498	322.27
373.879	322.04
374.26	299.22
374.641	299.89
375.021	299.44
375.402	303.28
375.783	323.85
376.163	326.56
376.544	335.82
376.925	326.11
377.305	322.94
377.686	304.19
378.066	316.62
378.447	338.31
378.827	329.5
379.208	340.57
379.588	320.91
379.968	327.92
380.349	317.75
380.729	333.56
381.109	320.46
381.489	332.43
381.87	336.05
382.25	339.89
382.63	335.6
383.01	343.73
383.39	322.72
383.77	315.94
384.15	319.55
384.53	353.45
384.91	332.66
385.29	341.25
385.67	340.8
386.049	361.59
386.429	347.12
386.809	331.76
387.189	358.87
387.568	334.92
387.948	339.67
388.328	353.68
388.707	346.45
389.087	345.32
389.466	374.92
389.846	339.21
390.225	358.2
390.605	365.65
390.984	345.32
391.363	362.04
391.743	356.16
392.122	355.03
392.501	360.46
392.881	366.56
393.26	374.69
393.639	369.27
394.018	353.45
394.397	367.01
394.776	339.44
395.155	369.72
395.534	360.23
395.913	378.31
396.292	373.56
396.671	376.73
397.05	382.6
397.429	372.66
397.808	367.46
398.186	362.49
398.565	372.66
398.944	374.47
399.323	374.02
399.701	386.67
400.08	394.58
400.458	394.35
400.837	365.88
401.215	381.02
401.594	389.83
401.972	388.93
402.351	390.06
402.729	401.81
403.107	399.55
403.486	396.84
403.864	395.94
404.242	407.24
404.62	402.94
404.999	417.86
405.377	407.01
405.755	409.04
406.133	393.9
406.511	393.45
406.889	401.36
407.267	402.04
407.645	424.64
408.023	414.92
408.401	420.57
408.779	449.27
409.156	430.74
409.534	444.75
409.912	435.71
410.29	440.23
410.667	418.53
411.045	449.04
411.422	435.03
411.8	445.2
412.178	450.17
412.555	437.52
412.933	476.16
413.31	449.49
413.687	476.16
414.065	470.74
414.442	455.14
414.819	486.33
415.197	484.52
415.574	468.7
415.951	472.77
416.328	477.29
416.705	478.65
417.082	489.27
417.46	494.01
417.837	515.48
418.214	502.15
418.591	508.93
418.967	508.02
419.344	530.4
419.721	506.44
420.098	523.39
420.475	505.09
420.852	511.87
421.228	515.03
421.605	529.49
421.982	506.89
422.358	531.07
422.735	552.09
423.111	543.95
423.488	535.82
423.864	556.38
424.241	548.7
424.617	562.71
424.994	546.44
425.37	547.57
425.746	572.2
426.123	558.42
426.499	576.5
426.875	566.33
427.251	578.76
427.627	567
428.003	601.35
428.379	581.24
428.756	591.64
429.132	598.87
429.507	590.96
429.883	626.89
430.259	624.18
430.635	629.38
431.011	619.66
431.387	616.5
431.763	624.86
432.138	648.81
432.514	651.07
432.89	672.31
433.265	628.7
433.641	642.94
434.016	656.72
434.392	675.48
434.767	692.43
435.143	683.39
435.518	671.18
435.894	707.79
436.269	721.58
436.644	700.79
437.02	704.85
437.395	711.18
437.77	707.57
438.145	726.77
438.52	719.09
438.895	730.39
439.271	754.34
439.646	747.11
440.021	749.82
440.395	746.89
440.77	749.6
441.145	758.41
441.52	761.35
441.895	762.03
442.27	760.9
442.645	788.47
443.019	802.03
443.394	798.19
443.769	783.5
444.143	794.57
444.518	792.08
444.892	814.23
445.267	822.82
445.641	828.92
446.016	794.57
446.39	795.7
446.764	816.04
447.139	830.95
447.513	825.76
447.887	823.95
448.262	804.96
448.636	817.85
449.01	846.32
449.384	865.53
449.758	850.61
450.132	860.33
450.506	861.23
450.88	852.42
451.254	853.1
451.628	881.57
452.002	897.62
452.376	869.82
452.75	903.27
453.123	901.69
453.497	918.18
453.871	905.53
454.244	910.5
454.618	893.55
454.992	929.03
455.365	924.96
455.739	969.71
456.112	969.71
456.486	959.31
456.859	984.17
457.232	993.21
457.606	1003.38
457.979	1002.7
458.352	1017.84
458.725	1014.9
459.099	997.05
459.472	1039.53
459.845	1064.39
460.218	1041.34
460.591	1046.77
460.964	1045.41
461.337	1085.64
461.71	1098.74
462.083	1100.55
462.456	1078.18
462.829	1104.84
463.201	1130.83
463.574	1137.16
463.947	1126.99
464.32	1174.22
464.692	1153.88
465.065	1179.64
465.438	1198.17
465.81	1203.37
466.183	1226.2
466.555	1254.44
466.928	1256.7
467.3	1237.27
467.672	1263.71
468.045	1298.74
468.417	1304.39
468.789	1297.16
469.161	1362.24
469.534	1345.52
469.906	1344.61
470.278	1370.83
470.65	1387.32
471.022	1403.14
471.394	1416.02
471.766	1434.33
472.138	1458.96
472.51	1510.48
472.882	1511.84
473.253	1529.24
473.625	1547.54
473.997	1587.99
474.369	1583.7
474.74	1601.55
475.112	1609.46
475.484	1629.12
475.855	1658.5
476.227	1681.78
476.598	1728.1
476.97	1760.87
477.341	1810.36
477.713	1813.3
478.084	1788.44
478.455	1866.18
478.827	1886.74
479.198	1936.91
479.569	1954.31
479.94	2002.22
480.311	1978.04
480.682	2077.25
481.053	2087.87
481.424	2096
481.795	2125.61
482.166	2187.75
482.537	2211.71
482.908	2245.6
483.279	2284.47
483.65	2308.43
484.021	2358.82
484.391	2363.79
484.762	2388.2
485.133	2387.97
485.503	2473.4
485.874	2523.11
486.244	2542.32
486.615	2586.39
486.985	2585.03
487.356	2681.75
487.726	2686.05
488.097	2739.15
488.467	2760.17
488.837	2760.62
489.207	2828.64
489.578	2881.75
489.948	2887.62
490.318	2938.69
490.688	2964.46
491.058	2983.66
491.428	3050.33
491.798	3071.57
492.168	3093.49
492.538	3181.63
492.908	3199.7
493.278	3262.53
493.648	3230.44
494.017	3284.22
494.387	3309.08
494.757	3332.81
495.126	3367.61
495.496	3395.86
495.866	3408.51
496.235	3451.67
496.605	3489.87
496.974	3479.7
497.344	3552.01
497.713	3587.72
498.082	3580.94
498.452	3615.51
498.821	3640.6
499.19	3654.38
499.559	3695.74
499.928	3716.98
500.298	3731.44
500.667	3759.69
501.036	3745.68
501.405	3823.64
501.774	3781.61
502.143	3821.38
502.512	3825.45
502.88	3861.83
503.249	3858.22
503.618	3910.87
503.987	3882.62
504.356	3910.42
504.724	3927.14
505.093	4004.65
505.462	3967.82
505.83	3992.9
506.199	4000.36
506.567	4089.17
506.936	4077.2
507.304	4117.65
507.672	4113.58
508.041	4140.47
508.409	4145.67
508.777	4198.1
509.145	4237.42
509.514	4207.81
509.882	4237.87
510.25	4211.65
510.618	4214.14
510.986	4281.71
511.354	4289.84
511.722	4378.66
512.09	4388.15
512.458	4392.89
512.826	4397.19
513.193	4397.19
513.561	4414.81
513.929	4472.44
514.297	4439.9
514.664	4460.24
515.032	4458.88
515.4	4519.9
515.767	4514.7
516.135	4526
516.502	4559.44
516.869	4587.01
517.237	4614.81
517.604	4552.44
517.972	4592.44
518.339	4659.33
518.706	4626.33
519.073	4614.13
519.44	4695.94
519.808	4748.82
520.175	4721.47
520.542	4706.33
520.909	4730.29
521.276	4743.39
521.643	4840.79
522.009	4765.31
522.376	4845.76
522.743	4820.9
523.11	4929.15
523.477	4882.15
523.843	4977.74
524.21	4990.39
524.577	4980
524.943	5020
525.31	5029.71
525.676	5072.2
526.043	5080.56
526.409	5106.55
526.776	5186.54
527.142	5184.96
527.508	5244.17
527.874	5226.54
528.241	5271.97
528.607	5266.77
528.973	5343.15
529.339	5254.79
529.705	5352.42
530.071	5368.69
530.437	5408.91
530.803	5396.48
531.169	5467.67
531.535	5445.07
531.901	5461.57
532.267	5503.37
532.632	5506.99
532.998	5559.87
533.364	5578.17
533.73	5575.91
534.095	5602.58
534.461	5666.76
534.826	5728.23
535.192	5705.63
535.557	5721.22
535.923	5740.65
536.288	5754.21
536.653	5825.85
537.019	5772.97
537.384	5822.69
537.749	5841.89
538.114	5897.49
538.479	5872.85
538.845	5945.85
539.21	5934.77
539.575	5998.5
539.94	6022.91
540.305	6029.23
540.67	6003.92
541.034	6095
541.399	6078.27
541.764	6113.98
542.129	6102.68
542.494	6160.3
542.858	6149.91
543.223	6167.99
543.587	6260.41
543.952	6228.78
544.316	6256.8
544.681	6251.38
545.045	6293.41
545.41	6320.98
545.774	6357.59
546.138	6429.45
546.503	6434.2
546.867	6431.03
547.231	6522.55
547.595	6512.84
547.959	6495.44
548.324	6566.62
548.688	6544.02
549.052	6517.13
549.416	6624.7
549.779	6604.36
550.143	6612.27
550.507	6668.54
550.871	6665.38
551.235	6682.55
551.599	6759.84
551.962	6728.65
552.326	6798.25
552.689	6788.08
553.053	6734.75
553.417	6770.91
553.78	6877.57
554.143	6817.46
554.507	6892.26
554.87	6924.35
555.234	6918.25
555.597	6960.74
555.96	6971.81
556.323	6973.62
556.686	6988.76
557.05	7040.28
557.413	7006.16
557.776	7096.1
558.139	7118.25
558.502	7182.65
558.865	7158.24
559.228	7264.23
559.59	7263.1
559.953	7212.48
560.316	7309.2
560.679	7307.62
561.041	7301.74
561.404	7359.59
561.767	7472.36
562.129	7331.8
562.492	7450.89
562.854	7465.81
563.217	7432.14
563.579	7449.54
563.941	7579.93
564.304	7517.33
564.666	7569.98
565.028	7584.22
565.39	7546.48
565.753	7683.65
566.115	7739.7
566.477	7641.17
566.839	7789.41
567.201	7766.14
567.563	7758.45
567.925	7838
568.287	7854.04
568.648	7827.38
569.01	7930.88
569.372	7969.75
569.734	7915.06
570.095	8009.97
570.457	8005.68
570.819	8065.56
571.18	8100.14
571.542	8173.81
571.903	8210.19
572.265	8277.08
572.626	8238.67
572.987	8323.64
573.349	8324.09
573.71	8382.39
574.071	8371.77
574.432	8432.11
574.794	8554.82
575.155	8561.37
575.516	8607.47
575.877	8654.02
576.238	8742.61
576.599	8764.3
576.96	8858.31
577.32	8867.13
577.681	8981.02
578.042	9047.91
578.403	9156.16
578.763	9196.61
579.124	9284.06
579.485	9430.27
579.845	9498.52
580.206	9600.89
580.566	9696.26
580.927	9748.01
581.287	9932.41
581.648	9994.78
582.008	10211.5
582.368	10269.12
582.728	10348.89
583.089	10523.35
583.449	10680.41
583.809	10867.3
584.169	11025.26
584.529	11112.49
584.889	11352.94
585.249	11462.54
585.609	11621.63
585.969	11899.14
586.329	11959.7
586.688	12142.52
587.048	12343.42
587.408	12593.36
587.768	12806.01
588.127	13030.63
588.487	13192.21
588.846	13465.42
589.206	13612.09
589.565	13885.98
589.925	14133.65
590.284	14367.09
590.643	14572.96
591.003	14946.97
591.362	15221.31
591.721	15427.41
592.08	15689.77
592.44	15945.36
592.799	16261.96
593.158	16490.2
593.517	16744.21
593.876	17030.75
594.235	17336.96
594.593	17552.32
594.952	18041.57
595.311	18147.79
595.67	18488.57
596.029	18943.92
596.387	19136.23
596.746	19368.54
597.104	19539.61
597.463	19898.7
597.822	20341.4
598.18	20520.83
598.538	20776.42
598.897	21175.28
599.255	21236.07
599.613	21883.96
599.972	21974.35
600.33	22408.46
600.688	22577.73
601.046	22804.39
601.404	23256.58
601.762	23400.53
602.12	23779.05
602.478	23999.84
602.836	24273.05
603.194	24551.68
603.552	24720.95
603.91	24932.92
604.268	25391.44
604.625	25595.73
604.983	25922.04
605.341	26043.62
605.698	26395.03
606.056	26716.6
606.413	26821.46
606.771	27130.6
607.128	27427.32
607.485	27552.06
607.843	27742.56
608.2	28055.32
608.557	28411.47
608.914	28398.59
609.272	28862.76
609.629	29106.37
609.986	29314.72
610.343	29413.25
610.7	29688.05
611.057	29988.15
611.414	30201.48
611.771	30289.84
612.127	30677.63
612.484	30747.45
612.841	31088.24
613.198	31156.26
613.554	31339.98
613.911	31592.86
614.267	31789.01
614.624	31860.19
614.98	32150.81
615.337	32325.72
615.693	32499.5
616.05	32632.6
616.406	33025.36
616.762	32958.92
617.118	33028.52
617.475	33293.38
617.831	33416.99
618.187	33501.05
618.543	33659.69
618.899	34030.76
619.255	34077.76
619.611	34135.84
619.967	34402.5
620.323	34516.62
620.678	34599.56
621.034	34597.97
621.39	34744.41
621.746	34676.84
622.101	35281.35
622.457	35064.85
622.812	35263.95
623.168	35337.16
623.523	35543.71
623.879	35650.15
624.234	35442.25
624.589	35648.57
624.945	35783.03
625.3	35851.73
625.655	35924.27
626.01	35913.87
626.365	36197.71
626.72	36162.68
627.075	36187.99
627.43	36216.24
627.785	36269.12
628.14	36406.74
628.495	36456.46
628.85	36487.42
629.205	36582.56
629.559	36733.06
629.914	36742.55
630.269	36841.98
630.623	36804.02
630.978	36687.19
631.332	36806.5
631.687	37002.66
632.041	36902.32
632.396	37036.78
632.75	36893.51
633.104	37083.33
633.459	36804.92
633.813	36890.57
634.167	37122.88
634.521	37098.47
634.875	37195.19
635.229	37030.9
635.583	36836.79
635.937	36870.91
636.291	36957.91
636.645	37015.99
636.999	36816.22
637.352	37022.32
637.706	36973.73
638.06	37048.08
638.413	36974.41
638.767	36907.74
639.121	36927.18
639.474	36723.34
639.828	36974.86
640.181	37055.54
640.534	36975.99
640.888	36797.46
641.241	36863.68
641.594	36947.97
641.947	37046.05
642.301	36811.93
642.654	36838.82
643.007	36875.65
643.36	36874.98
643.713	36933.96
644.066	36946.16
644.419	36703
644.771	36583.46
645.124	36261.43
645.477	36155.67
645.83	35953.87
646.182	35882.01
646.535	35881.56
646.888	35824.38
647.24	35669.81
647.593	35917.94
647.945	35779.41
648.298	35664.16
648.65	35666.65
649.002	35563.6
649.355	35732.41
649.707	35767.66
650.059	35818.51
650.411	36186.86
650.763	36313.64
651.115	36601.76
651.467	36584.59
651.819	36466.85
652.171	36482.44
652.523	36501.43
652.875	36441.99
653.227	36313.64
653.578	36578.94
653.93	36485.61
654.282	36334.65
654.633	36378.94
654.985	36319.29
655.337	36353.63
655.688	36356.8
656.039	36429.11
656.391	36251.26
656.742	36259.63
657.094	36186.63
657.445	36457.59
657.796	36255.78
658.147	36258.72
658.498	36225.95
658.849	36298.27
659.2	36225.5
659.551	36220.53
659.902	36342.56
660.253	36248.1
660.604	36411.26
660.955	36043.59
661.306	36207.2
661.656	36142.57
662.007	36138.05
662.358	36088.78
662.708	36161.78
663.059	36091.72
663.409	35918.17
663.76	36201.1
664.11	36124.04
664.461	36190.25
664.811	36097.37
665.161	36033.64
665.511	36082.46
665.862	36157.93
666.212	36241.55
666.562	36318.16
666.912	36246.97
667.262	36183.92
667.612	36301.43
667.962	36077.71
668.312	35914.55
668.662	36326.97
669.011	36092.4
669.361	36075.68
669.711	36033.87
670.06	35876.58
670.41	35870.48
670.76	35969.46
671.109	35870.48
671.459	35992.29
671.808	35874.55
672.157	36087.2
672.507	35818.51
672.856	35757.27
673.205	35832.97
673.554	35895.57
673.904	35848.11
674.253	36033.19
674.602	35779.41
674.951	35355.24
675.3	35192.31
675.649	35760.2
675.998	35805.17
676.346	35771.05
676.695	35749.36
677.044	35523.37
677.393	35619.64
677.741	35780.99
678.09	35633.88
678.438	35498.97
678.787	35728.57
679.135	35599.3
679.484	35326.54
679.832	35408.12
680.181	35308.69
680.529	35392.76
680.877	35348.46
681.225	35247.22
681.573	35617.61
681.922	35176.94
682.27	35039.54
682.618	35197.96
682.966	35020.79
683.314	35214.68
683.661	35009.04
684.009	34886.55
684.357	34803.17
684.705	34740.57
685.053	34743.51
685.4	34697.86
685.748	34602.27
686.095	34508.49
686.443	34436.62
686.79	34404.31
687.138	34442.72
687.485	34475.94
687.832	34343.97
688.18	34439.56
688.527	34006.35
688.874	34223.75
689.221	34059.91
689.568	33996.18
689.915	34029.63
690.262	33978.1
690.609	33802.74
690.956	33766.13
691.303	33769.07
691.65	33621.73
691.997	33523.88
692.344	33473.48
692.69	33458.34
693.037	33327.05
693.383	33179.25
693.73	33291.79
694.077	33100.61
694.423	33108.75
694.769	33026.72
695.116	32869.21
695.462	32746.5
695.808	32772.94
696.155	32747.18
696.501	32580.85
696.847	32640.06
697.193	32367.3
697.539	32474.87
697.885	32147.42
698.231	32237.36
698.577	32120.3
698.923	32080.75
699.269	31789.69
699.614	31684.6
699.96	31813.87
700.306	31537.49
700.651	31497.72
700.997	31497.49
701.342	31475.12
701.688	31407.55
702.033	31243.49
702.379	31302.02
702.724	31197.39
703.069	31140.21
703.415	30899.77
703.76	30915.81
704.105	30921.91
704.45	30847.56
704.795	30634.01
705.14	30547.23
705.485	30543.84
705.83	30406.67
706.175	30509.27
706.52	30470.4
706.865	30328.48
707.209	30167.81
707.554	30119.22
707.899	30180.46
708.243	29982.28
708.588	30147.92
708.932	29709.97
709.277	29691.21
709.621	29818.44
709.966	29630.42
710.31	29651.66
710.654	29359.92
710.998	29578.9
711.342	29573.93
711.687	29387.72
712.031	29214.84
712.375	29110.44
712.719	29141.85
713.063	29114.28
713.407	29190.66
713.75	29048.74
714.094	29012.36
714.438	28876.09
714.782	28966.71
715.125	28667.73
715.469	28760.16
715.812	28727.62
716.156	28601.52
716.499	28530.34
716.843	28611.69
717.186	28405.14
717.53	28522.65
717.873	28619.15
718.216	28384.13
718.559	28251.93
718.902	28079.73
719.246	28019.39
719.589	27979.17
719.932	27943.01
720.275	27941.43
720.617	27880.19
720.96	27855.33
721.303	27938.71
721.646	27860.75
721.989	27708.21
722.331	27787.53
722.674	27600.42
723.016	27772.62
723.359	27625.5
723.701	27673.18
724.044	27475.68
724.386	27288.56
724.729	27505.05
725.071	27370.59
725.413	27391.61
725.755	27314.78
726.097	27321.33
726.439	27103.71
726.782	27155.01
727.124	27228
727.465	27091.51
727.807	27053.09
728.149	26964.73
728.491	26883.38
728.833	27021.22
729.175	26764.51
729.516	26797.28
729.858	26818.07
730.199	26852.64
730.541	26699.65
730.882	26689.71
731.224	26705.3
731.565	26571.07
731.906	26510.73
732.248	26536.27
732.589	26455.59
732.93	26370.85
733.271	26369.94
733.612	26381.69
733.953	26446.78
734.294	26263.96
734.635	26200.68
734.976	26350.51
735.317	26073.23
735.658	26035.26
735.999	25964.3
736.339	26059.67
736.68	26175.15
737.021	25985.55
737.361	25930.41
737.702	25977.18
738.042	26059.89
738.383	25879.11
738.723	25913.46
739.063	25783.07
739.404	25823.52
739.744	25733.57
740.084	25672.33
740.424	25700.81
740.764	25627.81
741.104	25750.07
741.444	25487.25
741.784	25398.44
742.124	25509.17
742.464	25348.5
742.804	25466.92
743.143	25301.95
743.483	25522.73
743.823	25191.67
744.162	25272.34
744.502	25276.64
744.841	25145.57
745.181	25134.72
745.52	25137.66
745.86	25183.31
746.199	25071.9
746.538	25056.76
746.877	25131.1
747.216	25076.42
747.556	24988.28
747.895	24877.78
748.234	24896.99
748.573	24804.33
748.911	24711.91
749.25	24765.24
749.589	24673.26
749.928	24714.84
750.267	24736.31
750.605	24745.35
750.944	24632.81
751.283	24495.19
751.621	24546.49
751.96	24394.63
752.298	24294.52
752.636	24361.18
752.975	24319.15
753.313	24193.05
753.651	24255.2
753.989	24083.45
754.327	24152.37
754.666	24004.81
755.004	24055.65
755.342	24009.1
755.679	23900.4
756.017	23888.65
756.355	23894.98
756.693	23707.64
757.031	23795.55
757.368	23658.83
757.706	23733.63
758.044	23485.27
758.381	23523.69
758.719	23481.66
759.056	23355.78
759.394	23422.22
759.731	23241.89
760.068	23280.31
760.405	23078.28
