Data from hue_210_FLMS001491_00085.txt Node
Date: Tue Feb 07 16:41:52 GMT 2017
User: dcchb
Spectrometer: FLMS00149
Trigger mode: 0
Integration Time (sec): 2.000000E-2
Scans to average: 10
Electric dark correction enabled: true
Nonlinearity correction enabled: false
Boxcar width: 0
XAxis mode: Wavelengths
Number of Pixels in Spectrum: 2048
>>>>>Begin Spectral Data<<<<<
341.393	-14.59
341.776	-14.59
342.16	-14.59
342.543	-50.97
342.927	-91.2
343.31	-74.93
343.693	-80.35
344.077	-68.83
344.46	-56.85
344.843	-46
345.226	-51.2
345.61	-33.8
345.993	-3.97
346.376	4.84
346.759	12.98
347.142	25.63
347.525	34.45
347.908	66.31
348.291	77.38
348.674	78.97
349.057	115.35
349.44	124.84
349.823	164.16
350.206	172.52
350.588	185.86
350.971	204.16
351.354	212.07
351.737	216.59
352.119	248.68
352.502	269.24
352.884	268.57
353.267	275.8
353.65	285.74
354.032	308.34
354.414	297.94
354.797	316.93
355.179	315.34
355.562	332.97
355.944	323.03
356.326	319.64
356.709	314.44
357.091	311.73
357.473	349.24
357.855	356.7
358.238	351.5
358.62	349.24
359.002	324.16
359.384	332.07
359.766	353.31
360.148	330.49
360.53	348.79
360.912	337.04
361.294	335.91
361.676	331.84
362.057	342.91
362.439	329.13
362.821	335.46
363.203	322.8
363.584	310.83
363.966	335.68
364.348	316.25
364.729	320.77
365.111	322.8
365.493	314.21
365.874	322.12
366.256	303.14
366.637	306.08
367.019	303.37
367.4	342.24
367.781	323.25
368.163	299.75
368.544	299.75
368.925	313.31
369.306	322.8
369.688	302.01
370.069	319.41
370.45	288
370.831	308.34
371.212	296.59
371.593	326.64
371.974	306.31
372.355	295.01
372.736	333.88
373.117	316.47
373.498	336.59
373.879	296.81
374.26	323.71
374.641	303.14
375.021	317.83
375.402	303.14
375.783	306.31
376.163	334.1
376.544	332.29
376.925	325.97
377.305	320.54
377.686	321.9
378.066	326.87
378.447	337.49
378.827	325.97
379.208	334.55
379.588	341.11
379.968	332.07
380.349	323.93
380.729	326.19
381.109	340.43
381.489	336.59
381.87	343.14
382.25	337.72
382.63	339.98
383.01	355.34
383.39	336.14
383.77	350.15
384.15	352.63
384.53	338.62
384.91	340.2
385.29	343.82
385.67	324.16
386.049	360.32
386.429	347.66
386.809	338.85
387.189	346.76
387.568	355.34
387.948	356.7
388.328	363.25
388.707	346.53
389.087	349.92
389.466	349.24
389.846	362.12
390.225	383.59
390.605	379.3
390.984	381.33
391.363	391.5
391.743	369.13
392.122	382.69
392.501	391.5
392.881	381.78
393.26	369.35
393.639	378.62
394.018	387.89
394.397	405.74
394.776	395.34
395.155	389.92
395.534	383.82
395.913	378.39
396.292	423.36
396.671	395.34
397.05	401.67
397.429	423.59
397.808	413.2
398.186	389.02
398.565	393.99
398.944	416.59
399.323	402.57
399.701	430.6
400.08	425.62
400.458	433.99
400.837	432.63
401.215	423.59
401.594	395.34
401.972	422.46
402.351	441.9
402.729	404.83
403.107	436.25
403.486	435.57
403.864	457.71
404.242	424.27
404.62	437.6
404.999	459.07
405.377	458.17
405.755	458.17
406.133	468.11
406.511	468.79
406.889	461.78
407.267	484.38
407.645	463.36
408.023	500.88
408.401	490.93
408.779	508.33
409.156	522.35
409.534	503.81
409.912	520.99
410.29	510.59
410.667	544.49
411.045	542.01
411.422	551.27
411.8	576.81
412.178	564.15
412.555	577.94
412.933	568.45
413.31	618.39
413.687	605.73
414.065	615.45
414.442	638.27
414.819	631.72
415.197	637.82
415.574	653.19
415.951	682.57
416.328	642.57
416.705	673.3
417.082	649.8
417.46	678.73
417.837	684.15
418.214	692.06
418.591	726.41
418.967	708.33
419.344	725.28
419.721	730.02
420.098	750.14
420.475	731.83
420.852	775.22
421.228	749.23
421.605	776.12
421.982	812.05
422.358	829.91
422.735	840.3
423.111	844.6
423.488	880.3
423.864	874.65
424.241	893.86
424.617	902
424.994	916.46
425.37	933.18
425.746	945.61
426.123	924.82
426.499	969.79
426.875	1004.14
427.251	1009.11
427.627	1024.93
428.003	1019.73
428.379	1038.94
428.756	1031.26
429.132	1067.19
429.507	1080.3
429.883	1069
430.259	1143.35
430.635	1113.52
431.011	1096.12
431.387	1165.27
431.763	1150.58
432.138	1155.32
432.514	1197.36
432.89	1216.34
433.265	1221.54
433.641	1246.62
434.016	1273.96
434.392	1262.21
434.767	1331.59
435.143	1322.78
435.518	1364.36
435.894	1383.11
436.269	1397.8
436.644	1454.07
437.02	1435.54
437.395	1486.61
437.77	1510.79
438.145	1529.78
438.52	1521.64
438.895	1532.94
439.271	1544.47
439.646	1630.11
440.021	1633.95
440.395	1672.37
440.77	1656.55
441.145	1654.07
441.52	1718.25
441.895	1717.12
442.27	1762.99
442.645	1756.44
443.019	1777.23
443.394	1794.4
443.769	1822.88
444.143	1820.16
444.518	1852.25
444.892	1837.11
445.267	1864
445.641	1903.1
446.016	1900.84
446.39	1922.08
446.764	1944.23
447.139	1942.19
447.513	1970.44
447.887	1977
448.262	1969.99
448.636	1989.65
449.01	2022.87
449.384	2051.8
449.758	2063.1
450.132	2100.83
450.506	2124.79
450.88	2120.5
451.254	2105.81
451.628	2186.03
452.002	2137.9
452.376	2168.63
452.75	2206.59
453.123	2232.13
453.497	2292.92
453.871	2275.07
454.244	2313.71
454.618	2317.1
454.992	2338.12
455.365	2360.94
455.739	2434.39
456.112	2441.84
456.486	2450.43
456.859	2496.98
457.232	2520.03
457.606	2538.34
457.979	2538.56
458.352	2573.82
458.725	2656.07
459.099	2626.47
459.472	2710.99
459.845	2736.07
460.218	2766.81
460.591	2743.53
460.964	2782.62
461.337	2841.38
461.71	2896.29
462.083	2877.09
462.456	2885.67
462.829	2958.89
463.201	2979.68
463.574	3013.58
463.947	3009.06
464.32	3044.76
464.692	3101.03
465.065	3135.61
465.438	3164.31
465.81	3248.15
466.183	3229.39
466.555	3320.24
466.928	3332.67
467.3	3336.73
467.672	3392.33
468.045	3444.98
468.417	3475.49
468.789	3491.98
469.161	3565.2
469.534	3614.47
469.906	3644.3
470.278	3673.67
470.65	3752.77
471.022	3833.9
471.394	3837.29
471.766	3864.4
472.138	3924.06
472.51	3989.6
472.882	4025.98
473.253	4042.03
473.625	4134.91
473.997	4209.03
474.369	4243.38
474.74	4238.63
475.112	4361.57
475.484	4405.63
475.855	4446.76
476.227	4549.81
476.598	4597.94
476.97	4663.71
477.341	4729.01
477.713	4788.45
478.084	4862.34
478.455	4960.87
478.827	4983.47
479.198	5108.44
479.569	5125.39
479.94	5209.91
480.311	5262.11
480.682	5373.52
481.053	5499.84
481.424	5535.77
481.795	5585.71
482.166	5700.29
482.537	5752.49
482.908	5804.47
483.279	5871.36
483.65	5957
484.021	6075.65
484.391	6153.38
484.762	6183.67
485.133	6211.91
485.503	6298.01
485.874	6406.94
486.244	6411.46
486.615	6562.19
486.985	6627.04
487.356	6749.07
487.726	6808.06
488.097	6902.52
488.467	6925.57
488.837	7034.49
489.207	7123.3
489.578	7206.92
489.948	7230.42
490.318	7357.87
490.688	7334.37
491.058	7441.26
491.428	7476.74
491.798	7556.74
492.168	7717.41
492.538	7700.69
492.908	7914.69
493.278	7908.82
493.648	7917.18
494.017	8078.53
494.387	8058.87
494.757	8128.02
495.126	8177.51
495.496	8229.94
495.866	8276.94
496.235	8311.52
496.605	8319.65
496.974	8406.66
497.344	8443.04
497.713	8501.8
498.082	8530.72
498.452	8589.7
498.821	8681.9
499.19	8605.3
499.559	8703.6
499.928	8782.69
500.298	8748.8
500.667	8886.42
501.036	8883.03
501.405	8848
501.774	8923.71
502.143	8974.1
502.512	8969.35
502.88	9061.78
503.249	9016.36
503.618	9069.01
503.987	9065.85
504.356	9173.42
504.724	9171.61
505.093	9187.2
505.462	9198.5
505.83	9189.91
506.199	9272.85
506.567	9331.6
506.936	9362.34
507.304	9421.77
507.672	9412.73
508.041	9497.7
508.409	9533.63
508.777	9562.56
509.145	9578.6
509.514	9552.62
509.882	9610.47
510.25	9630.81
510.618	9738.37
510.986	9654.31
511.354	9718.04
511.722	9833.29
512.09	9811.82
512.458	9833.29
512.826	9802.33
513.193	9831.93
513.561	9840.52
513.929	9843.68
514.297	9911.48
514.664	9964.36
515.032	9969.78
515.4	9985.15
515.767	10023.56
516.135	10038.93
516.502	9939.95
516.869	10048.87
517.237	10130
517.604	9988.08
517.972	10070.79
518.339	10085.94
518.706	10092.04
519.073	10083.9
519.44	10199.6
519.808	10156.67
520.175	10179.49
520.542	10237.12
520.909	10309.21
521.276	10192.15
521.643	10287.29
522.009	10293.39
522.376	10294.97
522.743	10328.87
523.11	10285.03
523.477	10415.64
523.843	10424.68
524.21	10378.13
524.577	10454.06
524.943	10431.91
525.31	10449.32
525.676	10503.1
526.043	10511.69
526.409	10578.58
526.776	10567.05
527.142	10504.68
527.508	10560.5
527.874	10579.71
528.241	10626.94
528.607	10536.32
528.973	10596.66
529.339	10528.64
529.705	10608.63
530.071	10672.36
530.437	10649.08
530.803	10639.37
531.169	10625.58
531.535	10600.95
531.901	10615.41
532.267	10605.92
532.632	10608.63
532.998	10553.04
533.364	10499.94
533.73	10587.17
534.095	10654.96
534.461	10620.38
534.826	10647.73
535.192	10533.83
535.557	10513.72
535.923	10569.76
536.288	10522.08
536.653	10567.28
537.019	10391.46
537.384	10441.63
537.749	10448.64
538.114	10433.5
538.479	10358.92
538.845	10432.37
539.21	10325.93
539.575	10353.5
539.94	10313.95
540.305	10344.46
540.67	10309.88
541.034	10242.99
541.399	10218.36
541.764	10233.73
542.129	10171.81
542.494	10198.93
542.858	10217.68
543.223	10110.57
543.587	10138.59
543.952	10111.7
544.316	10080.29
544.681	10051.13
545.045	10060.63
545.41	10029.67
545.774	9981.98
546.138	9998.48
546.503	9928.88
546.867	9933.85
547.231	9978.59
547.595	9891.36
547.959	9902.66
548.324	9817.69
548.688	9818.82
549.052	9781.99
549.416	9767.98
549.779	9704.02
550.143	9734.31
550.507	9744.48
550.871	9715.32
551.235	9677.36
551.599	9669.22
551.962	9670.58
552.326	9623.8
552.689	9684.14
553.053	9545.16
553.417	9491.37
553.78	9638.72
554.143	9539.96
554.507	9525.72
554.87	9503.35
555.234	9626.96
555.597	9471.49
555.96	9449.34
556.323	9470.13
556.686	9483.47
557.05	9444.82
557.413	9481.43
557.776	9409.57
558.139	9456.35
558.502	9351.72
558.865	9424.94
559.228	9483.24
559.59	9453.64
559.953	9445.27
560.316	9444.14
560.679	9394.65
561.041	9443.69
561.404	9513.07
561.767	9470.36
562.129	9423.81
562.492	9447.53
562.854	9516.01
563.217	9431.04
563.579	9460.19
563.941	9465.39
564.304	9437.14
564.666	9464.48
565.028	9488.21
565.39	9527.98
565.753	9543.58
566.115	9540.41
566.477	9568.21
566.839	9539.74
567.201	9592.39
567.563	9578.83
567.925	9635.55
568.287	9614.08
568.648	9557.59
569.01	9590.58
569.372	9744.7
569.734	9594.2
570.095	9753.06
570.457	9690.69
570.819	9694.76
571.18	9682.56
571.542	9701.09
571.903	9788.32
572.265	9751.03
572.626	9763.23
572.987	9807.07
573.349	9748.54
573.71	9863.34
574.071	9853.17
574.432	9823.57
574.794	9839.61
575.155	9856.56
575.516	9884.81
575.877	9836.22
576.238	9896.34
576.599	9885.04
576.96	9948.09
577.32	9946.05
577.681	9976.79
578.042	9972.49
578.403	9944.92
578.763	9988.31
579.124	9996.22
579.485	10029.67
579.845	10035.09
580.206	10020.85
580.566	10047.97
580.927	10049.33
581.287	10118.02
581.648	10051.59
582.008	9995.32
582.368	10081.64
582.728	10106.73
583.089	10071.47
583.449	10108.08
583.809	10101.75
584.169	10076.67
584.529	10097.23
584.889	10204.35
585.249	10134.07
585.609	10106.05
585.969	10151.24
586.329	10116.67
586.688	10169.55
587.048	10192.15
587.408	10143.33
587.768	10192.6
588.127	10155.54
588.487	10158.25
588.846	10286.61
589.206	10183.33
589.565	10148.08
589.925	10219.27
590.284	10203.45
590.643	10159.38
591.003	10271.24
591.362	10265.37
591.721	10173.84
592.08	10278.47
592.44	10263.78
592.799	10279.15
593.158	10198.25
593.517	10252.26
593.876	10331.8
594.235	10245.48
594.593	10266.27
594.952	10327.28
595.311	10247.51
595.67	10316.66
596.029	10345.14
596.387	10283.22
596.746	10348.75
597.104	10264.46
597.463	10291.58
597.822	10360.96
598.18	10287.96
598.538	10280.05
598.897	10362.31
599.255	10244.35
599.613	10438.69
599.972	10346.04
600.33	10380.62
600.688	10313.95
601.046	10365.7
601.404	10384.23
601.762	10356.21
602.12	10412.71
602.478	10384.01
602.836	10390.33
603.194	10441.18
603.552	10393.72
603.91	10409.99
604.268	10451.35
604.625	10352.37
604.983	10393.72
605.341	10390.11
605.698	10400.73
606.056	10353.72
606.413	10434.4
606.771	10385.81
607.128	10447.51
607.485	10376.78
607.843	10414.29
608.2	10520.27
608.557	10485.25
608.914	10438.47
609.272	10528.18
609.629	10553.72
609.986	10506.94
610.343	10471.46
610.7	10516.21
611.057	10510.11
611.414	10522.08
611.771	10562.76
612.127	10611.57
612.484	10597.56
612.841	10632.59
613.198	10562.31
613.554	10556.66
613.911	10589.88
614.267	10620.84
614.624	10544.45
614.98	10579.03
615.337	10720.49
615.693	10593.27
616.05	10655.19
616.406	10707.61
616.762	10662.64
617.118	10701.06
617.475	10636.88
617.831	10716.43
618.187	10717.78
618.543	10701.74
618.899	10797.1
619.255	10731.57
619.611	10778.12
619.967	10710.1
620.323	10726.14
620.678	10745.81
621.034	10696.77
621.39	10711
621.746	10678.01
622.101	10772.02
622.457	10720.72
622.812	10757.33
623.168	10753.94
623.523	10781.28
623.879	10833.49
624.234	10721.85
624.589	10768.4
624.945	10804.11
625.3	10761.62
625.655	10781.28
626.01	10755.52
626.365	10687.5
626.72	10702.87
627.075	10700.16
627.43	10720.27
627.785	10672.13
628.14	10702.64
628.495	10684.34
628.85	10726.82
629.205	10687.95
629.559	10685.92
629.914	10669.87
630.269	10586.71
630.623	10605.24
630.978	10582.42
631.332	10657.9
631.687	10635.07
632.041	10592.36
632.396	10609.31
632.75	10595.07
633.104	10584.68
633.459	10510.33
633.813	10555.53
634.167	10562.98
634.521	10512.59
634.875	10498.58
635.229	10476.43
635.583	10464
635.937	10427.62
636.291	10434.4
636.645	10452.25
636.999	10430.33
637.352	10435.3
637.706	10371.35
638.06	10382.65
638.413	10349.43
638.767	10327.74
639.121	10360.73
639.474	10294.07
639.828	10342.88
640.181	10372.48
640.534	10372.93
640.888	10174.75
641.241	10278.25
641.594	10242.77
641.947	10311.69
642.301	10309.43
642.654	10293.61
643.007	10303.33
643.36	10241.86
643.713	10156.22
644.066	10203.67
644.419	10188.76
644.771	10172.03
645.124	10051.36
645.477	10087.07
645.83	10005.49
646.182	9985.83
646.535	9921.87
646.888	9962.1
647.24	9820.63
647.593	9830.57
647.945	9825.83
648.298	9793.06
648.65	9829.44
649.002	9838.26
649.355	9829.44
649.707	9887.3
650.059	9941.53
650.411	10096.33
650.763	10024.92
651.115	10120.74
651.467	10110.12
651.819	10077.8
652.171	9997.8
652.523	10021.98
652.875	9995.32
653.227	10037.35
653.578	10137.91
653.93	10063.11
654.282	10003.68
654.633	9974.07
654.985	10014.52
655.337	10045.48
655.688	10052.04
656.039	10083.9
656.391	10009.1
656.742	10012.72
657.094	10029.44
657.445	10077.12
657.796	10067.86
658.147	10023.11
658.498	9981.98
658.849	9987.41
659.2	10092.26
659.551	10066.73
659.902	10079.83
660.253	10039.16
660.604	10075.54
660.955	10020.85
661.306	10093.17
661.656	10012.94
662.007	10076.9
662.358	10026.28
662.708	10051.59
663.059	10119.38
663.409	9978.37
663.76	10037.58
664.11	10139.27
664.461	10050
664.811	10128.42
665.161	9995.99
665.511	10125.48
665.862	10066.73
666.212	10107.63
666.562	10079.38
666.912	10069.44
667.262	10041.64
667.612	10064.69
667.962	10041.64
668.312	10035.32
668.662	10071.02
669.011	10050.23
669.361	9991.02
669.711	10031.47
670.06	10082.55
670.41	10040.74
670.76	10012.94
671.109	10026.05
671.459	9952.38
671.808	10031.47
672.157	10022.66
672.507	9998.93
672.856	9959.16
673.205	10030.12
673.554	9991.47
673.904	9921.65
674.253	10038.25
674.602	9931.14
674.951	9820.41
675.3	9750.58
675.649	9906.05
675.998	9895.43
676.346	9898.14
676.695	9948.76
677.044	9795.55
677.393	9865.38
677.741	9886.17
678.09	9857.01
678.438	9890.01
678.787	9912.61
679.135	9915.09
679.484	9762.55
679.832	9858.6
680.181	9700.18
680.529	9763.46
680.877	9733.85
681.225	9738.37
681.573	9763.91
681.922	9692.95
682.27	9657.02
682.618	9637.81
682.966	9720.75
683.314	9674.65
683.661	9675.78
684.009	9553.07
684.357	9536.8
684.705	9525.72
685.053	9538.61
685.4	9589.23
685.748	9517.14
686.095	9464.93
686.443	9415.22
686.79	9402.56
687.138	9447.99
687.485	9437.82
687.832	9274.66
688.18	9363.92
688.527	9318.72
688.874	9268.78
689.221	9284.37
689.568	9229.46
689.915	9220.2
690.262	9209.8
690.609	9172.06
690.956	9165.06
691.303	9144.72
691.65	9082.35
691.997	9076.92
692.344	9051.61
692.69	8994.21
693.037	8991.5
693.383	8950.82
693.73	8938.62
694.077	8881.67
694.423	8867.44
694.769	8846.65
695.116	8825.63
695.462	8824.73
695.808	8757.83
696.155	8716.48
696.501	8676.93
696.847	8729.81
697.193	8542.02
697.539	8688.46
697.885	8602.81
698.231	8520.1
698.577	8518.74
698.923	8469.93
699.269	8429.03
699.614	8371.86
699.96	8398.52
700.306	8365.08
700.651	8336.15
700.997	8329.82
701.342	8319.88
701.688	8277.4
702.033	8250.96
702.379	8235.14
702.724	8208.24
703.069	8212.99
703.415	8051.19
703.76	8087.34
704.105	8084.86
704.45	8023.84
704.795	8003.05
705.14	7997.85
705.485	7998.53
705.83	7918.31
706.175	7930.96
706.52	7822.72
706.865	7864.98
707.209	7841.7
707.554	7814.58
707.899	7848.71
708.243	7717.41
708.588	7777.07
708.932	7713.34
709.277	7713.34
709.621	7716.73
709.966	7649.39
710.31	7658.2
710.654	7599
710.998	7602.16
711.342	7600.58
711.687	7604.64
712.031	7563.52
712.375	7500.24
712.719	7470.86
713.063	7520.81
713.407	7511.54
713.75	7451.65
714.094	7457.08
714.438	7420.92
714.782	7503.86
715.125	7386.57
715.469	7446.68
715.812	7362.62
716.156	7331.88
716.499	7270.64
716.843	7350.87
717.186	7327.59
717.53	7286.91
717.873	7327.82
718.216	7306.8
718.559	7251.21
718.902	7173.92
719.246	7244.88
719.589	7221.83
719.932	7196.29
720.275	7222.51
720.617	7212.79
720.96	7277.2
721.303	7208.27
721.646	7179.57
721.989	7122.4
722.331	7133.7
722.674	7172.34
723.016	7161.49
723.359	7126.47
723.701	7110.42
724.044	7057.31
724.386	7044.43
724.729	7114.26
725.071	7111.78
725.413	7147.93
725.755	7052.57
726.097	7128.05
726.439	7003.08
726.782	7006.92
727.124	7078.33
727.465	7000.37
727.807	7028.39
728.149	6968.05
728.491	6949.52
728.833	7013.47
729.175	6985
729.516	7030.2
729.858	6982.97
730.199	6974.38
730.541	6976.86
730.882	7013.7
731.224	6983.42
731.565	6961.05
731.906	6992.68
732.248	6956.07
732.589	6947.03
732.93	6997.88
733.271	6935.74
733.612	6962.63
733.953	7000.37
734.294	7002.4
734.635	6987.49
734.976	6958.56
735.317	6924.44
735.658	6947.71
735.999	6963.31
736.339	6988.39
736.68	6991.78
737.021	7001.72
737.361	6945.68
737.702	6987.26
738.042	7046.69
738.383	6924.66
738.723	6978.9
739.063	7025.45
739.404	7037.88
739.744	7070.42
740.084	6959.01
740.424	7063.64
740.764	7046.24
741.104	7126.92
741.444	7065
741.784	7020.25
742.124	7078.78
742.464	7145.45
742.804	7112
743.143	7168.27
743.483	7053.7
743.823	7142.74
744.162	7154.04
744.502	7150.65
744.841	7174.83
745.181	7269.51
745.52	7249.85
745.86	7362.39
746.199	7372.33
746.538	7377.08
746.877	7446
747.216	7436.51
747.556	7509.05
747.895	7464.31
748.234	7530.52
748.573	7570.3
748.911	7605.32
749.25	7693.23
749.589	7737.52
749.928	7781.14
750.267	7890.51
750.605	7914.92
750.944	8028.36
751.283	8022.94
751.621	8158.75
751.96	8208.02
752.298	8271.97
752.636	8330.05
752.975	8506.32
753.313	8464.96
753.651	8689.81
753.989	8666.31
754.327	8798.96
754.666	8865.4
755.004	9003.7
755.342	9189.24
755.679	9286.18
756.017	9347.88
756.355	9520.3
756.693	9675.78
757.031	9796.45
757.368	9897.69
757.706	10041.19
758.044	10159.15
758.381	10336.55
758.719	10401.63
759.056	10592.59
759.394	10727.27
759.731	10867.16
760.068	11017.66
760.405	11177.21
760.743	11275.28
761.08	11537.42
761.417	11648.61
761.754	11822.16
762.091	12006.79
762.428	12061.02
762.765	12256.27
