Data from hue_310_FLMS001491_45.txt Node
Date: Mon Feb 06 15:49:44 GMT 2017
User: dcchb
Spectrometer: FLMS00149
Trigger mode: 0
Integration Time (sec): 2.000000E-2
Scans to average: 10
Electric dark correction enabled: true
Nonlinearity correction enabled: false
Boxcar width: 0
XAxis mode: Wavelengths
Number of Pixels in Spectrum: 2048
>>>>>Begin Spectral Data<<<<<
341.393	-25.25
341.776	-25.25
342.16	-25.25
342.543	-51.02
342.927	-55.31
343.31	-70.9
343.693	-74.07
344.077	-69.32
344.46	-57.34
344.843	-25.71
345.226	-50.79
345.61	-19.38
345.993	-33.84
346.376	-8.08
346.759	8.64
347.142	8.87
347.525	52.48
347.908	73.05
348.291	74.86
348.674	74.63
349.057	116.89
349.44	110.56
349.823	150.79
350.206	159.6
350.588	206.6
350.971	227.62
351.354	233.72
351.737	226.27
352.119	238.02
352.502	275.98
352.884	269.2
353.267	273.72
353.65	290.44
354.032	303.1
354.414	301.29
354.797	309.2
355.179	322.53
355.562	317.79
355.944	315.75
356.326	328.64
356.709	339.26
357.091	338.8
357.473	351.91
357.855	339.26
358.238	343.55
358.62	344
359.002	347.62
359.384	341.52
359.766	346.04
360.148	331.35
360.53	329.77
360.912	360.72
361.294	323.89
361.676	340.16
362.057	322.99
362.439	306.26
362.821	305.36
363.203	317.79
363.584	307.62
363.966	321.4
364.348	317.79
364.729	331.35
365.111	325.02
365.493	333.83
365.874	337.22
366.256	324.79
366.637	330.44
367.019	304.23
367.4	307.39
367.781	324.57
368.163	320.5
368.544	313.49
368.925	304
369.306	315.53
369.688	320.05
370.069	306.72
370.45	297.9
370.831	326.15
371.212	311.23
371.593	309.2
371.974	317.56
372.355	301.07
372.736	316.66
373.117	299.71
373.498	300.39
373.879	321.86
374.26	314.4
374.641	316.88
375.021	305.59
375.402	327.05
375.783	305.13
376.163	336.09
376.544	327.05
376.925	329.99
377.305	328.64
377.686	329.77
378.066	329.99
378.447	318.01
378.827	326.15
379.208	334.06
379.588	328.41
379.968	327.05
380.349	354.62
380.729	314.62
381.109	320.05
381.489	327.28
381.87	332.7
382.25	332.25
382.63	348.07
383.01	336.77
383.39	335.64
383.77	346.49
384.15	343.32
384.53	338.13
384.91	349.2
385.29	342.42
385.67	353.04
386.049	346.49
386.429	342.87
386.809	351.69
387.189	361.85
387.568	326.6
387.948	341.52
388.328	359.6
388.707	354.85
389.087	374.74
389.466	352.59
389.846	358.01
390.225	365.92
390.605	360.05
390.984	386.71
391.363	372.25
391.743	365.24
392.122	362.98
392.501	368.86
392.881	364.34
393.26	372.25
393.639	370.44
394.018	384.91
394.397	384
394.776	365.47
395.155	378.13
395.534	381.29
395.913	375.87
396.292	381.52
396.671	385.81
397.05	382.87
397.429	388.29
397.808	369.31
398.186	366.83
398.565	419.03
398.944	389.2
399.323	394.17
399.701	417.9
400.08	395.07
400.458	409.99
400.837	401.85
401.215	394.85
401.594	412.25
401.972	420.38
402.351	406.37
402.729	413.83
403.107	407.5
403.486	417.9
403.864	433.72
404.242	420.61
404.62	429.42
404.999	445.47
405.377	419.93
405.755	427.84
406.133	416.77
406.511	452.93
406.889	444.11
407.267	457.67
407.645	436.2
408.023	469.2
408.401	458.58
408.779	456.77
409.156	451.12
409.534	461.97
409.912	472.59
410.29	491.57
410.667	481.85
411.045	490.89
411.422	494.96
411.8	510.78
412.178	510.55
412.555	532.25
412.933	521.17
413.31	528.18
413.687	541.06
414.065	547.39
414.442	566.37
414.819	570.21
415.197	564.34
415.574	584.45
415.951	584.22
416.328	598.46
416.705	589.65
417.082	581.28
417.46	619.93
417.837	623.77
418.214	622.19
418.591	604.33
418.967	626.25
419.344	633.71
419.721	643.2
420.098	656.54
420.475	660.38
420.852	672.13
421.228	687.27
421.605	686.37
421.982	701.96
422.358	699.93
422.735	729.08
423.111	715.97
423.488	732.69
423.864	722.98
424.241	738.79
424.617	748.51
424.994	758
425.37	746.7
425.746	751.22
426.123	771.56
426.499	781.5
426.875	789.19
427.251	805.01
427.627	841.16
428.003	814.27
428.379	841.39
428.756	854.95
429.132	875.74
429.507	860.37
429.883	875.51
430.259	901.95
430.635	892.01
431.011	898.11
431.387	924.1
431.763	926.13
432.138	947.83
432.514	934.27
432.89	957.55
433.265	975.85
433.641	998.9
434.016	972.46
434.392	992.35
434.767	1016.75
435.143	1019.01
435.518	1028.5
435.894	1036.19
436.269	1037.77
436.644	1048.16
437.02	1050.42
437.395	1077.32
437.77	1084.55
438.145	1101.04
438.52	1111.67
438.895	1125.68
439.271	1114.38
439.646	1143.3
440.021	1135.39
440.395	1144.21
440.77	1147.14
441.145	1172.91
441.52	1166.35
441.895	1165
442.27	1184.88
442.645	1181.49
443.019	1205.9
443.394	1167.26
443.769	1179.01
444.143	1179.91
444.518	1200.02
444.892	1207.26
445.267	1222.17
445.641	1233.92
446.016	1215.39
446.39	1245.45
446.764	1245
447.139	1216.52
447.513	1263.3
447.887	1275.73
448.262	1240.7
448.636	1244.54
449.01	1255.62
449.384	1283.86
449.758	1285.22
450.132	1282.73
450.506	1288.61
450.88	1309.4
451.254	1297.65
451.628	1307.82
452.002	1334.26
452.376	1310.76
452.75	1333.81
453.123	1385.33
453.497	1340.13
453.871	1352.56
454.244	1387.36
454.618	1356.86
454.992	1388.04
455.365	1381.26
455.739	1409.74
456.112	1416.29
456.486	1427.82
456.859	1428.27
457.232	1466.68
457.606	1456.29
457.979	1474.59
458.352	1457.42
458.725	1502.84
459.099	1487.48
459.472	1498.55
459.845	1524.99
460.218	1558.21
460.591	1520.24
460.964	1542.16
461.337	1552.33
461.71	1613.35
462.083	1590.07
462.456	1579.22
462.829	1574.48
463.201	1630.75
463.574	1630.75
463.947	1642.73
464.32	1671.88
464.692	1695.15
465.065	1670.3
465.438	1678.2
465.81	1691.99
466.183	1735.6
466.555	1717.53
466.928	1720.01
467.3	1772.67
467.672	1757.07
468.045	1819.44
468.417	1810.63
468.789	1809.05
469.161	1804.08
469.534	1835.26
469.906	1893.11
470.278	1878.65
470.65	1898.31
471.022	1911.64
471.394	1941.47
471.766	1965.43
472.138	1961.81
472.51	1970.4
472.882	1994.58
473.253	2022.38
473.625	2042.71
473.997	2077.97
474.369	2088.14
474.74	2092.43
475.112	2078.87
475.484	2119.1
475.855	2150.06
476.227	2161.58
476.598	2232.99
476.97	2228.02
477.341	2276.38
477.713	2277.06
478.084	2288.13
478.455	2311.18
478.827	2293.33
479.198	2382.14
479.569	2417.85
479.94	2416.72
480.311	2446.32
480.682	2500.56
481.053	2524.28
481.424	2538.07
481.795	2561.12
482.166	2594.34
482.537	2593.89
482.908	2643.38
483.279	2639.76
483.65	2700.1
484.021	2739.87
484.391	2780.32
484.762	2762.7
485.133	2762.02
485.503	2814.67
485.874	2836.14
486.244	2867.1
486.615	2893.31
486.985	2928.57
487.356	2959.3
487.726	3001.33
488.097	3004.5
488.467	3009.47
488.837	3091.27
489.207	3085.85
489.578	3146.41
489.948	3126.98
490.318	3187.09
490.688	3192.29
491.058	3225.51
491.428	3276.81
491.798	3305.51
492.168	3347.77
492.538	3328.56
492.908	3343.25
493.278	3389.12
493.648	3380.08
494.017	3416.01
494.387	3459.85
494.757	3491.26
495.126	3501.43
495.496	3483.58
495.866	3486.29
496.235	3549.57
496.605	3585.72
496.974	3564.48
497.344	3605.61
497.713	3620.53
498.082	3614.65
498.452	3677.47
498.821	3636.57
499.19	3711.82
499.559	3676.34
499.928	3711.15
500.298	3751.37
500.667	3763.12
501.036	3731.94
501.405	3791.14
501.774	3785.49
502.143	3819.84
502.512	3771.26
502.88	3810.8
503.249	3856.45
503.618	3840.86
503.987	3855.55
504.356	3920.41
504.724	3887.19
505.093	3903.46
505.462	3890.8
505.83	3897.13
506.199	3934.19
506.567	4048.09
506.936	3946.17
507.304	3983.45
507.672	4006.28
508.041	4056.67
508.409	4025.71
508.777	4082.89
509.145	4088.76
509.514	4051.7
509.882	4090.8
510.25	4125.6
510.618	4126.73
510.986	4107.29
511.354	4154.3
511.722	4198.59
512.09	4186.84
512.458	4140.06
512.826	4176.67
513.193	4197.69
513.561	4212.38
513.929	4231.13
514.297	4256.89
514.664	4252.37
515.032	4301.86
515.4	4258.25
515.767	4299.6
516.135	4321.75
516.502	4281.07
516.869	4351.58
517.237	4344.58
517.604	4326.27
517.972	4372.82
518.339	4370.11
518.706	4358.59
519.073	4364.69
519.44	4385.93
519.808	4403.33
520.175	4392.48
520.542	4475.87
520.909	4440.17
521.276	4404.69
521.643	4523.55
522.009	4512.48
522.376	4512.25
522.743	4520.16
523.11	4521.97
523.477	4590.9
523.843	4562.2
524.21	4605.81
524.577	4629.54
524.943	4648.3
525.31	4680.16
525.676	4684.45
526.043	4752.7
526.409	4733.94
526.776	4790.44
527.142	4780.72
527.508	4845.35
527.874	4825.01
528.241	4820.27
528.607	4861.17
528.973	4896.2
529.339	4923.99
529.705	4922.86
530.071	4990.89
530.437	5042.41
530.803	5004.22
531.169	5034.27
531.535	4992.69
531.901	5076.31
532.267	5063.43
532.632	5154.72
532.998	5126.7
533.364	5128.06
533.73	5171.45
534.095	5232.24
534.461	5190.65
534.826	5229.3
535.192	5258.9
535.557	5280.37
535.923	5320.14
536.288	5292.12
536.653	5292.35
537.019	5377.09
537.384	5337.32
537.749	5361.72
538.114	5400.14
538.479	5431.55
538.845	5453.25
539.21	5406.24
539.575	5486.24
539.94	5479.69
540.305	5539.8
540.67	5516.75
541.034	5612.56
541.399	5560.81
541.764	5633.13
542.129	5644.2
542.494	5669.96
542.858	5703.18
543.223	5678.33
543.587	5722.39
543.952	5742.96
544.316	5753.13
544.681	5724.65
545.045	5841.48
545.41	5835.16
545.774	5862.5
546.138	5867.25
546.503	5901.37
546.867	5910.86
547.231	5958.32
547.595	5950.41
547.959	6011.2
548.324	5996.28
548.688	5972.78
549.052	6013.23
549.416	6055.94
549.779	6123.74
550.143	6114.47
550.507	6153.57
550.871	6174.13
551.235	6140.46
551.599	6182.72
551.962	6195.83
552.326	6220.91
552.689	6270.85
553.053	6243.73
553.417	6220.46
553.78	6333.68
554.143	6283.06
554.507	6350.62
554.87	6383.39
555.234	6417.06
555.597	6382.26
555.96	6427.68
556.323	6411.41
556.686	6391.75
557.05	6450.06
557.413	6419.55
557.776	6482.82
558.139	6582.26
558.502	6512.2
558.865	6566.21
559.228	6576.15
559.59	6623.16
559.953	6610.28
560.316	6645.08
560.679	6677.17
561.041	6654.57
561.404	6750.39
561.767	6735.02
562.129	6746.77
562.492	6760.33
562.854	6755.81
563.217	6843.72
563.579	6816.37
563.941	6902.25
564.304	6841.91
564.666	6890.5
565.028	6958.97
565.39	6887.33
565.753	6956.26
566.115	6949.93
566.477	7009.82
566.839	7041.68
567.201	7101.79
567.563	7092.3
567.925	7127.1
568.287	7071.96
568.648	7132.98
569.01	7169.81
569.372	7242.58
569.734	7249.36
570.095	7328.45
570.457	7298.17
570.819	7315.34
571.18	7313.31
571.542	7448.22
571.903	7390.82
572.265	7447.77
572.626	7502.91
572.987	7518.05
573.349	7578.61
573.71	7669.91
574.071	7679.63
574.432	7727.54
574.794	7840.53
575.155	7872.62
575.516	7895.44
575.877	7968.43
576.238	8020.86
576.599	8078.26
576.96	8190.58
577.32	8242.1
577.681	8290.01
578.042	8405.49
578.403	8435.31
578.763	8512.6
579.124	8632.15
579.485	8773.84
579.845	8875.98
580.206	8908.75
580.566	9055.41
580.927	9175.86
581.287	9321.85
581.648	9408.62
582.008	9583.53
582.368	9668.95
582.728	9827.14
583.089	9996.4
583.449	10231.2
583.809	10357.52
584.169	10492.21
584.529	10669.61
584.889	10923.61
585.249	10971.97
585.609	11128.35
585.969	11423.03
586.329	11610.6
586.688	11842.01
587.048	12046.75
587.408	12285.16
587.768	12483.57
588.127	12674.3
588.487	12913.39
588.846	13281.97
589.206	13419.14
589.565	13648.96
589.925	13981.38
590.284	14239.91
590.643	14553.57
591.003	14812.77
591.362	15173.22
591.721	15255.25
592.08	15613.88
592.44	15867.44
592.799	16108.56
593.158	16396.91
593.517	16700.41
593.876	17047.52
594.235	17268.08
594.593	17640.5
594.952	17856.99
595.311	18143.31
595.67	18510.76
596.029	18879.56
596.387	19102.61
596.746	19412.88
597.104	19555.02
597.463	19915.92
597.822	20290.14
598.18	20478.84
598.538	20765.61
598.897	21117.69
599.255	21205.6
599.613	21870.67
599.972	21986.82
600.33	22293.48
600.688	22491.89
601.046	22920.13
601.404	23208.26
601.762	23362.15
602.12	23771.18
602.478	24032.19
602.836	24247.33
603.194	24460.88
603.552	24752.4
603.91	24925.5
604.268	25226.51
604.625	25366.4
604.983	25797.34
605.341	25912.6
605.698	26252.7
606.056	26562.3
606.413	26732.69
606.771	27156.63
607.128	27302.16
607.485	27364.99
607.843	27582.83
608.2	27947.12
608.557	28126.32
608.914	28457.39
609.272	28653.54
609.629	28934.89
609.986	29116.81
610.343	29232.06
610.7	29621.88
611.057	29621.65
611.414	29877.24
611.771	30144.8
612.127	30392.7
612.484	30393.83
612.841	30672.02
613.198	30915.18
613.554	30964.89
613.911	31353.36
614.267	31399.91
614.624	31536.18
614.98	31788.83
615.337	32069.5
615.693	32117.86
616.05	32120.12
616.406	32630.16
616.762	32510.61
617.118	32696.82
617.475	32855.01
617.831	33005.06
618.187	33104.5
618.543	33407.31
618.899	33664.93
619.255	33633.52
619.611	33745.84
619.967	33882.33
620.323	34139.5
620.678	34103.57
621.034	34154.41
621.39	34359.38
621.746	34340.85
622.101	34842.53
622.457	34602.76
622.812	34921.17
623.168	35008.4
623.523	35037.1
623.879	35132.47
624.234	35204.55
624.589	35216.98
624.945	35401.84
625.3	35335.17
625.655	35482.74
626.01	35649.06
626.365	35781.49
626.72	35700.13
627.075	35670.08
627.43	35805.89
627.785	35824.43
628.14	35961.14
628.495	35921.82
628.85	36087.02
629.205	35988.26
629.559	36173.79
629.914	36109.39
630.269	36245.88
630.623	36219.44
630.978	36188.71
631.332	36366.78
631.687	36494.01
632.041	36319.33
632.396	36468.48
632.75	36341.02
633.104	36448.14
633.459	36321.14
633.813	36441.81
634.167	36455.6
634.521	36350.51
634.875	36440.23
635.229	36518.19
635.583	36340.12
635.937	36478.87
636.291	36495.82
636.645	36425.99
636.999	36499.21
637.352	36519.77
637.706	36336.28
638.06	36524.97
638.413	36486.1
638.767	36592.09
639.121	36569.04
639.474	36291.53
639.828	36462.6
640.181	36407.91
640.534	36461.47
640.888	36494.24
641.241	36237.07
641.594	36383.96
641.947	36454.24
642.301	36317.52
642.654	36381.47
643.007	36547.8
643.36	36435.48
643.713	36332.21
644.066	36440.23
644.419	36184.19
644.771	36149.39
645.124	35679.34
645.477	35695.39
645.83	35556.41
646.182	35474.38
646.535	35360.71
646.888	35367.71
647.24	35192.35
647.593	35416.07
647.945	35367.26
648.298	35170.43
648.65	35095.86
649.002	35169.53
649.355	35286.36
649.707	35261.95
650.059	35272.58
650.411	35862.16
650.763	35871.88
651.115	36142.61
651.467	36060.35
651.819	36154.36
652.171	35990.75
652.523	35924.08
652.875	35884.76
653.227	35737.42
653.578	36127.24
653.93	36024.42
654.282	35958.89
654.633	35774.48
654.985	35873.69
655.337	36022.16
655.688	35995.27
656.039	35976.96
656.391	35760.92
656.742	35739.68
657.094	35880.24
657.445	35985.1
657.796	35772.9
658.147	35705.56
658.498	35679.12
658.849	35948.26
659.2	35680.93
659.551	35644.09
659.902	35823.52
660.253	35789.4
660.604	35909.62
660.955	35538.11
661.306	35777.65
661.656	35659.91
662.007	35677.54
662.358	35732
662.708	35642.06
663.059	35753.47
663.409	35417.88
663.76	35683.64
664.11	35828.94
664.461	35671.43
664.811	35653.13
665.161	35605.22
665.511	35614.49
665.862	35700.81
666.212	35624.2
666.562	35715.5
666.912	35710.76
667.262	35748.27
667.612	35596.63
667.962	35718.67
668.312	35638.89
668.662	35729.29
669.011	35626.92
669.361	35575.62
669.711	35509.63
670.06	35667.59
670.41	35422.85
670.76	35374.27
671.109	35638.22
671.459	35448.39
671.808	35485.9
672.157	35542.4
672.507	35153.48
672.856	35489.52
673.205	35371.56
673.554	35578.78
673.904	35235.97
674.253	35454.49
674.602	35303.31
674.951	34919.36
675.3	34626.26
675.649	35273.71
675.998	35288.85
676.346	35320.26
676.695	35527.48
677.044	35162.75
677.393	35163.2
677.741	35293.82
678.09	35178.57
678.438	35056.31
678.787	35207.04
679.135	35231.22
679.484	34939.02
679.832	35087.27
680.181	34973.15
680.529	35136.99
680.877	34946.71
681.225	34798.01
681.573	34997.78
681.922	34947.84
682.27	34752.59
682.618	34700.16
682.966	34616.1
683.314	34687.96
683.661	34614.74
684.009	34524.8
684.357	34354.41
684.705	34402.09
685.053	34339.94
685.4	34221.76
685.748	34084.81
686.095	34170.01
686.443	34038.71
686.79	33982.89
687.138	33996
687.485	34130.46
687.832	33934.76
688.18	34045.49
688.527	33703.35
688.874	33753.29
689.221	33817.7
689.568	33643.92
689.915	33581.09
690.262	33486.63
690.609	33439.4
690.956	33395.56
691.303	33333.64
691.65	33230.14
691.997	33175.91
692.344	32962.35
692.69	32978.4
693.037	32962.35
693.383	32704.06
693.73	32972.97
694.077	32709.93
694.423	32696.15
694.769	32518.3
695.116	32474
695.462	32464.29
695.808	32491.41
696.155	32368.7
696.501	32203.96
696.847	32188.36
697.193	32075.6
697.539	32005.32
697.885	31876.73
698.231	31808.94
698.577	31839.67
698.923	31588.38
699.269	31571.43
699.614	31317.88
699.96	31418.89
700.306	31378.44
700.651	31320.36
700.997	31143.19
701.342	31114.94
701.688	31087.6
702.033	30898.23
702.379	30904.33
702.724	30895.29
703.069	30907.94
703.415	30625.24
703.76	30507.5
704.105	30510.21
704.45	30396.55
704.795	30309.32
705.14	30172.82
705.485	30287.62
705.83	30162.2
706.175	30123.56
706.52	29964.69
706.865	29898.03
707.209	29930.57
707.554	29681.76
707.899	29813.74
708.243	29638.15
708.588	29720.18
708.932	29455.78
709.277	29467.53
709.621	29456.23
709.966	29289.91
710.31	29413.97
710.654	28959.3
710.998	29176.24
711.342	29164.26
711.687	29017.82
712.031	29057.6
712.375	28872.52
712.719	28943.02
713.063	28808.11
713.407	28947.09
713.75	28853.76
714.094	28691.73
714.438	28653.31
714.782	28684.27
715.125	28603.37
715.469	28531.74
715.812	28371.51
716.156	28239.54
716.499	28273.89
716.843	28282.7
717.186	28122.93
717.53	28348.92
717.873	28217.62
718.216	28230.73
718.559	27974.01
718.902	27948.25
719.246	27937.85
719.589	27793.22
719.932	27804.07
720.275	27757.97
720.617	27680.01
720.96	27589.16
721.303	27634.13
721.646	27583.51
721.989	27472.1
722.331	27581.03
722.674	27467.36
723.016	27435.49
723.359	27493.34
723.701	27444.08
724.044	27207.48
724.386	27085.9
724.729	27217.65
725.071	27190.08
725.413	27124.09
725.755	27025.33
726.097	26924.55
726.439	26841.61
726.782	26829.41
727.124	26845.68
727.465	26893.59
727.807	26828.5
728.149	26784.89
728.491	26725.68
728.833	26706.47
729.175	26609.98
729.516	26593.48
729.858	26459.47
730.199	26627.38
730.541	26499.47
730.882	26403.66
731.224	26508.74
731.565	26287.73
731.906	26332.47
732.248	26395.07
732.589	26149.88
732.93	26138.13
733.271	26139.93
733.612	26214.51
733.953	26169.09
734.294	26030.56
734.635	25940.17
734.976	26017.23
735.317	25891.58
735.658	25889.55
735.999	25909.88
736.339	25764.58
736.68	25955.31
737.021	25753.05
737.361	25669.89
737.702	25831.24
738.042	25677.35
738.383	25587.18
738.723	25653.62
739.063	25596.67
739.404	25546.5
739.744	25444.36
740.084	25385.83
740.424	25512.38
740.764	25392.84
741.104	25434.64
741.444	25330.01
741.784	25205.04
742.124	25307.64
742.464	25202.33
742.804	25249.11
743.143	25069
743.483	25137.93
743.823	24932.96
744.162	25052.96
744.502	25117.36
744.841	24939.51
745.181	25078.72
745.52	24964.37
745.86	24967.31
746.199	24800.53
746.538	24825.17
746.877	24794.66
747.216	24795.56
747.556	24754.66
747.895	24825.62
748.234	24602.57
748.573	24598.51
748.911	24547.66
749.25	24383.6
749.589	24332.75
749.928	24375.01
750.267	24491.62
750.605	24396.03
750.944	24311.73
751.283	24179.31
751.621	24163.49
751.96	24226.76
752.298	24162.59
752.636	24090.04
752.975	23933.89
753.313	23889.6
753.651	24004.85
753.989	23799.88
754.327	23824.29
754.666	23764.18
755.004	23721.24
755.342	23734.12
755.679	23616.38
756.017	23571.41
756.355	23647.12
756.693	23429.5
757.031	23469.5
757.368	23331.19
757.706	23356.5
758.044	23163.97
758.381	23211.88
758.719	23065.89
759.056	23147.02
759.394	22967.81
759.731	22871.09
760.068	22881.26
