Data from hue_180_FLMS001491_00080.txt Node
Date: Tue Feb 07 16:47:28 GMT 2017
User: dcchb
Spectrometer: FLMS00149
Trigger mode: 0
Integration Time (sec): 2.000000E-2
Scans to average: 10
Electric dark correction enabled: true
Nonlinearity correction enabled: false
Boxcar width: 0
XAxis mode: Wavelengths
Number of Pixels in Spectrum: 2048
>>>>>Begin Spectral Data<<<<<
341.393	2.7
341.776	2.7
342.16	2.7
342.543	-53.35
342.927	-58.32
343.31	-68.03
343.693	-75.94
344.077	-62.61
344.46	-70.75
344.843	-50.86
345.226	-57.19
345.61	-22.84
345.993	-1.82
346.376	-8.6
346.759	31.85
347.142	29.59
347.525	29.59
347.908	59.87
348.291	71.85
348.674	81.34
349.057	114.56
349.44	133.54
349.823	139.87
350.206	172.41
350.588	187.55
350.971	206.99
351.354	231.62
351.737	236.82
352.119	250.83
352.502	241.56
352.884	264.84
353.267	288.11
353.65	282.46
354.032	297.38
354.414	297.61
354.797	287.66
355.179	321.33
355.562	323.37
355.944	331.95
356.326	339.41
356.709	346.87
357.091	342.35
357.473	333.08
357.855	326.53
358.238	341.45
358.62	339.41
359.002	347.32
359.384	331.95
359.766	327.66
360.148	331.73
360.53	345.29
360.912	332.18
361.294	322.24
361.676	348.68
362.057	322.92
362.439	332.18
362.821	320.88
363.203	302.12
363.584	320.88
363.966	331.73
364.348	296.02
364.729	311.84
365.111	324.95
365.493	305.97
365.874	316.81
366.256	301.9
366.637	316.36
367.019	310.49
367.4	310.49
367.781	298.74
368.163	320.88
368.544	285.85
368.925	311.16
369.306	320.88
369.688	321.79
370.069	301.22
370.45	307.55
370.831	314.55
371.212	325.18
371.593	267.55
371.974	291.05
372.355	334.89
372.736	308
373.117	307.77
373.498	319.07
373.879	308.23
374.26	311.39
374.641	308.68
375.021	299.19
375.402	304.16
375.783	305.97
376.163	315.91
376.544	315.91
376.925	314.33
377.305	326.98
377.686	318.17
378.066	318.85
378.447	325.4
378.827	318.85
379.208	310.94
379.588	320.88
379.968	337.38
380.349	330.82
380.729	335.57
381.109	341.9
381.489	336.7
381.87	333.54
382.25	324.27
382.63	325.85
383.01	349.36
383.39	342.12
383.77	333.08
384.15	359.3
384.53	334.44
384.91	321.79
385.29	327.89
385.67	345.97
386.049	331.73
386.429	358.39
386.809	346.87
387.189	348.68
387.568	355.46
387.948	345.74
388.328	352.52
388.707	362.46
389.087	344.16
389.466	367.89
389.846	352.97
390.225	350.03
390.605	374.21
390.984	366.98
391.363	357.04
391.743	354.1
392.122	367.89
392.501	372.86
392.881	376.02
393.26	370.6
393.639	381.67
394.018	359.98
394.397	366.08
394.776	373.99
395.155	380.54
395.534	369.92
395.913	365.4
396.292	376.7
396.671	394.78
397.05	377.15
397.429	386.64
397.808	379.18
398.186	378.73
398.565	397.26
398.944	402.24
399.323	396.81
399.701	405.17
400.08	406.53
400.458	399.98
400.837	417.6
401.215	411.05
401.594	401.78
401.972	408.34
402.351	424.61
402.729	404.95
403.107	444.27
403.486	401.56
403.864	406.08
404.242	433.87
404.62	428.68
404.999	434.78
405.377	431.16
405.755	437.94
406.133	449.47
406.511	432.29
406.889	445.85
407.267	435.68
407.645	464.15
408.023	476.13
408.401	458.96
408.779	467.77
409.156	468
409.534	487.66
409.912	485.85
410.29	493.76
410.667	493.98
411.045	512.06
411.422	508.22
411.8	528.79
412.178	528.56
412.555	532.85
412.933	534.66
413.31	550.71
413.687	566.75
414.065	566.98
414.442	581.89
414.819	562.91
415.197	595.45
415.574	613.08
415.951	570.14
416.328	595.22
416.705	611.27
417.082	617.82
417.46	602.46
417.837	603.59
418.214	616.01
418.591	640.42
418.967	658.05
419.344	650.36
419.721	648.1
420.098	658.05
420.475	669.12
420.852	672.28
421.228	697.82
421.605	692.4
421.982	696.01
422.358	715.22
422.735	749.8
423.111	736.01
423.488	770.14
423.864	750.7
424.241	770.59
424.617	773.52
424.994	758.84
425.37	808.33
425.746	812.62
426.123	822.11
426.499	842
426.875	832.96
427.251	841.32
427.627	865.95
428.003	877.7
428.379	882.67
428.756	868.89
429.132	895.1
429.507	906.18
429.883	924.93
430.259	914.99
430.635	945.72
431.011	964.03
431.387	966.06
431.763	987.76
432.138	965.84
432.514	975.1
432.89	1008.09
433.265	996.57
433.641	1042.9
434.016	1062.33
434.392	1065.27
434.767	1098.94
435.143	1108.21
435.518	1117.47
435.894	1117.7
436.269	1165.15
436.644	1152.72
437.02	1202.89
437.395	1193.85
437.77	1225.72
438.145	1241.99
438.52	1251.48
438.895	1281.53
439.271	1270.69
439.646	1317.01
440.021	1291.7
440.395	1326.5
440.77	1338.71
441.145	1346.39
441.52	1370.8
441.895	1378.03
442.27	1396.11
442.645	1381.64
443.019	1416.45
443.394	1424.81
443.769	1470
444.143	1427.97
444.518	1482.43
444.892	1477.01
445.267	1533.28
445.641	1514.75
446.016	1521.08
446.39	1538.7
446.764	1536.89
447.139	1552.26
447.513	1590.68
447.887	1578.25
448.262	1596.55
448.636	1591.13
449.01	1627.06
449.384	1636.55
449.758	1646.04
450.132	1674.97
450.506	1659.6
450.88	1704.8
451.254	1686.72
451.628	1699.15
452.002	1755.65
452.376	1755.19
452.75	1767.85
453.123	1784.57
453.497	1815.53
453.871	1851.46
454.244	1869.54
454.618	1865.7
454.992	1917.68
455.365	1920.84
455.739	1946.6
456.112	1954.06
456.486	1962.42
456.859	2038.8
457.232	2049.2
457.606	2057.56
457.979	2075.64
458.352	2112.47
458.725	2152.25
459.099	2148.63
459.472	2213.71
459.845	2232.02
460.218	2238.8
460.591	2282.19
460.964	2286.48
461.337	2360.15
461.71	2401.05
462.083	2406.7
462.456	2445.57
462.829	2451.9
463.201	2502.29
463.574	2500.94
463.947	2549.52
464.32	2567.83
464.692	2612.8
465.065	2649.41
465.438	2659.12
465.81	2725.11
466.183	2739.12
466.555	2804.88
466.928	2838.56
467.3	2825
467.672	2895.73
468.045	2980.02
468.417	2966.91
468.789	3009.4
469.161	3055.05
469.534	3120.13
469.906	3165.55
470.278	3222.95
470.65	3243.74
471.022	3303.18
471.394	3358.77
471.766	3385.89
472.138	3451.65
472.51	3566.9
472.882	3586.11
473.253	3625.65
473.625	3722.37
473.997	3775.03
474.369	3831.52
474.74	3865.42
475.112	3951.07
475.484	4023.83
475.855	4121.01
476.227	4096.6
476.598	4255.24
476.97	4279.87
477.341	4426.54
477.713	4453.65
478.084	4529.36
478.455	4644.61
478.827	4763.02
479.198	4852.97
479.569	4846.64
479.94	5049.57
480.311	5075.33
480.682	5234.42
481.053	5331.82
481.424	5444.81
481.795	5539.73
482.166	5658.14
482.537	5712.6
482.908	5864.46
483.279	5925.93
483.65	6031.69
484.021	6169.99
484.391	6253.38
484.762	6322.98
485.133	6400.95
485.503	6470.32
485.874	6644.33
486.244	6755.06
486.615	6847.04
486.985	7011.55
487.356	7061.04
487.726	7152.79
488.097	7315.95
488.467	7365.22
488.837	7518.43
489.207	7601.82
489.578	7726.56
489.948	7838.2
490.318	7940.12
490.688	7981.02
491.058	8165.42
491.428	8230.5
491.798	8338.3
492.168	8527.22
492.538	8548.24
492.908	8677.95
493.278	8768.12
493.648	8836.82
494.017	8930.37
494.387	9020.54
494.757	9055.34
495.126	9209.01
495.496	9227.31
495.866	9259.18
496.235	9464.37
496.605	9408.55
496.974	9529.23
497.344	9660.97
497.713	9653.74
498.082	9792.5
498.452	9881.08
498.821	9881.31
499.19	9945.94
499.559	9971.48
499.928	10115.2
500.298	10125.14
500.667	10181.87
501.036	10157.68
501.405	10281.3
501.774	10298.25
502.143	10337.57
502.512	10387.74
502.88	10458.24
503.249	10443.33
503.618	10442.88
503.987	10507.73
504.356	10615.3
504.724	10688.97
505.093	10646.26
505.462	10760.38
505.83	10752.02
506.199	10925.12
506.567	11013.03
506.936	10916.99
507.304	10952.69
507.672	11065.46
508.041	11080.15
508.409	11130.31
508.777	11218.9
509.145	11281.05
509.514	11231.55
509.882	11272.68
510.25	11256.64
510.618	11356.75
510.986	11356.98
511.354	11427.48
511.722	11432.91
512.09	11524.43
512.458	11486.46
512.826	11607.59
513.193	11655.5
513.561	11550.42
513.929	11663.63
514.297	11705.44
514.664	11660.24
515.032	11719
515.4	11733.91
515.767	11775.04
516.135	11794.93
516.502	11757.87
516.869	11898.2
517.237	11842.16
517.604	11755.61
517.972	11872.67
518.339	11845.55
518.706	11927.36
519.073	11935.27
519.44	11919.67
519.808	12045.54
520.175	11933.46
520.542	12044.19
520.909	12169.38
521.276	12045.77
521.643	12202.38
522.009	12160.57
522.376	12177.97
522.743	12120.35
523.11	12216.84
523.477	12297.06
523.843	12314.24
524.21	12354.92
524.577	12351.75
524.943	12353.33
525.31	12319.89
525.676	12392.43
526.043	12434.69
526.409	12436.5
526.776	12470.17
527.142	12425.65
527.508	12414.57
527.874	12417.51
528.241	12424.52
528.607	12412.09
528.973	12449.38
529.339	12324.86
529.705	12520.33
530.071	12475.36
530.437	12460
530.803	12486.21
531.169	12504.74
531.535	12348.81
531.901	12308.36
532.267	12405.76
532.632	12391.52
532.998	12353.79
533.364	12369.6
533.73	12241.02
534.095	12343.16
534.461	12264.07
534.826	12274.92
535.192	12280.34
535.557	12328.93
535.923	12175.26
536.288	12271.08
536.653	12181.13
537.019	12131.42
537.384	12112.89
537.749	12064.53
538.114	12035.15
538.479	12042.61
538.845	11931.2
539.21	11926.45
539.575	11904.76
539.94	11785.66
540.305	11840.58
540.67	11752.67
541.034	11765.33
541.399	11744.76
541.764	11703.63
542.129	11650.53
542.494	11619.79
542.858	11598.78
543.223	11500.7
543.587	11526.69
543.952	11466.58
544.316	11416.41
544.681	11313.13
545.045	11311.78
545.41	11330.76
545.774	11225
546.138	11225.91
546.503	11194.04
546.867	11149.98
547.231	11139.35
547.595	11113.37
547.959	11018.45
548.324	11034.27
548.688	10989.3
549.052	10953.82
549.416	10924.9
549.779	10873.15
550.143	10749.08
550.507	10791.79
550.871	10738.23
551.235	10699.59
551.599	10709.31
551.962	10622.31
552.326	10615.98
552.689	10590.22
553.053	10565.36
553.417	10497.56
553.78	10580.95
554.143	10306.16
554.507	10470.9
554.87	10401.07
555.234	10408.07
555.597	10340.28
555.96	10324.23
556.323	10292.37
556.686	10171.24
557.05	10288.53
557.413	10283.56
557.776	10228.42
558.139	10220.73
558.502	10211.92
558.865	10186.61
559.228	10190.23
559.59	10199.72
559.953	10132.83
560.316	10225.25
560.679	10150
561.041	10195.42
561.404	10121.75
561.767	10141.41
562.129	10059.61
562.492	10115.43
562.854	10048.54
563.217	10049.67
563.579	10084.69
563.941	10105.03
564.304	10075.65
564.666	10101.87
565.028	10061.64
565.39	10104.35
565.753	10106.61
566.115	10181.87
566.477	10098.93
566.839	10099.38
567.201	10065.48
567.563	10087.86
567.925	10171.02
568.287	10144.13
568.648	10094.18
569.01	10157.23
569.372	10144.8
569.734	10072.94
570.095	10106.16
570.457	10118.14
570.819	10160.85
571.18	10062.09
571.542	10100.06
571.903	10150.68
572.265	10140.51
572.626	10093.73
572.987	10150.23
573.349	10096.22
573.71	10147.29
574.071	10134.86
574.432	10199.49
574.794	10207.18
575.155	10165.37
575.516	10097.12
575.877	10141.87
576.238	10188.64
576.599	10140.74
576.96	10177.12
577.32	10064.13
577.681	10163.79
578.042	10136.22
578.403	10171.92
578.763	10059.61
579.124	10184.35
579.485	10180.51
579.845	10205.14
580.206	10092.6
580.566	10133.05
580.927	10097.35
581.287	10143.45
581.648	10039.27
582.008	10124.47
582.368	10117.01
582.728	10079.95
583.089	10131.47
583.449	10101.64
583.809	10129.21
584.169	10084.92
584.529	10055.99
584.889	10141.19
585.249	9972.38
585.609	9979.38
585.969	10016.67
586.329	9961.98
586.688	10033.85
587.048	9983.68
587.408	10017.35
587.768	9976.22
588.127	9907.52
588.487	9906.17
588.846	9997.24
589.206	9870.69
589.565	9880.18
589.925	9914.3
590.284	9918.14
590.643	9915.21
591.003	9917.24
591.362	9900.29
591.721	9880.86
592.08	9804.93
592.44	9899.39
592.799	9926.28
593.158	9874.53
593.517	9869.78
593.876	9872.95
594.235	9853.29
594.593	9877.47
594.952	9849.22
595.311	9752.72
595.67	9800.63
596.029	9899.16
596.387	9841.08
596.746	9824.59
597.104	9766.73
597.463	9686.28
597.822	9768.54
598.18	9755.66
598.538	9740.97
598.897	9747.75
599.255	9656.46
599.613	9792.72
599.972	9752.27
600.33	9781.42
600.688	9730.13
601.046	9737.58
601.404	9797.47
601.762	9691.03
602.12	9727.64
602.478	9813.97
602.836	9712.95
603.194	9719.73
603.552	9753.4
603.91	9727.87
604.268	9807.86
604.625	9631.82
604.983	9725.38
605.341	9659.62
605.698	9679.28
606.056	9745.49
606.413	9741.2
606.771	9725.83
607.128	9732.84
607.485	9715.66
607.843	9680.64
608.2	9749.56
608.557	9806.51
608.914	9741.42
609.272	9783.46
609.629	9766.73
609.986	9740.29
610.343	9701.65
610.7	9797.02
611.057	9774.42
611.414	9722.22
611.771	9757.02
612.127	9781.88
612.484	9815.32
612.841	9792.5
613.198	9745.27
613.554	9789.11
613.911	9816
614.267	9863.91
614.624	9776.45
614.98	9815.77
615.337	9837.24
615.693	9883.57
616.05	9851.93
616.406	9872.27
616.762	9910.01
617.118	9854.64
617.475	9852.83
617.831	9904.13
618.187	9880.4
618.543	9897.58
618.899	9984.13
619.255	9867.97
619.611	9912.27
619.967	9972.38
620.323	9929.67
620.678	9839.95
621.034	9958.59
621.39	9930.12
621.746	9893.06
622.101	9946.62
622.457	9874.53
622.812	9957.01
623.168	9932.38
623.523	9900.29
623.879	9903
624.234	9927.18
624.589	9914.08
624.945	9944.58
625.3	9875.43
625.655	9862.78
626.01	9926.5
626.365	9914.3
626.72	9902.55
627.075	9839.5
627.43	9837.69
627.785	9852.38
628.14	9849.44
628.495	9858.26
628.85	9824.59
629.205	9789.56
629.559	9907.75
629.914	9846.73
630.269	9866.39
630.623	9734.19
630.978	9817.81
631.332	9819.39
631.687	9855.77
632.041	9781.65
632.396	9840.41
632.75	9743.46
633.104	9823.23
633.459	9742.78
633.813	9757.47
634.167	9721.31
634.521	9756.57
634.875	9673.18
635.229	9660.52
635.583	9640.41
635.937	9692.39
636.291	9612.61
636.645	9637.02
636.999	9541.66
637.352	9664.59
637.706	9585.27
638.06	9586.17
638.413	9592.5
638.767	9584.37
639.121	9589.79
639.474	9471.38
639.828	9481.77
640.181	9529.45
640.534	9557.47
640.888	9513.86
641.241	9421.66
641.594	9456.46
641.947	9512.73
642.301	9486.97
642.654	9496.01
643.007	9413.3
643.36	9472.73
643.713	9479.28
644.066	9483.13
644.419	9416.46
644.771	9378.95
645.124	9268.89
645.477	9291.72
645.83	9251.49
646.182	9198.16
646.535	9122.46
646.888	9166.75
647.24	9108.45
647.593	9163.13
647.945	9108.22
648.298	9075.23
648.65	9019.41
649.002	9069.35
649.355	9123.14
649.707	9118.16
650.059	9122.23
650.411	9260.99
650.763	9253.53
651.115	9356.35
651.467	9378.72
651.819	9362.23
652.171	9356.8
652.523	9264.83
652.875	9279.74
653.227	9312.28
653.578	9349.8
653.93	9347.76
654.282	9316.58
654.633	9279.97
654.985	9270.02
655.337	9349.8
655.688	9319.74
656.039	9367.2
656.391	9287.43
656.742	9357.93
657.094	9322.23
657.445	9362.68
657.796	9342.57
658.147	9279.29
658.498	9348.67
658.849	9384.15
659.2	9326.97
659.551	9319.74
659.902	9339.85
660.253	9326.29
660.604	9364.03
660.955	9326.52
661.306	9317.71
661.656	9300.31
662.007	9378.04
662.358	9374.43
662.708	9437.48
663.059	9428.66
663.409	9318.16
663.76	9410.36
664.11	9369.68
664.461	9420.08
664.811	9425.95
665.161	9396.57
665.511	9405.39
665.862	9352.96
666.212	9413.07
666.562	9431.15
666.912	9391.15
667.262	9384.6
667.612	9316.35
667.962	9393.41
668.312	9379.17
668.662	9387.99
669.011	9413.07
669.361	9416.24
669.711	9409.46
670.06	9453.52
670.41	9342.79
670.76	9328.1
671.109	9326.52
671.459	9294.2
671.808	9288.1
672.157	9512.28
672.507	9262.34
672.856	9281.78
673.205	9322
673.554	9341.89
673.904	9342.34
674.253	9323.58
674.602	9287.65
674.951	9170.82
675.3	9100.76
675.649	9239.52
675.998	9228.67
676.346	9295.79
676.695	9307.09
677.044	9201.1
677.393	9191.38
677.741	9205.85
678.09	9183.25
678.438	9249.46
678.787	9164.04
679.135	9151.61
679.484	9077.04
679.832	9117.03
680.181	9090.14
680.529	9075
680.877	8992.74
681.225	9034.78
681.573	9136.02
681.922	8997.04
682.27	8969.24
682.618	8983.93
682.966	9006.75
683.314	8999.3
683.661	8941.67
684.009	8912.07
684.357	8850.6
684.705	8885.63
685.053	8960.65
685.4	8874.78
685.748	8756.59
686.095	8823.03
686.443	8751.62
686.79	8773.09
687.138	8710.04
687.485	8757.72
687.832	8701.68
688.18	8729.02
688.527	8687.67
688.874	8639.53
689.221	8647.44
689.568	8520.21
689.915	8542.59
690.262	8580.78
690.609	8539.2
690.956	8478.18
691.303	8544.17
691.65	8453.77
691.997	8429.14
692.344	8412.87
692.69	8383.27
693.037	8324.06
693.383	8306.43
693.73	8308.24
694.077	8259.43
694.423	8277.96
694.769	8166.55
695.116	8150.51
695.462	8168.81
695.808	8141.24
696.155	8138.08
696.501	7985.09
696.847	8081.81
697.193	8021.7
697.539	8009.94
697.885	7958.42
698.231	7872.32
698.577	7838.65
698.923	7835.71
699.269	7783.28
699.614	7789.84
699.96	7767.24
700.306	7730.4
700.651	7732.89
700.997	7655.6
701.342	7675.26
701.688	7651.31
702.033	7587.13
702.379	7609.96
702.724	7560.47
703.069	7522.73
703.415	7435.72
703.76	7533.12
704.105	7503.74
704.45	7437.3
704.795	7417.87
705.14	7417.64
705.485	7341.71
705.83	7319.79
706.175	7303.75
706.52	7268.27
706.865	7222.39
707.209	7264.43
707.554	7196.86
707.899	7190.31
708.243	7160.48
708.588	7120.25
708.932	7099.01
709.277	7079.35
709.621	7153.02
709.966	7045.45
710.31	7029.86
710.654	6969.07
710.998	6994.83
711.342	6967.71
711.687	6961.16
712.031	6911.22
712.375	6934.04
712.719	6936.07
713.063	6893.59
713.407	6884.32
713.75	6836.42
714.094	6859.69
714.438	6790.54
714.782	6844.55
715.125	6813.82
715.469	6825.12
715.812	6807.94
716.156	6725.46
716.499	6790.32
716.843	6790.09
717.186	6708.28
717.53	6761.62
717.873	6786.93
718.216	6710.32
718.559	6629.87
718.902	6681.17
719.246	6663.54
719.589	6613.15
719.932	6635.07
720.275	6599.36
720.617	6616.31
720.96	6653.82
721.303	6624.67
721.646	6622.64
721.989	6592.58
722.331	6597.78
722.674	6591.68
723.016	6588.97
723.359	6538.57
723.701	6626.48
724.044	6537.22
724.386	6539.25
724.729	6546.25
725.071	6546.93
725.413	6576.08
725.755	6518.91
726.097	6473.71
726.439	6491.11
726.782	6479.59
727.124	6530.44
727.465	6499.25
727.807	6516.42
728.149	6468.52
728.491	6468.29
728.833	6524.56
729.175	6509.19
729.516	6489.98
729.858	6475.52
730.199	6450.21
730.541	6474.84
730.882	6478.91
731.224	6452.25
731.565	6421.29
731.906	6499.93
732.248	6470.1
732.589	6421.74
732.93	6453.83
733.271	6482.75
733.612	6486.59
733.953	6474.39
734.294	6462.64
734.635	6433.94
734.976	6499.25
735.317	6401.85
735.658	6488.85
735.999	6452.47
736.339	6483.43
736.68	6506.93
737.021	6475.75
737.361	6432.59
737.702	6498.57
738.042	6499.93
738.383	6492.24
738.723	6511.68
739.063	6557.78
739.404	6567.72
739.744	6574.95
740.084	6517.78
740.424	6570.66
740.764	6568.85
741.104	6577.21
741.444	6639.13
741.784	6589.87
742.124	6660.38
742.464	6647.04
742.804	6669.42
743.143	6634.61
743.483	6706.93
743.823	6708.28
744.162	6723.88
744.502	6732.24
744.841	6787.83
745.181	6817.21
745.52	6828.51
745.86	6865.79
746.199	6915.96
746.538	6877.55
746.877	6953.02
747.216	7038.44
747.556	7096.07
747.895	7144.43
748.234	7094.26
748.573	7207.71
748.911	7261.94
749.25	7241.6
749.589	7334.03
749.928	7428.27
750.267	7558.21
750.605	7613.35
750.944	7653.34
751.283	7763.85
751.621	7825.09
751.96	7774.7
752.298	7986.67
752.636	8027.57
752.975	8093.33
753.313	8271.63
753.651	8309.15
753.989	8488.12
754.327	8501.46
754.666	8616.71
755.004	8755.24
755.342	8936.93
755.679	9008.34
756.017	9141.44
756.355	9211.5
756.693	9405.39
757.031	9498.72
757.368	9639.51
757.706	9797.47
758.044	9894.87
758.381	10062.55
758.719	10191.36
759.056	10338.02
759.394	10480.84
759.731	10546.15
760.068	10780.72
760.405	10893.26
760.743	11053.93
761.08	11263.87
761.417	11352.68
761.754	11533.02
762.091	11709.73
762.428	11950.86
762.765	12069.05
763.102	12255.26
763.438	12320.34
763.775	12553.55
764.112	12606.43
764.449	12868.57
