Data from hue_70_FLMS001491_10.txt Node
Date: Mon Feb 06 15:20:00 GMT 2017
User: dcchb
Spectrometer: FLMS00149
Trigger mode: 0
Integration Time (sec): 2.000000E-2
Scans to average: 10
Electric dark correction enabled: true
Nonlinearity correction enabled: false
Boxcar width: 0
XAxis mode: Wavelengths
Number of Pixels in Spectrum: 2048
>>>>>Begin Spectral Data<<<<<
341.393	6.03
341.776	6.03
342.16	6.03
342.543	-53.85
342.927	-65.38
343.31	-78.49
343.693	-69.45
344.077	-81.65
344.46	-41.43
344.843	-48.43
345.226	-41.2
345.61	-42.1
345.993	-11.82
346.376	-14.99
346.759	21.62
347.142	23.43
347.525	39.93
347.908	42.41
348.291	87.16
348.674	93.26
349.057	121.73
349.44	143.65
349.823	122.86
350.206	165.35
350.588	196.08
350.971	202.64
351.354	235.4
351.737	223.43
352.119	247.83
352.502	237.66
352.884	248.51
353.267	282.63
353.65	274.95
354.032	293.48
354.414	308.17
354.797	301.39
355.179	316.76
355.562	325.8
355.944	334.61
356.326	330.32
356.709	343.42
357.091	332.58
357.473	337.77
357.855	354.72
358.238	347.72
358.62	350.88
359.002	334.38
359.384	326.93
359.766	329.41
360.148	336.87
360.53	313.59
360.912	342.97
361.294	342.75
361.676	337.1
362.057	343.65
362.439	328.73
362.821	318.79
363.203	329.64
363.584	324.21
363.966	322.63
364.348	330.09
364.729	320.37
365.111	300.94
365.493	326.02
365.874	312.92
366.256	318.11
366.637	309.3
367.019	309.98
367.4	308.17
367.781	326.25
368.163	286.7
368.544	326.02
368.925	323.76
369.306	341.16
369.688	319.02
370.069	325.34
370.45	315.18
370.831	315.85
371.212	332.35
371.593	312.69
371.974	321.73
372.355	330.09
372.736	315.4
373.117	316.53
373.498	339.36
373.879	338
374.26	310.66
374.641	305.01
375.021	320.82
375.402	303.42
375.783	336.64
376.163	322.41
376.544	316.08
376.925	328.73
377.305	311.56
377.686	316.98
378.066	317.89
378.447	325.57
378.827	320.15
379.208	324.44
379.588	349.07
379.968	322.86
380.349	316.76
380.729	314.05
381.109	329.41
381.489	340.49
381.87	329.19
382.25	339.81
382.63	317.66
383.01	338
383.39	354.72
383.77	346.13
384.15	324.89
384.53	335.51
384.91	346.59
385.29	331.45
385.67	349.3
386.049	342.07
386.429	356.98
386.809	354.27
387.189	342.97
387.568	365.8
387.948	338.9
388.328	356.53
388.707	350.65
389.087	328.28
389.466	373.03
389.846	348.17
390.225	349.52
390.605	360.6
390.984	361.73
391.363	396.08
391.743	369.19
392.122	348.39
392.501	362.41
392.881	377.09
393.26	364.21
393.639	357.66
394.018	387.04
394.397	352.01
394.776	354.5
395.155	379.13
395.534	370.54
395.913	385.68
396.292	363.76
396.671	365.57
397.05	385.68
397.429	386.59
397.808	363.99
398.186	385.23
398.565	376.87
398.944	377.09
399.323	379.13
399.701	365.57
400.08	397.66
400.458	388.39
400.837	387.94
401.215	415.96
401.594	399.47
401.972	412.8
402.351	388.62
402.729	389.07
403.107	387.72
403.486	381.16
403.864	385
404.242	390.88
404.62	399.47
404.999	410.77
405.377	410.31
405.755	414.61
406.133	413.25
406.511	418.9
406.889	425
407.267	426.13
407.645	412.8
408.023	402.63
408.401	438.11
408.779	424.55
409.156	425.91
409.534	427.26
409.912	424.1
410.29	444.66
410.667	431.33
411.045	455.06
411.422	432.69
411.8	442.63
412.178	443.31
412.555	442.4
412.933	456.19
413.31	444.21
413.687	450.99
414.065	443.53
414.442	452.57
414.819	487.6
415.197	461.39
415.574	473.82
415.951	460.26
416.328	477.43
416.705	488.73
417.082	476.3
417.46	474.72
417.837	499.35
418.214	486.24
418.591	487.37
418.967	504.77
419.344	507.26
419.721	507.26
420.098	507.94
420.475	522.85
420.852	511.78
421.228	519.24
421.605	526.47
421.982	497.09
422.358	521.05
422.735	519.46
423.111	508.39
423.488	501.39
423.864	517.43
424.241	536.64
424.617	536.19
424.994	551.78
425.37	552.46
425.746	522.85
426.123	539.8
426.499	555.85
426.875	527.83
427.251	559.46
427.627	556.98
428.003	570.76
428.379	577.54
428.756	580.93
429.132	574.83
429.507	562.63
429.883	613.7
430.259	567.82
430.635	603.3
431.011	598.56
431.387	627.71
431.763	597.2
432.138	628.84
432.514	627.48
432.89	627.26
433.265	641.72
433.641	657.54
434.016	650.08
434.392	656.86
434.767	636.52
435.143	632.68
435.518	654.6
435.894	661.38
436.269	672.45
436.644	667.03
437.02	674.26
437.395	700.93
437.77	678.78
438.145	690.76
438.52	686.24
438.895	710.87
439.271	721.04
439.646	721.94
440.021	714.71
440.395	734.83
440.77	705.67
441.145	730.53
441.52	746.35
441.895	710.65
442.27	751.77
442.645	739.12
443.019	735.5
443.394	754.94
443.769	766.01
444.143	754.26
444.518	775.05
444.892	757.2
445.267	767.59
445.641	766.46
446.016	787.25
446.39	794.26
446.764	785.67
447.139	783.19
447.513	800.81
447.887	798.55
448.262	818.66
448.636	805.11
449.01	828.38
449.384	824.77
449.758	832.68
450.132	829.29
450.506	823.41
450.88	853.24
451.254	841.04
451.628	880.36
452.002	868.83
452.376	884.2
452.75	880.58
453.123	884.65
453.497	887.36
453.871	877.65
454.244	895.05
454.618	926.01
454.992	923.07
455.365	930.07
455.739	946.57
456.112	939.79
456.486	936.63
456.859	974.14
457.232	1020.92
457.606	1004.87
457.979	989.28
458.352	1024.54
458.725	1023.63
459.099	1044.65
459.472	1051.2
459.845	1049.85
460.218	1060.47
460.591	1069.51
460.964	1097.08
461.337	1104.53
461.71	1104.53
462.083	1156.74
462.456	1139.79
462.829	1142.72
463.201	1153.12
463.574	1175.72
463.947	1199.22
464.32	1174.14
464.692	1201.93
465.065	1198.54
465.438	1278.77
465.81	1275.83
466.183	1281.93
466.555	1315.6
466.928	1321.7
467.3	1325.32
467.672	1352.66
468.045	1387.46
468.417	1385.2
468.789	1420.23
469.161	1441.02
469.534	1462.26
469.906	1483.05
470.278	1498.65
470.65	1554.69
471.022	1574.35
471.394	1603.05
471.766	1619.55
472.138	1649.15
472.51	1675.59
472.882	1741.8
473.253	1735.25
473.625	1803.95
473.997	1840.11
474.369	1826.1
474.74	1901.57
475.112	1948.58
475.484	1999.88
475.855	2050.5
476.227	2095.02
476.598	2132.08
476.97	2158.74
477.341	2233.77
477.713	2285.29
478.084	2352.86
478.455	2457.04
478.827	2463.82
479.198	2531.39
479.569	2549.92
479.94	2679.86
480.311	2754.89
480.682	2805.51
481.053	2887.76
481.424	2975.9
481.795	3070.13
482.166	3139.96
482.537	3213.4
482.908	3316.9
483.279	3390.57
483.65	3478.03
484.021	3608.65
484.391	3675.31
484.762	3772.71
485.133	3877.12
485.503	3982.2
485.874	4086.15
486.244	4196.2
486.615	4322.53
486.985	4436.87
487.356	4556.65
487.726	4659.02
488.097	4788.05
488.467	4917.09
488.837	5043.19
489.207	5164.54
489.578	5278.43
489.948	5404.31
490.318	5571.31
490.688	5658.76
491.058	5778.31
491.428	5963.84
491.798	6043.39
492.168	6307.33
492.538	6361.34
492.908	6557.5
493.278	6714.78
493.648	6753.2
494.017	6919.75
494.387	7055.11
494.757	7163.13
495.126	7362
495.496	7480.18
495.866	7538.04
496.235	7790.91
496.605	7872.04
496.974	8030.45
497.344	8151.13
497.713	8297.79
498.082	8429.99
498.452	8642.87
498.821	8686.03
499.19	8797.66
499.559	8931.9
499.928	9087.15
500.298	9235.62
500.667	9401.94
501.036	9410.98
501.405	9557.87
501.774	9657.53
502.143	9809.61
502.512	9891.65
502.88	10007.8
503.249	10161.7
503.618	10234.46
503.987	10388.58
504.356	10475.13
504.724	10634.23
505.093	10702.7
505.462	10881
505.83	10993.09
506.199	11213.19
506.567	11279.18
506.936	11379.97
507.304	11504.49
507.672	11666.29
508.041	11684.82
508.409	11844.14
508.777	12004.59
509.145	12051.82
509.514	12178.14
509.882	12233.96
510.25	12349.89
510.618	12469.88
510.986	12556.44
511.354	12721.85
511.722	12826.03
512.09	12951.23
512.458	12991
512.826	13171.79
513.193	13236.19
513.561	13345.57
513.929	13452.23
514.297	13640.02
514.664	13709.85
515.032	13723.41
515.4	13808.15
515.767	14040.01
516.135	14056.28
516.502	14027.36
516.869	14260.12
517.237	14302.83
517.604	14414.92
517.972	14503.28
518.339	14582.37
518.706	14699.88
519.073	14717.06
519.44	14804.96
519.808	15006.54
520.175	14957.05
520.542	15169.47
520.909	15299.41
521.276	15340.32
521.643	15540.09
522.009	15578.95
522.376	15635
522.743	15635.68
523.11	15856.69
523.477	16032.95
523.843	16049
524.21	16249.22
524.577	16266.17
524.943	16376.9
525.31	16508.65
525.676	16669.55
526.043	16638.14
526.409	16684.01
526.776	16980.5
527.142	16921.07
527.508	17050.55
527.874	17101.63
528.241	17133.94
528.607	17278.35
528.973	17446.7
529.339	17355.86
529.705	17590.43
530.071	17669.75
530.437	17742.29
530.803	17687.37
531.169	17967.59
531.535	17840.59
531.901	17879.91
532.267	17937.76
532.632	18100.7
532.998	18084.65
533.364	18182.5
533.73	18232.9
534.095	18352.44
534.461	18360.12
534.826	18331.2
535.192	18484.42
535.557	18529.16
535.923	18567.58
536.288	18624.98
536.653	18627.24
537.019	18558.76
537.384	18670.17
537.749	18760.79
538.114	18689.38
538.479	18754.24
538.845	18791.07
539.21	18800.79
539.575	18891.41
539.94	19001.01
540.305	18949.49
540.67	18917.62
541.034	19064.29
541.399	19091.63
541.764	19077.17
542.129	19003.5
542.494	19151.06
542.858	19105.19
543.223	19086.89
543.587	19119.88
543.952	19068.35
544.316	19296.6
544.681	19271.74
545.045	19268.35
545.41	19475.12
545.774	19293.21
546.138	19342.25
546.503	19338.63
546.867	19303.38
547.231	19603.26
547.595	19426.09
547.959	19558.96
548.324	19500.89
548.688	19415.46
549.052	19438.97
549.416	19570.71
549.779	19575.91
550.143	19569.36
550.507	19633.99
550.871	19677.15
551.235	19624.95
551.599	19819.97
551.962	19795.34
552.326	19800.09
552.689	19880.54
553.053	19786.3
553.417	19820.88
553.78	19885.28
554.143	19892.51
554.507	20017.48
554.87	20077.37
555.234	20102.23
555.597	19972.51
555.96	20109.01
556.323	20132.96
556.686	20086.86
557.05	20205.73
557.413	20259.06
557.776	20248.89
558.139	20376.12
558.502	20384.03
558.865	20415.66
559.228	20530.01
559.59	20538.37
559.953	20563.23
560.316	20736.33
560.679	20756.45
561.041	20851.81
561.404	20958.47
561.767	21021.98
562.129	20901.07
562.492	21160.05
562.854	21116.66
563.217	21070.11
563.579	21256.09
563.941	21232.82
564.304	21294.28
564.666	21428.07
565.028	21500.38
565.39	21501.74
565.753	21645.24
566.115	21570.89
566.477	21721.62
566.839	21791.45
567.201	21788.06
567.563	21827.38
567.925	21864.44
568.287	21937.66
568.648	21934.95
569.01	22057.43
569.372	22184.88
569.734	22142.85
570.095	22257.88
570.457	22281.83
570.819	22277.99
571.18	22289.51
571.542	22448.83
571.903	22461.26
572.265	22563.4
572.626	22568.6
572.987	22695.38
573.349	22656.51
573.71	22814.47
574.071	22785.32
574.432	22842.04
574.794	23073
575.155	22952.77
575.516	22817.86
575.877	23055.37
576.238	23008.59
576.599	23075.48
576.96	23157.29
577.32	23124.75
577.681	23099.89
578.042	23265.08
578.403	23237.51
578.763	23217.4
579.124	23236.83
579.485	23426.43
579.845	23483.83
580.206	23356.15
580.566	23291.07
580.927	23349.37
581.287	23449.26
581.648	23450.61
582.008	23470.5
582.368	23429.6
582.728	23510.27
583.089	23425.98
583.449	23524.96
583.809	23523.83
584.169	23531.74
584.529	23409.48
584.889	23577.39
585.249	23444.74
585.609	23433.89
585.969	23570.16
586.329	23416.49
586.688	23486.32
587.048	23547.11
587.408	23364.74
587.768	23416.04
588.127	23418.97
588.487	23335.14
588.846	23551.17
589.206	23371.97
589.565	23502.14
589.925	23539.65
590.284	23421.01
590.643	23494.9
591.003	23513.21
591.362	23649.93
591.721	23525.64
592.08	23506.2
592.44	23659.19
592.799	23590.04
593.158	23544.4
593.517	23577.16
593.876	23609.25
594.235	23494.23
594.593	23616.94
594.952	23650.38
595.311	23472.53
595.67	23537.16
596.029	23635.69
596.387	23638.86
596.746	23695.58
597.104	23662.58
597.463	23497.84
597.822	23655.58
598.18	23612.19
598.538	23557.73
598.897	23715.69
599.255	23515.47
599.613	23838.4
599.972	23590.5
600.33	23718.4
600.688	23681.34
601.046	23746.88
601.404	23815.12
601.762	23807.89
602.12	23890.83
602.478	23883.14
602.836	23780.1
603.194	23606.99
603.552	23746.88
603.91	23644.28
604.268	23818.51
604.625	23762.24
604.983	23885.63
605.341	23741.68
605.698	23844.5
606.056	23918.17
606.413	23976.93
606.771	24092.86
607.128	24081.1
607.485	23923.37
607.843	23966.76
608.2	24177.82
608.557	24145.51
608.914	24152.51
609.272	24252.85
609.629	24307.99
609.986	24376.92
610.343	24273.87
610.7	24454.2
611.057	24275.45
611.414	24352.96
611.771	24394.09
612.127	24471.15
612.484	24400.19
612.841	24603.58
613.198	24590.02
613.554	24584.14
613.911	24683.12
614.267	24626.85
614.624	24669.34
614.98	24733.97
615.337	24794.53
615.693	24776.68
616.05	24799.28
616.406	24820.75
616.762	24713.4
617.118	24800.18
617.475	24847.41
617.831	24883.12
618.187	24965.83
618.543	24906.62
618.899	25079.27
619.255	25150.91
619.611	25085.82
619.967	25237.23
620.323	25241.07
620.678	25063.45
621.034	24928.54
621.39	25077.69
621.746	25028.88
622.101	25360.39
622.457	25088.76
622.812	25046.73
623.168	25285.14
623.523	25155.2
623.879	25287.17
624.234	25061.87
624.589	25253.5
624.945	25206.5
625.3	25225.93
625.655	25320.62
626.01	25370.79
626.365	25414.4
626.72	25270.68
627.075	25224.35
627.43	25359.04
627.785	25273.62
628.14	25313.39
628.495	25291.69
628.85	25293.73
629.205	25184.58
629.559	25397.91
629.914	25269.55
630.269	25254.63
630.623	25193.17
630.978	25191.81
631.332	25293.73
631.687	25322.65
632.041	25231.36
632.396	25289.89
632.75	25200.85
633.104	25150
633.459	25053.06
633.813	24986.62
634.167	25079.04
634.521	25025.03
634.875	25135.09
635.229	25026.39
635.583	24934.64
635.937	24844.93
636.291	24909.1
636.645	24959.5
636.999	24894.19
637.352	24916.34
637.706	24794.08
638.06	24919.5
638.413	24815.55
638.767	24881.54
639.121	24813.97
639.474	24648.09
639.828	24722.22
640.181	24717.25
640.534	24677.92
640.888	24602.67
641.241	24564.71
641.594	24630.24
641.947	24620.3
642.301	24605.38
642.654	24620.52
643.007	24499.4
643.36	24630.69
643.713	24543.01
644.066	24707.75
644.419	24467.53
644.771	24365.39
645.124	24169.69
645.477	24142.12
645.83	23982.58
646.182	23824.39
646.535	23822.35
646.888	23837.72
647.24	23728.35
647.593	23874.78
647.945	23760.21
648.298	23696.48
648.65	23673.66
649.002	23517.28
649.355	23646.99
649.707	23572.19
650.059	23787.33
650.411	24117.49
650.763	24032.52
651.115	24314.32
651.467	24245.39
651.819	24218.05
652.171	24110.03
652.523	24155.68
652.875	24210.59
653.227	24211.72
653.578	24213.08
653.93	24186.41
654.282	24098.5
654.633	24036.59
654.985	24174.43
655.337	24036.81
655.688	24042.46
656.039	24202.46
656.391	23954.55
656.742	24060.99
657.094	24023.48
657.445	24087.66
657.796	24131.05
658.147	24000.65
658.498	24013.54
658.849	24035.91
659.2	24135.34
659.551	23992.74
659.902	24086.98
660.253	24068.22
660.604	24049.24
660.955	24050.82
661.306	24005.63
661.656	24126.53
662.007	23980.54
662.358	24065.96
662.708	24024.83
663.059	24006.3
663.409	23937.38
663.76	24111.84
664.11	24170.14
664.461	24126.75
664.811	24056.7
665.161	24100.76
665.511	24057.15
665.862	24049.24
666.212	24093.76
666.562	24070.48
666.912	24026.42
667.262	24026.87
667.612	24077.94
667.962	24030.26
668.312	23931.96
668.662	24065.29
669.011	23953.88
669.361	23960.88
669.711	23955.23
670.06	23880.66
670.41	23954.55
670.76	23954.1
671.109	24015.34
671.459	23865.74
671.808	23889.7
672.157	23889.02
672.507	23794.56
672.856	23874.33
673.205	23856.48
673.554	23954.33
673.904	23754.11
674.253	23979.64
674.602	23755.46
674.951	23414.91
675.3	23323.38
675.649	23871.62
675.998	23701
676.346	23655.35
676.695	23769.25
677.044	23626.43
677.393	23745.07
677.741	23757.5
678.09	23672.53
678.438	23628.46
678.787	23567.67
679.135	23559.76
679.484	23445.87
679.832	23569.25
680.181	23421.91
680.529	23531.51
680.877	23440.22
681.225	23346.43
681.573	23502.14
681.922	23362.7
682.27	23224.63
682.618	23227.57
682.966	23117.06
683.314	23172.2
683.661	23100.79
684.009	23058.98
684.357	22962.72
684.705	23125.65
685.053	23110.06
685.4	22945.31
685.748	22877.52
686.095	22857.63
686.443	22847.24
686.79	22730.41
687.138	22762.72
687.485	22682.95
687.832	22582.39
688.18	22705.1
688.527	22505.78
688.874	22495.16
689.221	22441.83
689.568	22376.06
689.915	22315.05
690.262	22322.73
690.609	22266.24
690.956	22119.12
691.303	22158.22
691.65	21980.59
691.997	22079.12
692.344	21833.48
692.69	21921.16
693.037	21903.31
693.383	21710.54
693.73	21695.4
694.077	21632.81
694.423	21693.6
694.769	21586.71
695.116	21493.38
695.462	21365.92
695.808	21400.27
696.155	21499.03
696.501	21095.42
696.847	21162.54
697.193	21035.31
697.539	21117.79
697.885	20952.82
698.231	20930.9
698.577	20932.94
698.923	20837.8
699.269	20659.73
699.614	20643.23
699.96	20579.05
700.306	20625.15
700.651	20524.59
700.997	20367.76
701.342	20406.4
701.688	20325.5
702.033	20208.89
702.379	20250.02
702.724	20266.29
703.069	20218.15
703.415	19967.54
703.76	19974.77
704.105	19969.8
704.45	19910.82
704.795	19736.81
705.14	19704.5
705.485	19622.92
705.83	19607.55
706.175	19641.9
706.52	19589.24
706.865	19438.97
707.209	19419.98
707.554	19424.73
707.899	19459.98
708.243	19197.84
708.588	19223.6
708.932	19126.66
709.277	19043.72
709.621	19036.04
709.966	18875.37
710.31	18996.94
710.654	18852.99
710.998	18898.87
711.342	18841.02
711.687	18837.63
712.031	18685.77
712.375	18674.01
712.719	18685.09
713.063	18611.42
713.407	18613.23
713.75	18583.17
714.094	18556.5
714.438	18557.18
714.782	18466.79
715.125	18328.49
715.469	18437.18
715.812	18289.39
716.156	18178.89
716.499	18206.23
716.843	18310.41
717.186	18180.69
717.53	18231.31
717.873	18233.35
718.216	18125.55
718.559	18100.24
718.902	17877.43
719.246	18001.26
719.589	17960.81
719.932	17876.3
720.275	17929.18
720.617	17835.62
720.96	17831.55
721.303	17891.66
721.646	17835.17
721.989	17712.46
722.331	17709.52
722.674	17727.6
723.016	17739.35
723.359	17630.43
723.701	17729.18
724.044	17593.14
724.386	17488.06
724.729	17704.77
725.071	17480.83
725.413	17555.4
725.755	17512.69
726.097	17381.17
726.439	17397.21
726.782	17406.48
727.124	17470.88
727.465	17370.09
727.807	17369.64
728.149	17396.53
728.491	17341.39
728.833	17413.26
729.175	17293.03
729.516	17289.19
729.858	17161.06
730.199	17259.14
730.541	17171.23
730.882	17220.72
731.224	17280.6
731.565	17182.53
731.906	17111.34
732.248	17053.49
732.589	17010.78
732.93	17076.54
733.271	17069.76
733.612	17135.98
733.953	17139.82
734.294	17030.44
734.635	17054.17
734.976	16995.64
735.317	16947.51
735.658	17011.23
735.999	16971.01
736.339	16947.51
736.68	17055.3
737.021	16911.8
737.361	16923.78
737.702	16987.96
738.042	16907.96
738.383	16987.05
738.723	16984.57
739.063	16921.52
739.404	16991.12
739.744	16927.17
740.084	16932.37
740.424	17013.27
740.764	16860.05
741.104	16966.71
741.444	16824.35
741.784	16877.23
742.124	16906.15
742.464	16961.74
742.804	16837.68
743.143	16893.04
743.483	16917.68
743.823	16878.58
744.162	16848.53
744.502	16894.4
744.841	16831.35
745.181	16910.67
745.52	16806.04
745.86	16892.59
746.199	16955.64
746.538	16988.41
746.877	17059.37
747.216	17000.61
747.556	17082.87
747.895	17112.25
748.234	17066.83
748.573	17135.3
748.911	17127.61
749.25	17257.33
749.589	17223.43
749.928	17316.99
750.267	17349.76
750.605	17360.38
750.944	17401.73
751.283	17423.88
751.621	17407.61
751.96	17436.99
752.298	17489.86
752.636	17518.34
752.975	17685.57
753.313	17695.06
753.651	17813.92
753.989	17665.68
754.327	17773.02
754.666	17758.78
755.004	17839.91
755.342	18074.03
755.679	18033.58
756.017	17968.72
756.355	18187.47
756.693	18213.91
757.031	18343.4
