Data from hue_220_FLMS001491_00071.txt Node
Date: Tue Feb 07 16:39:54 GMT 2017
User: dcchb
Spectrometer: FLMS00149
Trigger mode: 0
Integration Time (sec): 2.000000E-2
Scans to average: 10
Electric dark correction enabled: true
Nonlinearity correction enabled: false
Boxcar width: 0
XAxis mode: Wavelengths
Number of Pixels in Spectrum: 2048
>>>>>Begin Spectral Data<<<<<
341.393	-31.28
341.776	-31.28
342.16	-31.28
342.543	-62.7
342.927	-66.31
343.31	-73.54
343.693	-63.37
344.077	-61.57
344.46	-69.25
344.843	-77.38
345.226	-50.72
345.61	-56.37
345.993	8.71
346.376	-10.04
346.759	19.34
347.142	34.7
347.525	39.67
347.908	62.05
348.291	95.72
348.674	95.94
349.057	106.11
349.44	123.06
349.823	123.74
350.206	167.13
350.588	190.86
350.971	220.91
351.354	198.77
351.737	242.38
352.119	232.21
352.502	258.43
352.884	278.31
353.267	282.15
353.65	295.71
354.032	323.96
354.414	304.53
354.797	335.49
355.179	328.93
355.562	316.28
355.944	293
356.326	305.43
356.709	313.34
357.091	350.17
357.473	351.98
357.855	321.25
358.238	317.63
358.62	328.25
359.002	312.89
359.384	309.27
359.766	311.98
360.148	331.87
360.53	324.64
360.912	327.35
361.294	339.78
361.676	344.75
362.057	323.96
362.439	335.49
362.821	318.54
363.203	317.41
363.584	330.51
363.966	315.15
364.348	327.8
364.729	309.72
365.111	334.36
365.493	310.4
365.874	302.04
366.256	327.58
366.637	320.57
367.019	304.53
367.4	316.28
367.781	309.5
368.163	310.18
368.544	314.24
368.925	307.01
369.306	323.73
369.688	289.16
370.069	290.97
370.45	299.55
370.831	310.85
371.212	318.31
371.593	306.79
371.974	316.95
372.355	308.59
372.736	313.34
373.117	304.75
373.498	324.41
373.879	318.08
374.26	294.81
374.641	327.35
375.021	316.73
375.402	327.58
375.783	313.79
376.163	319.44
376.544	314.02
376.925	306.33
377.305	338.88
377.686	326.9
378.066	303.17
378.447	331.19
378.827	314.92
379.208	338.2
379.588	328.48
379.968	329.16
380.349	329.84
380.729	313.11
381.109	337.07
381.489	323.28
381.87	324.19
382.25	336.16
382.63	324.64
383.01	364.19
383.39	345.43
383.77	329.84
384.15	339.55
384.53	349.95
384.91	330.51
385.29	335.71
385.67	339.1
386.049	343.85
386.429	311.53
386.809	365.32
387.189	336.62
387.568	370.06
387.948	346.78
388.328	359.67
388.707	357.86
389.087	362.6
389.466	359.21
389.846	383.17
390.225	336.62
390.605	346.78
390.984	354.92
391.363	384.98
391.743	368.25
392.122	381.36
392.501	382.72
392.881	370.29
393.26	353.34
393.639	358.76
394.018	379.78
394.397	361.47
394.776	370.96
395.155	370.74
395.534	369.38
395.913	386.33
396.292	392.43
396.671	391.08
397.05	367.58
397.429	390.17
397.808	385.2
398.186	394.69
398.565	396.73
398.944	408.93
399.323	387.69
399.701	387.91
400.08	417.97
400.458	404.41
400.837	413.68
401.215	420.23
401.594	394.24
401.972	395.6
402.351	422.71
402.729	409.16
403.107	444.86
403.486	420.46
403.864	430.17
404.242	439.89
404.62	461.58
404.999	450.28
405.377	446.44
405.755	431.3
406.133	444.41
406.511	449.83
406.889	475.82
407.267	469.95
407.645	469.95
408.023	483.96
408.401	488.25
408.779	510.85
409.156	496.39
409.534	495.48
409.912	480.34
410.29	502.71
410.667	529.15
411.045	552.88
411.422	556.5
411.8	541.13
412.178	541.36
412.555	575.03
412.933	562.82
413.31	559.43
413.687	584.29
414.065	606.21
414.442	599.43
414.819	596.04
415.197	605.99
415.574	634.01
415.951	629.04
416.328	668.13
416.705	639.43
417.082	635.82
417.46	679.21
417.837	664.97
418.214	696.83
418.591	695.25
418.967	706.78
419.344	690.05
419.721	711.52
420.098	714.01
420.475	733.44
420.852	756.27
421.228	756.27
421.605	744.51
421.982	768.69
422.358	796.49
422.735	793.55
423.111	806.89
423.488	817.96
423.864	814.34
424.241	837.17
424.617	860.9
424.994	906.77
425.37	899.99
425.746	891.63
426.123	912.42
426.499	919.88
426.875	920.1
427.251	920.1
427.627	977.28
428.003	940.22
428.379	990.84
428.756	994.9
429.132	1017.95
429.507	1014.56
429.883	1042.59
430.259	1062.02
430.635	1073.55
431.011	1049.82
431.387	1082.36
431.763	1109.93
432.138	1118.29
432.514	1124.17
432.89	1132.75
433.265	1185.41
433.641	1199.19
434.016	1245.74
434.392	1228.8
434.767	1266.08
435.143	1269.7
435.518	1280.09
435.894	1335.69
436.269	1334.1
436.644	1360.32
437.02	1388.11
437.395	1360.09
437.77	1398.28
438.145	1424.95
438.52	1451.16
438.895	1485.06
439.271	1478.05
439.646	1529.13
440.021	1544.27
440.395	1561.44
440.77	1570.93
441.145	1576.81
441.52	1646.41
441.895	1633.53
442.27	1658.39
442.645	1688.22
443.019	1657.48
443.394	1681.44
443.769	1711.49
444.143	1710.82
444.518	1739.06
444.892	1718.73
445.267	1772.28
445.641	1787.42
446.016	1796.69
446.39	1809.57
446.764	1831.27
447.139	1818.84
447.513	1878.27
447.887	1850.25
448.262	1852.73
448.636	1884.6
449.01	1892.28
449.384	1952.62
449.758	1902.45
450.132	1932.96
450.506	1960.98
450.88	2000.3
451.254	1974.31
451.628	2022.67
452.002	2022.9
452.376	2031.71
452.75	2079.39
453.123	2079.17
453.497	2104.48
453.871	2146.06
454.244	2159.84
454.618	2141.31
454.992	2179.05
455.365	2210.69
455.739	2223.35
456.112	2248.66
456.486	2265.38
456.859	2294.3
457.232	2343.57
457.606	2360.29
457.979	2355.55
458.352	2412.72
458.725	2449.55
459.099	2453.17
459.472	2524.13
459.845	2525.94
460.218	2551.02
460.591	2492.72
460.964	2559.83
461.337	2597.35
461.71	2681.19
462.083	2645.71
462.456	2657.01
462.829	2684.12
463.201	2730
463.574	2755.08
463.947	2752.37
464.32	2839.83
464.692	2843.89
465.065	2848.87
465.438	2925.7
465.81	2928.41
466.183	3005.92
466.555	3046.37
466.928	3052.48
467.3	3049.99
467.672	3074.17
468.045	3204.56
468.417	3205.69
468.789	3198.91
469.161	3219.48
469.534	3275.75
469.906	3310.32
470.278	3351
470.65	3384.9
471.022	3426.25
471.394	3517.55
471.766	3532.24
472.138	3577.89
472.51	3611.33
472.882	3645.91
473.253	3713.25
473.625	3745.11
473.997	3831.89
474.369	3847.48
474.74	3862.62
475.112	3944.66
475.484	4004.77
475.855	4044.54
476.227	4058.55
476.598	4155.72
476.97	4216.06
477.341	4278.43
477.713	4320.01
478.084	4360.46
478.455	4524.75
478.827	4525.43
479.198	4597.75
479.569	4554.36
479.94	4719.55
480.311	4741.92
480.682	4804.75
481.053	4908.25
481.424	4973.78
481.795	5011.07
482.166	5055.59
482.537	5099.2
482.908	5224.85
483.279	5242.7
483.65	5377.16
484.021	5440.66
484.391	5505.07
484.762	5547.1
485.133	5547.33
485.503	5580.32
485.874	5723.14
486.244	5731.28
486.615	5828.22
486.985	5854.21
487.356	5999.07
487.726	6058.5
488.097	6147.08
488.467	6133.75
488.837	6293.75
489.207	6304.37
489.578	6363.8
489.948	6443.57
490.318	6511.14
490.688	6509.11
491.058	6589.78
491.428	6717.69
491.798	6723.11
492.168	6782.55
492.538	6839.95
492.908	6886.73
493.278	6978.02
493.648	6949.77
494.017	7038.36
494.387	7137.57
494.757	7087.62
495.126	7185.02
495.496	7183.89
495.866	7269.31
496.235	7311.57
496.605	7335.08
496.974	7385.02
497.344	7488.74
497.713	7493.26
498.082	7523.77
498.452	7561.28
498.821	7598.35
499.19	7608.29
499.559	7692.58
499.928	7702.3
500.298	7779.58
500.667	7794.95
501.036	7804.22
501.405	7821.62
501.774	7828.62
502.143	7895.29
502.512	7927.15
502.88	7990.43
503.249	7944.55
503.618	8004.66
503.987	7972.35
504.356	8025.23
504.724	8029.52
505.093	8138.67
505.462	8096.64
505.83	8104.32
506.199	8192.91
506.567	8192.68
506.936	8201.72
507.304	8251.21
507.672	8308.84
508.041	8278.78
508.409	8325.33
508.777	8363.97
509.145	8398.78
509.514	8424.31
509.882	8363.52
510.25	8409.62
510.618	8451.66
510.986	8432.45
511.354	8480.36
511.722	8528.04
512.09	8655.27
512.458	8534.37
512.826	8609.62
513.193	8591.99
513.561	8540.92
513.929	8569.62
514.297	8627.7
514.664	8675.38
515.032	8647.36
515.4	8721.25
515.767	8707.24
516.135	8765.77
516.502	8635.38
516.869	8747.92
517.237	8779.33
517.604	8702.72
517.972	8836.05
518.339	8824.3
518.706	8762.16
519.073	8799.22
519.44	8776.62
519.808	8843.28
520.175	8826.56
520.542	8859.33
520.909	8866.56
521.276	8836.5
521.643	8914.02
522.009	8904.53
522.376	8881.25
522.743	8938.88
523.11	8970.74
523.477	9024.97
523.843	8948.37
524.21	9011.42
524.577	9034.01
524.943	9065.2
525.31	9071.98
525.676	9086.44
526.043	9101.81
526.409	9117.85
526.776	9168.02
527.142	9113.33
527.508	9145.88
527.874	9184.74
528.241	9193.33
528.607	9149.27
528.973	9179.77
529.339	9164.63
529.705	9218.42
530.071	9246.89
530.437	9208.92
530.803	9217.96
531.169	9228.13
531.535	9187.68
531.901	9225.65
532.267	9191.75
532.632	9203.95
532.998	9174.35
533.364	9175.93
533.73	9122.15
534.095	9193.11
534.461	9214.12
534.826	9177.96
535.192	9181.58
535.557	9208.02
535.923	9189.49
536.288	9185.42
536.653	9138.64
537.019	9041.25
537.384	9226.78
537.749	9140.23
538.114	9064.52
538.479	9024.07
538.845	9054.35
539.21	8999.44
539.575	8978.87
539.94	9009.61
540.305	8991.76
540.67	8940.91
541.034	8942.04
541.399	8963.06
541.764	8976.16
542.129	8933.9
542.494	8903.17
542.858	8927.58
543.223	8873.79
543.587	8905.88
543.952	8819.56
544.316	8827.24
544.681	8768.48
545.045	8803.06
545.41	8874.24
545.774	8825.88
546.138	8796.05
546.503	8791.99
546.867	8722.16
547.231	8768.26
547.595	8685.55
547.959	8649.39
548.324	8643.06
548.688	8681.93
549.052	8707.02
549.416	8709.28
549.779	8583.4
550.143	8628.6
550.507	8583.63
550.871	8580.47
551.235	8557.19
551.599	8548.6
551.962	8524.2
552.326	8515.16
552.689	8543.63
553.053	8526.23
553.417	8480.81
553.78	8542.73
554.143	8463.41
554.507	8462.73
554.87	8448.94
555.234	8484.2
555.597	8440.81
555.96	8457.76
556.323	8427.48
556.686	8404.88
557.05	8453.92
557.413	8397.42
557.776	8418.44
558.139	8420.92
558.502	8381.83
558.865	8376.63
559.228	8424.76
559.59	8460.24
559.953	8403.75
560.316	8435.16
560.679	8425.67
561.041	8447.14
561.404	8433.35
561.767	8458.21
562.129	8450.98
562.492	8549.51
562.854	8473.35
563.217	8392.67
563.579	8514.48
563.941	8533.01
564.304	8492.33
564.666	8478.32
565.028	8499.11
565.39	8528.49
565.753	8572.56
566.115	8505.67
566.477	8588.15
566.839	8565.55
567.201	8588.6
567.563	8608.49
567.925	8646.23
568.287	8599.68
568.648	8627.47
569.01	8690.07
569.372	8704.08
569.734	8635.38
570.095	8770.74
570.457	8724.42
570.819	8738.65
571.18	8779.56
571.542	8811.42
571.903	8755.15
572.265	8799.22
572.626	8828.82
572.987	8820.69
573.349	8836.96
573.71	8905.88
574.071	8841.25
574.432	8911.08
574.794	8987.69
575.155	8965.09
575.516	8869.05
575.877	8934.81
576.238	8952.89
576.599	9004.64
576.96	8995.14
577.32	9020.91
577.681	9062.71
578.042	9100.68
578.403	9107.23
578.763	9061.36
579.124	9107.91
579.485	9172.09
579.845	9237.17
580.206	9197.85
580.566	9167.57
580.927	9143.39
581.287	9281.92
581.648	9198.3
582.008	9295.93
582.368	9312.42
582.728	9291.18
583.089	9391.07
583.449	9299.77
583.809	9316.94
584.169	9355.81
584.529	9373.89
584.889	9405.76
585.249	9413.44
585.609	9394.46
585.969	9464.06
586.329	9518.52
586.688	9504.51
587.048	9556.03
587.408	9443.72
587.768	9497.28
588.127	9534.34
588.487	9515.36
588.846	9629.93
589.206	9473.32
589.565	9488.24
589.925	9553.55
590.284	9586.09
590.643	9618.63
591.003	9693.66
591.362	9594
591.721	9635.13
592.08	9660.44
592.44	9722.36
592.799	9728.91
593.158	9677.84
593.517	9702.24
593.876	9725.52
594.235	9709.48
594.593	9709.02
594.952	9703.15
595.311	9703.6
595.67	9706.09
596.029	9800.1
596.387	9759.64
596.746	9805.74
597.104	9801.9
597.463	9729.59
597.822	9828.12
598.18	9801.68
598.538	9737.5
598.897	9806.87
599.255	9775.01
599.613	9900.66
599.972	9889.81
600.33	9900.88
600.688	9872.18
601.046	9793.54
601.404	9892.97
601.762	9898.85
602.12	9880.09
602.478	9882.81
602.836	9893.43
603.194	9889.13
603.552	9906.08
603.91	9835.57
604.268	9919.41
604.625	9889.36
604.983	9867.44
605.341	9887.55
605.698	9952.63
606.056	9900.21
606.413	9908.79
606.771	10001.22
607.128	10040.09
607.485	9978.62
607.843	9996.02
608.2	10031.73
608.557	10052.29
608.914	9957.38
609.272	10101.33
609.629	10026.98
609.986	10129.35
610.343	9951.73
610.7	10117.83
611.057	10076.25
611.414	10090.03
611.771	10116.47
612.127	10078.96
612.484	10145.85
612.841	10141.1
613.198	10095.91
613.554	10105.17
613.911	10235.11
614.267	10177.94
614.624	10150.14
614.98	10175
615.337	10199.86
615.693	10196.24
616.05	10162.8
616.406	10256.13
616.762	10204.83
617.118	10309.01
617.475	10208.67
617.831	10258.61
618.187	10289.12
618.543	10216.36
618.899	10376.58
619.255	10310.36
619.611	10281.89
619.967	10357.37
620.323	10367.99
620.678	10332.74
621.034	10273.98
621.39	10284.15
621.746	10284.15
622.101	10406.41
622.457	10277.15
622.812	10281.89
623.168	10280.31
623.523	10375.45
623.879	10367.31
624.234	10297.48
624.589	10335.67
624.945	10327.77
625.3	10332.51
625.655	10381.78
626.01	10273.76
626.365	10345.62
626.72	10332.51
627.075	10329.35
627.43	10285.51
627.785	10299.74
628.14	10372.51
628.495	10328.67
628.85	10277.15
629.205	10237.82
629.559	10300.65
629.914	10196.02
630.269	10189.01
630.623	10271.04
630.978	10261.1
631.332	10245.96
631.687	10209.12
632.041	10142.69
632.396	10248.9
632.75	10190.37
633.104	10189.92
633.459	10102.46
633.813	10177.71
634.167	10110.6
634.521	10142.23
634.875	10163.48
635.229	10113.76
635.583	10043.03
635.937	10118.96
636.291	10067.88
636.645	10071.73
636.999	10031.95
637.352	10070.37
637.706	9994.21
638.06	10073.08
638.413	9977.94
638.767	9980.88
639.121	10051.39
639.474	9961
639.828	9997.6
640.181	9982.01
640.534	9966.64
640.888	9923.71
641.241	9890.94
641.594	9901.34
641.947	9883.48
642.301	9898.17
642.654	9953.99
643.007	9829.02
643.36	9849.59
643.713	9864.95
644.066	9944.05
644.419	9868.12
644.771	9750.15
645.124	9677.84
645.477	9763.71
645.83	9641.91
646.182	9621.34
646.535	9591.97
646.888	9585.41
647.24	9500.22
647.593	9568.69
647.945	9519.2
648.298	9522.36
648.65	9493.89
649.002	9510.61
649.355	9502.48
649.707	9523.04
650.059	9597.16
650.411	9677.39
650.763	9702.24
651.115	9757.38
651.467	9751.28
651.819	9738.4
652.171	9728.68
652.523	9680.78
652.875	9707.89
653.227	9678.06
653.578	9722.58
653.93	9727.78
654.282	9727.33
654.633	9653.66
654.985	9748.12
655.337	9745.63
655.688	9718.06
656.039	9749.02
656.391	9728.91
656.742	9704.73
657.094	9759.42
657.445	9748.8
657.796	9718.06
658.147	9743.6
658.498	9737.5
658.849	9729.81
659.2	9756.03
659.551	9697.5
659.902	9713.09
660.253	9684.39
660.604	9773.2
660.955	9673.09
661.306	9789.47
661.656	9744.96
662.007	9768.46
662.358	9826.54
662.708	9735.92
663.059	9756.03
663.409	9769.59
663.76	9810.04
664.11	9724.17
664.461	9772.3
664.811	9776.59
665.161	9806.42
665.511	9788.12
665.862	9776.14
666.212	9840.77
666.562	9782.02
666.912	9806.2
667.262	9806.65
667.612	9837.16
667.962	9779.98
668.312	9746.09
668.662	9786.76
669.011	9805.74
669.361	9774.56
669.711	9782.47
670.06	9783.37
670.41	9706.54
670.76	9720.78
671.109	9747.22
671.459	9765.75
671.808	9793.54
672.157	9782.47
672.507	9644.62
672.856	9638.74
673.205	9729.59
673.554	9742.24
673.904	9730.94
674.253	9700.44
674.602	9689.14
674.951	9543.6
675.3	9531.63
675.649	9643.26
675.998	9626.54
676.346	9608.69
676.695	9653.66
677.044	9562.36
677.393	9558.52
677.741	9586.09
678.09	9619.08
678.438	9648.46
678.787	9583.6
679.135	9593.1
679.484	9494.11
679.832	9522.59
680.181	9479.2
680.529	9497.05
680.877	9479.2
681.225	9496.83
681.573	9537.96
681.922	9353.78
682.27	9361.46
682.618	9404.85
682.966	9375.02
683.314	9369.15
683.661	9368.69
684.009	9316.27
684.357	9255.93
684.705	9252.31
685.053	9303.84
685.4	9215.48
685.748	9205.53
686.095	9150.17
686.443	9164.41
686.79	9149.49
687.138	9200.56
687.485	9164.63
687.832	9110.4
688.18	9116.05
688.527	9035.82
688.874	9095.03
689.221	9044.64
689.568	9027.01
689.915	8975.48
690.262	8962.83
690.609	8911.08
690.956	8885.77
691.303	8869.5
691.65	8853.23
691.997	8774.36
692.344	8730.52
692.69	8732.33
693.037	8735.94
693.383	8670.86
693.73	8696.4
694.077	8615.04
694.423	8635.38
694.769	8525.33
695.116	8564.65
695.462	8563.29
695.808	8506.12
696.155	8539.11
696.501	8492.56
696.847	8422.05
697.193	8299.8
697.539	8352.22
697.885	8346.57
698.231	8264.09
698.577	8284.88
698.923	8274.49
699.269	8222.28
699.614	8174.6
699.96	8125.79
700.306	8134.83
700.651	8091.21
700.997	8044.66
701.342	8037.66
701.688	8007.83
702.033	8039.01
702.379	8001.95
702.724	8015.06
703.069	7918.79
703.415	7838.79
703.76	7877.21
704.105	7890.77
704.45	7873.82
704.795	7756.08
705.14	7745.23
705.485	7757.66
705.83	7679.47
706.175	7697.55
706.52	7614.16
706.865	7604.22
707.209	7630.66
707.554	7594.5
707.899	7568.52
708.243	7475.86
708.588	7527.84
708.932	7441.74
709.277	7465.47
709.621	7484
709.966	7424.11
710.31	7393.38
710.654	7340.05
710.998	7335.08
711.342	7368.97
711.687	7321.97
712.031	7304.12
712.375	7279.94
712.719	7314.29
713.063	7241.52
713.407	7323.1
713.75	7200.62
714.094	7180.28
714.438	7178.02
714.782	7197.23
715.125	7160.84
715.469	7193.16
715.812	7132.82
716.156	7135.53
716.499	7076.33
716.843	7142.09
717.186	7056.21
717.53	7130.34
717.873	7085.82
718.216	7071.35
718.559	7068.42
718.902	7025.93
719.246	7088.75
719.589	7003.11
719.932	7002.43
720.275	6995.65
720.617	7018.93
720.96	7011.69
721.303	6970.57
721.646	6961.53
721.989	6935.54
722.331	6947.97
722.674	6952.71
723.016	6968.31
723.359	7006.72
723.701	6935.09
724.044	6956.1
724.386	6873.84
724.729	6961.98
725.071	6902.77
725.413	6875.65
725.755	6880.17
726.097	6890.34
726.439	6842.66
726.782	6882.88
727.124	6909.1
727.465	6826.61
727.807	6857.8
728.149	6893.05
728.491	6824.58
728.833	6934.41
729.175	6832.94
729.516	6825.48
729.858	6790.46
730.199	6858.93
730.541	6748.65
730.882	6870.45
731.224	6865.48
731.565	6846.95
731.906	6801.76
732.248	6823.22
732.589	6841.08
732.93	6817.12
733.271	6785.03
733.612	6798.82
733.953	6864.58
734.294	6785.49
734.635	6804.24
734.976	6819.61
735.317	6882.88
735.658	6778.93
735.999	6806.05
736.339	6854.41
736.68	6897.57
737.021	6833.85
737.361	6802.89
737.702	6838.59
738.042	6784.58
738.383	6825.71
738.723	6916.78
739.063	6865.71
739.404	6877.23
739.744	6856.22
740.084	6818.03
740.424	6957.68
740.764	6900.96
741.104	6939.83
741.444	6948.64
741.784	6935.99
742.124	6984.8
742.464	6898.7
742.804	6920.4
743.143	6986.16
743.483	7024.58
743.823	7010.56
744.162	7050.11
744.502	7156.78
744.841	7157.45
745.181	7136.44
745.52	7201.29
745.86	7229.99
746.199	7299.82
746.538	7223.21
746.877	7303.89
747.216	7358.58
747.556	7389.09
747.895	7440.38
748.234	7466.6
748.573	7444.23
748.911	7594.96
749.25	7619.14
749.589	7656.65
749.928	7704.11
750.267	7859.58
750.605	7884.21
750.944	7957.21
751.283	7944.1
751.621	8062.06
751.96	8163.3
752.298	8254.37
752.636	8355.61
752.975	8445.78
753.313	8523.97
753.651	8643.29
753.989	8708.37
754.327	8854.81
754.666	8901.59
755.004	9033.56
755.342	9235.59
755.679	9313.78
756.017	9414.12
756.355	9535.7
756.693	9610.95
757.031	9833.09
757.368	9882.58
757.706	10021.56
758.044	10185.4
758.381	10416.12
758.719	10541.77
759.056	10699.73
759.394	10831.93
759.731	10918.48
760.068	11102.43
760.405	11256.33
760.743	11413.84
761.08	11639.82
761.417	11767.95
761.754	11994.39
762.091	12183.08
762.428	12343.53
762.765	12486.35
763.102	12711.21
763.438	12742.84
763.775	12931.31
764.112	13121.36
764.449	13376.5
764.785	13447.68
765.122	13637.06
765.458	13750.05
765.795	13958.4
766.131	14086.08
766.467	14212.63
