Data from hue_24_FLMS001491_00083.txt Node
Date: Tue Feb 07 17:12:52 GMT 2017
User: dcchb
Spectrometer: FLMS00149
Trigger mode: 0
Integration Time (sec): 2.000000E-2
Scans to average: 10
Electric dark correction enabled: true
Nonlinearity correction enabled: false
Boxcar width: 0
XAxis mode: Wavelengths
Number of Pixels in Spectrum: 2048
>>>>>Begin Spectral Data<<<<<
341.393	-9.91
341.776	-9.91
342.16	-9.91
342.543	-48.33
342.927	-63.02
343.31	-75.9
343.693	-55.34
344.077	-65.73
344.46	-74.77
344.843	-54.43
345.226	-46.07
345.61	-40.2
345.993	-45.39
346.376	0.48
346.759	47.94
347.142	12.46
347.525	45.9
347.908	55.85
348.291	81.38
348.674	90.42
349.057	123.41
349.44	133.58
349.823	143.3
350.206	150.53
350.588	195.28
350.971	221.27
351.354	208.38
351.737	255.39
352.119	229.63
352.502	256.97
352.884	279.79
353.267	266.46
353.65	309.17
354.032	309.17
354.414	312.11
354.797	326.57
355.179	326.57
355.562	323.86
355.944	341.71
356.326	331.77
356.709	319.57
357.091	318.21
357.473	347.14
357.855	340.36
358.238	348.27
358.62	307.14
359.002	368.83
359.384	347.59
359.766	357.31
360.148	330.19
360.53	332.22
360.912	336.29
361.294	355.95
361.676	329.06
362.057	348.04
362.439	322.51
362.821	339.68
363.203	339
363.584	329.96
363.966	327.93
364.348	324.54
364.729	337.65
365.111	318.21
365.493	339.23
365.874	307.14
366.256	335.16
366.637	304.2
367.019	326.35
367.4	320.7
367.781	320.92
368.163	316.18
368.544	323.18
368.925	299.91
369.306	307.36
369.688	307.14
370.069	327.48
370.45	294.03
370.831	322.51
371.212	326.35
371.593	313.92
371.974	324.99
372.355	309.85
372.736	329.29
373.117	314.82
373.498	326.35
373.879	317.31
374.26	322.28
374.641	320.02
375.021	320.47
375.402	324.09
375.783	331.09
376.163	325.67
376.544	314.14
376.925	331.77
377.305	325.9
377.686	320.47
378.066	331.32
378.447	331.09
378.827	339
379.208	352.34
379.588	330.87
379.968	338.32
380.349	328.61
380.729	335.39
381.109	351.43
381.489	330.42
381.87	349.85
382.25	332.22
382.63	359.79
383.01	339.68
383.39	333.35
383.77	340.13
384.15	341.71
384.53	338.1
384.91	341.49
385.29	342.62
385.67	330.42
386.049	372.67
386.429	355.95
386.809	370.19
387.189	360.92
387.568	355.27
387.948	355.73
388.328	361.6
388.707	358.44
389.087	374.48
389.466	363.18
389.846	357.76
390.225	348.27
390.605	382.84
390.984	373.58
391.363	365.22
391.743	378.32
392.122	368.83
392.501	354.37
392.881	371.54
393.26	387.59
393.639	379.91
394.018	375.39
394.397	402.5
394.776	379.23
395.155	388.49
395.534	388.49
395.913	381.49
396.292	387.14
396.671	398.21
397.05	373.13
397.429	395.05
397.808	387.36
398.186	395.5
398.565	410.19
398.944	390.07
399.323	382.62
399.701	413.12
400.08	436.4
400.458	413.58
400.837	399.34
401.215	428.27
401.594	414.93
401.972	410.41
402.351	398.66
402.729	414.71
403.107	401.83
403.486	421.03
403.864	421.94
404.242	425.55
404.62	407.93
404.999	425.33
405.377	447.93
405.755	430.75
406.133	420.13
406.511	419
406.889	447.02
407.267	444.08
407.645	445.67
408.023	460.58
408.401	437.98
408.779	442.5
409.156	434.82
409.534	459.45
409.912	474.82
410.29	446.57
410.667	470.98
411.045	463.74
411.422	444.08
411.8	479.11
412.178	461.71
412.555	458.77
412.933	475.27
413.31	472.33
413.687	490.86
414.065	491.31
414.442	514.37
414.819	518.66
415.197	501.03
415.574	507.81
415.951	489.73
416.328	518.66
416.705	513.01
417.082	510.98
417.46	516.4
417.837	524.31
418.214	517.98
418.591	532.67
418.967	530.18
419.344	509.85
419.721	538.77
420.098	548.94
420.475	524.31
420.852	541.48
421.228	522.5
421.605	547.81
421.982	548.49
422.358	536.51
422.735	539.9
423.111	540.58
423.488	558.21
423.864	557.75
424.241	566.57
424.617	560.69
424.994	574.93
425.37	552.56
425.746	578.32
426.123	590.52
426.499	570.86
426.875	583.29
427.251	598.2
427.627	612.22
428.003	597.07
428.379	617.87
428.756	644.76
429.132	619
429.507	618.32
429.883	626.68
430.259	642.72
430.635	650.18
431.011	649.5
431.387	651.31
431.763	670.97
432.138	682.95
432.514	667.58
432.89	658.09
433.265	687.24
433.641	703.06
434.016	682.27
434.392	715.49
434.767	709.61
435.143	698.54
435.518	705.77
435.894	712.78
436.269	718.65
436.644	732.66
437.02	726.56
437.395	751.65
437.77	750.07
438.145	753.68
438.52	741.25
438.895	743.51
439.271	768.37
439.646	776.73
440.021	789.39
440.395	773.12
440.77	774.47
441.145	783.74
441.52	790.06
441.895	797.3
442.27	813.57
442.645	821.7
443.019	825.32
443.394	798.43
443.769	835.71
444.143	814.7
444.518	817.63
444.892	805.88
445.267	839.78
445.641	851.76
446.016	857.86
446.39	856.28
446.764	852.21
447.139	861.93
447.513	862.38
447.887	875.94
448.262	862.83
448.636	892.21
449.01	878.42
449.384	903.96
449.758	881.81
450.132	916.16
450.506	920.91
450.88	929.95
451.254	928.59
451.628	922.49
452.002	931.3
452.376	927.91
452.75	930.17
453.123	967.91
453.497	953.22
453.871	963.62
454.244	976.5
454.618	998.87
454.992	996.39
455.365	1005.43
455.739	1055.82
456.112	1035.03
456.486	1037.06
456.859	1039.77
457.232	1019.21
457.606	1059.21
457.979	1056.05
458.352	1094.69
458.725	1119.55
459.099	1098.3
459.472	1117.74
459.845	1131.75
460.218	1162.71
460.591	1164.29
460.964	1175.36
461.337	1183.5
461.71	1175.36
462.083	1209.26
462.456	1189.38
462.829	1219.66
463.201	1278.19
463.574	1238.64
463.947	1274.8
464.32	1280.45
464.692	1307.34
465.065	1320.67
465.438	1314.57
465.81	1345.3
466.183	1354.79
466.555	1347.56
466.928	1363.16
467.3	1382.59
467.672	1397.28
468.045	1457.39
468.417	1439.09
468.789	1461.46
469.161	1490.16
469.534	1505.75
469.906	1548.01
470.278	1554.56
470.65	1561.8
471.022	1565.41
471.394	1617.61
471.766	1625.07
472.138	1649.02
472.51	1685.63
472.882	1697.84
473.253	1740.55
473.625	1769.47
473.997	1781.9
474.369	1814.22
474.74	1828
475.112	1868
475.484	1894.67
475.855	1933.31
476.227	1949.36
476.598	1988.9
476.97	2031.39
477.341	2074.1
477.713	2080.88
478.084	2102.12
478.455	2169.91
478.827	2242.91
479.198	2248.1
479.569	2260.76
479.94	2335.56
480.311	2366.29
480.682	2418.95
481.053	2482
481.424	2481.32
481.795	2524.26
482.166	2582.33
482.537	2648.32
482.908	2687.42
483.279	2731.26
483.65	2788.88
484.021	2852.16
484.391	2900.06
484.762	2920.18
485.133	2926.73
485.503	3025.71
485.874	3118.14
486.244	3142.09
486.615	3169.89
486.985	3219.83
487.356	3268.87
487.726	3354.29
488.097	3386.83
488.467	3415.53
488.837	3521.07
489.207	3582.53
489.578	3597.22
489.948	3632.25
490.318	3706.82
490.688	3726.48
491.058	3832.02
491.428	3862.07
491.798	3915.18
492.168	3978.23
492.538	4007.15
492.908	4015.74
493.278	4117.66
493.648	4130.77
494.017	4166.92
494.387	4225
494.757	4259.13
495.126	4333.7
495.496	4385.9
495.866	4370.31
496.235	4421.61
496.605	4447.82
496.974	4520.81
497.344	4522.17
497.713	4590.87
498.082	4641.94
498.452	4657.31
498.821	4716.51
499.19	4723.75
499.559	4761.94
499.928	4790.41
500.298	4839.68
500.667	4883.29
501.036	4906.57
501.405	4922.84
501.774	4960.8
502.143	4990.63
502.512	5060.23
502.88	5053.23
503.249	5046.9
503.618	5132.77
503.987	5193.79
504.356	5172.32
504.724	5226.78
505.093	5215.94
505.462	5295.26
505.83	5292.54
506.199	5305.43
506.567	5341.58
506.936	5392.65
507.304	5457.74
507.672	5483.73
508.041	5449.83
508.409	5515.82
508.777	5539.32
509.145	5577.51
509.514	5543.61
509.882	5568.24
510.25	5631.74
510.618	5657.51
510.986	5681.69
511.354	5742.25
511.722	5762.14
512.09	5773.66
512.458	5801.46
512.826	5879.42
513.193	5899.31
513.561	5839.2
513.929	5890.49
514.297	5956.71
514.664	6009.36
515.032	6025.63
515.4	6054.78
515.767	6099.75
516.135	6120.09
516.502	6116.48
516.869	6176.36
517.237	6208.23
517.604	6221.33
517.972	6208.9
518.339	6301.11
518.706	6280.32
519.073	6358.51
519.44	6340.2
519.808	6364.61
520.175	6377.26
520.542	6396.02
520.909	6540.42
521.276	6439.41
521.643	6515.56
522.009	6551.72
522.376	6527.99
522.743	6619.97
523.11	6669.91
523.477	6699.74
523.843	6749.46
524.21	6751.26
524.577	6856.8
524.943	6896.12
525.31	6838.49
525.676	6931.6
526.043	7004.82
526.409	7004.14
526.776	7018.6
527.142	7069.45
527.508	7161.87
527.874	7161.42
528.241	7181.31
528.607	7267.63
528.973	7294.53
529.339	7305.15
529.705	7412.71
530.071	7420.17
530.437	7431.02
530.803	7491.58
531.169	7527.06
531.535	7542.2
531.901	7528.42
532.267	7619.04
532.632	7611.58
532.998	7715.98
533.364	7687.28
533.73	7706.49
534.095	7835.3
534.461	7796.89
534.826	7844.79
535.192	7889.31
535.557	7923.21
535.923	7953.04
536.288	8008.41
536.653	8029.87
537.019	8034.17
537.384	8056.09
537.749	8005.47
538.114	8077.78
538.479	8114.17
538.845	8209.08
539.21	8209.98
539.575	8293.82
539.94	8293.14
540.305	8351.45
540.67	8270.55
541.034	8409.98
541.399	8381.5
541.764	8392.35
542.129	8457.43
542.494	8410.2
542.858	8517.09
543.223	8541.72
543.587	8612.68
543.952	8594.6
544.316	8623.98
544.681	8624.21
545.045	8695.84
545.41	8750.53
545.774	8781.94
546.138	8810.19
546.503	8820.14
546.867	8831.43
547.231	8916.86
547.595	8957.53
547.959	8982.62
548.324	8997.98
548.688	8995.95
549.052	9061.94
549.416	9066
549.779	9082.28
550.143	9105.55
550.507	9169.05
550.871	9216.74
551.235	9224.64
551.599	9329.27
551.962	9295.6
552.326	9365.43
552.689	9375.15
553.053	9358.65
553.417	9402.04
553.78	9496.05
554.143	9431.42
554.507	9523.17
554.87	9494.47
555.234	9679.1
555.597	9540.79
555.96	9676.61
556.323	9668.02
556.686	9690.85
557.05	9731.3
557.413	9744.4
557.776	9763.16
558.139	9850.16
558.502	9853.1
558.865	9877.73
559.228	9880.9
559.59	9971.74
559.953	10012.87
560.316	10009.71
560.679	10094.68
561.041	10128.12
561.404	10150.04
561.767	10196.82
562.129	10210.61
562.492	10304.16
562.854	10219.42
563.217	10251.28
563.579	10339.87
563.941	10365.18
564.304	10403.82
564.666	10501.22
565.028	10541.9
565.39	10529.69
565.753	10586.64
566.115	10614.66
566.477	10645.17
566.839	10717.49
567.201	10756.58
567.563	10752.74
567.925	10818.95
568.287	10900.31
568.648	10869.12
569.01	10923.36
569.372	10975.56
569.734	10997.48
570.095	11098.49
570.457	11143.92
570.819	11128.1
571.18	11129.45
571.542	11223.01
571.903	11245.38
572.265	11319.05
572.626	11357.24
572.987	11424.13
573.349	11424.36
573.71	11569.22
574.071	11572.83
574.432	11638.59
574.794	11771.02
575.155	11769.89
575.516	11786.16
575.877	11843.78
576.238	11929.43
576.599	12106.38
576.96	12098.02
577.32	12248.75
577.681	12207.39
578.042	12340.04
578.403	12348.63
578.763	12509.76
579.124	12649.19
579.485	12695.51
579.845	12843.98
580.206	12927.15
580.566	13018.22
580.927	13210.53
581.287	13396.06
581.648	13322.39
582.008	13571.42
582.368	13732.77
582.728	13819.78
583.089	13917.18
583.449	14114.01
583.809	14264.74
584.169	14513.77
584.529	14587.22
584.889	14838.06
585.249	14963.7
585.609	15157.6
585.969	15437.36
586.329	15617.92
586.688	15863.34
587.048	16052.71
587.408	16239.15
587.768	16485.92
588.127	16680.04
588.487	16794.39
588.846	17292
589.206	17431.89
589.565	17692.44
589.925	18009.05
590.284	18225.76
590.643	18484.06
591.003	18788.01
591.362	19107.77
591.721	19292.63
592.08	19539.18
592.44	19896.23
592.799	20194.75
593.158	20492.14
593.517	20689.43
593.876	21096.65
594.235	21258.68
594.593	21751.32
594.952	22034.25
595.311	22162.61
595.67	22540
596.029	23043.26
596.387	23453.87
596.746	23685.73
597.104	23806.86
597.463	24204.36
597.822	24539.5
598.18	24850.45
598.538	25101.29
598.897	25521.17
599.255	25536.53
599.613	26239.56
599.972	26402.27
600.33	26702.6
600.688	26940.11
601.046	27334.9
601.404	27679.07
601.762	27893.53
602.12	28361.99
602.478	28595.43
602.836	28904.58
603.194	29077
603.552	29456.2
603.91	29632.24
604.268	30084.89
604.625	30197.43
604.983	30679.9
605.341	30734.59
605.698	31221.13
606.056	31436.72
606.413	31651.17
606.771	31933.88
607.128	32202.35
607.485	32302.46
607.843	32516.24
608.2	33008.2
608.557	33301.53
608.914	33419.71
609.272	33749.2
609.629	33996.87
609.986	34482.74
610.343	34419.91
610.7	34951.2
611.057	35017.64
611.414	35310.29
611.771	35456.5
612.127	35705.08
612.484	35876.83
612.841	36100.1
613.198	36126.54
613.554	36396.13
613.911	36665.28
614.267	36852.17
614.624	37039.73
614.98	37296.9
615.337	37571.7
615.693	37779.83
616.05	37869.09
616.406	38182.98
616.762	38114.51
617.118	38340.72
617.475	38514.27
617.831	38605.79
618.187	38784.77
618.543	38993.81
618.899	39382.04
619.255	39420.23
619.611	39502.49
619.967	39615.48
620.323	39819.55
620.678	39847.34
621.034	39889.6
621.39	40137.96
621.746	39951.07
622.101	40659.3
622.457	40261.34
622.812	40688.22
623.168	40899.97
623.523	40906.07
623.879	41079.4
624.234	40905.17
624.589	41175.44
624.945	41411.82
625.3	41325.27
625.655	41320.3
626.01	41469.22
626.365	41602.32
626.72	41592.61
627.075	41546.73
627.43	41663.11
627.785	41712.38
628.14	41800.06
628.495	41876.22
628.85	41935.2
629.205	41915.76
629.559	42129.99
629.914	42030.79
630.269	42135.64
630.623	42072.82
630.978	42039.6
631.332	42410.21
631.687	42514.16
632.041	42211.35
632.396	42404.56
632.75	42259.71
633.104	42385.35
633.459	42303.1
633.813	42291.57
634.167	42190.78
634.521	42354.62
634.875	42581.06
635.229	42282.31
635.583	42414.96
635.937	42405.69
636.291	42368.63
636.645	42450.66
636.999	42320.5
637.352	42366.37
637.706	42253.38
638.06	42453.15
638.413	42235.3
638.767	42214.51
639.121	42546.25
639.474	42331.12
639.828	42280.72
640.181	42324.79
640.534	42367.95
640.888	42240.5
641.241	42129.99
641.594	42238.92
641.947	42435.97
642.301	42113.95
642.654	42261.97
643.007	42314.85
643.36	42159.82
643.713	42127.96
644.066	42473.71
644.419	42110.33
644.771	41903.56
645.124	41563.91
645.477	41518.48
645.83	41276.23
646.182	41027.42
646.535	41134.09
646.888	41092.06
647.24	41016.58
647.593	41158.27
647.945	41114.2
648.298	41047.54
648.65	40843.93
649.002	40910.36
649.355	41118.04
649.707	41079.17
650.059	41275.33
650.411	41854.07
650.763	41621.31
651.115	42067.62
651.467	41892.26
651.819	42000.28
652.171	41838.02
652.523	41676.22
652.875	41688.65
653.227	41709.67
653.578	41860.85
653.93	41756.44
654.282	41745.37
654.633	41580.4
654.985	41609.1
655.337	41645.49
655.688	41744.24
656.039	41746.28
656.391	41454.76
656.742	41623.11
657.094	41587.41
657.445	41861.07
657.796	41475.55
658.147	41565.94
658.498	41488.2
658.849	41726.61
659.2	41475.1
659.551	41399.62
659.902	41698.59
660.253	41459.05
660.604	41537.02
660.955	41326.17
661.306	41598.03
661.656	41409.79
662.007	41490.24
662.358	41353.97
662.708	41409.79
663.059	41515.09
663.409	41292.5
663.76	41565.49
664.11	41445.49
664.461	41576.56
664.811	41466.51
665.161	41563
665.511	41434.87
665.862	41582.66
666.212	41516.45
666.562	41574.08
666.912	41388.09
667.262	41363.23
667.612	41372.27
667.962	41367.53
668.312	41321.2
668.662	41539.5
669.011	41349.45
669.361	41280.75
669.711	41261.54
670.06	41280.52
670.41	41223.13
670.76	41079.85
671.109	41281.43
671.459	41145.61
671.808	41055.9
672.157	41215.22
672.507	40954.66
672.856	41010.7
673.205	41087.76
673.554	41350.58
673.904	41100.19
674.253	41343.8
674.602	41194.88
674.951	40556.93
675.3	40453.65
675.649	41018.16
675.998	40978.16
676.346	40979.52
676.695	41232.16
677.044	40877.15
677.393	41056.35
677.741	40845.96
678.09	40849.58
678.438	40801.89
678.787	40977.71
679.135	40930.48
679.484	40635.12
679.832	40765.96
680.181	40515.12
680.529	40662.69
680.877	40584.05
681.225	40372.07
681.573	40661.78
681.922	40280.1
682.27	40253.43
682.618	40281.23
682.966	40214.56
683.314	40176.82
683.661	40070.16
684.009	39975.02
684.357	39886.89
684.705	39964.18
685.053	39872.65
685.4	39852.99
685.748	39750.17
686.095	39835.14
686.443	39655.03
686.79	39588.37
687.138	39710.85
687.485	39565.99
687.832	39496.62
688.18	39509.72
688.527	39259.11
688.874	39267.24
689.221	39110.64
689.568	39123.52
689.915	39122.62
690.262	39113.35
690.609	38953.35
690.956	38819.8
691.303	38791.55
691.65	38670.88
691.997	38686.47
692.344	38457.77
692.69	38381.39
693.037	38338.68
693.383	38010.33
693.73	38041.74
694.077	38091.91
694.423	38036.77
694.769	37938.24
695.116	37822.99
695.462	37663.44
695.808	37609.21
696.155	37657.12
696.501	37314.3
696.847	37314.53
697.193	37048.77
697.539	37242.21
697.885	36928.55
698.231	36914.31
698.577	36969.68
698.923	36802
699.269	36618.05
699.614	36529.46
699.96	36498.96
700.306	36369.24
700.651	36326.3
700.997	36360.88
701.342	36057.39
701.688	36142.13
702.033	35979.65
702.379	36058.06
702.724	35738.07
703.069	35859.65
703.415	35616.94
703.76	35495.37
704.105	35556.16
704.45	35597.96
704.795	35272.55
705.14	35251.08
705.485	35256.73
705.83	35044.08
706.175	35033.46
706.52	34973.8
706.865	34927.92
707.209	34848.15
707.554	34708.72
707.899	34823.07
708.243	34645.44
708.588	34553.7
708.932	34285
709.277	34253.14
709.621	34425.34
709.966	34163.2
710.31	34231.22
710.654	33792.13
710.998	33925.69
711.342	34063.09
711.687	33790.78
712.031	33653.61
712.375	33508.53
712.719	33660.39
713.063	33564.12
713.407	33787.16
713.75	33407.51
714.094	33365.25
714.438	33341.3
714.782	33262.66
715.125	33234.41
715.469	33208.42
715.812	33029.22
716.156	32855.89
716.499	32847.53
716.843	32881.2
717.186	32661.99
717.53	32886.85
717.873	32812.72
718.216	32675.55
718.559	32706.96
718.902	32446.86
719.246	32521.88
719.589	32423.36
719.932	32299.97
720.275	32250.03
720.617	32282.34
720.96	32190.37
721.303	32240.08
721.646	32161.22
721.989	32010.94
722.331	32027.66
722.674	32000.09
723.016	31939.3
723.359	31856.82
723.701	32012.29
724.044	31568.46
724.386	31671.96
724.729	31616.15
725.071	31697.05
725.413	31536.37
725.755	31441.69
726.097	31333.22
726.439	31349.26
726.782	31345.87
727.124	31408.47
727.465	31179.55
727.807	31110.17
728.149	31088.7
728.491	30971.42
728.833	31227.91
729.175	30940.01
729.516	30962.15
729.858	30790.86
730.199	30881.48
730.541	30772.55
730.882	30824.75
731.224	30921.02
731.565	30658.66
731.906	30670.63
732.248	30765.77
732.589	30607.59
732.93	30350.64
733.271	30501.6
733.612	30363.75
733.953	30451.88
734.294	30247.59
734.635	30349.96
734.976	30226.58
735.317	30138.9
735.658	30189.06
735.999	30203.98
736.339	30096.41
736.68	30217.31
737.021	30126.69
737.361	29966.02
737.702	30004.21
738.042	29832.01
738.383	29841.28
738.723	29948.17
739.063	29747.72
739.404	29857.55
739.744	29735.29
740.084	29631.57
740.424	29742.75
740.764	29561.74
741.104	29814.39
741.444	29559.7
741.784	29376.66
742.124	29587.5
742.464	29515.18
742.804	29504.79
743.143	29292.14
743.483	29462.08
743.823	29133.5
744.162	29205.59
744.502	29357.22
744.841	29147.28
745.181	29160.39
745.52	29144.8
745.86	29084.24
746.199	29137.12
746.538	29084.91
746.877	29113.61
747.216	29062.09
747.556	28852.38
747.895	28920.17
748.234	28809.89
748.573	28799.72
748.911	28650.8
749.25	28767.63
749.589	28724.92
749.928	28641.99
750.267	28692.16
750.605	28519.5
750.944	28413.74
751.283	28364.93
751.621	28431.82
751.96	28420.3
752.298	28264.14
752.636	28343.46
752.975	28133.3
753.313	28038.16
753.651	28194.99
753.989	27981.21
754.327	27971.95
754.666	27783.93
755.004	27817.15
755.342	27878.84
755.679	27721.11
756.017	27659.41
756.355	27794.33
756.693	27507.1
757.031	27556.82
757.368	27574.44
757.706	27374
758.044	27302.81
758.381	27426.88
758.719	27396.14
759.056	27304.4
759.394	27242.25
759.731	27068.47
760.068	27113.44
