Data from hue_34_FLMS001491_00019.txt Node
Date: Tue Feb 07 17:25:16 GMT 2017
User: dcchb
Spectrometer: FLMS00149
Trigger mode: 0
Integration Time (sec): 2.000000E-2
Scans to average: 10
Electric dark correction enabled: true
Nonlinearity correction enabled: false
Boxcar width: 0
XAxis mode: Wavelengths
Number of Pixels in Spectrum: 2048
>>>>>Begin Spectral Data<<<<<
341.393	-7.26
341.776	-7.26
342.16	-7.26
342.543	-51.78
342.927	-60.82
343.31	-61.72
343.693	-86.58
344.077	-56.98
344.46	-59.69
344.843	-52
345.226	-53.36
345.61	-34.83
345.993	-31.44
346.376	3.81
346.759	17.37
347.142	32.97
347.525	43.59
347.908	59.41
348.291	89.01
348.674	82.91
349.057	107.54
349.44	138.27
349.823	141.66
350.206	156.58
350.588	217.14
350.971	190.02
351.354	235.45
351.737	240.42
352.119	262.56
352.502	270.02
352.884	277.25
353.267	288.1
353.65	291.94
354.032	314.99
354.414	317.93
354.797	323.35
355.179	331.94
355.562	345.95
355.944	331.71
356.326	330.81
356.709	350.25
357.091	322.22
357.473	355.44
357.855	351.6
358.238	351.15
358.62	344.6
359.002	327.87
359.384	343.47
359.766	339.62
360.148	322.45
360.53	369.45
360.912	367.19
361.294	359.51
361.676	345.05
362.057	327.42
362.439	350.47
362.821	351.15
363.203	333.3
363.584	326.06
363.966	319.96
364.348	351.83
364.729	328.78
365.111	330.58
365.493	328.55
365.874	317.03
366.256	340.3
366.637	319.96
367.019	304.14
367.4	316.57
367.781	324.03
368.163	324.93
368.544	306.4
368.925	317.48
369.306	307.31
369.688	319.51
370.069	331.26
370.45	337.59
370.831	332.17
371.212	347.76
371.593	308.66
371.974	324.03
372.355	319.96
372.736	317.7
373.117	313.64
373.498	339.17
373.879	335.1
374.26	347.08
374.641	320.19
375.021	340.75
375.402	331.94
375.783	308.89
376.163	330.36
376.544	324.48
376.925	323.35
377.305	339.62
377.686	338.95
378.066	360.64
378.447	325.16
378.827	349.79
379.208	332.17
379.588	336.46
379.968	331.71
380.349	338.49
380.729	313.41
381.109	333.07
381.489	328.1
381.87	344.6
382.25	352.28
382.63	349.79
383.01	347.99
383.39	345.5
383.77	375.78
384.15	349.34
384.53	355.67
384.91	346.4
385.29	363.35
385.67	337.82
386.049	353.41
386.429	345.5
386.809	380.53
387.189	383.24
387.568	366.97
387.948	356.12
388.328	371.04
388.707	359.28
389.087	375.56
389.466	380.53
389.846	373.3
390.225	375.56
390.605	385.27
390.984	389.11
391.363	384.82
391.743	363.35
392.122	377.59
392.501	374.2
392.881	388.44
393.26	386.4
393.639	362.9
394.018	392.5
394.397	381.66
394.776	373.52
395.155	372.62
395.534	386.4
395.913	395.22
396.292	395.89
396.671	417.14
397.05	398.15
397.429	384.59
397.808	382.79
398.186	394.99
398.565	417.59
398.944	408.77
399.323	388.21
399.701	418.72
400.08	408.77
400.458	403.35
400.837	410.13
401.215	411.49
401.594	405.16
401.972	416.68
402.351	413.07
402.729	434.08
403.107	411.94
403.486	419.4
403.864	435.44
404.242	420.75
404.62	434.99
404.999	396.35
405.377	438.15
405.755	427.08
406.133	419.85
406.511	429.79
406.889	443.8
407.267	434.08
407.645	443.35
408.023	437.7
408.401	427.53
408.779	444.93
409.156	444.71
409.534	456
409.912	439.28
410.29	456.68
410.667	462.11
411.045	470.02
411.422	476.12
411.8	456
412.178	485.83
412.555	455.33
412.933	469.34
413.31	478.83
413.687	480.64
414.065	481.09
414.442	484.93
414.819	496.46
415.197	482.22
415.574	514.99
415.951	495.78
416.328	518.15
416.705	496.46
417.082	492.39
417.46	499.62
417.837	509.79
418.214	521.31
418.591	518.15
418.967	508.66
419.344	540.07
419.721	529.68
420.098	537.13
420.475	522.9
420.852	540.97
421.228	519.96
421.605	536.23
421.982	544.59
422.358	554.53
422.735	559.73
423.111	524.7
423.488	527.19
423.864	577.36
424.241	573.74
424.617	559.28
424.994	542.78
425.37	566.96
425.746	576.23
426.123	551.6
426.499	594.31
426.875	598.37
427.251	599.05
427.627	570.13
428.003	589.11
428.379	604.25
428.756	594.31
429.132	606.06
429.507	606.06
429.883	623.91
430.259	639.05
430.635	593.18
431.011	646.28
431.387	675.66
431.763	646.06
432.138	640.86
432.514	639.28
432.89	656.23
433.265	661.42
433.641	676.11
434.016	669.11
434.392	669.56
434.767	693.06
435.143	704.59
435.518	676.11
435.894	701.2
436.269	720.63
436.644	722.44
437.02	712.5
437.395	729.22
437.77	708.2
438.145	727.86
438.52	722.66
438.895	740.07
439.271	758.14
439.646	757.47
440.021	758.37
440.395	755.66
440.77	756.34
441.145	765.83
441.52	787.07
441.895	777.13
442.27	783
442.645	773.28
443.019	811.48
443.394	783.45
443.769	788.88
444.143	808.09
444.518	816.45
444.892	815.09
445.267	798.59
445.641	811.25
446.016	829.55
446.39	819.84
446.764	837.69
447.139	843.11
447.513	836.56
447.887	852.83
448.262	829.55
448.636	852.15
449.01	854.86
449.384	850.8
449.758	886.5
450.132	869.1
450.506	881.76
450.88	873.85
451.254	883.11
451.628	886.73
452.002	905.94
452.376	924.02
452.75	915.65
453.123	932.83
453.497	940.96
453.871	921.76
454.244	953.62
454.618	964.01
454.992	949.78
455.365	965.37
455.739	982.09
456.112	990.91
456.486	1008.31
456.859	1013.5
457.232	1024.35
457.606	1008.76
457.979	1002.43
458.352	1056.89
458.725	1056.89
459.099	1071.13
459.472	1097.34
459.845	1091.47
460.218	1090.56
460.591	1115.2
460.964	1119.04
461.337	1143.22
461.71	1177.57
462.083	1163.56
462.456	1159.26
462.829	1186.83
463.201	1198.58
463.574	1206.27
463.947	1233.84
464.32	1226.15
464.692	1254.63
465.065	1258.02
465.438	1264.12
465.81	1297.11
466.183	1286.94
466.555	1331.46
466.928	1333.5
467.3	1364.46
467.672	1373.27
468.045	1408.07
468.417	1399.26
468.789	1426.15
469.161	1449.88
469.534	1476.77
469.906	1513.6
470.278	1540.95
470.65	1540.5
471.022	1575.3
471.394	1567.16
471.766	1591.79
472.138	1635.18
472.51	1660.04
472.882	1694.84
473.253	1724.45
473.625	1725.58
473.997	1786.59
474.369	1820.94
474.74	1850.32
475.112	1900.71
475.484	1907.04
475.855	1945.01
476.227	1985.91
476.598	2028.84
476.97	2097.54
477.341	2122.63
477.713	2175.06
478.084	2215.28
478.455	2235.17
478.827	2281.95
479.198	2350.42
479.569	2392.68
479.94	2441.72
480.311	2495.05
480.682	2642.84
481.053	2659.34
481.424	2735.49
481.795	2781.37
482.166	2825.66
482.537	2877.86
482.908	3022.27
483.279	3008.03
483.65	3135.93
484.021	3210.51
484.391	3258.42
484.762	3354.69
485.133	3397.62
485.503	3428.36
485.874	3583.38
486.244	3629.48
486.615	3738.63
486.985	3784.51
487.356	3894.11
487.726	3964.84
488.097	4058.4
488.467	4105.17
488.837	4232.85
489.207	4306.53
489.578	4409.8
489.948	4494.99
490.318	4623.58
490.688	4639.85
491.058	4743.8
491.428	4823.12
491.798	4930.46
492.168	5040.97
492.538	5156.45
492.908	5184.02
493.278	5279.83
493.648	5348.53
494.017	5488.19
494.387	5527.51
494.757	5639.37
495.126	5668.52
495.496	5727.05
495.866	5845.92
496.235	5912.58
496.605	6017.89
496.974	6086.14
497.344	6178.34
497.713	6203.65
498.082	6278.22
498.452	6423.53
498.821	6497.43
499.19	6477.77
499.559	6575.39
499.928	6611.32
500.298	6710.08
500.667	6837.08
501.036	6830.53
501.405	6978.09
501.774	7033.01
502.143	7097.64
502.512	7059.22
502.88	7258.76
503.249	7241.36
503.618	7344.64
503.987	7325.88
504.356	7446.1
504.724	7491.53
505.093	7573.33
505.462	7522.94
505.83	7671.18
506.199	7797.28
506.567	7877.96
506.936	7866.43
507.304	7879.31
507.672	8056.26
508.041	8066.2
508.409	8136.25
508.777	8180.1
509.145	8244.73
509.514	8302.13
509.882	8356.14
510.25	8412.86
510.618	8493.99
510.986	8489.01
511.354	8551.61
511.722	8650.37
512.09	8709.57
512.458	8695.79
512.826	8755.9
513.193	8817.14
513.561	8894.65
513.929	8906.63
514.297	9000.64
514.664	9039.06
515.032	9066.4
515.4	9143.91
515.767	9171.48
516.135	9265.72
516.502	9233.85
516.869	9422.55
517.237	9465.49
517.604	9394.08
517.972	9467.07
518.339	9542.77
518.706	9589.55
519.073	9584.8
519.44	9718.13
519.808	9747.96
520.175	9692.37
520.542	9893.04
520.909	9927.62
521.276	9918.81
521.643	9965.81
522.009	10072.25
522.376	10065.7
522.743	10172.59
523.11	10257.56
523.477	10348.63
523.843	10358.57
524.21	10532.12
524.577	10551.11
524.943	10577.55
525.31	10689.86
525.676	10729.41
526.043	10804.43
526.409	10806.47
526.776	10883.08
527.142	10889.85
527.508	11067.25
527.874	11069.74
528.241	11175.27
528.607	11231.31
528.973	11328.26
529.339	11336.17
529.705	11366.45
530.071	11488.94
530.437	11541.82
530.803	11553.34
531.169	11675.14
531.535	11644.41
531.901	11720.12
532.267	11739.55
532.632	11752.43
532.998	11863.84
533.364	11906.55
533.73	12043.27
534.095	12079.65
534.461	12062.03
534.826	12138.86
535.192	12249.14
535.557	12223.83
535.923	12337.27
536.288	12407.1
536.653	12454.79
537.019	12452.98
537.384	12399.19
537.749	12546.53
538.114	12605.97
538.479	12650.49
538.845	12695.01
539.21	12679.86
539.575	12781.1
539.94	12826.3
540.305	12894.32
540.67	12841.67
541.034	13004.83
541.399	13035.79
541.764	13059.74
542.129	13069.68
542.494	13153.98
542.858	13184.03
543.223	13309.45
543.587	13278.27
543.952	13303.58
544.316	13432.61
544.681	13379.51
545.045	13431.48
545.41	13448.43
545.774	13591.93
546.138	13701.53
546.503	13726.62
546.867	13697.92
547.231	13799.16
547.595	13812.49
547.959	13889.55
548.324	13895.43
548.688	13919.15
549.052	13939.04
549.416	14081.86
549.779	14150.79
550.143	14144.01
550.507	14168.41
550.871	14209.77
551.235	14218.58
551.599	14445.69
551.962	14464
552.326	14492.92
552.689	14528.86
553.053	14493.15
553.417	14540.15
553.78	14736.31
554.143	14708.51
554.507	14711.22
554.87	14806.14
555.234	14957.32
555.597	14862.41
555.96	14872.35
556.323	15017.88
556.686	14988.5
557.05	15100.82
557.413	15093.59
557.776	15155.96
558.139	15233.7
558.502	15214.26
558.865	15336.74
559.228	15383.52
559.59	15426.23
559.953	15502.16
560.316	15595.95
560.679	15553.01
561.041	15676.17
561.404	15747.58
561.767	15884.75
562.129	15802.72
562.492	16052.21
562.854	15962.72
563.217	16016.95
563.579	16020.12
563.941	16148.93
564.304	16261.24
564.666	16282.93
565.028	16281.35
565.39	16353.67
565.753	16416.04
566.115	16488.13
566.477	16604.28
566.839	16637.27
567.201	16771.28
567.563	16688.8
567.925	16853.31
568.287	16778.29
568.648	16885.63
569.01	17098.28
569.372	17108
569.734	17027.32
570.095	17218.05
570.457	17356.35
570.819	17311.38
571.18	17331.49
571.542	17527.65
571.903	17470.7
572.265	17582.11
572.626	17645.84
572.987	17854.87
573.349	17867.3
573.71	17865.04
574.071	17986.17
574.432	18064.36
574.794	18334.63
575.155	18436.32
575.516	18339.83
575.877	18454.18
576.238	18597.22
576.599	18674.96
576.96	18717.22
577.32	18805.13
577.681	18998.12
578.042	19088.28
578.403	19180.71
578.763	19384.55
579.124	19439.01
579.485	19683.07
579.845	19770.98
580.206	19944.98
580.566	20053
580.927	20143.17
581.287	20338.42
581.648	20489.38
582.008	20702.48
582.368	20878.07
582.728	21033.09
583.089	21199.87
583.449	21375.45
583.809	21599.18
584.169	21809.12
584.529	21960.3
584.889	22288.65
585.249	22371.81
585.609	22604.12
585.969	22854.96
586.329	22978.35
586.688	23230.55
587.048	23423.08
587.408	23679.58
587.768	23818.55
588.127	24078.21
588.487	24248.15
588.846	24687.91
589.206	24717.29
589.565	25026.43
589.925	25379.87
590.284	25525.63
590.643	25740.76
591.003	25973.75
591.362	26371.93
591.721	26628.65
592.08	26756.78
592.44	27211.91
592.799	27273.15
593.158	27439.25
593.517	27844.89
593.876	28109.97
594.235	28268.16
594.593	28486.45
594.952	28792.89
595.311	28847.8
595.67	29145.42
596.029	29614.33
596.387	29865.85
596.746	30073.53
597.104	30214.32
597.463	30437.14
597.822	30809.56
598.18	30829.67
598.538	31085.03
598.897	31554.4
599.255	31587.16
599.613	32035.97
599.972	32065.34
600.33	32406.58
600.688	32560.47
601.046	32751.65
601.404	33199.32
601.762	33343.05
602.12	33654.68
602.478	33837.5
602.836	33962.02
603.194	34003.82
603.552	34271.16
603.91	34337.83
604.268	34782.11
604.625	34777.14
604.983	35102.1
605.341	35028.66
605.698	35346.16
606.056	35566.27
606.413	35785.92
606.771	35987.27
607.128	36172.13
607.485	36129.19
607.843	36366.7
608.2	36622.29
608.557	36778.89
608.914	36806.91
609.272	37286.67
609.629	37336.62
609.986	37680.34
610.343	37508.59
610.7	38019.09
611.057	38001.46
611.414	38034.45
611.771	38327.78
612.127	38489.36
612.484	38578.17
612.841	38789.46
613.198	38739.52
613.554	39072.84
613.911	39271.71
614.267	39217.25
614.624	39227.19
614.98	39548.08
615.337	39870.79
615.693	39740.62
616.05	39810
616.406	40118.46
616.762	40190.1
617.118	40208.63
617.475	40238.01
617.831	40364.79
618.187	40579.24
618.543	40784.89
618.899	40911.21
619.255	40830.76
619.611	40853.13
619.967	41207.25
620.323	41275.27
620.678	41141.71
621.034	41122.73
621.39	41365.89
621.746	41273.46
622.101	41757.52
622.457	41568.37
622.812	41610.86
623.168	41837.97
623.523	41838.87
623.879	42033.44
624.234	41749.38
624.589	42093.1
624.945	42091.07
625.3	42250.84
625.655	42224.62
626.01	42190.05
626.365	42378.07
626.72	42362.7
627.075	42359.31
627.43	42302.14
627.785	42383.94
628.14	42570.38
628.495	42545.52
628.85	42454.9
629.205	42358.41
629.559	42649.47
629.914	42443.38
630.269	42453.09
630.623	42467.33
630.978	42409.7
631.332	42506.65
631.687	42785.29
632.041	42597.27
632.396	42597.95
632.75	42451.96
633.104	42662.13
633.459	42549.36
633.813	42586.87
634.167	42497.16
634.521	42601.56
634.875	42621.45
635.229	42542.13
635.583	42369.03
635.937	42439.53
636.291	42317.28
636.645	42465.3
636.999	42344.62
637.352	42571.06
637.706	42370.16
638.06	42494.45
638.413	42538.06
638.767	42363.38
639.121	42347.11
639.474	42192.99
639.828	42367.67
640.181	42351.85
640.534	42354.79
640.888	42295.13
641.241	41981.92
641.594	42186.66
641.947	42323.38
642.301	42240.44
642.654	42092.2
643.007	42137.39
643.36	42221.01
643.713	42152.76
644.066	42193.44
644.419	42126.77
644.771	41930.17
645.124	41355.49
645.477	41438.2
645.83	41151.21
646.182	41029.4
646.535	40893.36
646.888	41088.16
647.24	40809.97
647.593	41033.7
647.945	40860.59
648.298	40661.05
648.65	40739.92
649.002	40648.17
649.355	40813.36
649.707	40765.23
650.059	41043.41
650.411	41508.94
650.763	41392.56
651.115	41821.7
651.467	41482.72
651.819	41652.21
652.171	41533.12
652.523	41516.39
652.875	41364.76
653.227	41380.8
653.578	41549.84
653.93	41473.46
654.282	41271.88
654.633	41271.88
654.985	41372.67
655.337	41336.96
655.688	41407.47
656.039	41566.56
656.391	41246.34
656.742	41333.12
657.094	41350.75
657.445	41417.64
657.796	41245.21
658.147	41256.29
658.498	41315.04
658.849	41448.37
659.2	41360.69
659.551	41096.52
659.902	41360.01
660.253	41167.02
660.604	41271.65
660.955	41071.89
661.306	41251.32
661.656	41187.36
662.007	41188.49
662.358	41155.05
662.708	41297.42
663.059	41094.94
663.409	40853.13
663.76	41235.05
664.11	41142.62
664.461	41184.65
664.811	41109.63
665.161	41096.29
665.511	41024.66
665.862	40960.7
666.212	41017.2
666.562	41228.49
666.912	41078.21
667.262	41104.2
667.612	41088.83
667.962	41144.43
668.312	40993.92
668.662	41318.89
669.011	41112.34
669.361	41066.24
669.711	41061.94
670.06	40975.17
670.41	40965.9
670.76	40912.34
671.109	41049.29
671.459	41037.99
671.808	40733.14
672.157	41032.79
672.507	40646.81
672.856	40707.38
673.205	40760.48
673.554	40980.82
673.904	40842.74
674.253	40981.95
674.602	40800.71
674.951	40178.58
675.3	40220.38
675.649	40766.13
675.998	40732.01
676.346	40755.06
676.695	40843.19
677.044	40552.58
677.393	40589.41
677.741	40659.47
678.09	40466.7
678.438	40523.65
678.787	40680.03
679.135	40429.42
679.484	40182.64
679.832	40438
680.181	40100.84
680.529	40281.4
680.877	40141.06
681.225	40154.85
681.573	40317.78
681.922	40055.42
682.27	40038.02
682.618	40089.54
682.966	39908.53
683.314	39971.58
683.661	39825.59
684.009	39638.25
684.357	39618.59
684.705	39489.55
685.053	39636.22
685.4	39451.82
685.748	39394.19
686.095	39317.58
686.443	39317.13
686.79	39153.52
687.138	39276.45
687.485	39275.55
687.832	39215.66
688.18	39167.98
688.527	38891.6
688.874	38937.03
689.221	38957.37
689.568	38723.7
689.915	38692.06
690.262	38586.08
690.609	38623.14
690.956	38567.09
691.303	38464.05
691.65	38262.92
691.997	38279.64
692.344	38148.35
692.69	38173.66
693.037	37977.73
693.383	37677.17
693.73	37786.1
694.077	37603.95
694.423	37638.98
694.769	37533.45
695.116	37429.04
695.462	37455.48
695.808	37390.18
696.155	37287.8
696.501	37098.88
696.847	37100.92
697.193	36779.8
697.539	36928.27
697.885	36674.49
698.231	36519.01
698.577	36667.71
698.923	36556.75
699.269	36272.01
699.614	36178.46
699.96	36183.65
700.306	36164.67
700.651	35994.96
700.997	35835.64
701.342	35758.81
701.688	35766.26
702.033	35686.49
702.379	35529.88
702.724	35590
703.069	35660.05
703.415	35218.93
703.76	35320.4
704.105	35233.85
704.45	35081.54
704.795	34856
705.14	34928.09
705.485	34740.53
705.83	34585.73
706.175	34763.13
706.52	34647.42
706.865	34559.74
707.209	34387.09
707.554	34359.52
707.899	34437.26
708.243	34246.3
708.588	34124.72
708.932	33945.75
709.277	33910.49
709.621	33991.39
709.966	33699.65
710.31	33873.43
710.654	33487.23
710.998	33627.11
711.342	33732.19
711.687	33526.32
712.031	33304.41
712.375	33362.48
712.719	33380.11
713.063	33328.13
713.407	33314.35
713.75	33230.28
714.094	33124.07
714.438	33047.92
714.782	33021.93
715.125	32699.22
715.469	32926.56
715.812	32677.76
716.156	32634.37
716.499	32477.99
716.843	32610.64
717.186	32366.13
717.53	32646.57
717.873	32605.22
718.216	32354.6
718.559	32247.49
718.902	32238.45
719.246	32234.38
719.589	32000.94
719.932	31905.57
720.275	31950.54
720.617	31988.51
720.96	31954.16
721.303	31778.8
721.646	31839.36
721.989	31694.73
722.331	31795.75
722.674	31608.18
723.016	31803.2
723.359	31587.16
723.701	31612.47
724.044	31395.53
724.386	31317.79
724.729	31398.24
725.071	31292.71
725.413	31332.93
725.755	31257.23
726.097	31106.95
726.439	30980.17
726.782	31026.5
727.124	31051.13
727.465	30825.15
727.807	30937.46
728.149	30848.65
728.491	30785.83
728.833	30792.38
729.175	30666.74
729.516	30581.77
729.858	30582.44
730.199	30725.72
730.541	30445.27
730.882	30495.22
731.224	30496.57
731.565	30350.36
731.906	30412.28
732.248	30445.27
732.589	30280.08
732.93	30017.94
733.271	30120.31
733.612	30247.76
733.953	30209.12
734.294	29955.57
734.635	29873.31
734.976	29986.98
735.317	29812.07
735.658	29958.96
735.999	29775.01
736.339	29800.32
736.68	29796.48
737.021	29758.51
737.361	29588.12
737.702	29686.65
738.042	29593.32
738.383	29589.7
738.723	29664.28
739.063	29651.62
739.404	29564.17
739.744	29464.28
740.084	29312.42
740.424	29346.77
740.764	29348.35
741.104	29463.83
741.444	29269.71
741.784	29079.21
742.124	29128.47
742.464	29238.3
742.804	29065.65
743.143	29057.51
743.483	29008.47
743.823	28864.3
744.162	28880.34
744.502	28912.43
744.841	28784.07
745.181	28943.39
745.52	28696.84
745.86	28737.97
746.199	28737.97
746.538	28680.8
746.877	28698.65
747.216	28572.1
747.556	28571.2
747.895	28542.05
748.234	28410.3
748.573	28352.22
748.911	28338.44
749.25	28387.7
749.589	28278.55
749.928	28265.22
750.267	28299.34
750.605	28132.57
750.944	28181.6
751.283	28119.68
751.621	28040.36
751.96	27828.17
752.298	27866.13
752.636	27793.37
752.975	27822.97
753.313	27560.38
753.651	27855.28
753.989	27667.27
754.327	27555.41
754.666	27507.95
755.004	27452.58
755.342	27518.12
755.679	27382.3
756.017	27301.17
756.355	27240.16
756.693	27196.54
757.031	27271.57
757.368	27015.76
757.706	27038.58
