Data from hue_24_FLMS001491_00010.txt Node
Date: Tue Feb 07 17:11:41 GMT 2017
User: dcchb
Spectrometer: FLMS00149
Trigger mode: 0
Integration Time (sec): 2.000000E-2
Scans to average: 10
Electric dark correction enabled: true
Nonlinearity correction enabled: false
Boxcar width: 0
XAxis mode: Wavelengths
Number of Pixels in Spectrum: 2048
>>>>>Begin Spectral Data<<<<<
341.393	-18.98
341.776	-18.98
342.16	-18.98
342.543	-67.57
342.927	-70.73
343.31	-80.68
343.693	-70.05
344.077	-67.12
344.46	-58.08
344.843	-62.82
345.226	-32.09
345.61	-33.67
345.993	-20.56
346.376	-29.38
346.759	20.34
347.142	49.04
347.525	50.62
347.908	68.02
348.291	85.87
348.674	64.18
349.057	116.38
349.44	131.52
349.823	164.52
350.206	179.66
350.588	215.14
350.971	210.84
351.354	237.51
351.737	218.75
352.119	251.97
352.502	269.82
352.884	275.7
353.267	280.67
353.65	276.83
354.032	302.82
354.414	303.04
354.797	319.99
355.179	321.12
355.562	323.61
355.944	335.36
356.326	317.51
356.709	343.27
357.091	329.48
357.473	360.22
357.855	340.33
358.238	349.37
358.62	358.41
359.002	345.3
359.384	348.69
359.766	335.81
360.148	344.4
360.53	351.18
360.912	318.86
361.294	331.74
361.676	340.56
362.057	341.46
362.439	323.16
362.821	319.31
363.203	321.12
363.584	318.41
363.966	328.8
364.348	328.13
364.729	340.78
365.111	333.32
365.493	325.87
365.874	332.42
366.256	334.23
366.637	325.42
367.019	323.61
367.4	321.35
367.781	320.67
368.163	306.88
368.544	330.84
368.925	320.67
369.306	317.51
369.688	305.08
370.069	331.97
370.45	327.22
370.831	318.18
371.212	321.8
371.593	306.43
371.974	298.98
372.355	315.02
372.736	317.96
373.117	335.13
373.498	328.13
373.879	305.53
374.26	315.25
374.641	327.22
375.021	311.4
375.402	333.32
375.783	321.57
376.163	310.27
376.544	338.52
376.925	325.42
377.305	327.67
377.686	309.82
378.066	327.67
378.447	332.19
378.827	345.53
379.208	347.56
379.588	341.01
379.968	344.4
380.349	332.87
380.729	319.99
381.109	326.55
381.489	343.49
381.87	336.26
382.25	340.1
382.63	333.1
383.01	335.81
383.39	326.32
383.77	327.22
384.15	337.39
384.53	359.99
384.91	366.77
385.29	350.95
385.67	355.02
386.049	345.98
386.429	349.37
386.809	359.76
387.189	353.44
387.568	370.16
387.948	360.44
388.328	366.77
388.707	388.92
389.087	353.66
389.466	380.33
389.846	358.18
390.225	374.68
390.605	364.74
390.984	355.7
391.363	380.1
391.743	368.58
392.122	369.71
392.501	376.26
392.881	387.11
393.26	377.62
393.639	373.32
394.018	386.43
394.397	371.97
394.776	390.27
395.155	373.1
395.534	376.26
395.913	389.14
396.292	382.59
396.671	401.12
397.05	381.68
397.429	411.74
397.808	385.98
398.186	399.09
398.565	400.22
398.944	394.79
399.323	402.48
399.701	405.87
400.08	400.22
400.458	393.21
400.837	417.39
401.215	402.7
401.594	399.76
401.972	401.12
402.351	417.39
402.729	394.34
403.107	419.65
403.486	432.31
403.864	415.13
404.242	425.98
404.62	425.75
404.999	422.14
405.377	417.39
405.755	447.22
406.133	430.05
406.511	438.63
406.889	411.97
407.267	431.85
407.645	439.54
408.023	439.08
408.401	424.4
408.779	444.96
409.156	457.62
409.534	469.82
409.912	459.87
410.29	455.58
410.667	472.98
411.045	446.54
411.422	487.67
411.8	475.02
412.178	486.77
412.555	484.51
412.933	482.02
413.31	474.79
413.687	474.56
414.065	482.47
414.442	510.95
414.819	486.77
415.197	516.6
415.574	490.38
415.951	468.24
416.328	508.01
416.705	508.69
417.082	511.17
417.46	511.62
417.837	515.92
418.214	509.37
418.591	535.35
418.967	520.21
419.344	520.44
419.721	529.7
420.098	507.33
420.475	537.39
420.852	548.23
421.228	533.55
421.605	552.98
421.982	551.85
422.358	554.56
422.735	556.37
423.111	565.86
423.488	578.74
423.864	567.44
424.241	560.89
424.617	582.58
424.994	577.39
425.37	565.86
425.746	600.21
426.123	602.02
426.499	582.13
426.875	600.44
427.251	594.56
427.627	611.74
428.003	624.39
428.379	604.05
428.756	612.19
429.132	629.59
429.507	625.97
429.883	628.46
430.259	604.28
430.635	653.77
431.011	628.46
431.387	630.04
431.763	666.42
432.138	646.08
432.514	654.9
432.89	671.85
433.265	654.9
433.641	677.04
434.016	694.67
434.392	718.85
434.767	708.68
435.143	703.48
435.518	705.29
435.894	687.21
436.269	685.63
436.644	724.05
437.02	746.65
437.395	746.87
437.77	766.31
438.145	730.83
438.52	745.74
438.895	746.87
439.271	766.53
439.646	790.49
440.021	791.84
440.395	773.76
440.77	781.45
441.145	791.39
441.52	802.92
441.895	797.27
442.27	793.43
442.645	818.74
443.019	837.94
443.394	810.6
443.769	810.83
444.143	820.09
444.518	810.15
444.892	797.04
445.267	835.91
445.641	839.07
446.016	844.05
446.39	827.55
446.764	848.11
447.139	842.01
447.513	873.65
447.887	883.59
448.262	852.63
448.636	900.77
449.01	903.93
449.384	885.85
449.758	877.94
450.132	920.2
450.506	912.29
450.88	899.86
451.254	904.83
451.628	919.3
452.002	941.22
452.376	935.34
452.75	949.13
453.123	949.35
453.497	956.81
453.871	968.11
454.244	983.48
454.618	964.72
454.992	1005.17
455.365	988.67
455.739	1010.14
456.112	1032.52
456.486	1047.88
456.859	1051.27
457.232	1047.2
457.606	1045.17
457.979	1064.6
458.352	1099.63
458.725	1086.75
459.099	1108.45
459.472	1156.58
459.845	1136.92
460.218	1149.57
460.591	1126.98
460.964	1184.6
461.337	1206.75
461.71	1180.76
462.083	1190.03
462.456	1207.43
462.829	1219.18
463.201	1242
463.574	1248.1
463.947	1258.5
464.32	1253.07
464.692	1298.04
465.065	1320.19
465.438	1339.4
465.81	1333.3
466.183	1325.39
466.555	1374.43
466.928	1400.19
467.3	1398.38
467.672	1420.08
468.045	1440.41
468.417	1445.39
468.789	1461.43
469.161	1476.35
469.534	1476.8
469.906	1524.03
470.278	1531.71
470.65	1536.46
471.022	1598.15
471.394	1623.01
471.766	1612.16
472.138	1620.75
472.51	1647.19
472.882	1683.35
473.253	1703.23
473.625	1760.86
473.997	1768.54
474.369	1797.24
474.74	1864.58
475.112	1839.05
475.484	1864.58
475.855	1915.88
476.227	1929.44
476.598	2019.38
476.97	1999.72
477.341	2062.54
477.713	2088.31
478.084	2136.22
478.455	2172.37
478.827	2166.27
479.198	2255.31
479.569	2251.69
479.94	2309.77
480.311	2330.79
480.682	2416.89
481.053	2448.07
481.424	2510.44
481.795	2525.36
482.166	2571.01
482.537	2634.96
482.908	2642.87
483.279	2702.3
483.65	2744.79
484.021	2842.19
484.391	2841.96
484.762	2887.38
485.133	2908.17
485.503	3019.36
485.874	3038.34
486.244	3078.79
486.615	3144.32
486.985	3168.96
487.356	3193.81
487.726	3301.83
488.097	3352.91
488.467	3366.69
488.837	3436.52
489.207	3472.9
489.578	3514.26
489.948	3593.13
490.318	3650.98
490.688	3700.92
491.058	3734.14
491.428	3844.19
491.798	3820.92
492.168	3933.91
492.538	3936.62
492.908	3966.22
493.278	4050.97
493.648	4041.25
494.017	4108.82
494.387	4177.74
494.757	4221.58
495.126	4257.52
495.496	4270.4
495.866	4324.18
496.235	4385.87
496.605	4420.45
496.974	4444.63
497.344	4505.42
497.713	4483.27
498.082	4583.16
498.452	4547.23
498.821	4644.85
499.19	4678.3
499.559	4693.44
499.928	4710.16
500.298	4775.92
500.667	4782.93
501.036	4821.34
501.405	4902.47
501.774	4877.84
502.143	4913.54
502.512	4960.55
502.88	5010.94
503.249	5028.12
503.618	5055.69
503.987	5050.26
504.356	5118.06
504.724	5148.34
505.093	5201.9
505.462	5154.89
505.83	5219.3
506.199	5231.73
506.567	5308.56
506.936	5304.95
507.304	5371.38
507.672	5402.57
508.041	5450.03
508.409	5454.32
508.777	5442.12
509.145	5509.46
509.514	5494.09
509.882	5532.51
510.25	5559.63
510.618	5601.89
510.986	5609.57
511.354	5704.48
511.722	5713.07
512.09	5779.28
512.458	5768.89
512.826	5805.95
513.193	5797.14
513.561	5852.28
513.929	5842.56
514.297	5844.82
514.664	5852.5
515.032	5926.85
515.4	5936.57
515.767	5985.83
516.135	6032.84
516.502	6026.73
516.869	6066.51
517.237	6142.89
517.604	6052.72
517.972	6146.73
518.339	6205.03
518.706	6217.46
519.073	6228.31
519.44	6271.25
519.808	6289.55
520.175	6273.06
520.542	6353.51
520.909	6356.67
521.276	6364.8
521.643	6436.67
522.009	6444.12
522.376	6523.44
522.743	6541.07
523.11	6537.91
523.477	6615.42
523.843	6670.11
524.21	6733.61
524.577	6750.33
524.943	6747.17
525.31	6776.09
525.676	6894.96
526.043	6893.15
526.409	6879.59
526.776	6975.86
527.142	7018.8
527.508	7045.46
527.874	7075.29
528.241	7102.19
528.607	7119.81
528.973	7227.15
529.339	7210.21
529.705	7190.32
530.071	7354.61
530.437	7364.78
530.803	7343.99
531.169	7352.35
531.535	7454.04
531.901	7430.54
532.267	7411.78
532.632	7525.9
532.998	7502.85
533.364	7548.28
533.73	7601.16
534.095	7692.91
534.461	7673.47
534.826	7753.92
535.192	7786.91
535.557	7845.22
535.923	7807.25
536.288	7848.16
536.653	7915.95
537.019	7900.81
537.384	7941.49
537.749	7977.64
538.114	8076.62
538.479	8006.12
538.845	8063.52
539.21	8044.08
539.575	8087.7
539.94	8186.23
540.305	8203.4
540.67	8214.47
541.034	8217.19
541.399	8264.64
541.764	8261.25
542.129	8308.71
542.494	8321.14
542.858	8384.86
543.223	8388.03
543.587	8482.49
543.952	8510.06
544.316	8526.1
544.681	8570.85
545.045	8624.41
545.41	8644.52
545.774	8623.73
546.138	8680.9
546.503	8736.49
546.867	8682.26
547.231	8781.24
547.595	8823.5
547.959	8890.39
548.324	8914.34
548.688	8879.09
549.052	8969.03
549.416	8970.84
549.779	8920.67
550.143	8964.06
550.507	8994.57
550.871	9072.98
551.235	9084.28
551.599	9181.23
551.962	9125.64
552.326	9225.75
552.689	9196.82
553.053	9234.11
553.417	9222.81
553.78	9390.49
554.143	9305.07
554.507	9416.02
554.87	9378.06
555.234	9482.24
555.597	9462.58
555.96	9472.52
556.323	9496.02
556.686	9512.52
557.05	9609.24
557.413	9665.73
557.776	9625.06
558.139	9674.32
558.502	9663.7
558.865	9706.86
559.228	9724.94
559.59	9778.73
559.953	9780.31
560.316	9923.35
560.679	10007.19
561.041	9907.08
561.404	10000.42
561.767	10049.68
562.129	10063.01
562.492	10129.23
562.854	10098.04
563.217	10102.79
563.579	10213.06
563.941	10148.43
564.304	10289.22
564.666	10272.05
565.028	10345.72
565.39	10360.18
565.753	10527.18
566.115	10458.48
566.477	10521.08
566.839	10517.69
567.201	10595.43
567.563	10638.14
567.925	10658.02
568.287	10649.66
568.648	10687.4
569.01	10694.18
569.372	10865.03
569.734	10737.34
570.095	10843.56
570.457	10979.15
570.819	10999.94
571.18	10905.02
571.542	11046.26
571.903	11047.62
572.265	11127.17
572.626	11094.62
572.987	11174.17
573.349	11286.03
573.71	11365.8
574.071	11331
574.432	11458.68
574.794	11591.11
575.155	11549.98
575.516	11596.53
575.877	11690.77
576.238	11749.3
576.599	11882.63
576.96	11937.31
577.32	12019.8
577.681	12069.51
578.042	12196.06
578.403	12276.06
578.763	12345.44
579.124	12460.69
579.485	12546.34
579.845	12774.13
580.206	12810.28
580.566	12869.72
580.927	13133.67
581.287	13271.29
581.648	13259.76
582.008	13481.68
582.368	13584.28
582.728	13749.47
583.089	13885.06
583.449	14027.2
583.809	14207.76
584.169	14431.26
584.529	14551.48
584.889	14796.67
585.249	14859.95
585.609	15124.8
585.969	15323.66
586.329	15473.94
586.688	15759.81
587.048	15891.33
587.408	16096.75
587.768	16393.02
588.127	16610.41
588.487	16816.06
588.846	17267.12
589.206	17296.27
589.565	17578.75
589.925	17949.81
590.284	18276.36
590.643	18459.85
591.003	18816
591.362	19055.32
591.721	19400.62
592.08	19664.34
592.44	19999.02
592.799	20247.6
593.158	20447.15
593.517	20723.75
593.876	21124.87
594.235	21300.46
594.593	21718.75
594.952	21940.67
595.311	22235.35
595.67	22578.84
596.029	22991.94
596.387	23221.76
596.746	23542.43
597.104	23854.51
597.463	24160.95
597.822	24497.21
598.18	24729.52
598.538	24894.03
598.897	25434.13
599.255	25649.27
599.613	26415.8
599.972	26279.08
600.33	26715.23
600.688	26875.23
601.046	27374.2
601.404	27681.31
601.762	27849.66
602.12	28321.52
602.478	28526.93
602.836	28833.14
603.194	28999.69
603.552	29298.21
603.91	29467.7
604.268	29904.52
604.625	30142.03
604.983	30446.88
605.341	30670.38
605.698	30999.64
606.056	31314.43
606.413	31559.4
606.771	31964.36
607.128	32196.22
607.485	32278.02
607.843	32490.22
608.2	32931.34
608.557	33194.83
608.914	33342.85
609.272	33692.45
609.629	34071.42
609.986	34298.76
610.343	34319.1
610.7	34660.33
611.057	34874.79
611.414	34962.92
611.771	35251.5
612.127	35565.17
612.484	35722.9
612.841	35955.89
613.198	36001.09
613.554	36254.64
613.911	36549.32
614.267	36828.86
614.624	36901.85
614.98	37127.16
615.337	37348.17
615.693	37617.77
616.05	37751.55
616.406	38076.96
616.762	37940.47
617.118	38085.78
617.475	38230.18
617.831	38527.35
618.187	38673.56
618.543	38789.94
618.899	39101.57
619.255	39188.8
619.611	39182.7
619.967	39539.53
620.323	39820.65
620.678	39689.58
621.034	39680.99
621.39	39891.61
621.746	39811.83
622.101	40333.63
622.457	40157.59
622.812	40316
623.168	40612.72
623.523	40574.75
623.879	40824.01
624.234	40703.34
624.589	41075.53
624.945	41080.73
625.3	41122.53
625.655	41146.71
626.01	41363.66
626.365	41248.86
626.72	41375.86
627.075	41504.9
627.43	41477.78
627.785	41545.57
628.14	41663.54
628.495	41755.06
628.85	41787.83
629.205	41748.96
629.559	42025.34
629.914	41809.52
630.269	42008.16
630.623	41889.29
630.978	41863.08
631.332	42053.58
631.687	42087.93
632.041	42109.4
632.396	42094.71
632.75	42010.19
633.104	42146.91
633.459	42023.98
633.813	41966.81
634.167	42072.79
634.521	42033.25
634.875	42211.55
635.229	42337.19
635.583	42117.99
635.937	42087.03
636.291	42092.23
636.645	42200.02
636.999	41991.21
637.352	42112.34
637.706	42067.59
638.06	42326.34
638.413	42049.52
638.767	42042.96
639.121	42157.31
639.474	41916.86
639.828	41996.64
640.181	42174.71
640.534	42025.56
640.888	42004.77
641.241	41845.91
641.594	41960.03
641.947	42320.7
642.301	42023.08
642.654	42031.21
643.007	42126.35
643.36	42070.08
643.713	41931.78
644.066	42162.51
644.419	41903.3
644.771	41703.31
645.124	41453.6
645.477	41390.55
645.83	41099.26
646.182	41059.26
646.535	40876.89
646.888	40920.51
647.24	40681.64
647.593	40951.47
647.945	40762.54
648.298	40686.61
648.65	40653.39
649.002	40623.79
649.355	40752.37
649.707	40781.3
650.059	40892.03
650.411	41353.71
650.763	41316.43
651.115	41842.06
651.467	41634.16
651.819	41612.01
652.171	41523.88
652.523	41546.25
652.875	41462.64
653.227	41422.87
653.578	41639.81
653.93	41536.31
654.282	41434.16
654.633	41371.34
654.985	41423.77
655.337	41506.71
655.688	41379.02
656.039	41664.44
656.391	41209.54
656.742	41350.33
657.094	41452.24
657.445	41452.02
657.796	41449.98
658.147	41375.41
658.498	41402.75
658.849	41402.75
659.2	41502.41
659.551	41253.15
659.902	41398.69
660.253	41272.36
660.604	41457.22
660.955	41258.8
661.306	41292.02
661.656	41217
662.007	41243.21
662.358	41330.44
662.708	41223.32
663.059	41243.44
663.409	41042.08
663.76	41285.92
664.11	41200.05
664.461	41273.27
664.811	41224
665.161	41255.19
665.511	41139.03
665.862	41127.96
666.212	41247.73
666.562	41357.33
666.912	41184
667.262	41251.34
667.612	41122.53
667.962	41250.44
668.312	41094.74
668.662	41326.15
669.011	41224
669.361	41162.08
669.711	41063.55
670.06	40977
670.41	41049.32
670.76	40957.34
671.109	41136.55
671.459	40921.18
671.808	40907.85
672.157	41131.8
672.507	40785.37
672.856	40854.97
673.205	41071.01
673.554	41034.63
673.904	40927.96
674.253	41057.45
674.602	41048.86
674.951	40393.97
675.3	40178.6
675.649	40852.71
675.998	40914.4
676.346	40823.56
676.695	40963.22
677.044	40599.61
677.393	40811.58
677.741	40808.19
678.09	40675.31
678.438	40641.19
678.787	40682.32
679.135	40654.07
679.484	40453.85
679.832	40542.89
680.181	40207.08
680.529	40407.07
680.877	40269
681.225	40344.02
681.573	40459.73
681.922	40131.83
682.27	40038.5
682.618	40122.11
682.966	39992.39
683.314	40091.6
683.661	39968.89
684.009	39795.56
684.357	39819.74
684.705	39888.89
685.053	39746.53
685.4	39706.53
685.748	39632.63
686.095	39597.6
686.443	39483.48
686.79	39413.2
687.138	39462.69
687.485	39460.88
687.832	39330.49
688.18	39358.29
688.527	39206.2
688.874	38947.68
689.221	39001.23
689.568	38961.91
689.915	38833.33
690.262	38823.84
690.609	38771.64
690.956	38466.11
691.303	38554.92
691.65	38429.05
691.997	38440.8
692.344	38262.04
692.69	38247.36
693.037	38139.79
693.383	37881.49
693.73	38076.96
694.077	37822.06
694.423	37744.77
694.769	37690.53
695.116	37634.72
695.462	37561.5
695.808	37551.1
696.155	37550.88
696.501	37222.07
696.847	37149.31
697.193	37009.42
697.539	37136.2
697.885	36845.36
698.231	36773.27
698.577	36832.25
698.923	36851.46
699.269	36623.22
699.614	36411.7
699.96	36311.81
700.306	36414.86
700.651	36199.73
700.997	36146.85
701.342	36079.05
701.688	36046.96
702.033	35832.05
702.379	35737.37
702.724	35551.38
703.069	35861.88
703.415	35408.56
703.76	35367.88
704.105	35461.21
704.45	35376.7
704.795	35158.85
705.14	35120.43
705.485	35012.64
705.83	34933.09
706.175	34895.58
706.52	34796.15
706.865	34808.12
707.209	34714.79
707.554	34555.02
707.899	34758.41
708.243	34436.16
708.588	34480.45
708.932	34128.82
709.277	34189.38
709.621	34205.88
709.966	33954.81
710.31	34125.88
710.654	33755.95
710.998	33907.13
711.342	33854.03
711.687	33753.91
712.031	33509.4
712.375	33446.58
712.719	33591.43
713.063	33480.02
713.407	33532.45
713.75	33341.72
714.094	33311.21
714.438	33144.67
714.782	33273.25
715.125	33102.18
715.469	33204.55
715.812	32960.72
716.156	32825.35
716.499	32802.3
716.843	32960.04
717.186	32676.43
717.53	32739.03
717.873	32798.46
718.216	32755.97
718.559	32578.8
718.902	32347.4
719.246	32448.64
719.589	32297.91
719.932	32086.61
720.275	32121.87
720.617	32199.83
720.96	32078.25
721.303	32067.63
721.646	32059.5
721.989	31939.5
722.331	32002.1
722.674	31833.06
723.016	31854.3
723.359	31734.08
723.701	31814.98
724.044	31574.31
724.386	31367.08
724.729	31578.15
725.071	31369.57
725.413	31574.09
725.755	31478.49
726.097	31449.79
726.439	31115.11
726.782	31293.19
727.124	31309.69
727.465	31091.61
727.807	31030.6
728.149	31084.38
728.491	30960.32
728.833	30975.46
729.175	30828.79
729.516	30830.38
729.858	30823.14
730.199	30809.59
730.541	30834.67
730.882	30608.01
731.224	30683.04
731.565	30526.88
731.906	30575.02
732.248	30538.41
732.589	30405.53
732.93	30322.82
733.271	30318.52
733.612	30404.4
733.953	30334.8
734.294	30186.78
734.635	30134.35
734.976	30236.95
735.317	29999.21
735.658	30018.87
735.999	30067.23
736.339	29960.34
736.68	30158.98
737.021	29944.75
737.361	29878.54
737.702	29978.19
738.042	29834.02
738.383	29629.5
738.723	29807.13
739.063	29787.69
739.404	29725.32
739.744	29756.51
740.084	29500.92
740.424	29459.11
740.764	29465.21
741.104	29522.61
741.444	29424.09
741.784	29330.08
742.124	29378.89
742.464	29290.76
742.804	29252.11
743.143	29149.29
743.483	29222.06
743.823	29121.04
744.162	29046.02
744.502	29130.99
744.841	29039.24
745.181	29104.77
745.52	29032.46
745.86	29027.49
746.199	28843.76
746.538	28829.75
746.877	28853.03
747.216	29002.63
747.556	28875.4
747.895	28841.73
748.234	28649.42
748.573	28727.38
748.911	28652.13
749.25	28617.55
749.589	28499.59
749.928	28529.87
750.267	28584.79
750.605	28388.86
750.944	28453.49
751.283	28237
751.621	28307.73
751.96	28136.89
752.298	28296.66
752.636	28211.69
752.975	28035.87
753.313	27951.81
753.651	28121.07
753.989	27900.51
754.327	27910.23
754.666	27808.76
755.004	27737.58
755.342	27807.63
755.679	27660.97
756.017	27524.47
756.355	27719.72
756.693	27418.71
757.031	27465.04
757.368	27367.19
757.706	27317.47
758.044	27216.91
758.381	27277.02
758.719	27170.59
759.056	27206.29
759.394	27174.65
