Data from hue_10_FLMS001491_40.txt Node
Date: Mon Feb 06 15:31:50 GMT 2017
User: dcchb
Spectrometer: FLMS00149
Trigger mode: 0
Integration Time (sec): 2.000000E-2
Scans to average: 10
Electric dark correction enabled: true
Nonlinearity correction enabled: false
Boxcar width: 0
XAxis mode: Wavelengths
Number of Pixels in Spectrum: 2048
>>>>>Begin Spectral Data<<<<<
341.393	-22.02
341.776	-22.02
342.16	-22.02
342.543	-43.94
342.927	-71.74
343.31	-52.3
343.693	-75.58
344.077	-59.53
344.46	-62.24
344.843	-52.3
345.226	-40.32
345.61	-29.25
345.993	-29.93
346.376	-5.07
346.759	22.95
347.142	25.89
347.525	33.8
347.908	61.14
348.291	66.34
348.674	97.07
349.057	99.33
349.44	118.54
349.823	156.28
350.206	167.58
350.588	190.18
350.971	216.17
351.354	249.16
351.737	238.31
352.119	248.48
352.502	290.06
352.884	285.09
353.267	267.24
353.65	297.97
354.032	312.21
354.414	285.77
354.797	318.54
355.179	320.12
355.562	318.76
355.944	326.67
356.326	341.36
356.709	311.98
357.091	349.27
357.473	368.03
357.855	346.78
358.238	328.48
358.62	362.83
359.002	355.37
359.384	346.78
359.766	341.81
360.148	335.94
360.53	330.97
360.912	329.16
361.294	330.51
361.676	335.49
362.057	326.9
362.439	323.51
362.821	317.18
363.203	334.13
363.584	317.41
363.966	316.73
364.348	291.87
364.729	334.36
365.111	328.48
365.493	317.63
365.874	296.84
366.256	326.22
366.637	319.44
367.019	314.7
367.4	318.08
367.781	328.25
368.163	319.21
368.544	305.43
368.925	316.28
369.306	326.67
369.688	318.54
370.069	313.57
370.45	321.25
370.831	317.41
371.212	303.4
371.593	337.97
371.974	303.4
372.355	316.28
372.736	314.7
373.117	316.95
373.498	310.85
373.879	304.53
374.26	315.37
374.641	304.98
375.021	299.1
375.402	314.7
375.783	314.02
376.163	331.42
376.544	305.43
376.925	317.63
377.305	320.12
377.686	325.09
378.066	314.92
378.447	318.99
378.827	311.31
379.208	324.64
379.588	309.27
379.968	327.58
380.349	333.45
380.729	329.16
381.109	341.36
381.489	358.31
381.87	340.23
382.25	321.47
382.63	334.13
383.01	359.21
383.39	342.49
383.77	341.36
384.15	328.03
384.53	313.79
384.91	343.62
385.29	329.38
385.67	346.11
386.049	329.16
386.429	338.42
386.809	351.76
387.189	341.81
387.568	351.76
387.948	350.4
388.328	351.08
388.707	362.6
389.087	335.26
389.466	366.67
389.846	352.89
390.225	356.28
390.605	361.47
390.984	349.95
391.363	334.81
391.743	365.32
392.122	356.05
392.501	371.87
392.881	381.13
393.26	357.86
393.639	352.89
394.018	370.74
394.397	361.93
394.776	354.69
395.155	390.63
395.534	370.96
395.913	353.56
396.292	382.72
396.671	349.5
397.05	380
397.429	393.79
397.808	374.35
398.186	367.12
398.565	366.22
398.944	372.55
399.323	373
399.701	382.94
400.08	376.16
400.458	384.75
400.837	385.43
401.215	386.33
401.594	368.7
401.972	386.78
402.351	391.3
402.729	403.05
403.107	399.44
403.486	371.87
403.864	403.96
404.242	420.46
404.62	390.63
404.999	407.8
405.377	385.2
405.755	412.77
406.133	381.36
406.511	406.44
406.889	398.53
407.267	426.1
407.645	422.49
408.023	397.63
408.401	414.81
408.779	416.16
409.156	422.71
409.534	432.66
409.912	423.62
410.29	428.36
410.667	429.27
411.045	416.61
411.422	432.43
411.8	435.14
412.178	443.28
412.555	437.63
412.933	422.71
413.31	433.56
413.687	461.81
414.065	425.65
414.442	442.6
414.819	445.99
415.197	457.52
415.574	456.39
415.951	472.43
416.328	461.81
416.705	425.65
417.082	457.74
417.46	454.35
417.837	472.43
418.214	464.3
418.591	486.89
418.967	490.51
419.344	483.28
419.721	497.06
420.098	487.57
420.475	478.98
420.852	506.33
421.228	482.37
421.605	468.36
421.982	502.26
422.358	519.44
422.735	510.62
423.111	504.75
423.488	503.62
423.864	514.01
424.241	535.71
424.617	509.49
424.994	498.87
425.37	519.44
425.746	520.34
426.123	531.64
426.499	540.68
426.875	540.9
427.251	536.84
427.627	541.36
428.003	530.73
428.379	555.59
428.756	543.84
429.132	538.87
429.507	574.58
429.883	542.94
430.259	578.42
430.635	562.15
431.011	576.84
431.387	590.85
431.763	592.43
432.138	590.39
432.514	595.82
432.89	583.39
433.265	617.06
433.641	595.14
434.016	587.91
434.392	585.87
434.767	619.09
435.143	614.35
435.518	631.52
435.894	615.25
436.269	633.33
436.644	664.06
437.02	639.21
437.395	657.51
437.77	644.86
438.145	640.34
438.52	646.44
438.895	635.14
439.271	667.45
439.646	675.82
440.021	666.1
440.395	669.26
440.77	700.45
441.145	690.05
441.52	692.76
441.895	687.57
442.27	691.86
442.645	690.05
443.019	687.79
443.394	728.7
443.769	718.53
444.143	714.23
444.518	722.14
444.892	722.59
445.267	739.32
445.641	739.54
446.016	705.65
446.39	729.15
446.764	721.92
447.139	721.01
447.513	750.16
447.887	713.55
448.262	713.78
448.636	733.89
449.01	757.17
449.384	757.4
449.758	771.41
450.132	771.63
450.506	790.84
450.88	766.89
451.254	768.02
451.628	775.25
452.002	784.51
452.376	806.43
452.75	815.92
453.123	823.38
453.497	829.03
453.871	812.31
454.244	822.25
454.618	834
454.992	822.03
455.365	827.45
455.739	850.73
456.112	865.64
456.486	857.73
456.859	855.92
457.232	876.04
457.606	870.61
457.979	889.37
458.352	909.26
458.725	925.98
459.099	919.65
459.472	922.81
459.845	920.78
460.218	925.98
460.591	959.88
460.964	935.92
461.337	986.54
461.71	990.16
462.083	981.57
462.456	969.59
462.829	994.23
463.201	1012.53
463.574	998.52
463.947	1026.77
464.32	1045.98
464.692	1026.31
465.065	1046.88
465.438	1085.97
465.81	1050.49
466.183	1076.03
466.555	1094.79
466.928	1091.62
467.3	1104.5
467.672	1132.53
468.045	1126.43
468.417	1155.58
468.789	1165.07
469.161	1193.32
469.534	1206.2
469.906	1215.69
470.278	1207.55
470.65	1237.61
471.022	1270.83
471.394	1279.64
471.766	1288
472.138	1298.85
472.51	1326.87
472.882	1339.75
473.253	1321.22
473.625	1337.49
473.997	1366.42
474.369	1383.59
474.74	1388.57
475.112	1421.78
475.484	1490.03
475.855	1490.26
476.227	1515.34
476.598	1544.72
476.97	1559.18
477.341	1595.79
477.713	1630.59
478.084	1608.9
478.455	1673.76
478.827	1706.3
479.198	1721.89
479.569	1742.91
479.94	1826.52
480.311	1835.79
480.682	1856.8
481.053	1890.25
481.424	1901.09
481.795	1952.17
482.166	1966.86
482.537	1986.29
482.908	2039.62
483.279	2070.13
483.65	2061.99
484.021	2129.11
484.391	2143.12
484.762	2200.52
485.133	2253.63
485.503	2263.8
485.874	2324.81
486.244	2338.82
486.615	2403.23
486.985	2406.84
487.356	2440.06
487.726	2511.02
488.097	2557.57
488.467	2579.72
488.837	2618.59
489.207	2615.43
489.578	2709.66
489.948	2708.98
490.318	2768.42
490.688	2788.3
491.058	2869.2
491.428	2855.65
491.798	2902.2
492.168	2958.47
492.538	2935.19
492.908	3036.43
493.278	3047.28
493.648	3058.8
494.017	3159.59
494.387	3153.04
494.757	3195.07
495.126	3214.05
495.496	3243.66
495.866	3271
496.235	3301.74
496.605	3324.11
496.974	3346.71
497.344	3389.19
497.713	3440.04
498.082	3435.74
498.452	3460.83
498.821	3534.27
499.19	3518.23
499.559	3585.34
499.928	3593.93
500.298	3607.26
500.667	3636.87
501.036	3620.14
501.405	3641.61
501.774	3660.6
502.143	3705.34
502.512	3701.5
502.88	3754.6
503.249	3753.7
503.618	3759.12
503.987	3844.77
504.356	3823.53
504.724	3829.4
505.093	3865.79
505.462	3878.9
505.83	3913.24
506.199	3965.45
506.567	3976.52
506.936	3988.72
507.304	4018.1
507.672	3995.05
508.041	4060.81
508.409	4034.6
508.777	4083.41
509.145	4135.84
509.514	4151.2
509.882	4115.73
510.25	4141.94
510.618	4137.42
510.986	4198.21
511.354	4195.05
511.722	4310.52
512.09	4244.99
512.458	4306.91
512.826	4275.72
513.193	4304.19
513.561	4273.01
513.929	4368.83
514.297	4416.73
514.664	4407.92
515.032	4458.54
515.4	4424.42
515.767	4470.74
516.135	4429.84
516.502	4476.85
516.869	4522.49
517.237	4533.12
517.604	4530.4
517.972	4572.66
518.339	4549.16
518.706	4604.3
519.073	4622.83
519.44	4623.28
519.808	4663.73
520.175	4647.24
520.542	4729.04
520.909	4702.15
521.276	4735.14
521.643	4763.17
522.009	4759.55
522.376	4812.43
522.743	4834.35
523.11	4810.85
523.477	4896.5
523.843	4866.21
524.21	4873.67
524.577	4935.36
524.943	4992.54
525.31	4968.13
525.676	5029.6
526.043	5055.59
526.409	5058.53
526.776	5100.56
527.142	5142.82
527.508	5154.12
527.874	5195.02
528.241	5229.59
528.607	5246.32
528.973	5296.94
529.339	5312.08
529.705	5339.2
530.071	5360.66
530.437	5378.29
530.803	5401.57
531.169	5356.37
531.535	5352.98
531.901	5412.87
532.267	5460.55
532.632	5531.51
532.998	5505.52
533.364	5513.88
533.73	5584.61
534.095	5653.31
534.461	5583.48
534.826	5641.79
535.192	5644.05
535.557	5718.85
535.923	5727.66
536.288	5768.79
536.653	5798.17
537.019	5739.64
537.384	5795.23
537.749	5806.53
538.114	5854.66
538.479	5832.29
538.845	5875.9
539.21	5854.89
539.575	5923.81
539.94	5965.85
540.305	5967.43
540.67	5956.35
541.034	5994.32
541.399	6038.61
541.764	6037.48
542.129	6063.02
542.494	6103.7
542.858	6139.17
543.223	6141.43
543.587	6229.57
543.952	6156.12
544.316	6226.18
544.681	6261.21
545.045	6264.37
545.41	6304.59
545.774	6297.81
546.138	6334.88
546.503	6393.86
546.867	6342.11
547.231	6405.83
547.595	6456.91
547.959	6473.86
548.324	6444.03
548.688	6536.23
549.052	6589.11
549.416	6523.35
549.779	6529.67
550.143	6544.81
550.507	6606.28
550.871	6647.41
551.235	6665.71
551.599	6747.52
551.962	6711.36
552.326	6752.49
552.689	6781.64
553.053	6747.97
553.417	6764.24
553.78	6874.75
554.143	6802.89
554.507	6848.76
554.87	6834.98
555.234	6906.84
555.597	6913.39
555.96	6911.13
556.323	6945.93
556.686	6951.81
557.05	7074.52
557.413	6965.82
557.776	7031.81
558.139	7068.64
558.502	7075.2
558.865	7124.01
559.228	7183.67
559.59	7163.33
559.953	7189.99
560.316	7279.26
560.679	7206.72
561.041	7298.24
561.404	7361.52
561.767	7342.98
562.129	7348.18
562.492	7362.42
562.854	7419.82
563.217	7437.9
563.579	7393.61
563.941	7441.29
564.304	7554.73
564.666	7537.78
565.028	7527.16
565.39	7608.29
565.753	7572.58
566.115	7634.5
566.477	7602.87
566.839	7698.23
567.201	7776.65
567.563	7763.76
567.925	7813.93
568.287	7772.13
568.648	7829.3
569.01	7843.54
569.372	7913.37
569.734	7929.41
570.095	7939.35
570.457	8061.16
570.819	8051.21
571.18	8088.05
571.542	8032.68
571.903	8154.49
572.265	8184.32
572.626	8180.03
572.987	8246.01
573.349	8261.15
573.71	8365.33
574.071	8372.34
574.432	8464.31
574.794	8546.57
575.155	8501.15
575.516	8551.54
575.877	8680.35
576.238	8646
576.599	8796.51
576.96	8817.52
577.32	8875.83
577.681	8942.26
578.042	9045.09
578.403	9078.08
578.763	9156.04
579.124	9215.03
579.485	9397.17
579.845	9456.15
580.206	9493.89
580.566	9595.13
580.927	9690.72
581.287	9884.84
581.648	9942.24
582.008	10072.63
582.368	10133.19
582.728	10250.48
583.089	10446.18
583.449	10500.42
583.809	10621.09
584.169	10834.64
584.529	10995.77
584.889	11197.12
585.249	11297.91
585.609	11496.77
585.969	11720.95
586.329	11838.01
586.688	12023.09
587.048	12199.35
587.408	12383.3
587.768	12606.58
588.127	12815.38
588.487	13016.06
588.846	13285.43
589.206	13443.16
589.565	13635.25
589.925	14012.64
590.284	14119.98
590.643	14464.61
591.003	14619.86
591.362	15011.26
591.721	15217.13
592.08	15439.27
592.44	15778.47
592.799	16069.31
593.158	16288.74
593.517	16571.44
593.876	16727.6
594.235	17024.09
594.593	17347.47
594.952	17672.43
595.311	17916.04
595.67	18154.45
596.029	18503.37
596.387	18836.47
596.746	18952.62
597.104	19237.36
597.463	19589.44
597.822	19902.2
598.18	20069.66
598.538	20389.42
598.897	20856.98
599.255	20888.84
599.613	21560.92
599.972	21717.3
600.33	21982.37
600.688	22192.99
601.046	22554.56
601.404	22903.93
601.762	23123.13
602.12	23407.2
602.478	23653.52
602.836	23912.27
603.194	24085.82
603.552	24412.59
603.91	24611.91
604.268	24982.97
604.625	25100.26
604.983	25494.82
605.341	25539.12
605.698	26034.47
606.056	26183.85
606.413	26423.16
606.771	26751.51
607.128	27002.35
607.485	27158.51
607.843	27443.47
608.2	27694.77
608.557	27871.48
608.914	28102.89
609.272	28602.54
609.629	28602.09
609.986	28910.1
610.343	29111.23
610.7	29524.55
611.057	29570.42
611.414	29856.52
611.771	29968.38
612.127	30222.38
612.484	30336.05
612.841	30670.51
613.198	30825.08
613.554	30929.71
613.911	31136.03
614.267	31394.78
614.624	31391.84
614.98	31660.99
615.337	31930.81
615.693	32078.15
616.05	32012.17
616.406	32465.26
616.762	32448.31
617.118	32697.57
617.475	32711.58
617.831	33036.32
618.187	33177.11
618.543	33233.38
618.899	33553.82
619.255	33645.57
619.611	33778.9
619.967	33996.97
620.323	34087.59
620.678	34098.21
621.034	34172.34
621.39	34378.88
621.746	34435.61
622.101	34851.64
622.457	34703.85
622.812	34816.39
623.168	34869.94
623.523	35080.33
623.879	35241.91
624.234	35144.97
624.589	35177.28
624.945	35384.51
625.3	35524.39
625.655	35506.31
626.01	35626.08
626.365	35687.78
626.72	35722.8
627.075	35821.56
627.43	35900.43
627.785	35921.44
628.14	35981.33
628.495	36051.16
628.85	36109.23
629.205	36039.86
629.559	36407.31
629.914	36182.9
630.269	36341.54
630.623	36142.45
630.978	36284.37
631.332	36529.56
631.687	36456.12
632.041	36372.5
632.396	36547.87
632.75	36417.25
633.104	36575.44
633.459	36400.3
633.813	36400.98
634.167	36484.14
634.521	36408.44
634.875	36621.99
635.229	36426.29
635.583	36434.42
635.937	36444.82
636.291	36469.68
636.645	36501.31
636.999	36518.04
637.352	36581.99
637.706	36570.69
638.06	36549.22
638.413	36552.16
638.767	36411.83
639.121	36475.33
639.474	36327.99
639.828	36409.79
640.181	36563.69
640.534	36569.79
640.888	36483.01
641.241	36354.88
641.594	36340.64
641.947	36507.87
642.301	36469.9
642.654	36368.66
643.007	36401.2
643.36	36408.66
643.713	36445.95
644.066	36510.58
644.419	36301.77
644.771	36135.45
645.124	35727.55
645.477	35714.44
645.83	35471.96
646.182	35494.11
646.535	35230.84
646.888	35333.89
647.24	35076.49
647.593	35363.27
647.945	35295.47
648.298	35245.53
648.65	35155.59
649.002	35163.27
649.355	35196.26
649.707	35193.1
650.059	35374.11
650.411	35694.33
650.763	35752.18
651.115	36076.01
651.467	35991.27
651.819	36024.26
652.171	36031.27
652.523	35912.18
652.875	36000.54
653.227	35822.01
653.578	36139.97
653.93	35977.94
654.282	35808.23
654.633	35760.54
654.985	35911.27
655.337	35857.04
655.688	35990.82
656.039	35920.76
656.391	35676.48
656.742	35774.1
657.094	35752.18
657.445	35858.85
657.796	35607.33
658.147	35747.66
658.498	35756.25
658.849	35791.5
659.2	35735.91
659.551	35607.1
659.902	35752.63
660.253	35577.27
660.604	35703.14
660.955	35501.34
661.306	35632.41
661.656	35595.35
662.007	35690.04
662.358	35457.27
662.708	35567.55
663.059	35476.48
663.409	35390.38
663.76	35661.34
664.11	35534.11
664.461	35661.11
664.811	35600.77
665.161	35598.29
665.511	35553.32
665.862	35554.22
666.212	35660.43
666.562	35507.89
666.912	35532.07
667.262	35575.01
667.612	35503.15
667.962	35631.51
668.312	35483.49
668.662	35563.26
669.011	35461.57
669.361	35386.32
669.711	35493.43
670.06	35355.13
670.41	35365.07
670.76	35233.55
671.109	35417.27
671.459	35304.51
671.808	35286.88
672.157	35399.2
672.507	35227
672.856	35207.11
673.205	35292.31
673.554	35375.69
673.904	35287.33
674.253	35466.77
674.602	35351.29
674.951	34671.08
675.3	34554.7
675.649	35096.38
675.998	35150.39
676.346	35137.96
676.695	35217.05
677.044	34941.36
677.393	35124.63
677.741	35144.06
678.09	34918.31
678.438	34826.56
678.787	34965.99
679.135	34931.86
679.484	34736.61
679.832	34941.81
680.181	34665.88
680.529	34727.35
680.877	34758.54
681.225	34785.43
681.573	34857.97
681.922	34658.42
682.27	34456.4
682.618	34556.96
682.966	34270.64
683.314	34441.93
683.661	34513.12
684.009	34208.04
684.357	34248.04
684.705	34138.44
685.053	34182.73
685.4	34203.52
685.748	33961.49
686.095	33929.63
686.443	33851.21
686.79	33766.7
687.138	33919.91
687.485	33959.46
687.832	33719.92
688.18	33830.2
688.527	33671.56
688.874	33671.11
689.221	33736.87
689.568	33377.33
689.915	33267.73
690.262	33323.77
690.609	33308.86
690.956	33256.43
691.303	33139.37
691.65	33048.3
691.997	33026.38
692.344	32735.76
692.69	32734.41
693.037	32704.35
693.383	32527.18
693.73	32600.17
694.077	32435.88
694.423	32437.01
694.769	32360.86
695.116	32278.15
695.462	32175.1
695.808	32071.6
696.155	32133.29
696.501	31792.06
696.847	31980.3
697.193	31661.44
697.539	31944.6
697.885	31588.68
698.231	31473.65
698.577	31530.82
698.923	31458.96
699.269	31254.9
699.614	31150.72
699.96	31072.53
700.306	31069.14
700.651	30968.8
700.997	30792.99
701.342	30795.02
701.688	30940.56
702.033	30615.37
702.379	30566.56
702.724	30575.82
703.069	30670.96
703.415	30364.3
703.76	30342.83
704.105	30265.09
704.45	30285.66
704.795	30167.24
705.14	29969.96
705.485	29960.02
705.83	29792.79
706.175	29894.48
706.52	29819.68
706.865	29689.97
707.209	29639.8
707.554	29554.38
707.899	29658.78
708.243	29504.44
708.588	29380.6
708.932	29234.16
709.277	29061.51
709.621	29218.12
709.966	29080.49
710.31	28993.04
710.654	28942.42
710.998	28985.58
711.342	28871.23
711.687	28774.74
712.031	28657.68
712.375	28592.82
712.719	28692.03
713.063	28536.78
713.407	28668.75
713.75	28469.21
714.094	28457.68
714.438	28271.02
714.782	28267.86
715.125	28243.68
715.469	28224.24
715.812	28090.24
716.156	27909
716.499	28111.93
716.843	27907.87
717.186	27869.22
717.53	27944.03
717.873	28024.25
718.216	27880.75
718.559	27769.57
718.902	27511.27
719.246	27604.15
719.589	27562.79
719.932	27396.24
720.275	27317.15
720.617	27447.99
720.96	27322.12
721.303	27328.9
721.646	27290.48
721.989	27128.23
722.331	27091.84
722.674	27189.47
723.016	27155.12
723.359	27060.88
723.701	27126.65
724.044	26916.03
724.386	26726.2
724.729	26879.19
725.071	26902.47
725.413	26887.1
725.755	26808.46
726.097	26625.19
726.439	26606.66
726.782	26552.88
727.124	26709.03
727.465	26497.96
727.807	26573.67
728.149	26509.03
728.491	26427.23
728.833	26450.73
729.175	26288.7
729.516	26321.02
729.858	26083.96
730.199	26190.17
730.541	26171.64
730.882	26110.63
731.224	26200.79
731.565	26015.49
731.906	25886.9
732.248	25972.33
732.589	25889.84
732.93	25827.47
733.271	26007.13
733.612	25750.41
733.953	25842.16
734.294	25712.9
734.635	25749.05
734.976	25782.05
735.317	25618.21
735.658	25571.43
735.999	25617.08
736.339	25491.66
736.68	25726.91
737.021	25504.77
737.361	25398.78
737.702	25502.06
738.042	25426.35
738.383	25359.69
738.723	25308.84
739.063	25282.17
739.404	25400.82
739.744	25167.37
740.084	25174.38
740.424	25239.24
740.764	25103.87
741.104	25220.25
741.444	25042.18
741.784	24956.99
742.124	24994.95
742.464	24936.19
742.804	24965.8
743.143	24858.46
743.483	24892.35
743.823	24759.48
744.162	24858.46
744.502	24811.23
744.841	24724
745.181	24734.39
745.52	24648.07
745.86	24636.32
746.199	24524.68
746.538	24557
746.877	24626.6
747.216	24557.9
747.556	24530.56
747.895	24484
748.234	24482.2
748.573	24421.18
748.911	24317.91
749.25	24278.13
749.589	24176.67
749.928	24312.26
750.267	24258.92
750.605	24192.71
750.944	24101.87
751.283	24031.13
751.621	24089.21
751.96	24004.92
752.298	23818.26
752.636	23971.02
752.975	23925.6
753.313	23764.7
753.651	23956.33
753.989	23715.66
754.327	23799.28
754.666	23487.42
755.004	23695.78
755.342	23688.09
755.679	23521.32
756.017	23471.83
756.355	23406.97
756.693	23390.25
757.031	23431.6
757.368	23308.89
757.706	23237.48
758.044	23206.75
758.381	23149.35
758.719	23183.92
759.056	23114.77
759.394	23003.82
759.731	22980.99
760.068	22853.31
760.405	22879.98
760.743	22760.66
761.08	22785.97
