Data from hue_180_FLMS001491_00052.txt Node
Date: Tue Feb 07 16:47:10 GMT 2017
User: dcchb
Spectrometer: FLMS00149
Trigger mode: 0
Integration Time (sec): 2.000000E-2
Scans to average: 10
Electric dark correction enabled: true
Nonlinearity correction enabled: false
Boxcar width: 0
XAxis mode: Wavelengths
Number of Pixels in Spectrum: 2048
>>>>>Begin Spectral Data<<<<<
341.393	2.32
341.776	2.32
342.16	2.32
342.543	-57.8
342.927	-71.35
343.31	-72.94
343.693	-58.47
344.077	-70.68
344.46	-71.81
344.843	-49.89
345.226	-25.93
345.61	-23.22
345.993	6.61
346.376	-7.17
346.759	11.36
347.142	25.59
347.525	26.27
347.908	59.72
348.291	70.79
348.674	86.38
349.057	93.39
349.44	121.64
349.823	155.98
350.206	167.06
350.588	188.53
350.971	195.08
351.354	218.13
351.737	213.61
352.119	257.22
352.502	244.12
352.884	253.61
353.267	267.39
353.65	299.48
354.032	292.48
354.414	299.03
354.797	315.08
355.179	316.88
355.562	327.05
355.944	331.57
356.326	327.96
356.709	341.06
357.091	336.09
357.473	339.48
357.855	344.45
358.238	337
358.62	338.35
359.002	351.46
359.384	338.13
359.766	331.12
360.148	332.25
360.53	348.07
360.912	336.77
361.294	323.21
361.676	334.96
362.057	325.92
362.439	333.83
362.821	328.41
363.203	313.72
363.584	317.11
363.966	340.61
364.348	334.96
364.729	322.76
365.111	318.47
365.493	304.91
365.874	301.97
366.256	305.13
366.637	298.58
367.019	298.81
367.4	279.37
367.781	306.94
368.163	324.79
368.544	321.4
368.925	310.78
369.306	316.43
369.688	327.96
370.069	313.95
370.45	330.22
370.831	311.91
371.212	324.57
371.593	301.29
371.974	313.04
372.355	306.72
372.736	294.51
373.117	312.82
373.498	309.43
373.879	316.88
374.26	306.72
374.641	315.98
375.021	307.17
375.402	324.34
375.783	324.79
376.163	311.46
376.544	315.98
376.925	303.55
377.305	311.01
377.686	320.05
378.066	318.69
378.447	336.09
378.827	318.24
379.208	329.54
379.588	316.88
379.968	336.54
380.349	317.79
380.729	331.35
381.109	308.52
381.489	335.41
381.87	352.82
382.25	331.35
382.63	317.34
383.01	336.32
383.39	340.39
383.77	320.27
384.15	318.24
384.53	340.39
384.91	338.13
385.29	347.84
385.67	354.17
386.049	347.39
386.429	347.62
386.809	342.19
387.189	348.3
387.568	353.72
387.948	348.07
388.328	366.15
388.707	375.87
389.087	355.08
389.466	353.27
389.846	351.01
390.225	354.85
390.605	352.14
390.984	367.73
391.363	375.64
391.743	375.87
392.122	377.45
392.501	349.65
392.881	380.84
393.26	367.5
393.639	363.89
394.018	365.7
394.397	379.71
394.776	394.62
395.155	373.83
395.534	372.7
395.913	364.79
396.292	374.51
396.671	361.63
397.05	395.75
397.429	382.87
397.808	383.32
398.186	409.31
398.565	391.01
398.944	407.73
399.323	398.92
399.701	398.92
400.08	388.29
400.458	411.35
400.837	422.64
401.215	427.39
401.594	399.82
401.972	385.13
402.351	416.77
402.729	418.8
403.107	406.6
403.486	440.95
403.864	411.8
404.242	443.21
404.62	440.27
404.999	426.26
405.377	419.48
405.755	438.46
406.133	446.37
406.511	459.48
406.889	455.41
407.267	460.38
407.645	492.47
408.023	475.98
408.401	473.04
408.779	500.38
409.156	484.11
409.534	495.86
409.912	485.92
410.29	501.06
410.667	510.78
411.045	504.22
411.422	520.72
411.8	518.91
412.178	536.54
412.555	538.57
412.933	554.17
413.31	572.02
413.687	567.27
414.065	581.06
414.442	559.14
414.819	570.44
415.197	589.87
415.574	607.27
415.951	598.23
416.328	600.27
416.705	593.71
417.082	625.58
417.46	633.49
417.837	653.15
418.214	643.43
418.591	641.85
418.967	647.05
419.344	681.17
419.721	669.42
420.098	675.07
420.475	695.18
420.852	699.7
421.228	697.21
421.605	709.64
421.982	725.46
422.358	749.42
422.735	734.05
423.111	758.68
423.488	764.33
423.864	764.78
424.241	775.63
424.617	779.47
424.994	798.91
425.37	800.04
425.746	814.5
426.123	854.27
426.499	848.4
426.875	858.79
427.251	858.34
427.627	861.05
428.003	897.89
428.379	891.11
428.756	911.44
429.132	887.49
429.507	934.5
429.883	930.88
430.259	965.23
430.635	932.46
431.011	946.7
431.387	971.33
431.763	1006.81
432.138	996.41
432.514	1019.24
432.89	1030.09
433.265	1029.18
433.641	1092.68
434.016	1064.89
434.392	1094.27
434.767	1105.79
435.143	1108.95
435.518	1123.87
435.894	1173.13
436.269	1168.84
436.644	1205
437.02	1234.37
437.395	1207.93
437.77	1230.08
438.145	1271.66
438.52	1297.88
438.895	1304.88
439.271	1320.47
439.646	1339.23
440.021	1346.91
440.395	1364.77
440.77	1346.24
441.145	1416.52
441.52	1405.22
441.895	1402.05
442.27	1434.82
442.645	1465.1
443.019	1488.15
443.394	1457.19
443.769	1477.08
444.143	1514.37
444.518	1539.9
444.892	1531.77
445.267	1520.92
445.641	1567.92
446.016	1577.87
446.39	1583.74
446.764	1584.87
447.139	1569.73
447.513	1594.36
447.887	1634.36
448.262	1618.32
448.636	1642.27
449.01	1674.59
449.384	1660.35
449.758	1691.31
450.132	1729.28
450.506	1694.48
450.88	1752.78
451.254	1743.29
451.628	1763.17
452.002	1807.47
452.376	1822.61
452.75	1816.73
453.123	1841.14
453.497	1852.66
453.871	1908.48
454.244	1898.99
454.618	1931.98
454.992	1992.32
455.365	1954.13
455.739	2015.37
456.112	2036.16
456.486	2048.82
456.859	2077.97
457.232	2090.17
457.606	2109.15
457.979	2152.77
458.352	2179.21
458.725	2211.98
459.099	2194.12
459.472	2256.95
459.845	2282.26
460.218	2319.77
460.591	2319.54
460.964	2353.89
461.337	2421.24
461.71	2417.17
462.083	2484.74
462.456	2514.11
462.829	2513.89
463.201	2533.32
463.574	2561.57
463.947	2557.73
464.32	2664.17
464.692	2652.64
465.065	2697.84
465.438	2778.74
465.81	2766.99
466.183	2826.2
466.555	2881.56
466.928	2893.09
467.3	2882.69
467.672	2970.6
468.045	3041.78
468.417	3064.16
468.789	3073.42
469.161	3091.95
469.534	3176.02
469.906	3251.27
470.278	3292.63
470.65	3323.36
471.022	3421.66
471.394	3421.44
471.766	3498.5
472.138	3537.36
472.51	3617.14
472.882	3714.76
473.253	3713.63
473.625	3810.58
473.997	3877.24
474.369	3873.17
474.74	3990.46
475.112	4066.62
475.484	4118.14
475.855	4199.95
476.227	4245.14
476.598	4388.19
476.97	4372.82
477.341	4537.56
477.713	4614.17
478.084	4652.59
478.455	4748.63
478.827	4832.7
479.198	5020.72
479.569	5006.7
479.94	5167.38
480.311	5201.5
480.682	5362.4
481.053	5438.11
481.424	5561.27
481.795	5591.1
482.166	5734.14
482.537	5817.53
482.908	5974.81
483.279	6043.51
483.65	6184.53
484.021	6256.62
484.391	6391.98
484.762	6428.36
485.133	6494.35
485.503	6626.1
485.874	6797.39
486.244	6897.73
486.615	7049.59
486.985	7044.84
487.356	7252.3
487.726	7289.13
488.097	7473.76
488.467	7494.32
488.837	7654.32
489.207	7766.41
489.578	7864.93
489.948	8005.95
490.318	8159.16
490.688	8162.33
491.058	8325.04
491.428	8412.94
491.798	8532.04
492.168	8699.49
492.538	8691.13
492.908	8776.32
493.278	8951.01
493.648	8994.85
494.017	9069.65
494.387	9157.78
494.757	9252.47
495.126	9332.24
495.496	9326.82
495.866	9435.51
496.235	9559.81
496.605	9629.18
496.974	9696.3
497.344	9752.57
497.713	9855.84
498.082	9887.93
498.452	10010.41
498.821	9972.9
499.19	10016.74
499.559	10169.28
499.928	10245.44
500.298	10269.17
500.667	10395.26
501.036	10353.23
501.405	10419.67
501.774	10404.08
502.143	10498.54
502.512	10553.9
502.88	10678.87
503.249	10573.11
503.618	10686.1
503.987	10716.38
504.356	10775.82
504.724	10818.53
505.093	10835.25
505.462	10836.38
505.83	10894.23
506.199	11005.64
506.567	11099.43
506.936	11067.11
507.304	11177.39
507.672	11180.33
508.041	11260.1
508.409	11243.15
508.777	11256.48
509.145	11422.58
509.514	11296.71
509.882	11390.49
510.25	11398.63
510.618	11359.08
510.986	11408.34
511.354	11466.65
511.722	11542.8
512.09	11615.34
512.458	11546.87
512.826	11590.94
513.193	11658.73
513.561	11728.79
513.929	11733.53
514.297	11768.11
514.664	11882.46
515.032	11870.03
515.4	11948.44
515.767	11915
516.135	11966.52
516.502	11813.08
516.869	11994.77
517.237	11889.01
517.604	11876.35
517.972	11967.2
518.339	12017.59
518.706	11965.17
519.073	12040.42
519.44	12013.75
519.808	12079.74
520.175	11978.27
520.542	12205.39
520.909	12126.29
521.276	12150.47
521.643	12185.05
522.009	12230.24
522.376	12242.67
522.743	12212.39
523.11	12291.94
523.477	12376.45
523.843	12367.87
524.21	12414.19
524.577	12422.33
524.943	12390.69
525.31	12415.55
525.676	12432.05
526.043	12459.62
526.409	12438.6
526.776	12502.33
527.142	12520.63
527.508	12517.69
527.874	12516.34
528.241	12506.39
528.607	12505.72
528.973	12599.27
529.339	12509.78
529.705	12526.96
530.071	12510.69
530.437	12540.07
530.803	12525.83
531.169	12553.85
531.535	12468.2
531.901	12428.43
532.267	12444.48
532.632	12404.25
532.998	12384.82
533.364	12389.56
533.73	12392.5
534.095	12394.76
534.461	12347.53
534.826	12378.94
535.192	12357.02
535.557	12361.54
535.923	12244.48
536.288	12241.99
536.653	12200.87
537.019	12128.1
537.384	12097.82
537.749	12035.67
538.114	12026.63
538.479	12043.36
538.845	11953.19
539.21	11863.25
539.575	11915.45
539.94	11859.18
540.305	11909.12
540.67	11793.19
541.034	11803.14
541.399	11769.69
541.764	11706.19
542.129	11657.38
542.494	11660.54
542.858	11642.46
543.223	11526.99
543.587	11565.18
543.952	11485.86
544.316	11502.13
544.681	11343.94
545.045	11306.43
545.41	11359.08
545.774	11348.46
546.138	11234.11
546.503	11192.08
546.867	11181.23
547.231	11161.8
547.595	11096.49
547.959	11115.92
548.324	11020.78
548.688	10942.59
549.052	10953.21
549.416	10951.63
549.779	10896.04
550.143	10793.9
550.507	10797.51
550.871	10794.57
551.235	10680.45
551.599	10714.13
551.962	10674.58
552.326	10618.31
552.689	10703.5
553.053	10604.3
553.417	10553
553.78	10648.59
554.143	10504.87
554.507	10497.41
554.87	10449.73
555.234	10521.59
555.597	10358.2
555.96	10402.04
556.323	10335.38
556.686	10300.35
557.05	10325.43
557.413	10343.51
557.776	10287.92
558.139	10325.21
558.502	10323.17
558.865	10199.11
559.228	10295.15
559.59	10226.23
559.953	10155.72
560.316	10243.85
560.679	10167.92
561.041	10231.65
561.404	10190.52
561.767	10200.92
562.129	10135.16
562.492	10210.64
562.854	10263.97
563.217	10185.78
563.579	10129.73
563.941	10198.21
564.304	10209.28
564.666	10231.88
565.028	10189.17
565.39	10150.52
565.753	10180.58
566.115	10165.21
566.477	10175.38
566.839	10208.6
567.201	10217.64
567.563	10190.52
567.925	10278.88
568.287	10122.73
568.648	10194.82
569.01	10163.63
569.372	10226
569.734	10191.2
570.095	10237.98
570.457	10216.29
570.819	10211.31
571.18	10279.79
571.542	10186.68
571.903	10225.32
572.265	10284.31
572.626	10313.68
572.987	10254.02
573.349	10264.42
573.71	10310.29
574.071	10252.67
574.432	10254.02
574.794	10271.65
575.155	10305.1
575.516	10248.37
575.877	10200.47
576.238	10277.98
576.599	10276.85
576.96	10245.89
577.32	10278.66
577.681	10269.84
578.042	10303.51
578.403	10307.13
578.763	10319.79
579.124	10202.27
579.485	10252.44
579.845	10292.89
580.206	10199.34
580.566	10221.03
580.927	10227.58
581.287	10259.9
581.648	10200.47
582.008	10306
582.368	10249.05
582.728	10219.9
583.089	10249.05
583.449	10231.2
583.809	10223.06
584.169	10195.72
584.529	10131.09
584.889	10298.99
585.249	10238.43
585.609	10194.59
585.969	10272.78
586.329	10142.39
586.688	10166.57
587.048	10136.06
587.408	10141.48
587.768	10097.87
588.127	10156.17
588.487	10091.54
588.846	10076.63
589.206	10030.75
589.565	10094.25
589.925	9995.73
590.284	10080.02
590.643	10123.41
591.003	10063.75
591.362	10030.08
591.721	10059.68
592.08	9981.04
592.44	10024.65
592.799	10058.78
593.158	10034.14
593.517	9953.69
593.876	10023.97
594.235	9991.21
594.593	10047.93
594.952	9961.38
595.311	9969.29
595.67	9986.46
596.029	10042.73
596.387	9994.37
596.746	10034.82
597.104	9887.25
597.463	9923.19
597.822	9990.08
598.18	9942.62
598.538	9882.28
598.897	9907.59
599.255	9855.62
599.613	9975.16
599.972	9882.51
600.33	9950.3
600.688	9878.89
601.046	9893.13
601.404	9981.04
601.762	9905.11
602.12	9933.13
602.478	9843.87
602.836	9923.86
603.194	9901.27
603.552	9892.45
603.91	9829.63
604.268	9899.46
604.625	9841.38
604.983	9858.55
605.341	9835.28
605.698	9858.1
606.056	9886.35
606.413	9863.75
606.771	9918.44
607.128	9876.86
607.485	9750.76
607.843	9877.76
608.2	9939.23
608.557	9946.24
608.914	9887.25
609.272	9886.12
609.629	9881.6
609.986	9920.7
610.343	9839.8
610.7	9959.12
611.057	9885.45
611.414	9961.83
611.771	9942.85
612.127	10017.65
612.484	9920.02
612.841	9956.18
613.198	9952.11
613.554	9987.82
613.911	9997.53
614.267	10012.67
614.624	9957.76
614.98	9962.96
615.337	10011.77
615.693	10030.3
616.05	9962.05
616.406	10119.56
616.762	10048.38
617.118	9951.89
617.475	10033.46
617.831	10043.86
618.187	10044.54
618.543	10140.81
618.899	10125.21
619.255	10135.61
619.611	10065.55
619.967	10122.28
620.323	10171.54
620.678	10125.44
621.034	10064.65
621.39	10036.63
621.746	10089.73
622.101	10150.07
622.457	10095.61
622.812	10053.13
623.168	10122.95
623.523	10104.65
623.879	10150.52
624.234	10018.32
624.589	10101.26
624.945	10136.74
625.3	10150.3
625.655	10098.55
626.01	10155.95
626.365	10073.46
626.72	10090.41
627.075	10124.08
627.43	10094.25
627.785	10006.57
628.14	10069.85
628.495	10103.75
628.85	10031.43
629.205	10011.54
629.559	10051.54
629.914	10011.32
630.269	10082.05
630.623	10040.24
630.978	9939
631.332	10031.21
631.687	9986.69
632.041	9941.49
632.396	9968.16
632.75	9961.38
633.104	9943.07
633.459	9916.41
633.813	9851.1
634.167	9936.74
634.521	9868.5
634.875	9885.9
635.229	9933.58
635.583	9782.4
635.937	9761.38
636.291	9772.23
636.645	9741.5
636.999	9753.7
637.352	9813.58
637.706	9709.18
638.06	9809.74
638.413	9799.35
638.767	9759.57
639.121	9720.48
639.474	9692.91
639.828	9701.04
640.181	9620.14
640.534	9744.66
640.888	9689.75
641.241	9621.95
641.594	9666.47
641.947	9654.72
642.301	9582.4
642.654	9597.32
643.007	9691.33
643.36	9673.93
643.713	9642.74
644.066	9646.58
644.419	9619.69
644.771	9523.2
645.124	9459.69
645.477	9461.95
645.83	9366.36
646.182	9394.61
646.535	9274.39
646.888	9295.63
647.24	9266.25
647.593	9371.11
647.945	9295.41
648.298	9267.61
648.65	9291.34
649.002	9275.52
649.355	9236.2
649.707	9328.62
650.059	9291.56
650.411	9417.44
650.763	9427.83
651.115	9518
651.467	9544.21
651.819	9461.73
652.171	9445.46
652.523	9445.23
652.875	9432.12
653.227	9501.5
653.578	9517.77
653.93	9432.8
654.282	9464.44
654.633	9484.1
654.985	9437.77
655.337	9502.41
655.688	9577.66
656.039	9468.51
656.391	9423.09
656.742	9491.56
657.094	9491.33
657.445	9555.06
657.796	9508.06
658.147	9516.87
658.498	9468.73
658.849	9446.81
659.2	9525.68
659.551	9494.72
659.902	9492.24
660.253	9561.16
660.604	9525.68
660.955	9475.29
661.306	9529.3
661.656	9481.84
662.007	9551.67
662.358	9500.37
662.708	9537.66
663.059	9519.58
663.409	9437.77
663.76	9541.27
664.11	9502.18
664.461	9504.44
664.811	9571.33
665.161	9567.49
665.511	9478.68
665.862	9589.86
666.212	9506.47
666.562	9496.76
666.912	9592.12
667.262	9508.96
667.612	9512.12
667.962	9531.56
668.312	9523.42
668.662	9526.59
669.011	9625.57
669.361	9525.46
669.711	9515.06
670.06	9561.16
670.41	9516.19
670.76	9511.9
671.109	9511.67
671.459	9477.1
671.808	9461.05
672.157	9527.04
672.507	9429.87
672.856	9448.4
673.205	9393.93
673.554	9522.29
673.904	9458.11
674.253	9520.94
674.602	9371.79
674.951	9347.61
675.3	9302.18
675.649	9358.68
675.998	9457.66
676.346	9404.78
676.695	9447.72
677.044	9369.3
677.393	9428.06
677.741	9405.01
678.09	9396.87
678.438	9362.3
678.787	9304.22
679.135	9254.95
679.484	9250.89
679.832	9279.13
680.181	9249.98
680.529	9256.99
680.877	9190.32
681.225	9227.38
681.573	9294.73
681.922	9179.7
682.27	9125.92
682.618	9163.21
682.966	9083.89
683.314	9171.11
683.661	9089.99
684.009	9048.18
684.357	9029.65
684.705	9039.82
685.053	9002.31
685.4	8997.33
685.748	8958.69
686.095	8958.01
686.443	8894.96
686.79	8923.89
687.138	8957.56
687.485	8906.49
687.832	8876.89
688.18	8923.21
688.527	8725.25
688.874	8772.03
689.221	8741.07
689.568	8721.64
689.915	8734.74
690.262	8725.48
690.609	8695.65
690.956	8623.78
691.303	8626.04
691.65	8614.29
691.997	8531.13
692.344	8517.12
692.69	8531.81
693.037	8519.61
693.383	8365.03
693.73	8462.88
694.077	8342.44
694.423	8365.71
694.769	8327.75
695.116	8290.01
695.462	8352.15
695.808	8236
696.155	8305.6
696.501	8196.68
696.847	8184.93
697.193	8132.05
697.539	8154.87
697.885	8053.63
698.231	8048.66
698.577	8051.82
698.923	8025.38
699.269	7955.78
699.614	7945.38
699.96	7907.87
700.306	7828.55
700.651	7887.76
700.997	7831.71
701.342	7839.85
701.688	7828.78
702.033	7709.68
702.379	7733.86
702.724	7730.7
703.069	7756.01
703.415	7590.14
703.76	7622
704.105	7534.1
704.45	7550.37
704.795	7529.12
705.14	7479.63
705.485	7406.87
705.83	7465.17
706.175	7466.75
706.52	7354.44
706.865	7399.18
707.209	7393.76
707.554	7334.33
707.899	7368
708.243	7293.88
708.588	7334.55
708.932	7219.98
709.277	7198.51
709.621	7203.26
709.966	7221.11
710.31	7178.4
710.654	7075.58
710.998	7143.6
711.342	7120.32
711.687	7090.72
712.031	7041.91
712.375	7041.23
712.719	7057.95
713.063	7061.11
713.407	7017.27
713.75	6989.7
714.094	7042.81
714.438	6993.54
714.782	7015.47
715.125	6984.28
715.469	6952.87
715.812	6919.87
716.156	6931.85
716.499	6895.24
716.843	6849.37
717.186	6914.22
717.53	6897.95
717.873	6843.27
718.216	6867.67
718.559	6874.9
718.902	6821.12
719.246	6799.43
719.589	6765.3
719.932	6765.3
720.275	6778.64
720.617	6773.66
720.96	6783.38
721.303	6775.25
721.646	6753.33
721.989	6722.14
722.331	6768.47
722.674	6685.08
723.016	6766.66
723.359	6725.3
723.701	6717.39
724.044	6679.2
724.386	6647.79
724.729	6704.74
725.071	6714.23
725.413	6687.79
725.755	6638.75
726.097	6595.82
726.439	6627.45
726.782	6610.73
727.124	6671.52
727.465	6603.72
727.807	6622.48
728.149	6616.83
728.491	6558.75
728.833	6617.74
729.175	6583.61
729.516	6602.37
729.858	6647.34
730.199	6633.78
730.541	6594.69
730.882	6556.27
731.224	6580.67
731.565	6519.21
731.906	6558.53
732.248	6589.49
732.589	6573.44
732.93	6573.44
733.271	6586.32
733.612	6614.8
733.953	6540.45
734.294	6580.45
734.635	6631.29
734.976	6627.23
735.317	6649.6
735.658	6610.73
735.999	6581.13
736.339	6614.57
736.68	6643.5
737.021	6626.32
737.361	6591.52
737.702	6639.2
738.042	6636.49
738.383	6606.44
738.723	6620
739.063	6596.72
739.404	6657.73
739.744	6657.06
740.084	6663.61
740.424	6683.95
740.764	6693.44
741.104	6706.32
741.444	6681.69
741.784	6704.29
742.124	6733.44
742.464	6711.97
742.804	6731.86
743.143	6815.24
743.483	6819.09
743.823	6802.14
744.162	6822.93
744.502	6933.89
744.841	6928.91
745.181	6917.39
745.52	6967.1
745.86	7021.11
746.199	7028.57
746.538	7084.84
746.877	7135.69
747.216	7178.4
747.556	7206.42
747.895	7208.68
748.234	7283.48
748.573	7294.78
748.911	7331.16
749.25	7440.09
749.589	7441.44
749.928	7525.06
750.267	7637.14
750.605	7606.86
750.944	7707.2
751.283	7794.2
751.621	7913.75
751.96	7977.02
752.298	7993.52
752.636	8174.08
752.975	8205.49
753.313	8287.97
753.651	8414.07
753.989	8471.25
754.327	8579.72
754.666	8701.3
755.004	8764.8
755.342	8908.75
755.679	9027.16
756.017	9146.48
756.355	9264.67
756.693	9395.52
757.031	9553.25
757.368	9654.72
757.706	9762.74
758.044	9976.07
758.381	10161.82
758.719	10172.9
759.056	10472.32
759.394	10572.66
759.731	10649.49
760.068	10864.18
760.405	10949.37
760.743	11070.95
761.08	11275.47
761.417	11385.29
761.754	11648.11
762.091	11806.75
762.428	11938.27
762.765	12037.03
763.102	12267.08
