Data from hue_150_FLMS001491_00009.txt Node
Date: Tue Feb 07 16:53:34 GMT 2017
User: dcchb
Spectrometer: FLMS00149
Trigger mode: 0
Integration Time (sec): 2.000000E-2
Scans to average: 10
Electric dark correction enabled: true
Nonlinearity correction enabled: false
Boxcar width: 0
XAxis mode: Wavelengths
Number of Pixels in Spectrum: 2048
>>>>>Begin Spectral Data<<<<<
341.393	-3.84
341.776	-3.84
342.16	-3.84
342.543	-68.7
342.927	-74.35
343.31	-75.7
343.693	-70.96
344.077	-62.82
344.46	-66.89
344.843	-44.52
345.226	-28.25
345.61	-21.02
345.993	-31.41
346.376	6.78
346.759	4.52
347.142	18.08
347.525	38.87
347.908	57.17
348.291	61.92
348.674	102.37
349.057	111.86
349.44	119.77
349.823	143.27
350.206	159.54
350.588	192.54
350.971	212.88
351.354	229.15
351.737	242.25
352.119	263.72
352.502	259.88
352.884	272.08
353.267	264.4
353.65	298.3
354.032	277.05
354.414	311.18
354.797	321.8
355.179	321.8
355.562	314.57
355.944	332.87
356.326	335.81
356.709	311.18
357.091	319.54
357.473	322.48
357.855	346.88
358.238	350.73
358.62	330.39
359.002	341.01
359.384	341.01
359.766	331.97
360.148	347.79
360.53	361.57
360.912	333.32
361.294	321.12
361.676	314.57
362.057	351.4
362.439	322.93
362.821	333.55
363.203	337.84
363.584	336.94
363.966	329.48
364.348	320.44
364.729	327.9
365.111	339.88
365.493	323.61
365.874	327.68
366.256	312.53
366.637	308.92
367.019	309.14
367.4	299.88
367.781	329.48
368.163	321.8
368.544	339.2
368.925	333.55
369.306	313.44
369.688	315.7
370.069	306.66
370.45	316.15
370.831	299.43
371.212	329.26
371.593	298.98
371.974	305.3
372.355	303.95
372.736	346.66
373.117	313.44
373.498	328.8
373.879	331.97
374.26	344.4
374.641	302.82
375.021	304.17
375.402	319.31
375.783	331.97
376.163	311.4
376.544	329.71
376.925	297.17
377.305	346.88
377.686	333.1
378.066	336.94
378.447	315.02
378.827	337.39
379.208	352.31
379.588	360.44
379.968	334.23
380.349	319.31
380.729	330.16
381.109	335.81
381.489	339.65
381.87	338.75
382.25	341.23
382.63	349.37
383.01	350.73
383.39	331.29
383.77	359.76
384.15	331.74
384.53	355.92
384.91	354.57
385.29	355.02
385.67	354.34
386.049	357.5
386.429	349.14
386.809	357.5
387.189	370.61
387.568	362.25
387.948	359.76
388.328	361.8
388.707	362.7
389.087	373.55
389.466	374.68
389.846	358.63
390.225	359.09
390.605	369.03
390.984	366.54
391.363	380.55
391.743	400.67
392.122	378.52
392.501	395.24
392.881	376.49
393.26	374.23
393.639	399.99
394.018	378.75
394.397	387.79
394.776	366.77
395.155	374
395.534	402.02
395.913	396.6
396.292	404.28
396.671	389.59
397.05	426.88
397.429	395.47
397.808	383.27
398.186	396.6
398.565	412.42
398.944	396.37
399.323	406.77
399.701	418.97
400.08	407.9
400.458	407.22
400.837	424.4
401.215	414.9
401.594	408.58
401.972	435.69
402.351	408.35
402.729	413.32
403.107	420.33
403.486	410.38
403.864	437.95
404.242	425.53
404.62	413.77
404.999	444.73
405.377	424.62
405.755	461.91
406.133	432.76
406.511	424.62
406.889	435.24
407.267	435.02
407.645	433.89
408.023	414.45
408.401	465.07
408.779	467.11
409.156	447.22
409.534	468.24
409.912	479.76
410.29	463.94
410.667	480.89
411.045	486.77
411.422	481.12
411.8	479.99
412.178	476.37
412.555	489.03
412.933	507.56
413.31	497.39
413.687	526.31
414.065	513.88
414.442	511.62
414.819	501
415.197	510.04
415.574	513.21
415.951	510.27
416.328	519.08
416.705	536.03
417.082	526.99
417.46	530.16
417.837	528.57
418.214	525.41
418.591	527.67
418.967	518.63
419.344	561.79
419.721	539.42
420.098	538.97
420.475	543.04
420.852	551.85
421.228	560.21
421.605	567.22
421.982	586.65
422.358	570.15
422.735	560.89
423.111	550.72
423.488	586.2
423.864	583.04
424.241	584.84
424.617	602.24
424.994	590.27
425.37	597.72
425.746	619.64
426.123	616.03
426.499	612.87
426.875	616.93
427.251	623.03
427.627	633.2
428.003	632.98
428.379	645.63
428.756	636.82
429.132	656.71
429.507	665.97
429.883	670.26
430.259	673.65
430.635	652.41
431.011	670.04
431.387	696.03
431.763	711.39
432.138	705.74
432.514	693.32
432.89	706.87
433.265	732.86
433.641	717.27
434.016	732.18
434.392	730.6
434.767	740.32
435.143	757.27
435.518	753.43
435.894	766.76
436.269	794.56
436.644	813.31
437.02	785.74
437.395	787.32
437.77	802.46
438.145	793.43
438.52	803.14
438.895	797.49
439.271	823.48
439.646	822.58
440.021	825.74
440.395	849.02
440.77	836.36
441.145	856.25
441.52	849.02
441.895	854.44
442.27	872.52
442.645	878.39
443.019	866.64
443.394	875.46
443.769	847.89
444.143	860.99
444.518	888.56
444.892	904.83
445.267	910.48
445.641	915
446.016	900.09
446.39	947.55
446.764	911.39
447.139	936.25
447.513	931.95
447.887	945.74
448.262	956.36
448.636	954.1
449.01	968.11
449.384	976.7
449.758	993.65
450.132	985.96
450.506	1002.69
450.88	994.55
451.254	1020.76
451.628	1024.15
452.002	1026.87
452.376	1032.74
452.75	1047.43
453.123	1048.33
453.497	1063.47
453.871	1063.93
454.244	1068.9
454.618	1089.46
454.992	1108.45
455.365	1125.17
455.739	1124.04
456.112	1127.88
456.486	1176.47
456.859	1181.21
457.232	1167.43
457.606	1178.5
457.979	1200.42
458.352	1216.69
458.725	1252.4
459.099	1238.16
459.472	1298.72
459.845	1285.84
460.218	1310.25
460.591	1302.11
460.964	1312.96
461.337	1335.56
461.71	1364.71
462.083	1401.09
462.456	1395.67
462.829	1406.52
463.201	1430.02
463.574	1424.6
463.947	1475.67
464.32	1495.78
464.692	1498.72
465.065	1500.98
465.438	1571.48
465.81	1581.88
466.183	1587.75
466.555	1625.49
466.928	1643.35
467.3	1610.81
467.672	1681.31
468.045	1681.54
468.417	1738.71
468.789	1725.6
469.161	1751.59
469.534	1818.03
469.906	1853.96
470.278	1866.84
470.65	1893.96
471.022	1923.57
471.394	2003.79
471.766	2024.58
472.138	1998.82
472.51	2061.87
472.882	2072.49
473.253	2144.8
473.625	2222.31
473.997	2250.11
474.369	2280.84
474.74	2338.92
475.112	2413.72
475.484	2441.74
475.855	2513.83
476.227	2540.5
476.598	2593.15
476.97	2674.51
477.341	2749.98
477.713	2788.63
478.084	2839.02
478.455	2957.89
478.827	2989.53
479.198	3087.6
479.569	3115.62
479.94	3250.76
480.311	3274.49
480.682	3388.84
481.053	3489.85
481.424	3565.33
481.795	3674.25
482.166	3755.61
482.537	3806.68
482.908	3960.35
483.279	4021.36
483.65	4135.26
484.021	4253.22
484.391	4352.43
484.762	4381.13
485.133	4487.57
485.503	4623.16
485.874	4819.76
486.244	4897.72
486.615	4984.05
486.985	5124.39
487.356	5304.95
487.726	5320.31
488.097	5469.91
488.467	5575.9
488.837	5753.97
489.207	5845.5
489.578	5965.94
489.948	6101.53
490.318	6238.25
490.688	6360.74
491.058	6518.47
491.428	6694.29
491.798	6750.78
492.168	7007.5
492.538	6998.23
492.908	7177.44
493.278	7311.9
493.648	7377.66
494.017	7566.81
494.387	7634.15
494.757	7818.55
495.126	7946.23
495.496	8051.99
495.866	8167.24
496.235	8245.21
496.605	8426.9
496.974	8550.74
497.344	8609.72
497.713	8709.15
498.082	8851.52
498.452	9004.28
498.821	9145.52
499.19	9132.42
499.559	9303.94
499.928	9369.02
500.298	9434.1
500.667	9571.27
501.036	9584.61
501.405	9737.6
501.774	9794.09
502.143	9925.61
502.512	9992.28
502.88	10199.96
503.249	10229.34
503.618	10235.66
503.987	10397.92
504.356	10362.21
504.724	10489.22
505.093	10616.22
505.462	10684.92
505.83	10764.46
506.199	10848.53
506.567	10942.31
506.936	10928.53
507.304	11109.76
507.672	11169.65
508.041	11214.62
508.409	11244
508.777	11432.02
509.145	11441.73
509.514	11448.74
509.882	11480.6
510.25	11544.1
510.618	11637.21
510.986	11708.84
511.354	11778.9
511.722	11860.93
512.09	11953.36
512.458	11909.97
512.826	12093.92
513.193	12118.78
513.561	12152.67
513.929	12206.91
514.297	12238.55
514.664	12343.18
515.032	12363.29
515.4	12478.54
515.767	12462.27
516.135	12511.08
516.502	12439.22
516.869	12651.42
517.237	12691.64
517.604	12668.82
517.972	12653.23
518.339	12745.43
518.706	12746.11
519.073	12778.65
519.44	12863.84
519.808	12914.69
520.175	12866.33
520.542	12943.16
520.909	13062.71
521.276	13095.47
521.643	13091.41
522.009	13160.56
522.376	13210.73
522.743	13255.7
523.11	13328.24
523.477	13380.67
523.843	13262.48
524.21	13443.94
524.577	13461.11
524.943	13479.87
525.31	13530.94
525.676	13644.61
526.043	13664.95
526.409	13599.42
526.776	13748.11
527.142	13715.8
527.508	13822.24
527.874	13804.61
528.241	13839.41
528.607	13747.89
528.973	13822.91
529.339	13832.63
529.705	13852.97
530.071	13907.88
530.437	13859.75
530.803	14005.51
531.169	13900.88
531.535	13883.25
531.901	13941.55
532.267	13921.67
532.632	13924.38
532.998	13909.46
533.364	13937.71
533.73	13884.61
534.095	13893.87
534.461	14019.97
534.826	13962.34
535.192	13859.07
535.557	13998.5
535.923	13736.81
536.288	13869.92
536.653	13898.84
537.019	13808.45
537.384	13792.41
537.749	13744.27
538.114	13832.63
538.479	13721.45
538.845	13787.21
539.21	13720.77
539.575	13636.03
539.94	13644.84
540.305	13657.27
540.67	13597.16
541.034	13627.44
541.399	13597.38
541.764	13569.59
542.129	13573.43
542.494	13447.56
542.858	13532.53
543.223	13440.32
543.587	13493.88
543.952	13435.35
544.316	13316.03
544.681	13354.68
545.045	13335.69
545.41	13340.21
545.774	13264.51
546.138	13318.97
546.503	13255.47
546.867	13161.01
547.231	13248.92
547.595	13211.18
547.959	13228.8
548.324	13107
548.688	13076.49
549.052	13102.93
549.416	13057.28
549.779	13009.6
550.143	12923.05
550.507	12953.78
550.871	13025.42
551.235	12938.87
551.599	12986.78
551.962	12928.7
552.326	12907.46
552.689	12943.61
553.053	12755.37
553.417	12774.81
553.78	12944.29
554.143	12867.23
554.507	12889.6
554.87	12782.26
555.234	12924.63
555.597	12813.45
555.96	12841.02
556.323	12843.28
556.686	12746.56
557.05	12734.13
557.413	12758.31
557.776	12678.31
558.139	12828.36
558.502	12749.72
558.865	12750.63
559.228	12705.43
559.59	12759.66
559.953	12784.97
560.316	12868.81
560.679	12826.78
561.041	12789.72
561.404	12782.94
561.767	12939.32
562.129	12816.84
562.492	12840.11
562.854	12778.42
563.217	12783.62
563.579	12766.22
563.941	12873.56
564.304	12848.7
564.666	12885.31
565.028	12919.43
565.39	12947.23
565.753	12987.91
566.115	12905.42
566.477	12930.96
566.839	13025.42
567.201	12994.69
567.563	13094.12
567.925	13041.69
568.287	13119.2
568.648	13032.88
569.01	13129.6
569.372	13158.75
569.734	13132.99
570.095	13198.07
570.457	13223.61
570.819	13206.66
571.18	13152.65
571.542	13182.03
571.903	13191.52
572.265	13265.87
572.626	13298.63
572.987	13264.28
573.349	13279.42
573.71	13297.05
574.071	13253.66
574.432	13280.33
574.794	13370.72
575.155	13325.3
575.516	13280.78
575.877	13337.28
576.238	13252.98
576.599	13376.82
576.96	13380.89
577.32	13398.07
577.681	13399.42
578.042	13359.2
578.403	13393.09
578.763	13354.45
579.124	13492.07
579.485	13495.92
579.845	13497.5
580.206	13445.07
580.566	13429.48
580.927	13386.09
581.287	13473.77
581.648	13440.1
582.008	13478.97
582.368	13485.07
582.728	13490.04
583.089	13441.45
583.449	13424.05
583.809	13418.63
584.169	13451.62
584.529	13415.69
584.889	13501.57
585.249	13403.72
585.609	13327.79
585.969	13429.03
586.329	13339.08
586.688	13345.64
587.048	13341.8
587.408	13314.45
587.768	13363.72
588.127	13317.39
588.487	13300.22
588.846	13407.56
589.206	13262.93
589.565	13249.82
589.925	13252.98
590.284	13287.11
590.643	13266.09
591.003	13255.92
591.362	13277.17
591.721	13298.86
592.08	13337.05
592.44	13235.36
592.799	13313.55
593.158	13304.28
593.517	13228.13
593.876	13209.6
594.235	13230.16
594.593	13322.59
594.952	13258.18
595.311	13215.47
595.67	13240.1
596.029	13315.58
596.387	13318.97
596.746	13288.92
597.104	13227.67
597.463	13161.69
597.822	13256.37
598.18	13245.3
598.538	13227.45
598.897	13293.66
599.255	13110.84
599.613	13292.76
599.972	13137.28
600.33	13261.12
600.688	13163.04
601.046	13213.66
601.404	13226.54
601.762	13222.03
602.12	13277.17
602.478	13212.08
602.836	13202.36
603.194	13316.71
603.552	13243.04
603.91	13207.11
604.268	13268.58
604.625	13189.94
604.983	13280.55
605.341	13135.7
605.698	13234.23
606.056	13277.17
606.413	13183.83
606.771	13348.8
607.128	13231.29
607.485	13256.15
607.843	13236.49
608.2	13285.98
608.557	13400.55
608.914	13302.02
609.272	13317.16
609.629	13379.08
609.986	13469.93
610.343	13307.9
610.7	13371.4
611.057	13379.54
611.414	13468.12
611.771	13456.37
612.127	13390.83
612.484	13453.66
612.841	13453.21
613.198	13368.46
613.554	13380.67
613.911	13511.96
614.267	13412.53
614.624	13481.23
614.98	13404.85
615.337	13506.31
615.693	13488.91
616.05	13495.01
616.406	13614.56
616.762	13525.29
617.118	13535.69
617.475	13563.03
617.831	13602.35
618.187	13629.92
618.543	13611.62
618.899	13599.87
619.255	13619.98
619.611	13613.43
619.967	13703.82
620.323	13648.23
620.678	13587.67
621.034	13545.86
621.39	13607.33
621.746	13614.78
622.101	13737.94
622.457	13693.2
622.812	13639.19
623.168	13608.68
623.523	13634.67
623.879	13730.26
624.234	13582.92
624.589	13643.94
624.945	13673.54
625.3	13694.33
625.655	13662.92
626.01	13688.68
626.365	13671.5
626.72	13688.23
627.075	13614.33
627.43	13658.17
627.785	13591.28
628.14	13587.89
628.495	13610.72
628.85	13556.71
629.205	13553.54
629.559	13641
629.914	13555.12
630.269	13532.07
630.623	13590.83
630.978	13490.49
631.332	13571.17
631.687	13548.57
632.041	13478.29
632.396	13520.55
632.75	13478.97
633.104	13505.18
633.459	13364.85
633.813	13445.07
634.167	13471.74
634.521	13455.69
634.875	13464.5
635.229	13281.91
635.583	13351.51
635.937	13314.45
636.291	13244.17
636.645	13290.05
636.999	13363.94
637.352	13241.91
637.706	13195.13
638.06	13328.01
638.413	13277.17
638.767	13208.92
639.121	13162.14
639.474	13199.65
639.828	13198.52
640.181	13222.03
640.534	13202.59
640.888	13158.98
641.241	13088.02
641.594	13165.53
641.947	13119.43
642.301	13056.61
642.654	13138.41
643.007	13062.93
643.36	13067.68
643.713	12970.73
644.066	13112.42
644.419	12970.28
644.771	12877.4
645.124	12781.36
645.477	12800.34
645.83	12782.04
646.182	12740.68
646.535	12656.84
646.888	12699.1
647.24	12619.33
647.593	12639.44
647.945	12639.67
648.298	12575.94
648.65	12490.52
649.002	12518.09
649.355	12624.07
649.707	12522.16
650.059	12668.14
650.411	12817.52
650.763	12749.27
651.115	12887.34
651.467	12835.59
651.819	12843.96
652.171	12862.49
652.523	12751.76
652.875	12812.77
653.227	12845.99
653.578	12841.02
653.93	12861.81
654.282	12783.84
654.633	12745.88
654.985	12760.79
655.337	12823.62
655.688	12824.07
656.039	12905.65
656.391	12747.69
656.742	12772.32
657.094	12831.75
657.445	12797.18
657.796	12791.75
658.147	12815.71
658.498	12815.48
658.849	12844.63
659.2	12893.45
659.551	12760.79
659.902	12870.85
660.253	12862.03
660.604	12870.85
660.955	12777.07
661.306	12824.97
661.656	12871.07
662.007	12817.74
662.358	12838.53
662.708	12891.41
663.059	12875.37
663.409	12805.31
663.76	12916.72
664.11	12883.96
664.461	12844.41
664.811	12881.47
665.161	12919.89
665.511	12739.33
665.862	12904.97
666.212	12929.83
666.562	12893.45
666.912	12780.91
667.262	12823.84
667.612	12869.49
667.962	12887.8
668.312	12791.08
668.662	12941.13
669.011	12837.4
669.361	12794.24
669.711	12837.4
670.06	12768.25
670.41	12781.81
670.76	12717.86
671.109	12777.97
671.459	12818.42
671.808	12754.24
672.157	12752.21
672.507	12786.33
672.856	12804.18
673.205	12745.88
673.554	12744.3
673.904	12748.82
674.253	12773.22
674.602	12795.14
674.951	12576.39
675.3	12450.07
675.649	12724.64
675.998	12637.86
676.346	12635.15
676.695	12777.07
677.044	12543.62
677.393	12617.52
677.741	12577.97
678.09	12555.6
678.438	12572.78
678.787	12600.8
679.135	12565.77
679.484	12471.99
679.832	12506.56
680.181	12452.33
680.529	12438.09
680.877	12443.29
681.225	12464.53
681.573	12462.95
681.922	12432.67
682.27	12303.41
682.618	12377.98
682.966	12309.51
683.314	12293.24
683.661	12336.62
684.009	12283.97
684.357	12257.98
684.705	12208.49
685.053	12191.09
685.4	12189.96
685.748	12162.39
686.095	12135.05
686.443	12065.22
686.79	11987.03
687.138	12097.54
687.485	12058.44
687.832	12048.27
688.18	12015.73
688.527	11987.26
688.874	11950.65
689.221	11947.48
689.568	11836.07
689.915	11863.64
690.262	11759.92
690.609	11762.4
690.956	11703.65
691.303	11728.05
691.65	11662.52
691.997	11663.65
692.344	11551.79
692.69	11554.05
693.037	11479.92
693.383	11456.65
693.73	11429.08
694.077	11379.36
694.423	11298.01
694.769	11393.37
695.116	11288.06
695.462	11330.78
695.808	11210.33
696.155	11183.89
696.501	11153.83
696.847	11143.44
697.193	11040.61
697.539	11173.04
697.885	10964.01
698.231	11002.42
698.577	10938.24
698.923	10925.81
699.269	10847.4
699.614	10740.06
699.96	10752.94
700.306	10752.94
700.651	10750
700.997	10685.82
701.342	10646.95
701.688	10611.7
702.033	10522.44
702.379	10527.86
702.724	10490.35
703.069	10477.92
703.415	10386.85
703.76	10402.89
704.105	10365.83
704.45	10425.71
704.795	10286.96
705.14	10276.34
705.485	10315.89
705.83	10246.06
706.175	10168.77
706.52	10143.91
706.865	10072.28
707.209	10142.11
707.554	10052.62
707.899	10090.81
708.243	9965.16
708.588	10028.21
708.932	9945.05
709.277	9948.44
709.621	9929.68
709.966	9867.76
710.31	9816.24
710.654	9783.25
710.998	9792.06
711.342	9831.15
711.687	9755
712.031	9764.49
712.375	9691.5
712.719	9734.66
713.063	9681.78
713.407	9672.97
713.75	9568.79
714.094	9606.53
714.438	9558.17
714.782	9618.05
715.125	9615.34
715.469	9565.62
715.812	9488.11
716.156	9469.36
716.499	9455.57
716.843	9495.57
717.186	9453.54
717.53	9441.79
717.873	9442.01
718.216	9444.05
718.559	9321.79
718.902	9353.65
719.246	9370.15
719.589	9326.99
719.932	9298.06
720.275	9259.19
720.617	9296.7
720.96	9223.49
721.303	9271.85
721.646	9268.91
721.989	9199.08
722.331	9255.12
722.674	9247.67
723.016	9216.48
723.359	9169.48
723.701	9162.02
724.044	9148.69
724.386	9109.82
724.729	9175.13
725.071	9205.18
725.413	9125.64
725.755	9129.93
726.097	9115.24
726.439	9062.36
726.782	9106.2
727.124	9105.75
727.465	9075.24
727.807	9107.56
728.149	9038.18
728.491	9041.8
728.833	9046.32
729.175	9019.42
729.516	9053.1
729.858	9070.27
730.199	9025.53
730.541	9033.89
730.882	9010.38
731.224	9060.1
731.565	8984.85
731.906	8995.24
732.248	9011.97
732.589	8993.44
732.93	8928.8
733.271	8926.09
733.612	8950.05
733.953	9036.82
734.294	8863.5
734.635	8817.62
734.976	8957.05
735.317	8892.65
735.658	8928.58
735.999	8927.45
736.339	8880.22
736.68	8991.4
737.021	9010.61
737.361	8876.38
737.702	9029.37
738.042	8940.78
738.383	8915.02
738.723	8909.6
739.063	8907.79
739.404	8962.93
739.744	8981.01
740.084	8928.35
740.424	8965.41
740.764	8963.61
741.104	9034.56
741.444	8961.35
741.784	9061.91
742.124	9000.22
742.464	9018.97
742.804	9102.59
743.143	9119.76
743.483	9071.4
743.823	9162.7
744.162	9099.2
744.502	9153.88
744.841	9174.45
745.181	9250.15
745.52	9231.4
745.86	9256.25
746.199	9366.76
746.538	9322.47
746.877	9360.43
747.216	9466.19
747.556	9460.09
747.895	9513.42
748.234	9437.49
748.573	9535.79
748.911	9615.34
749.25	9662.57
749.589	9644.72
749.928	9760.2
750.267	9817.37
750.605	9903.47
750.944	9954.31
751.283	9967.42
751.621	10093.75
751.96	10086.97
752.298	10251.71
752.636	10320.86
752.975	10332.38
753.313	10448.76
753.651	10634.52
753.989	10576.45
754.327	10801.07
754.666	10758.36
755.004	10936.21
755.342	11131.46
755.679	11148.63
756.017	11266.6
756.355	11487.16
756.693	11504.1
757.031	11675.4
757.368	11746.13
757.706	11894.38
758.044	11977.09
758.381	12170.53
