Data from hue_20_FLMS001491_43.txt Node
Date: Mon Feb 06 15:34:10 GMT 2017
User: dcchb
Spectrometer: FLMS00149
Trigger mode: 0
Integration Time (sec): 2.000000E-2
Scans to average: 10
Electric dark correction enabled: true
Nonlinearity correction enabled: false
Boxcar width: 0
XAxis mode: Wavelengths
Number of Pixels in Spectrum: 2048
>>>>>Begin Spectral Data<<<<<
341.393	-20.03
341.776	-20.03
342.16	-20.03
342.543	-50.31
342.927	-67.03
343.31	-73.59
343.693	-68.84
344.077	-70.42
344.46	-55.51
344.843	-33.36
345.226	-39.24
345.61	-36.07
345.993	-25.45
346.376	-12.34
346.759	-1.5
347.142	39.86
347.525	65.62
347.908	66.98
348.291	66.98
348.674	68.78
349.057	108.1
349.44	113.3
349.823	136.8
350.206	169.8
350.588	194.43
350.971	208.21
351.354	235.11
351.737	235.11
352.119	239.4
352.502	257.71
352.884	274.2
353.267	290.7
353.65	273.75
354.032	299.06
354.414	293.86
354.797	323.69
355.179	343.13
355.562	340.41
355.944	342.22
356.326	325.05
356.709	346.52
357.091	330.7
357.473	370.47
357.855	334.09
358.238	347.65
358.62	332.73
359.002	352.62
359.384	336.57
359.766	350.81
360.148	341.54
360.53	337.03
360.912	345.61
361.294	336.8
361.676	356.69
362.057	330.02
362.439	337.03
362.821	344.26
363.203	343.13
363.584	347.19
363.966	341.54
364.348	330.25
364.729	327.08
365.111	343.58
365.493	314.2
365.874	325.5
366.256	328.66
366.637	329.12
367.019	317.82
367.4	330.25
367.781	314.2
368.163	326.63
368.544	316.01
368.925	312.62
369.306	318.72
369.688	305.16
370.069	321.88
370.45	334.99
370.831	336.8
371.212	330.47
371.593	329.79
371.974	306.52
372.355	331.6
372.736	339.06
373.117	325.95
373.498	305.16
373.879	311.49
374.26	326.4
374.641	323.01
375.021	322.11
375.402	333.86
375.783	338.15
376.163	336.12
376.544	349
376.925	334.99
377.305	330.47
377.686	332.28
378.066	352.84
378.447	354.43
378.827	351.04
379.208	317.59
379.588	320.75
379.968	340.41
380.349	349.23
380.729	345.39
381.109	349
381.489	342.9
381.87	331.83
382.25	336.12
382.63	357.36
383.01	347.19
383.39	354.88
383.77	351.26
384.15	358.49
384.53	351.94
384.91	358.49
385.29	348.78
385.67	377.48
386.049	365.05
386.429	366.63
386.809	339.28
387.189	372.96
387.568	366.4
387.948	375.22
388.328	370.7
388.707	345.16
389.087	389.68
389.466	374.09
389.846	370.02
390.225	367.31
390.605	367.98
390.984	381.32
391.363	378.15
391.743	373.86
392.122	383.8
392.501	379.96
392.881	392.84
393.26	377.25
393.639	379.74
394.018	361.66
394.397	396.01
394.776	403.69
395.155	370.7
395.534	386.06
395.913	403.69
396.292	387.42
396.671	401.66
397.05	406.18
397.429	378.61
397.808	403.69
398.186	414.31
398.565	415.44
398.944	424.93
399.323	401.66
399.701	416.12
400.08	422.45
400.458	417.7
400.837	421.54
401.215	398.49
401.594	414.54
401.972	410.47
402.351	444.59
402.729	427.19
403.107	461.32
403.486	458.6
403.864	430.58
404.242	430.58
404.62	459.96
404.999	444.82
405.377	436.68
405.755	440.75
406.133	431.26
406.511	450.02
406.889	446.17
407.267	455.44
407.645	434.2
408.023	456.12
408.401	461.54
408.779	480.52
409.156	484.82
409.534	468.1
409.912	469
410.29	485.95
410.667	472.61
411.045	497.92
411.422	491.82
411.8	456.34
412.178	505.38
412.555	497.47
412.933	480.75
413.31	506.74
413.687	509.45
414.065	494.54
414.442	522.78
414.819	512.16
415.197	517.36
415.574	529.34
415.951	557.13
416.328	531.82
416.705	532.95
417.082	527.08
417.46	531.14
417.837	543.35
418.214	523.01
418.591	544.25
418.967	545.83
419.344	567.08
419.721	561.2
420.098	543.12
420.475	548.77
420.852	569.56
421.228	578.37
421.605	583.35
421.982	576.79
422.358	582.22
422.735	588.54
423.111	575.66
423.488	582.22
423.864	608.43
424.241	584.93
424.617	596.45
424.994	590.13
425.37	622.89
425.746	608.88
426.123	616.34
426.499	596.45
426.875	620.41
427.251	611.59
427.627	618.83
428.003	612.5
428.379	644.36
428.756	631.93
429.132	643.23
429.507	646.62
429.883	677.13
430.259	672.38
430.635	686.62
431.011	662.67
431.387	687.98
431.763	674.19
432.138	701.76
432.514	680.29
432.89	691.14
433.265	717.35
433.641	706.28
434.016	717.35
434.392	718.94
434.767	731.82
435.143	720.52
435.518	731.36
435.894	776.56
436.269	758.03
436.644	753.06
437.02	773.17
437.395	768.2
437.77	743.79
438.145	798.03
438.52	781.99
438.895	791.48
439.271	798.03
439.646	813.62
440.021	819.05
440.395	801.87
440.77	837.35
441.145	836.67
441.52	856.11
441.895	867.86
442.27	819.27
442.645	851.14
443.019	853.4
443.394	858.14
443.769	858.82
444.143	870.34
444.518	878.48
444.892	869.44
445.267	895.43
445.641	886.39
446.016	882.32
446.39	892.94
446.764	931.59
447.139	883.68
447.513	901.98
447.887	935.88
448.262	928.65
448.636	889.1
449.01	940.17
449.384	941.75
449.758	953.96
450.132	926.61
450.506	948.31
450.88	941.3
451.254	966.61
451.628	959.83
452.002	983.79
452.376	1008.87
452.75	976.56
453.123	983.11
453.497	1045.03
453.871	1017.01
454.244	1043.67
454.618	1047.29
454.992	1059.27
455.365	1047.51
455.739	1072.82
456.112	1096.1
456.486	1082.99
456.859	1066.27
457.232	1117.8
457.606	1118.93
457.979	1130
458.352	1164.57
458.725	1153.05
459.099	1146.95
459.472	1177.45
459.845	1207.74
460.218	1207.06
460.591	1196.44
460.964	1212.48
461.337	1249.32
461.71	1274.85
462.083	1284.12
462.456	1269.88
462.829	1279.37
463.201	1310.78
463.574	1323.44
463.947	1335.19
464.32	1359.6
464.692	1362.31
465.065	1383.1
465.438	1399.6
465.81	1380.39
466.183	1435.75
466.555	1456.32
466.928	1444.11
467.3	1481.18
467.672	1533.15
468.045	1511.68
468.417	1525.69
468.789	1549.2
469.161	1556.65
469.534	1554.85
469.906	1589.65
470.278	1635.75
470.65	1668.29
471.022	1712.81
471.394	1715.52
471.766	1716.2
472.138	1733.82
472.51	1770.66
472.882	1783.31
473.253	1799.13
473.625	1849.53
473.997	1875.97
474.369	1865.35
474.74	1907.83
475.112	1950.54
475.484	1967.94
475.855	2004.33
476.227	2015.85
476.598	2075.51
476.97	2122.51
477.341	2151.44
477.713	2179.91
478.084	2216.07
478.455	2276.86
478.827	2298.1
479.198	2349.4
479.569	2364.77
479.94	2448.61
480.311	2472.34
480.682	2500.58
481.053	2562.73
481.424	2602.05
481.795	2625.1
482.166	2711.2
482.537	2715.95
482.908	2786.68
483.279	2817.41
483.65	2871.2
484.021	2937.41
484.391	2991.64
484.762	3000.46
485.133	3014.69
485.503	3078.2
485.874	3183.05
486.244	3199.77
486.615	3293.11
486.985	3320.68
487.356	3367
487.726	3405.19
488.097	3455.59
488.467	3497.17
488.837	3592.31
489.207	3635.7
489.578	3711.4
489.948	3740.1
490.318	3820.55
490.688	3778.29
491.058	3885.18
491.428	3919.76
491.798	3985.97
492.168	4029.36
492.538	4068.23
492.908	4145.29
493.278	4129.02
493.648	4164.95
494.017	4248.79
494.387	4305.51
494.757	4324.49
495.126	4407.65
495.496	4411.95
495.866	4405.62
496.235	4489.91
496.605	4511.83
496.974	4547.54
497.344	4594.31
497.713	4612.17
498.082	4699.85
498.452	4746.85
498.821	4784.82
499.19	4782.11
499.559	4818.04
499.928	4865.04
500.298	4913.63
500.667	4938.71
501.036	4943.23
501.405	4973.51
501.774	5029.78
502.143	5019.39
502.512	5054.87
502.88	5128.76
503.249	5137.58
503.618	5161.53
503.987	5182.77
504.356	5242.21
504.724	5260.29
505.093	5250.79
505.462	5286.5
505.83	5330.79
506.199	5353.84
506.567	5437.23
506.936	5387.74
507.304	5482.2
507.672	5495.08
508.041	5531.69
508.409	5493.95
508.777	5589.32
509.145	5626.38
509.514	5607.17
509.882	5656.43
510.25	5724.68
510.618	5699.6
510.986	5794.06
511.354	5796.09
511.722	5863.66
512.09	5875.18
512.458	5879.25
512.826	5914.51
513.193	5905.01
513.561	5942.3
513.929	6036.76
514.297	6037.21
514.664	6075.86
515.032	6060.26
515.4	6157.44
515.767	6139.81
516.135	6162.18
516.502	6144.78
516.869	6243.54
517.237	6297.77
517.604	6233.59
517.972	6321.73
518.339	6301.84
518.706	6391.33
519.073	6397.2
519.44	6375.28
519.808	6451.21
520.175	6468.16
520.542	6487.37
520.909	6574.38
521.276	6529.86
521.643	6597.88
522.009	6657.54
522.376	6678.33
522.743	6667.93
523.11	6736.4
523.477	6881.03
523.843	6888.94
524.21	6930.98
524.577	6925.33
524.943	6916.97
525.31	7002.61
525.676	7062.95
526.043	7081.71
526.409	7120.58
526.776	7174.36
527.142	7214.13
527.508	7255.04
527.874	7338.65
528.241	7292.77
528.607	7367.8
528.973	7441.25
529.339	7420.91
529.705	7522.15
530.071	7592.88
530.437	7565.08
530.803	7635.82
531.169	7650.51
531.535	7632.88
531.901	7698.19
532.267	7684.85
532.632	7786.77
532.998	7797.62
533.364	7836.71
533.73	7919.88
534.095	7937.5
534.461	8000.1
534.826	8017.05
535.192	8048.01
535.557	8088.01
535.923	8097.5
536.288	8105.86
536.653	8152.64
537.019	8115.8
537.384	8202.81
537.749	8188.34
538.114	8229.92
538.479	8322.35
538.845	8375.46
539.21	8337.04
539.575	8382.92
539.94	8374.33
540.305	8534.78
540.67	8488.45
541.034	8488.22
541.399	8557.83
541.764	8553.98
542.129	8609.12
542.494	8696.35
542.858	8692.96
543.223	8764.15
543.587	8781.32
543.952	8821.77
544.316	8845.28
544.681	8847.08
545.045	8865.39
545.41	8941.32
545.774	8913.07
546.138	8972.5
546.503	9067.87
546.867	9016.12
547.231	9097.02
547.595	9154.42
547.959	9140.64
548.324	9198.94
548.688	9142.44
549.052	9229.45
549.416	9268.77
549.779	9281.42
550.143	9236.45
550.507	9354.87
550.871	9396.45
551.235	9346.96
551.599	9469.89
551.962	9461.3
552.326	9518.48
552.689	9595.31
553.053	9585.37
553.417	9603.45
553.78	9700.39
554.143	9656.55
554.507	9742.43
554.87	9672.37
555.234	9889.54
555.597	9808.19
555.96	9865.59
556.323	9789.66
556.686	9890.45
557.05	10005.25
557.413	10032.82
557.776	9925.25
558.139	10026.94
558.502	10112.81
558.865	10134.51
559.228	10223.09
559.59	10208.63
559.953	10236.65
560.316	10328.4
560.679	10345.58
561.041	10316.65
561.404	10428.51
561.767	10483.42
562.129	10400.72
562.492	10573.37
562.854	10468.74
563.217	10505.57
563.579	10562.07
563.941	10611.78
564.304	10618.79
564.666	10762.97
565.028	10731.33
565.39	10828.95
565.753	10818.56
566.115	10803.19
566.477	10946.92
566.839	10894.04
567.201	11005.67
567.563	10941.04
567.925	11069.4
568.287	11138.55
568.648	11121.37
569.01	11215.84
569.372	11268.49
569.734	11296.28
570.095	11384.87
570.457	11427.13
570.819	11497.18
571.18	11486.56
571.542	11567.01
571.903	11531.08
572.265	11639.55
572.626	11630.06
572.987	11731.3
573.349	11724.3
573.71	11864.86
574.071	11862.15
574.432	11886.55
574.794	12041.12
575.155	12018.53
575.516	11981.46
575.877	12236.37
576.238	12188.46
576.599	12393.66
576.96	12292.42
577.32	12432.3
577.681	12531.96
578.042	12606.53
578.403	12646.31
578.763	12764.04
579.124	12862.8
579.485	12969.24
579.845	13063.92
580.206	13211.49
580.566	13191.15
580.927	13419.17
581.287	13484.02
581.648	13655.32
582.008	13706.39
582.368	13876.1
582.728	14012.15
583.089	14121.52
583.449	14284.68
583.809	14536.88
584.169	14645.8
584.529	14698.23
584.889	14976.19
585.249	15142.74
585.609	15326.46
585.969	15557.42
586.329	15679.67
586.688	15920.12
587.048	16114.24
587.408	16319.2
587.768	16561.01
588.127	16753.54
588.487	16960.32
588.846	17275.79
589.206	17429.01
589.565	17706.06
589.925	18051.14
590.284	18236.89
590.643	18535.19
591.003	18819.02
591.362	19207.04
591.721	19434.83
592.08	19678.89
592.44	20056.73
592.799	20320.68
593.158	20545.08
593.517	20838.63
593.876	21192.97
594.235	21429.35
594.593	21792.05
594.952	22100.07
595.311	22346.84
595.67	22605.37
596.029	23132.13
596.387	23387.04
596.746	23789.74
597.104	24003.52
597.463	24272.21
597.822	24727.12
598.18	24831.07
598.538	25177.73
598.897	25665.17
599.255	25735.45
599.613	26349.67
599.972	26571.59
600.33	26812.26
600.688	27207.28
601.046	27563.2
601.404	27996.86
601.762	28134.71
602.12	28620.8
602.478	28808.37
602.836	29138.08
603.194	29229.37
603.552	29620.55
603.91	29805.85
604.268	30303.92
604.625	30401.09
604.983	30825.26
605.341	31054.18
605.698	31444.46
606.056	31674.51
606.413	31935.06
606.771	32307.03
607.128	32550.42
607.485	32763.74
607.843	32950.18
608.2	33410.73
608.557	33717.62
608.914	33790.16
609.272	34175.23
609.629	34507.43
609.986	34807.53
610.343	34913.07
610.7	35393.73
611.057	35539.49
611.414	35734.06
611.771	35940.38
612.127	36289.3
612.484	36390.77
612.841	36622.85
613.198	36732.45
613.554	37007.47
613.911	37360.68
614.267	37583.05
614.624	37599.1
614.98	37910.73
615.337	38238.63
615.693	38180.1
616.05	38399.98
616.406	38691.04
616.762	38861.89
617.118	38922
617.475	39121.77
617.831	39321.76
618.187	39594.52
618.543	39661.19
618.899	40135.98
619.255	40142.76
619.611	40186.15
619.967	40497.78
620.323	40762.63
620.678	40650.09
621.034	40511.56
621.39	40825.68
621.746	40901.16
622.101	41464.08
622.457	41206.91
622.812	41366.91
623.168	41562.83
623.523	41650.97
623.879	41912.66
624.234	41580.69
624.589	41955.59
624.945	41926.44
625.3	42240.1
625.655	42237.62
626.01	42222.03
626.365	42454.11
626.72	42331.18
627.075	42545.63
627.43	42470.83
627.785	42522.36
628.14	42742.46
628.495	42836.92
628.85	42841.44
629.205	42852.74
629.559	43132.51
629.914	43015
630.269	43066.97
630.623	43059.74
630.978	43072.4
631.332	43355.33
631.687	43334.99
632.041	43156.92
632.396	43315.33
632.75	43203.92
633.104	43276.01
633.459	43081.21
633.813	43226.29
634.167	43277.14
634.521	43346.97
634.875	43287.76
635.229	43234.43
635.583	43177.03
635.937	43254.99
636.291	43136.35
636.645	43328.44
636.999	43097.03
637.352	43447.3
637.706	43163.92
638.06	43511.03
638.413	43314.43
638.767	43247.99
639.121	43276.91
639.474	43149.46
639.828	43231.26
640.181	43296.57
640.534	43350.58
640.888	43225.61
641.241	43092.96
641.594	43209.34
641.947	43248.67
642.301	43141.32
642.654	43266.52
643.007	43190.36
643.36	43096.13
643.713	43166.86
644.066	43283.69
644.419	43021.1
644.771	42879.41
645.124	42378.41
645.477	42325.98
645.83	42059.77
646.182	41970.28
646.535	41823.84
646.888	42061.58
647.24	41782.71
647.593	42006.44
647.945	42035.14
648.298	41663.4
648.65	41749.95
649.002	41600.8
649.355	41896.38
649.707	41678.31
650.059	41940.9
650.411	42431.51
650.763	42542.02
651.115	42909.92
651.467	42798.51
651.819	42842.8
652.171	42680.77
652.523	42630.15
652.875	42615.69
653.227	42598.96
653.578	42930.03
653.93	42729.58
654.282	42496.37
654.633	42500.44
654.985	42550.6
655.337	42519.87
655.688	42475.35
656.039	42623.37
656.391	42432.87
656.742	42298.41
657.094	42430.16
657.445	42526.88
657.796	42534.11
658.147	42276.71
658.498	42396.48
658.849	42484.62
659.2	42346.77
659.551	42267.9
659.902	42420.44
660.253	42394.45
660.604	42474
660.955	42206.66
661.306	42337.95
661.656	42264.51
662.007	42286.2
662.358	42277.84
662.708	42339.08
663.059	42177.73
663.409	41993.56
663.76	42308.8
664.11	42215.92
664.461	42280.1
664.811	42341.12
665.161	42212.08
665.511	42180.67
665.862	42159.88
666.212	42308.58
666.562	42346.09
666.912	42100.9
667.262	42186.09
667.612	42109.49
667.962	42238.07
668.312	42104.51
668.662	42327.33
669.011	42121.69
669.361	42009.83
669.711	42156.94
670.06	42260.89
670.41	42090.96
670.76	41922.37
671.109	42110.84
671.459	42174.57
671.808	42053.67
672.157	42094.57
672.507	41782.94
672.856	41841.7
673.205	41943.61
673.554	42040.34
673.904	41947
674.253	42186.77
674.602	41890.96
674.951	41375.49
675.3	41206.68
675.649	41931.64
675.998	41782.04
676.346	41715.82
676.695	41784.75
677.044	41579.56
677.393	41710.85
677.741	41754.69
678.09	41695.71
678.438	41563.96
678.787	41716.73
679.135	41595.15
679.484	41283.07
679.832	41572.55
680.181	41301.6
680.529	41442.38
680.877	41304.08
681.225	41319.68
681.573	41537.75
681.922	41172.11
682.27	41224.31
682.618	41061.6
682.966	41058.89
683.314	41072.68
683.661	40996.07
684.009	40837.43
684.357	40745.91
684.705	40706.13
685.053	40690.77
685.4	40571.22
685.748	40602.63
686.095	40437.67
686.443	40285.35
686.79	40316.31
687.138	40390.89
687.485	40459.81
687.832	40257.56
688.18	40220.04
688.527	40053.04
688.874	40006.49
689.221	39878.13
689.568	39809.89
689.915	39789.1
690.262	39833.61
690.609	39570.57
690.956	39455.77
691.303	39435.66
691.65	39354.3
691.997	39290.13
692.344	39028.21
692.69	39213.52
693.037	39024.14
693.383	38828.22
693.73	38927.2
694.077	38738.5
694.423	38666.19
694.769	38525.63
695.116	38509.58
695.462	38447.21
695.808	38330.15
696.155	38366.76
696.501	38071.85
696.847	38264.84
697.193	37870.95
697.539	38000.22
697.885	37647
698.231	37674.57
698.577	37549.38
698.923	37438.65
699.269	37423.73
699.614	37167.02
699.96	37269.61
700.306	37156.17
700.651	37055.83
700.997	36921.15
701.342	36815.84
701.688	36726.58
702.033	36649.52
702.379	36491.33
702.724	36569.07
703.069	36554.6
703.415	36250.43
703.76	36230.77
704.105	36289.3
704.45	36061.51
704.795	35838.92
705.14	35840.5
705.485	35856.09
705.83	35602.31
706.175	35815.64
706.52	35611.58
706.865	35505.82
707.209	35409.55
707.554	35405.48
707.899	35437.12
708.243	35167.75
708.588	35100.86
708.932	34969.33
709.277	35029.67
709.621	34901.09
709.966	34781.32
710.31	34778.83
710.654	34568.89
710.998	34564.83
711.342	34709.68
711.687	34376.36
712.031	34292.29
712.375	34205.06
712.719	34325.28
713.063	34208.9
713.407	34383.36
713.75	34099.3
714.094	34030.15
714.438	33922.36
714.782	33961.23
715.125	33763.04
715.469	33882.81
715.812	33711.06
716.156	33514.01
716.499	33501.35
716.843	33653.44
717.186	33288.48
717.53	33570.5
717.873	33455.25
718.216	33384.74
718.559	33293.45
718.902	33031.76
719.246	33120.8
719.589	32910.18
719.932	32921.7
720.275	33018.65
720.617	32774.82
720.96	32837.64
721.303	32787.7
721.646	32777.08
721.989	32489.85
722.331	32617.98
722.674	32579.34
723.016	32573.69
723.359	32440.81
723.701	32538.66
724.044	32244.43
724.386	32134.38
724.729	32275.62
725.071	32170.31
725.413	32144.78
725.755	32202.85
726.097	32121.5
726.439	31841.28
726.782	31853.48
727.124	31966.93
727.465	31774.16
727.807	31660.04
728.149	31691.91
728.491	31660.5
728.833	31617.56
729.175	31603.1
729.516	31508.41
729.858	31405.81
730.199	31392.71
730.541	31280.17
730.882	31366.72
731.224	31290.79
731.565	31235.87
731.906	31146.16
732.248	31246.95
732.589	31088.76
732.93	30946.84
733.271	30911.59
733.612	31064.35
733.953	31090.34
734.294	30919.72
734.635	30793.63
734.976	30776.22
735.317	30722.67
735.658	30768.99
735.999	30630.69
736.339	30560.86
736.68	30638.83
737.021	30505.05
737.361	30425.5
737.702	30547.08
738.042	30430.25
738.383	30349.12
738.723	30490.58
739.063	30340.3
739.404	30333.07
739.744	30161.78
740.084	30042.68
740.424	30064.15
740.764	30080.42
741.104	30095.34
741.444	29887.66
741.784	29864.38
742.124	29971.05
742.464	29843.14
742.804	29835.91
743.143	29758.4
743.483	29729.25
743.823	29659.19
744.162	29605.41
744.502	29713.88
744.841	29638.18
745.181	29569.25
745.52	29515.24
745.86	29606.31
746.199	29482.47
746.538	29521.79
746.877	29402.7
747.216	29327.22
747.556	29348.01
747.895	29341.46
748.234	29228.02
748.573	29208.36
748.911	29084.97
749.25	29134.46
749.589	29034.12
749.928	29058.3
750.267	28958.65
750.605	28919.55
750.944	28796.84
751.283	28750.74
751.621	28731.53
751.96	28618.77
752.298	28618.54
752.636	28660.35
752.975	28452.22
753.313	28228.5
753.651	28448.83
753.989	28421.94
754.327	28218.55
754.666	28082.51
755.004	28234.82
755.342	28245.22
755.679	28222.17
756.017	28043.87
756.355	28008.39
756.693	27956.64
757.031	28012.91
757.368	27840.03
757.706	27953.93
758.044	27736.3
758.381	27870.99
758.719	27596.87
759.056	27666.02
759.394	27528.17
