Data from hue_110_FLMS001491_00087.txt Node
Date: Tue Feb 07 17:01:57 GMT 2017
User: dcchb
Spectrometer: FLMS00149
Trigger mode: 0
Integration Time (sec): 2.000000E-2
Scans to average: 10
Electric dark correction enabled: true
Nonlinearity correction enabled: false
Boxcar width: 0
XAxis mode: Wavelengths
Number of Pixels in Spectrum: 2048
>>>>>Begin Spectral Data<<<<<
341.393	-11.51
341.776	-11.51
342.16	-11.51
342.543	-68.68
342.927	-56.48
343.31	-55.13
343.693	-79.53
344.077	-74.79
344.46	-65.52
344.843	-47.44
345.226	-33.43
345.61	-35.24
345.993	-5.86
346.376	-3.38
346.759	3.18
347.142	33.69
347.525	42.5
347.908	54.7
348.291	75.72
348.674	78.43
349.057	112.1
349.44	132.89
349.823	151.87
350.206	150.07
350.588	197.98
350.971	213.12
351.354	223.96
351.737	239.33
352.119	226.9
352.502	258.31
352.884	272.1
353.267	279.33
353.65	300.35
354.032	291.53
354.414	293.79
354.797	298.09
355.179	333.11
355.562	320.68
355.944	322.04
356.326	338.99
356.709	348.48
357.091	347.8
357.473	342.15
357.855	347.35
358.238	334.69
358.62	318.65
359.002	323.62
359.384	324.3
359.766	335.15
360.148	353.68
360.53	327.46
360.912	345.32
361.294	313
361.676	334.47
362.057	330.4
362.439	334.47
362.821	312.32
363.203	309.61
363.584	318.65
363.966	317.97
364.348	308.25
364.729	334.02
365.111	308.48
365.493	307.35
365.874	312.32
366.256	332.43
366.637	297.41
367.019	313.68
367.4	304.86
367.781	312.32
368.163	327.46
368.544	304.86
368.925	306.9
369.306	308.48
369.688	296.05
370.069	290.85
370.45	309.16
370.831	295.37
371.212	308.25
371.593	325.88
371.974	301.93
372.355	299.89
372.736	301.48
373.117	310.06
373.498	285.66
373.879	315.03
374.26	330.85
374.641	324.98
375.021	296.05
375.402	320.91
375.783	308.71
376.163	327.24
376.544	336.05
376.925	336.28
377.305	333.11
377.686	321.81
378.066	314.36
378.447	308.93
378.827	335.15
379.208	331.53
379.588	333.79
379.968	325.88
380.349	335.15
380.729	341.93
381.109	332.66
381.489	339.89
381.87	319.33
382.25	325.43
382.63	333.11
383.01	335.82
383.39	348.03
383.77	334.92
384.15	343.96
384.53	363.85
384.91	341.47
385.29	346.67
385.67	334.47
386.049	355.94
386.429	345.99
386.809	360
387.189	354.58
387.568	344.41
387.948	348.03
388.328	326.56
388.707	353.9
389.087	361.59
389.466	334.92
389.846	350.51
390.225	347.58
390.605	355.71
390.984	354.36
391.363	357.74
391.743	369.27
392.122	362.04
392.501	373.79
392.881	382.38
393.26	369.5
393.639	385.09
394.018	374.69
394.397	372.43
394.776	362.72
395.155	391.19
395.534	385.99
395.913	360
396.292	385.31
396.671	368.37
397.05	373.79
397.429	397.29
397.808	380.8
398.186	374.02
398.565	397.74
398.944	407.24
399.323	405.65
399.701	379.89
400.08	406.33
400.458	405.43
400.837	398.87
401.215	383.73
401.594	384.86
401.972	395.94
402.351	400.91
402.729	408.82
403.107	395.71
403.486	440.45
403.864	439.32
404.242	411.3
404.62	406.78
404.999	424.41
405.377	424.18
405.755	440
406.133	440.45
406.511	413.34
406.889	437.06
407.267	435.93
407.645	433.9
408.023	430.96
408.401	436.16
408.779	450.4
409.156	451.53
409.534	430.29
409.912	454.92
410.29	464.86
410.667	441.13
411.045	455.14
411.422	442.71
411.8	448.59
412.178	457.63
412.555	463.96
412.933	478.42
413.31	463.28
413.687	460.34
414.065	463.05
414.442	480.68
414.819	487.68
415.197	487.91
415.574	486.78
415.951	502.37
416.328	490.62
416.705	505.54
417.082	496.5
417.46	526.33
417.837	501.24
418.214	508.02
418.591	520
418.967	508.93
419.344	519.55
419.721	528.36
420.098	525.42
420.475	522.26
420.852	525.65
421.228	527.46
421.605	529.04
421.982	539.21
422.358	555.03
422.735	544.41
423.111	549.83
423.488	549.6
423.864	559.32
424.241	555.25
424.617	587.57
424.994	553.45
425.37	547.34
425.746	564.52
426.123	585.54
426.499	562.03
426.875	598.87
427.251	555.48
427.627	606.78
428.003	587.34
428.379	600.45
428.756	615.14
429.132	624.18
429.507	616.27
429.883	631.86
430.259	637.29
430.635	620.56
431.011	637.74
431.387	657.4
431.763	654.46
432.138	640.9
432.514	684.74
432.89	660.34
433.265	668.47
433.641	668.7
434.016	661.69
434.392	698.75
434.767	702.14
435.143	698.3
435.518	724.29
435.894	714.57
436.269	726.1
436.644	713.89
437.02	721.58
437.395	735.59
437.77	742.14
438.145	752.08
438.52	725.42
438.895	776.26
439.271	744.4
439.646	775.81
440.021	769.71
440.395	785.98
440.77	796.15
441.145	792.76
441.52	808.58
441.895	795.7
442.27	805.42
442.645	793.67
443.019	812.65
443.394	816.72
443.769	822.82
444.143	797.96
444.518	817.85
444.892	854.23
445.267	848.13
445.641	845.64
446.016	852.65
446.39	856.26
446.764	864.85
447.139	866.66
447.513	868.24
447.887	886.54
448.262	869.82
448.636	898.97
449.01	880.89
449.384	895.81
449.758	916.6
450.132	896.26
450.506	906.2
450.88	927.9
451.254	923.61
451.628	924.28
452.002	950.72
452.376	959.76
452.75	967.9
453.123	960.67
453.497	988.01
453.871	965.64
454.244	1026.65
454.618	1019.2
454.992	1022.13
455.365	1014.68
455.739	1047.9
456.112	1058.52
456.486	1051.29
456.859	1090.61
457.232	1077.73
457.606	1081.79
457.979	1093.77
458.352	1110.49
458.725	1156.14
459.099	1140.32
459.472	1169.02
459.845	1162.02
460.218	1168.12
460.591	1184.16
460.964	1192.98
461.337	1244.28
461.71	1243.15
462.083	1287.21
462.456	1297.16
462.829	1261.9
463.201	1312.97
463.574	1301
463.947	1306.42
464.32	1341.22
464.692	1369.02
465.065	1362.92
465.438	1402.69
465.81	1432.07
466.183	1429.58
466.555	1451.5
466.928	1465.51
467.3	1492.86
467.672	1517.94
468.045	1597.71
468.417	1559.97
468.789	1568.11
469.161	1622.8
469.534	1651.27
469.906	1683.81
470.278	1712.74
470.65	1738.73
471.022	1752.06
471.394	1796.58
471.766	1828.89
472.138	1842.45
472.51	1896.69
472.882	1954.09
473.253	1969.68
473.625	2039.28
473.997	2093.74
474.369	2067.08
474.74	2132.39
475.112	2202.44
475.484	2221.88
475.855	2265.72
476.227	2337.35
476.598	2408.76
476.97	2467.29
477.341	2521.3
477.713	2583.9
478.084	2660.74
478.455	2699.6
478.827	2751.35
479.198	2901.63
479.569	2918.58
479.94	3034.74
480.311	3056.2
480.682	3176.65
481.053	3276.31
481.424	3381.85
481.795	3456.87
482.166	3535.29
482.537	3618.68
482.908	3738.22
483.279	3799.01
483.65	3900.25
484.021	4067.7
484.391	4140.7
484.762	4238.77
485.133	4325.32
485.503	4358.32
485.874	4554.7
486.244	4653.45
486.615	4796.05
486.985	4908.59
487.356	5030.84
487.726	5150.39
488.097	5320.1
488.467	5443.94
488.837	5527.1
489.207	5709.47
489.578	5842.8
489.948	5944.72
490.318	6073.98
490.688	6210.92
491.058	6333.18
491.428	6498.15
491.798	6582.89
492.168	6786.28
492.538	6920.06
492.908	7075.08
493.278	7192.14
493.648	7260.61
494.017	7475.98
494.387	7596.65
494.757	7654.28
495.126	7865.12
495.496	7939.69
495.866	8085.23
496.235	8227.82
496.605	8355.95
496.974	8482.73
497.344	8581.26
497.713	8706.9
498.082	8760.91
498.452	8890.4
498.821	8993
499.19	9114.58
499.559	9287.68
499.928	9335.81
500.298	9466.21
500.667	9614.45
501.036	9595.24
501.405	9765.18
501.774	9789.81
502.143	9974.44
502.512	10043.14
502.88	10181.44
503.249	10220.31
503.618	10327.43
503.987	10362
504.356	10440.64
504.724	10529.91
505.093	10602.45
505.462	10729.22
505.83	10804.02
506.199	10846.06
506.567	11027.07
506.936	11004.92
507.304	11200.4
507.672	11267.06
508.041	11361.75
508.409	11399.94
508.777	11450.56
509.145	11574.4
509.514	11565.59
509.882	11669.31
510.25	11678.8
510.618	11751.12
510.986	11820.04
511.354	11912.92
511.722	12030.43
512.09	12069.53
512.458	12086.25
512.826	12252.35
513.193	12293.93
513.561	12274.72
513.929	12322.18
514.297	12396.52
514.664	12429.52
515.032	12546.35
515.4	12689.85
515.767	12628.83
516.135	12660.25
516.502	12602.85
516.869	12850.75
517.237	12818.89
517.604	12760.13
517.972	12925.78
518.339	12974.59
518.706	12912.89
519.073	12921.48
519.44	13016.62
519.808	13105.21
520.175	13052.33
520.542	13213.45
520.909	13217.29
521.276	13189.5
521.643	13250.74
522.009	13318.31
522.376	13401.24
522.743	13419.55
523.11	13475.82
523.477	13602.82
523.843	13643.95
524.21	13662.93
524.577	13682.59
524.943	13769.6
525.31	13779.99
525.676	13832.87
526.043	13897.05
526.409	13848.01
526.776	13972.98
527.142	13994.9
527.508	13997.84
527.874	14015.69
528.241	14034.67
528.607	14017.5
528.973	14113.54
529.339	13989.48
529.705	14167.55
530.071	14207.78
530.437	14111.06
530.803	14213.65
531.169	14227.21
531.535	14068.34
531.901	14126.87
532.267	14158.74
532.632	14200.54
532.998	14294.33
533.364	14176.36
533.73	14105.18
534.095	14242.35
534.461	14200.54
534.826	14188.12
535.192	14265.18
535.557	14262.01
535.923	14153.09
536.288	14240.09
536.653	14129.13
537.019	14076.71
537.384	14174.56
537.749	14145.18
538.114	14053.66
538.479	14088.68
538.845	13977.05
539.21	13922.81
539.575	14041.45
539.94	13986.99
540.305	13914
540.67	13831.74
541.034	13877.39
541.399	13912.42
541.764	13786.77
542.129	13782.7
542.494	13801.91
542.858	13849.82
543.223	13824.06
543.587	13849.59
543.952	13673.55
544.316	13731.86
544.681	13633.1
545.045	13717.17
545.41	13676.49
545.774	13702.48
546.138	13551.3
546.503	13545.42
546.867	13505.2
547.231	13517.17
547.595	13504.97
547.959	13530.96
548.324	13396.05
548.688	13399.89
549.052	13357.18
549.416	13342.71
549.779	13294.81
550.143	13365.31
550.507	13375.71
550.871	13267.69
551.235	13186.79
551.599	13260.91
551.962	13197.86
552.326	13198.76
552.689	13215.03
553.053	13137.52
553.417	13092.33
553.78	13187.69
554.143	13055.04
554.507	13189.72
554.87	13120.8
555.234	13256.39
555.597	13038.54
555.96	13038.32
556.323	13051.42
556.686	13032.21
557.05	13094.13
557.413	13111.53
557.776	12990.63
558.139	13024.76
558.502	13017.07
558.865	12957.41
559.228	13005.32
559.59	13088.48
559.953	12944.98
560.316	13070.63
560.679	13092.33
561.041	13065.21
561.404	13000.58
561.767	13096.84
562.129	13009.62
562.492	13131.19
562.854	13210.97
563.217	13077.86
563.579	13158.31
563.941	13126.22
564.304	13205.77
564.666	13191.08
565.028	13180.01
565.39	13212.32
565.753	13199.22
566.115	13185.88
566.477	13209.16
566.839	13231.53
567.201	13304.98
567.563	13193.79
567.925	13235.6
568.287	13265.43
568.648	13245.54
569.01	13341.58
569.372	13380.45
569.734	13315.37
570.095	13414.35
570.457	13339.78
570.819	13363.96
571.18	13453.22
571.542	13452.77
571.903	13458.42
572.265	13461.36
572.626	13423.16
572.987	13512.43
573.349	13490.51
573.71	13507.46
574.071	13565.31
574.432	13558.53
574.794	13585.42
575.155	13560.11
575.516	13500.68
575.877	13582.93
576.238	13677.17
576.599	13584.52
576.96	13513.56
577.32	13603.05
577.681	13598.53
578.042	13662.03
578.403	13619.09
578.763	13665.87
579.124	13592.43
579.485	13622.25
579.845	13679.2
580.206	13670.16
580.566	13602.59
580.927	13600.79
581.287	13656.83
581.648	13636.94
582.008	13690.05
582.368	13664.06
582.728	13606.66
583.089	13589.94
583.449	13675.13
583.809	13645.53
584.169	13600.11
584.529	13618.87
584.889	13651.41
585.249	13530.96
585.609	13539.09
585.969	13579.54
586.329	13553.33
586.688	13554.01
587.048	13582.48
587.408	13431.53
587.768	13456.61
588.127	13403.96
588.487	13467.91
588.846	13557.4
589.206	13427.23
589.565	13479.89
589.925	13552.88
590.284	13455.93
590.643	13485.31
591.003	13476.04
591.362	13481.47
591.721	13451.41
592.08	13400.57
592.44	13447.12
592.799	13483.95
593.158	13404.41
593.517	13426.78
593.876	13371.87
594.235	13368.48
594.593	13350.62
594.952	13381.58
595.311	13342.26
595.67	13328.7
596.029	13478.08
596.387	13441.69
596.746	13391.3
597.104	13339.55
597.463	13234.69
597.822	13375.03
598.18	13374.8
598.538	13314.92
598.897	13371.41
599.255	13241.93
599.613	13483.5
599.972	13352.43
600.33	13390.85
600.688	13396.27
601.046	13337.29
601.404	13460.45
601.762	13321.7
602.12	13483.28
602.478	13433.56
602.836	13397.85
603.194	13319.89
603.552	13327.8
603.91	13269.04
604.268	13353.79
604.625	13323.28
604.983	13377.06
605.341	13369.15
605.698	13408.02
606.056	13374.13
606.413	13387.91
606.771	13414.8
607.128	13411.19
607.485	13380
607.843	13376.84
608.2	13452.54
608.557	13463.16
608.914	13414.58
609.272	13476.72
609.629	13510.62
609.986	13512.88
610.343	13465.65
610.7	13465.2
611.057	13502.71
611.414	13394.01
611.771	13447.8
612.127	13535.48
612.484	13549.94
612.841	13572.99
613.198	13522.82
613.554	13584.52
613.911	13609.83
614.267	13678.52
614.624	13608.24
614.98	13622.71
615.337	13695.25
615.693	13624.06
616.05	13715.59
616.406	13714.91
616.762	13631.07
617.118	13676.26
617.475	13706.32
617.831	13719.65
618.187	13739.54
618.543	13777.05
618.899	13839.88
619.255	13716.49
619.611	13684.85
619.967	13784.74
620.323	13884.85
620.678	13764.17
621.034	13694.57
621.39	13725.53
621.746	13767.11
622.101	13854.79
622.457	13740.9
622.812	13863.38
623.168	13792.65
623.523	13828.8
623.879	13922.13
624.234	13710.61
624.589	13807.33
624.945	13783.15
625.3	13784.51
625.655	13795.36
626.01	13765.08
626.365	13730.95
626.72	13728.01
627.075	13725.75
627.43	13655.25
627.785	13774.12
628.14	13760.33
628.495	13797.39
628.85	13738.64
629.205	13738.64
629.559	13734.57
629.914	13801.91
630.269	13667.45
630.623	13661.12
630.978	13661.35
631.332	13648.69
631.687	13760.56
632.041	13689.82
632.396	13714.23
632.75	13594.01
633.104	13630.62
633.459	13646.43
633.813	13643.05
634.167	13569.6
634.521	13647.11
634.875	13620.45
635.229	13631.07
635.583	13503.84
635.937	13498.64
636.291	13561.47
636.645	13512.65
636.999	13382.71
637.352	13491.64
637.706	13383.17
638.06	13501.35
638.413	13363.05
638.767	13434.69
639.121	13442.6
639.474	13294.13
639.828	13298.65
640.181	13326.22
640.534	13300.68
640.888	13333.45
641.241	13222.72
641.594	13321.92
641.947	13331.19
642.301	13283.96
642.654	13322.15
643.007	13254.35
643.36	13243.51
643.713	13281.7
644.066	13276.95
644.419	13271.3
644.771	13207.12
645.124	13078.31
645.477	12944.53
645.83	12968.49
646.182	12879.9
646.535	12822.28
646.888	12835.38
647.24	12759.68
647.593	12807.81
647.945	12833.8
648.298	12673.35
648.65	12695.27
649.002	12690.75
649.355	12707.48
649.707	12692.56
650.059	12838.32
650.411	12962.16
650.763	13010.29
651.115	13040.35
651.467	13010.07
651.819	12993.12
652.171	12998.77
652.523	13011.2
652.875	13030.41
653.227	12994.02
653.578	13049.61
653.93	13010.75
654.282	13039.45
654.633	13032.67
654.985	12977.3
655.337	13012.55
655.688	13044.42
656.039	13106.11
656.391	13017.07
656.742	13029.05
657.094	13019.11
657.445	13135.04
657.796	12997.86
658.147	13088.71
658.498	13053.23
658.849	13045.09
659.2	13019.78
659.551	12967.81
659.902	13080.8
660.253	13087.81
660.604	13099.1
660.955	13016.85
661.306	13053.23
661.656	13077.41
662.007	13092.33
662.358	13006.45
662.708	13112.89
663.059	13169.16
663.409	13080.8
663.76	13141.36
664.11	13156.73
664.461	13185.66
664.811	13104.08
665.161	13052.33
665.511	13060.91
665.862	13078.54
666.212	13144.53
666.562	13107.24
666.912	13149.72
667.262	13105.21
667.612	13135.04
667.962	13140.23
668.312	13118.54
668.662	13213
669.011	13121.7
669.361	13154.92
669.711	13203.28
670.06	13081.48
670.41	13070.63
670.76	13006.23
671.109	13110.86
671.459	13049.16
671.808	13074.7
672.157	13073.57
672.507	12999.67
672.856	13079.44
673.205	13008.49
673.554	13018.2
673.904	13021.59
674.253	13059.78
674.602	13007.81
674.951	12786.12
675.3	12784.54
675.649	13006.68
675.998	12901.14
676.346	12925.1
676.695	12905.89
677.044	12840.58
677.393	12901.6
677.741	12867.47
678.09	12938.66
678.438	12843.07
678.787	12873.8
679.135	12896.62
679.484	12798.1
679.832	12753.8
680.181	12657.08
680.529	12768.72
680.877	12729.62
681.225	12646.91
681.573	12749.06
681.922	12698.66
682.27	12564.2
682.618	12704.31
682.966	12577.31
683.314	12595.16
683.661	12580.25
684.009	12513.58
684.357	12511.78
684.705	12526.24
685.053	12466.58
685.4	12461.61
685.748	12326.47
686.095	12399.91
686.443	12336.41
686.79	12260.03
687.138	12312.23
687.485	12309.97
687.832	12218
688.18	12365.79
688.527	12159.02
688.874	12138.68
689.221	12095.29
689.568	12091.22
689.915	12075.63
690.262	11961.28
690.609	12007.16
690.956	11994.5
691.303	11871.11
691.65	11865.92
691.997	11924.9
692.344	11799.25
692.69	11725.81
693.037	11750.67
693.383	11635.87
693.73	11671.8
694.077	11621.86
694.423	11555.42
694.769	11491.24
695.116	11493.72
695.462	11521.97
695.808	11356.78
696.155	11424.8
696.501	11379.38
696.847	11379.83
697.193	11323.11
697.539	11351.81
697.885	11217.12
698.231	11214.18
698.577	11119.95
698.923	11055.77
699.269	11070.68
699.614	10980.52
699.96	10989.56
700.306	11012.15
700.651	10945.04
700.997	10881.76
701.342	10788.66
701.688	10804.25
702.033	10778.04
702.379	10750.69
702.724	10735.78
703.069	10688.55
703.415	10620.98
703.76	10601.09
704.105	10578.95
704.45	10470.25
704.795	10484.26
705.14	10459.85
705.485	10371.27
705.83	10322.91
706.175	10368.56
706.52	10344.6
706.865	10300.08
707.209	10235.45
707.554	10237.26
707.899	10276.13
708.243	10159.07
708.588	10111.16
708.932	10108.45
709.277	10079.98
709.621	10049.69
709.966	10002.01
710.31	10098.05
710.654	9924.27
710.998	9980.32
711.342	10002.91
711.687	10018.06
712.031	9886.99
712.375	9886.99
712.719	9870.72
713.063	9794.56
713.407	9791.85
713.75	9781.45
714.094	9764.73
714.438	9666.43
714.782	9743.71
715.125	9651.51
715.469	9752.53
715.812	9679.76
716.156	9632.3
716.499	9681.57
716.843	9647.22
717.186	9630.95
717.53	9623.49
717.873	9595.69
718.216	9593.21
718.559	9539.65
718.902	9492.42
719.246	9504.62
719.589	9562.47
719.932	9466.21
720.275	9451.52
720.617	9465.3
720.96	9459.43
721.303	9444.96
721.646	9426.21
721.989	9366.77
722.331	9430.05
722.674	9418.3
723.016	9336.04
723.359	9357.73
723.701	9325.64
724.044	9287.91
724.386	9291.07
724.729	9337.17
725.071	9347.34
725.413	9346.66
725.755	9347.34
726.097	9266.89
726.439	9248.36
726.782	9252.2
727.124	9223.05
727.465	9254.91
727.807	9263.27
728.149	9191.64
728.491	9238.64
728.833	9254.23
729.175	9183.73
729.516	9243.61
729.858	9195.7
730.199	9256.95
730.541	9093.56
730.882	9201.58
731.224	9141.02
731.565	9113.67
731.906	9132.2
732.248	9188.25
732.589	9175.59
732.93	9108.02
733.271	9123.16
733.612	9150.96
733.953	9143.95
734.294	9140.34
734.635	9117.06
734.976	9141.69
735.317	9034.13
735.658	9142.15
735.999	9163.16
736.339	9112.09
736.68	9233.44
737.021	9100.79
737.361	9133.11
737.702	9159.1
738.042	9174.01
738.383	9192.99
738.723	9141.69
739.063	9256.04
739.404	9213.56
739.744	9247.91
740.084	9126.55
740.424	9191.41
740.764	9236.83
741.104	9214.91
741.444	9204.97
741.784	9189.83
742.124	9337.62
742.464	9291.97
742.804	9292.88
743.143	9282.26
743.483	9331.97
743.823	9390.73
744.162	9345.31
744.502	9406.32
744.841	9346.44
745.181	9476.15
745.52	9443.83
745.86	9485.19
746.199	9548.01
746.538	9571.97
746.877	9616.71
747.216	9728.57
747.556	9700.32
747.895	9778.74
748.234	9809.25
748.573	9853.09
748.911	9896.7
749.25	9912.52
749.589	9969.24
749.928	10096.25
750.267	10195
750.605	10240.87
750.944	10306.86
751.283	10279.29
751.621	10444.26
751.96	10493.07
752.298	10604.48
752.636	10716.34
752.975	10753.63
753.313	10779.84
753.651	11046.96
753.989	11070.68
754.327	11153.17
754.666	11243.79
755.004	11282.43
755.342	11537.11
755.679	11712.47
756.017	11780.04
756.355	11914.73
756.693	11967.38
757.031	12130.32
757.368	12165.8
757.706	12411.44
758.044	12525.79
758.381	12688.04
758.719	12836.06
