Data from hue_260_FLMS001491_00004.txt Node
Date: Tue Feb 07 15:58:29 GMT 2017
User: dcchb
Spectrometer: FLMS00149
Trigger mode: 0
Integration Time (sec): 2.000000E-2
Scans to average: 10
Electric dark correction enabled: true
Nonlinearity correction enabled: false
Boxcar width: 0
XAxis mode: Wavelengths
Number of Pixels in Spectrum: 2048
>>>>>Begin Spectral Data<<<<<
341.393	-1.99
341.776	-1.99
342.16	-1.99
342.543	-41.09
342.927	-52.84
343.31	-76.11
343.693	-63.91
344.077	-57.36
344.46	-70.69
344.843	-53.52
345.226	-33.4
345.61	-39.5
345.993	-28.66
346.376	-2.22
346.759	7.5
347.142	37.78
347.525	35.52
347.908	66.03
348.291	76.42
348.674	94.96
349.057	107.16
349.44	119.36
349.823	139.47
350.206	144.9
350.588	169.76
350.971	204.1
351.354	232.35
351.737	224.44
352.119	225.8
352.502	245.91
352.884	276.65
353.267	277.1
353.65	274.39
354.032	299.24
354.414	279.36
354.797	301.5
355.179	291.56
355.562	308.28
355.944	322.07
356.326	300.37
356.709	333.82
357.091	336.98
357.473	335.85
357.855	318.23
358.238	331.11
358.62	323.88
359.002	337.43
359.384	365.23
359.766	336.53
360.148	327.72
360.53	314.61
360.912	325.01
361.294	329.75
361.676	332.01
362.057	326.36
362.439	309.19
362.821	317.77
363.203	311.9
363.584	308.28
363.966	332.24
364.348	318.45
364.729	322.07
365.111	283.65
365.493	319.13
365.874	334.72
366.256	319.36
366.637	329.07
367.019	303.99
367.4	313.48
367.781	313.03
368.163	298.34
368.544	306.25
368.925	319.58
369.306	324.33
369.688	315.29
370.069	304.89
370.45	310.09
370.831	318.45
371.212	308.51
371.593	334.5
371.974	308.73
372.355	325.01
372.736	322.07
373.117	312.58
373.498	322.97
373.879	315.29
374.26	287.94
374.641	343.54
375.021	301.96
375.402	303.31
375.783	306.47
376.163	326.14
376.544	324.78
376.925	318.68
377.305	330.66
377.686	340.6
378.066	315.06
378.447	346.93
378.827	318.45
379.208	339.47
379.588	342.18
379.968	307.83
380.349	332.01
380.729	336.98
381.109	330.66
381.489	335.17
381.87	336.53
382.25	335.85
382.63	329.3
383.01	341.5
383.39	343.76
383.77	315.06
384.15	343.99
384.53	334.27
384.91	338.79
385.29	318.23
385.67	347.15
386.049	337.21
386.429	355.74
386.809	322.29
387.189	335.85
387.568	348.06
387.948	339.69
388.328	336.08
388.707	355.97
389.087	345.12
389.466	373.59
389.846	372.01
390.225	352.12
390.605	351.9
390.984	378.34
391.363	363.42
391.743	365.46
392.122	360.03
392.501	340.6
392.881	395.96
393.26	382.63
393.639	406.36
394.018	380.37
394.397	371.33
394.776	382.86
395.155	406.36
395.534	400.48
395.913	402.74
396.292	387.15
396.671	386.25
397.05	377.21
397.429	394.61
397.808	394.16
398.186	390.77
398.565	394.83
398.944	405.91
399.323	402.74
399.701	419.47
400.08	428.96
400.458	422.4
400.837	403.42
401.215	406.13
401.594	421.73
401.972	440.03
402.351	421.95
402.729	409.98
403.107	411.78
403.486	427.38
403.864	454.95
404.242	443.87
404.62	445
404.999	467.15
405.377	456.3
405.755	447.26
406.133	471.67
406.511	470.54
406.889	487.49
407.267	470.54
407.645	486.13
408.023	479.35
408.401	475.51
408.779	488.39
409.156	504.21
409.534	506.02
409.912	510.54
410.29	527.03
410.667	536.53
411.045	532.01
411.422	567.03
411.8	524.77
412.178	536.75
412.555	547.37
412.933	586.24
413.31	573.59
413.687	591.89
414.065	599.35
414.442	590.76
414.819	598.22
415.197	612.46
415.574	604.55
415.951	624.88
416.328	637.31
416.705	619.69
417.082	627.82
417.46	676.63
417.837	667.82
418.214	650.42
418.591	672.34
418.967	671.89
419.344	704.43
419.721	696.3
420.098	706.92
420.475	714.37
420.852	708.5
421.228	739.91
421.605	713.02
421.982	748.72
422.358	748.95
422.735	778.78
423.111	740.81
423.488	804.99
423.864	821.04
424.241	804.09
424.617	820.36
424.994	807.03
425.37	837.76
425.746	854.71
426.123	862.17
426.499	877.76
426.875	865.33
427.251	879.12
427.627	895.16
428.003	917.53
428.379	953.92
428.756	920.24
429.132	946.91
429.507	977.19
429.883	989.39
430.259	978.1
430.635	986.68
431.011	1004.99
431.387	1034.37
431.763	1018.77
432.138	1040.24
432.514	1047.7
432.89	1063.07
433.265	1095.15
433.641	1110.75
434.016	1109.62
434.392	1122.72
434.767	1124.31
435.143	1181.71
435.518	1187.13
435.894	1217.86
436.269	1215.6
436.644	1235.04
437.02	1263.06
437.395	1288.14
437.77	1290.18
438.145	1303.06
438.52	1323.85
438.895	1362.27
439.271	1379.22
439.646	1426.22
440.021	1388.93
440.395	1421.47
440.77	1374.7
441.145	1418.76
441.52	1446.56
441.895	1438.87
442.27	1450.85
442.645	1477.52
443.019	1492.88
443.394	1504.86
443.769	1527.91
444.143	1528.59
444.518	1566.55
444.892	1552.54
445.267	1579.21
445.641	1599.32
446.016	1599.55
446.39	1615.14
446.764	1610.85
447.139	1616.5
447.513	1649.04
447.887	1644.52
448.262	1669.6
448.636	1668.47
449.01	1690.39
449.384	1674.57
449.758	1714.57
450.132	1720.68
450.506	1771.3
450.88	1766.1
451.254	1745.76
451.628	1794.57
452.002	1798.19
452.376	1773.1
452.75	1827.56
453.123	1842.93
453.497	1852.2
453.871	1870.95
454.244	1905.08
454.618	1937.39
454.992	1959.99
455.365	1943.27
455.739	1967.45
456.112	2027.79
456.486	2028.69
456.859	2051.97
457.232	2040.44
457.606	2044.28
457.979	2087.67
458.352	2140.55
458.725	2186.65
459.099	2120.66
459.472	2213.54
459.845	2197.72
460.218	2218.29
460.591	2261
460.964	2271.17
461.337	2307.78
461.71	2354.33
462.083	2365.18
462.456	2386.19
462.829	2388
463.201	2414.44
463.574	2439.98
463.947	2474.78
464.32	2531.95
464.692	2533.76
465.065	2533.76
465.438	2536.47
465.81	2601.33
466.183	2644.04
466.555	2699.86
466.928	2679.29
467.3	2666.64
467.672	2760.87
468.045	2777.6
468.417	2785.51
468.789	2780.53
469.161	2828.67
469.534	2882.68
469.906	3007.65
470.278	2980.3
470.65	3021.66
471.022	3047.87
471.394	3127.19
471.766	3105.05
472.138	3166.96
472.51	3179.17
472.882	3243.57
473.253	3303.68
473.625	3321.99
473.997	3363.34
474.369	3388.43
474.74	3429.78
475.112	3477.24
475.484	3504.58
475.855	3587.74
476.227	3626.84
476.598	3668.65
476.97	3720.85
477.341	3767.63
477.713	3851.69
478.084	3863.22
478.455	3934.63
478.827	3951.8
479.198	4075.42
479.569	4084.45
479.94	4188.63
480.311	4205.81
480.682	4234.96
481.053	4341.85
481.424	4414.62
481.795	4434.73
482.166	4535.52
482.537	4494.61
482.908	4679.92
483.279	4671.56
483.65	4706.81
484.021	4782.52
484.391	4844.66
484.762	4894.83
485.133	4933.02
485.503	4982.28
485.874	5071.1
486.244	5118.55
486.615	5206.91
486.985	5252.56
487.356	5328.04
487.726	5366.91
488.097	5479.67
488.467	5450.52
488.837	5593.12
489.207	5566
489.578	5679.44
489.948	5765.77
490.318	5803.96
490.688	5748.14
491.058	5845.54
491.428	5947
491.798	6022.71
492.168	6143.16
492.538	6068.13
492.908	6185.19
493.278	6188.35
493.648	6229.26
494.017	6351.51
494.387	6373.43
494.757	6357.39
495.126	6434.9
495.496	6449.36
495.866	6550.38
496.235	6586.31
496.605	6601
496.974	6619.3
497.344	6655.69
497.713	6685.74
498.082	6740.2
498.452	6803.71
498.821	6803.48
499.19	6819.98
499.559	6828.11
499.928	6902.23
500.298	6966.86
500.667	6994.21
501.036	6951.95
501.405	7037.15
501.774	7060.87
502.143	7082.79
502.512	7114.66
502.88	7153.53
503.249	7170.7
503.618	7219.74
503.987	7191.27
504.356	7207.99
504.724	7295.44
505.093	7328.89
505.462	7304.03
505.83	7342
506.199	7428.32
506.567	7476.68
506.936	7499.73
507.304	7450.02
507.672	7508.55
508.041	7557.13
508.409	7567.75
508.777	7638.94
509.145	7643.68
509.514	7634.42
509.882	7706.73
510.25	7688.65
510.618	7710.35
510.986	7744.47
511.354	7726.62
511.722	7815.2
512.09	7869.44
512.458	7865.37
512.826	7878.93
513.193	7933.62
513.561	7941.3
513.929	7877.35
514.297	7961.41
514.664	8012.94
515.032	8014.29
515.4	8064.01
515.767	8011.36
516.135	8112.82
516.502	8000.06
516.869	8129.77
517.237	8155.53
517.604	8132.94
517.972	8190.56
518.339	8151.01
518.706	8174.74
519.073	8217
519.44	8200.05
519.808	8256.1
520.175	8323.21
520.542	8345.59
520.909	8315.3
521.276	8369.54
521.643	8394.4
522.009	8405.92
522.376	8428.52
522.743	8470.55
523.11	8472.59
523.477	8572.92
523.843	8537.45
524.21	8591.91
524.577	8574.05
524.943	8657.89
525.31	8688.4
525.676	8733.37
526.043	8695.18
526.409	8645.69
526.776	8712.36
527.142	8780.6
527.508	8731.79
527.874	8794.84
528.241	8842.75
528.607	8805.69
528.973	8895.63
529.339	8820.38
529.705	8867.15
530.071	8885.01
530.437	8942.86
530.803	9020.14
531.169	8977.21
531.535	8930.2
531.901	8942.18
532.267	8942.63
532.632	9043.19
532.998	8974.04
533.364	8947.38
533.73	9014.27
534.095	9023.76
534.461	9049.52
534.826	9054.04
535.192	9132.46
535.557	9063.53
535.923	9124.1
536.288	9143.08
536.653	9086.58
537.019	9038.45
537.384	9040.03
537.749	9096.3
538.114	9128.62
538.479	8989.18
538.845	9063.98
539.21	9031.22
539.575	9051.56
539.94	9009.75
540.305	9097.88
540.67	8957.09
541.034	9072.12
541.399	9071.67
541.764	9031.67
542.129	9064.21
542.494	9090.42
542.858	9110.76
543.223	9031.44
543.587	9038.9
543.952	9067.37
544.316	9077.09
544.681	9009.52
545.045	9061.27
545.41	9091.78
545.774	8993.93
546.138	9021.5
546.503	9012.46
546.867	9006.13
547.231	9040.48
547.595	9047.94
547.959	9044.32
548.324	8968.17
548.688	8980.6
549.052	9055.17
549.416	9038
549.779	8976.08
550.143	8990.31
550.507	9006.13
550.871	9035.74
551.235	8903.99
551.599	9051.56
551.962	8975.63
552.326	9012.69
552.689	9035.74
553.053	8977.66
553.417	8959.13
553.78	9065.34
554.143	9018.56
554.507	8984.44
554.87	9027.15
555.234	9109.41
555.597	8997.55
555.96	9066.24
556.323	9016.75
556.686	8993.25
557.05	9052.01
557.413	9047.71
557.776	9107.6
558.139	9110.99
558.502	9085.68
558.865	9072.8
559.228	9128.84
559.59	9123.19
559.953	9103.98
560.316	9182.4
560.679	9170.42
561.041	9162.97
561.404	9183.3
561.767	9278.22
562.129	9182.4
562.492	9297.43
562.854	9289.97
563.217	9268.95
563.579	9237.31
563.941	9363.64
564.304	9342.62
564.666	9382.62
565.028	9378.55
565.39	9412.45
565.753	9464.65
566.115	9458.55
566.477	9445.67
566.839	9530.64
567.201	9597.76
567.563	9570.86
567.925	9527.48
568.287	9621.71
568.648	9556.63
569.01	9635.72
569.372	9663.97
569.734	9577.42
570.095	9689.28
570.457	9719.79
570.819	9735.83
571.18	9729.28
571.542	9719.56
571.903	9786.9
572.265	9828.48
572.626	9852.21
572.987	9857.86
573.349	9929.5
573.71	9895.15
574.071	9979.44
574.432	9920.01
574.794	10040
575.155	10054.92
575.516	10045.88
575.877	10063.51
576.238	10161.13
576.599	10110.29
576.96	10088.59
577.32	10126.1
577.681	10119.55
578.042	10221.92
578.403	10178.53
578.763	10273.9
579.124	10248.13
579.485	10298.75
579.845	10378.98
580.206	10250.85
580.566	10287
580.927	10352.31
581.287	10410.39
581.648	10387.57
582.008	10447.23
582.368	10396.15
582.728	10439.77
583.089	10499.2
583.449	10469.15
583.809	10573.32
584.169	10451.74
584.529	10542.36
584.889	10606.54
585.249	10559.09
585.609	10517.05
585.969	10605.41
586.329	10590.95
586.688	10595.24
587.048	10548.47
587.408	10652.42
587.768	10714.56
588.127	10592.76
588.487	10679.54
588.846	10678.63
589.206	10615.36
589.565	10727.67
589.925	10822.81
590.284	10736.71
590.643	10776.93
591.003	10816.93
591.362	10818.97
591.721	10836.14
592.08	10756.37
592.44	10851.28
592.799	10841.11
593.158	10870.94
593.517	10789.36
593.876	10897.16
594.235	10835.24
594.593	10788.46
594.952	10928.12
595.311	10874.78
595.67	10903.26
596.029	10896.93
596.387	10995.01
596.746	10988.91
597.104	10940.32
597.463	10991.17
597.822	11006.31
598.18	10962.69
598.538	10988.68
598.897	11030.26
599.255	10877.5
599.613	11117.94
599.972	11061.9
600.33	11111.84
600.688	10998.17
601.046	11066.64
601.404	11137.83
601.762	11173.99
602.12	11105.74
602.478	11155.46
602.836	11167.88
603.194	11065.74
603.552	11108.9
603.91	11126.98
604.268	11185.74
604.625	11112.29
604.983	11179.41
605.341	11109.13
605.698	11152.52
606.056	11115
606.413	11160.65
606.771	11186.64
607.128	11261.44
607.485	11133.76
607.843	11147.77
608.2	11204.04
608.557	11296.47
608.914	11284.04
609.272	11258.73
609.629	11324.49
609.986	11366.75
610.343	11269.35
610.7	11351.83
611.057	11359.52
611.414	11281.1
611.771	11350.93
612.127	11396.58
612.484	11377.6
612.841	11435.22
613.198	11394.77
613.554	11419.4
613.911	11437.26
614.267	11442.91
614.624	11373.08
614.98	11468.67
615.337	11488.33
615.693	11438.39
616.05	11394.09
616.406	11460.08
616.762	11479.29
617.118	11456.01
617.475	11529.68
617.831	11551.83
618.187	11411.04
618.543	11514.09
618.899	11574.88
619.255	11497.59
619.611	11521.55
619.967	11545.05
620.323	11599.96
620.678	11553.86
621.034	11458.27
621.39	11525.84
621.746	11526.74
622.101	11632.05
622.457	11576.91
622.812	11586.86
623.168	11613.52
623.523	11649.23
623.879	11633.18
624.234	11560.64
624.589	11548.44
624.945	11602.9
625.3	11646.29
625.655	11536.69
626.01	11607.65
626.365	11638.83
626.72	11627.31
627.075	11606.29
627.43	11526.74
627.785	11625.05
628.14	11555.67
628.495	11583.69
628.85	11531.94
629.205	11592.51
629.559	11512.51
629.914	11549.8
630.269	11514.32
630.623	11536.46
630.978	11457.37
631.332	11478.61
631.687	11487.88
632.041	11427.99
632.396	11489.01
632.75	11411.27
633.104	11451.72
633.459	11358.84
633.813	11285.85
634.167	11352.74
634.521	11373.53
634.875	11406.75
635.229	11373.3
635.583	11308.22
635.937	11275.68
636.291	11270.71
636.645	11304.15
636.999	11222.12
637.352	11252.85
637.706	11279.97
638.06	11265.28
638.413	11271.61
638.767	11147.09
639.121	11235.91
639.474	11164.72
639.828	11115.68
640.181	11178.96
640.534	11169.24
640.888	11112.29
641.241	11072.75
641.594	11164.72
641.947	11152.74
642.301	11131.28
642.654	11099.64
643.007	11117.26
643.36	11029.58
643.713	11070.49
644.066	11093.08
644.419	11016.7
644.771	10904.39
645.124	10860.1
645.477	10814.9
645.83	10813.09
646.182	10767.44
646.535	10671.4
646.888	10763.15
647.24	10712.76
647.593	10779.65
647.945	10679.54
648.298	10687.22
648.65	10607
649.002	10508.24
649.355	10706.65
649.707	10672.98
650.059	10661.23
650.411	10857.16
650.763	10859.19
651.115	10942.58
651.467	10854.22
651.819	10908
652.171	10903.94
652.523	10833.88
652.875	10759.76
653.227	10813.54
653.578	10878.4
653.93	10879.76
654.282	10827.1
654.633	10840.66
654.985	10785.75
655.337	10812.64
655.688	10815.58
656.039	10891.73
656.391	10725.18
656.742	10839.98
657.094	10834.56
657.445	10819.64
657.796	10872.75
658.147	10870.72
658.498	10807.89
658.849	10879.98
659.2	10877.72
659.551	10809.25
659.902	10883.15
660.253	10791.17
660.604	10908.23
660.955	10779.87
661.306	10782.36
661.656	10839.76
662.007	10842.7
662.358	10821.23
662.708	10866.65
663.059	10835.01
663.409	10810.83
663.76	10864.62
664.11	10835.69
664.461	10847.67
664.811	10844.73
665.161	10840.44
665.511	10842.92
665.862	10901.9
666.212	10831.85
666.562	10943.94
666.912	10936.03
667.262	10909.59
667.612	10857.61
667.962	10847.89
668.312	10837.27
668.662	10880.89
669.011	10903.94
669.361	10822.13
669.711	10840.89
670.06	10766.76
670.41	10715.01
670.76	10849.02
671.109	10792.53
671.459	10743.49
671.808	10767.44
672.157	10831.17
672.507	10777.61
672.856	10744.39
673.205	10771.06
673.554	10768.35
673.904	10732.42
674.253	10740.78
674.602	10799.98
674.951	10588.69
675.3	10585.98
675.649	10708.91
675.998	10698.52
676.346	10677.5
676.695	10646.99
677.044	10638.18
677.393	10596.6
677.741	10648.12
678.09	10642.93
678.438	10582.36
678.787	10586.88
679.135	10585.07
679.484	10555.47
679.832	10550.95
680.181	10551.86
680.529	10543.95
680.877	10536.71
681.225	10445.19
681.573	10502.59
681.922	10443.16
682.27	10377.62
682.618	10391.63
682.966	10443.84
683.314	10381.01
683.661	10341.92
684.009	10320.45
684.357	10270.96
684.705	10210.62
685.053	10309.38
685.4	10353.44
685.748	10147.8
686.095	10235.48
686.443	10138.31
686.79	10123.17
687.138	10162.71
687.485	10107.12
687.832	10080
688.18	10069.16
688.527	10022.15
688.874	10071.19
689.221	10002.72
689.568	9976.28
689.915	9922.72
690.262	9962.49
690.609	9872.55
690.956	9844.08
691.303	9799.56
691.65	9834.81
691.997	9759.11
692.344	9750.07
692.69	9671.88
693.037	9666
693.383	9587.13
693.73	9570.64
694.077	9608.83
694.423	9543.52
694.769	9580.36
695.116	9501.71
695.462	9490.64
695.808	9449.29
696.155	9428.5
696.501	9421.94
696.847	9395.5
697.193	9264.21
697.539	9360.02
697.885	9258.56
698.231	9172.91
698.577	9160.48
698.923	9189.63
699.269	9112.35
699.614	9160.48
699.96	9020.14
700.306	9048.17
700.651	9080.48
700.997	8993.03
701.342	9017.66
701.688	8958.22
702.033	8920.71
702.379	8903.99
702.724	8878
703.069	8891.56
703.415	8735.63
703.76	8736.99
704.105	8733.82
704.45	8728.4
704.795	8687.05
705.14	8701.73
705.485	8672.81
705.83	8574.73
706.175	8564.56
706.52	8583.09
706.865	8493.83
707.209	8498.35
707.554	8438.24
707.899	8509.65
708.243	8435.98
708.588	8369.09
708.932	8317.79
709.277	8380.61
709.621	8343.33
709.966	8333.61
710.31	8313.72
710.654	8221.52
710.998	8245.02
711.342	8177
711.687	8198.7
712.031	8239.83
712.375	8093.61
712.719	8146.72
713.063	8112.37
713.407	8120.73
713.75	8110.34
714.094	8122.54
714.438	8112.82
714.782	8137.91
715.125	8058.81
715.469	8078.47
715.812	8033.28
716.156	7973.62
716.499	7961.64
716.843	7914.64
717.186	7940.17
717.53	7975.43
717.873	7945.14
718.216	7901.08
718.559	7952.83
718.902	7856.33
719.246	7907.86
719.589	7865.82
719.932	7854.07
720.275	7838.48
720.617	7871.47
720.96	7823.11
721.303	7857.69
721.646	7798.93
721.989	7799.84
722.331	7796
722.674	7825.83
723.016	7788.76
723.359	7800.29
723.701	7847.29
724.044	7750.12
724.386	7744.25
724.729	7765.71
725.071	7726.62
725.413	7742.44
725.755	7740.63
726.097	7692.95
726.439	7665.6
726.782	7642.33
727.124	7695.43
727.465	7761.19
727.807	7685.49
728.149	7653.4
728.491	7654.76
728.833	7653.4
729.175	7623.57
729.516	7572.05
729.858	7557.58
730.199	7616.79
730.541	7596.45
730.882	7567.53
731.224	7606.4
731.565	7566.62
731.906	7520.3
732.248	7629.45
732.589	7561.43
732.93	7513.52
733.271	7547.64
733.612	7550.35
733.953	7555.55
734.294	7545.83
734.635	7516
734.976	7534.99
735.317	7550.8
735.658	7511.71
735.999	7520.07
736.339	7523.46
736.68	7551.03
737.021	7565.95
737.361	7471.48
737.702	7566.85
738.042	7590.8
738.383	7504.48
738.723	7629.22
739.063	7508.55
739.404	7573.85
739.744	7619.73
740.084	7600.52
740.424	7606.62
740.764	7587.64
741.104	7565.27
741.444	7540.64
741.784	7651.37
742.124	7634.19
742.464	7650.24
742.804	7621.08
743.143	7692.72
743.483	7630.58
743.823	7648.43
744.162	7717.35
744.502	7696.79
744.841	7649.11
745.181	7779.27
745.52	7710.57
745.86	7805.03
746.199	7807.75
746.538	7830.34
746.877	7868.54
747.216	7952.83
747.556	7961.19
747.895	8031.24
748.234	8035.09
748.573	8041.41
748.911	8045.93
749.25	8087.97
749.589	8188.98
749.928	8210.67
750.267	8257.9
750.605	8366.15
750.944	8375.19
751.283	8452.02
751.621	8532.93
751.96	8520.72
752.298	8666.71
752.636	8680.94
752.975	8743.54
753.313	8776.76
753.651	8925.01
753.989	8956.64
754.327	9076.19
754.666	9121.16
755.004	9177.43
755.342	9363.41
755.679	9407.25
756.017	9488.38
756.355	9690.86
756.693	9690.64
757.031	9788.03
757.368	9941.7
757.706	10077.07
758.044	10178.31
758.381	10293.56
758.719	10391.41
759.056	10598.18
759.394	10642.02
759.731	10705.3
760.068	10895.35
760.405	10998.17
760.743	11076.59
761.08	11272.51
761.417	11316.13
761.754	11458.95
762.091	11602
762.428	11692.16
762.765	11789.79
763.102	11914.76
