Data from hue_70_FLMS001491_88.txt Node
Date: Mon Feb 06 15:21:34 GMT 2017
User: dcchb
Spectrometer: FLMS00149
Trigger mode: 0
Integration Time (sec): 2.000000E-2
Scans to average: 10
Electric dark correction enabled: true
Nonlinearity correction enabled: false
Boxcar width: 0
XAxis mode: Wavelengths
Number of Pixels in Spectrum: 2048
>>>>>Begin Spectral Data<<<<<
341.393	-11.37
341.776	-11.37
342.16	-11.37
342.543	-38.49
342.927	-75.55
343.31	-85.27
343.693	-76
344.077	-65.83
344.46	-70.8
344.843	-40.97
345.226	-34.42
345.61	-23.57
345.993	-30.58
346.376	14.62
346.759	18.46
347.142	13.49
347.525	33.37
347.908	65.92
348.291	62.75
348.674	102.07
349.057	116.76
349.44	142.75
349.823	154.5
350.206	173.48
350.588	208.06
350.971	210.32
351.354	235.18
351.737	255.06
352.119	245.12
352.502	258.45
352.884	247.83
353.267	264.33
353.65	292.35
354.032	300.49
354.414	315.18
354.797	311.33
355.179	316.98
355.562	319.47
355.944	333.03
356.326	349.98
356.709	305.68
357.091	329.64
357.473	324.44
357.855	352.24
358.238	344.55
358.62	344.33
359.002	350.2
359.384	352.01
359.766	348.39
360.148	347.72
360.53	338.23
360.912	336.19
361.294	338.23
361.676	348.85
362.057	340.94
362.439	329.86
362.821	333.93
363.203	312.46
363.584	340.26
363.966	328.51
364.348	328.73
364.729	307.04
365.111	316.31
365.493	326.7
365.874	310.88
366.256	315.63
366.637	317.44
367.019	320.6
367.4	294.16
367.781	340.26
368.163	331.9
368.544	313.59
368.925	315.4
369.306	316.53
369.688	319.69
370.069	330.77
370.45	319.47
370.831	304.55
371.212	312.92
371.593	325.12
371.974	315.63
372.355	317.89
372.736	324.21
373.117	327.6
373.498	304.78
373.879	322.63
374.26	328.06
374.641	300.49
375.021	317.66
375.402	332.58
375.783	319.92
376.163	309.07
376.544	340.94
376.925	331.9
377.305	330.99
377.686	330.54
378.066	337.1
378.447	311.56
378.827	338
379.208	334.84
379.588	336.19
379.968	312.69
380.349	323.08
380.729	335.51
381.109	358.56
381.489	322.63
381.87	332.35
382.25	331.22
382.63	333.71
383.01	363.31
383.39	338.68
383.77	335.51
384.15	340.03
384.53	362.63
384.91	367.38
385.29	349.75
385.67	375.06
386.049	360.82
386.429	339.81
386.809	361.28
387.189	344.78
387.568	319.69
387.948	347.94
388.328	371.22
388.707	343.2
389.087	363.31
389.466	339.81
389.846	369.86
390.225	362.63
390.605	382.74
390.984	358.79
391.363	360.6
391.743	356.53
392.122	352.69
392.501	383.65
392.881	385.23
393.26	365.57
393.639	377.77
394.018	361.05
394.397	382.29
394.776	375.74
395.155	373.7
395.534	377.32
395.913	387.26
396.292	377.32
396.671	391.33
397.05	374.83
397.429	381.61
397.808	360.15
398.186	378
398.565	381.84
398.944	392.91
399.323	398.11
399.701	394.95
400.08	390.65
400.458	408.96
400.837	386.13
401.215	387.72
401.594	411.67
401.972	410.09
402.351	405.79
402.729	403.31
403.107	390.43
403.486	420.48
403.864	395.17
404.242	428.84
404.62	405.12
404.999	414.16
405.377	394.95
405.755	393.14
406.133	417.32
406.511	430.88
406.889	386.36
407.267	411.67
407.645	449.64
408.023	421.39
408.401	425.45
408.779	410.99
409.156	430.2
409.534	424.33
409.912	448.05
410.29	428.17
410.667	447.15
411.045	446.47
411.422	442.4
411.8	454.15
412.178	467.04
412.555	451.22
412.933	455.28
413.31	458.9
413.687	470.65
414.065	453.7
414.442	474.72
414.819	474.04
415.197	476.98
415.574	458.67
415.951	482.63
416.328	482.63
416.705	470.88
417.082	482.18
417.46	487.15
417.837	476.3
418.214	506.36
418.591	493.02
418.967	479.92
419.344	498
419.721	488.5
420.098	503.42
420.475	493.02
420.852	501.61
421.228	535.06
421.605	505.45
421.982	524.89
422.358	522.85
422.735	538.45
423.111	512.91
423.488	546.36
423.864	549.52
424.241	536.64
424.617	541.84
424.994	544.77
425.37	546.13
425.746	544.32
426.123	562.85
426.499	540.03
426.875	566.02
427.251	551.1
427.627	597.43
428.003	580.93
428.379	572.34
428.756	598.11
429.132	559.24
429.507	567.37
429.883	602.85
430.259	602.85
430.635	595.39
431.011	604.89
431.387	623.64
431.763	599.01
432.138	614.6
432.514	617.31
432.89	621.16
433.265	620.48
433.641	636.97
434.016	629.52
434.392	632.91
434.767	670.65
435.143	655.51
435.518	656.41
435.894	678.56
436.269	655.05
436.644	681.72
437.02	676.07
437.395	679.01
437.77	691.66
438.145	683.3
438.52	716.29
438.895	687.59
439.271	698.22
439.646	724.66
440.021	731.89
440.395	720.36
440.77	716.52
441.145	725.11
441.52	737.76
441.895	727.59
442.27	742.06
442.645	763.75
443.019	741.6
443.394	752.9
443.769	765.78
444.143	745.22
444.518	754.03
444.892	756.29
445.267	774.6
445.641	802.85
446.016	779.34
446.39	760.81
446.764	785.45
447.139	798.78
447.513	805.11
447.887	797.2
448.262	803.3
448.636	779.34
449.01	803.3
449.384	797.42
449.758	842.85
450.132	801.26
450.506	824.77
450.88	839.23
451.254	858.89
451.628	867.48
452.002	871.32
452.376	861.15
452.75	874.48
453.123	876.97
453.497	922.62
453.871	881.04
454.244	916.29
454.618	914.26
454.992	926.91
455.365	923.07
455.739	944.76
456.112	939.79
456.486	962.84
456.859	968.27
457.232	1003.29
457.606	961.94
457.979	997.87
458.352	990.19
458.725	1021.37
459.099	1020.24
459.472	1030.86
459.845	1051.2
460.218	1060.92
460.591	1055.04
460.964	1079.68
461.337	1113.57
461.71	1131.88
462.083	1111.76
462.456	1114.25
462.829	1119
463.201	1149.73
463.574	1159.9
463.947	1169.16
464.32	1207.13
464.692	1218.65
465.065	1244.42
465.438	1243.29
465.81	1260.24
466.183	1275.83
466.555	1305.88
466.928	1347.24
467.3	1334.58
467.672	1368.71
468.045	1374.58
468.417	1394.92
468.789	1464.3
469.161	1426.11
469.534	1444.86
469.906	1483.96
470.278	1512.43
470.65	1533.45
471.022	1568.25
471.394	1599.66
471.766	1620.45
472.138	1641.69
472.51	1705.87
472.882	1708.13
473.253	1759.88
473.625	1782.26
473.997	1869.03
474.369	1858.41
474.74	1905.42
475.112	1942.93
475.484	1987.9
475.855	2016.83
476.227	2087.11
476.598	2136.82
476.97	2214.11
477.341	2257.27
477.713	2299.98
478.084	2376.82
478.455	2471.5
478.827	2473.31
479.198	2616.81
479.569	2606.19
479.94	2704.04
480.311	2760.08
480.682	2860.65
481.053	2970.47
481.424	3076.46
481.795	3124.14
482.166	3193.74
482.537	3295.44
482.908	3333.18
483.279	3492.27
483.65	3569.55
484.021	3701.98
484.391	3789.89
484.762	3861.97
485.133	3972.71
485.503	4089.77
485.874	4229.65
486.244	4350.78
486.615	4478.68
486.985	4550.77
487.356	4725.45
487.726	4866.02
488.097	4963.87
488.467	5077.54
488.837	5211.32
489.207	5332.67
489.578	5518.65
489.948	5677.75
490.318	5754.58
490.688	5863.28
491.058	6070.28
491.428	6161.12
491.798	6348.69
492.168	6553.66
492.538	6620.32
492.908	6792.29
493.278	6983.47
493.648	7069.12
494.017	7267.53
494.387	7414.42
494.757	7542.33
495.126	7684.7
495.496	7808.76
495.866	8027.97
496.235	8136.89
496.605	8287.85
496.974	8408.07
497.344	8537.33
497.713	8683.77
498.082	8877.21
498.452	8994.5
498.821	9125.11
499.19	9256.18
499.559	9439.23
499.928	9509.51
500.298	9716.28
500.667	9799.67
501.036	9943.62
501.405	10104.75
501.774	10170.74
502.143	10317.4
502.512	10469.26
502.88	10638.07
503.249	10678.29
503.618	10821.79
503.987	10927.55
504.356	11085.29
504.724	11220.65
505.093	11347.2
505.462	11406.86
505.83	11618.38
506.199	11685.27
506.567	11903.8
506.936	11940.41
507.304	12167.29
507.672	12158.03
508.041	12373.39
508.409	12521.41
508.777	12653.61
509.145	12728.18
509.514	12767.5
509.882	12911.91
510.25	13014.05
510.618	13146.7
510.986	13267.6
511.354	13355.96
511.722	13560.02
512.09	13653.36
512.458	13760.47
512.826	13913.69
513.193	13869.4
513.561	13960.24
513.929	14144.42
514.297	14277.75
514.664	14355.71
515.032	14428.02
515.4	14589.83
515.767	14646.78
516.135	14822.82
516.502	14690.62
516.869	15016.48
517.237	14995.02
517.604	15092.87
517.972	15273.65
518.339	15339.64
518.706	15344.84
519.073	15469.58
519.44	15585.96
519.808	15740.53
520.175	15648.33
520.542	15861.43
520.909	16091.26
521.276	16032.73
521.643	16175.1
522.009	16234.98
522.376	16380.06
522.743	16448.08
523.11	16639.04
523.477	16815.76
523.843	16824.12
524.21	17054.4
524.577	17107.05
524.943	17181.17
525.31	17351.56
525.676	17415.29
526.043	17521.95
526.409	17633.82
526.776	17765.34
527.142	17813.25
527.508	17857.76
527.874	17984.09
528.241	18089.85
528.607	18193.35
528.973	18237.42
529.339	18241.71
529.705	18432.21
530.071	18440.8
530.437	18517.41
530.803	18552.89
531.169	18671.3
531.535	18776.61
531.901	18745.88
532.267	18900.9
532.632	18961.24
532.998	18919.43
533.364	19053.89
533.73	19001.24
534.095	19288.69
534.461	19211.18
534.826	19355.8
535.192	19331.4
535.557	19365.75
535.923	19471.28
536.288	19412.53
536.653	19479.64
537.019	19497.27
537.384	19571.62
537.749	19603.93
538.114	19622.24
538.479	19479.87
538.845	19662.01
539.21	19709.92
539.575	19711.95
539.94	19707.21
540.305	19765.96
540.67	19754.89
541.034	19868.11
541.399	19880.99
541.764	19854.77
542.129	19936.35
542.494	19993.3
542.858	19998.5
543.223	19984.94
543.587	20005.51
543.952	19920.76
544.316	19996.69
544.681	20034.43
545.045	20170.25
545.41	20093.64
545.774	20147.42
546.138	20189.23
546.503	20156.46
546.867	20080.31
547.231	20318.27
547.595	20304.93
547.959	20287.98
548.324	20375.66
548.688	20306.06
549.052	20443.01
549.416	20411.6
549.779	20273.97
550.143	20330.47
550.507	20523.68
550.871	20505.83
551.235	20548.09
551.599	20492.72
551.962	20596.68
552.326	20602.1
552.689	20691.59
553.053	20648.2
553.417	20635.32
553.78	20848.87
554.143	20662.21
554.507	20769.78
554.87	20802.09
555.234	21087.74
555.597	20842.32
555.96	20866.27
556.323	20963.67
556.686	21041.64
557.05	21162.54
557.413	21177.23
557.776	21066.27
558.139	21202.31
558.502	21184.23
558.865	21250.67
559.228	21410.89
559.59	21362.98
559.953	21451.79
560.316	21566.37
560.679	21591
561.041	21675.07
561.404	21848.39
561.767	21796.64
562.129	21781.28
562.492	21995.74
562.854	21902.63
563.217	21823.08
563.579	22050.42
563.941	22107.6
564.304	22233.02
564.666	22324.54
565.028	22371.32
565.39	22303.52
565.753	22430.53
566.115	22429.4
566.477	22532.22
566.839	22598.88
567.201	22700.35
567.563	22679.56
567.925	22865.99
568.287	22825.77
568.648	22894.69
569.01	23063.96
569.372	23081.13
569.734	23025.09
570.095	23170.62
570.457	23265.53
570.819	23208.36
571.18	23158.19
571.542	23275.02
571.903	23411.29
572.265	23483.83
572.626	23464.62
572.987	23549.59
573.349	23535.36
573.71	23675.69
574.071	23685.63
574.432	23717.95
574.794	23944.61
575.155	23796.37
575.516	23742.81
575.877	23899.19
576.238	23971.28
576.599	23933.09
576.96	24044.72
577.32	23996.36
577.681	24103.25
578.042	24115.23
578.403	24024.83
578.763	24089.69
579.124	24087.43
579.485	24252.17
579.845	24245.85
580.206	24223.47
580.566	24247.43
580.927	24226.41
581.287	24300.99
581.648	24317.71
582.008	24353.41
582.368	24218.28
582.728	24301.44
583.089	24351.61
583.449	24222.8
583.809	24314.77
584.169	24404.94
584.529	24329.46
584.889	24363.81
585.249	24334.66
585.609	24254.66
585.969	24377.37
586.329	24272.06
586.688	24337.14
587.048	24274.55
587.408	24268.9
587.768	24383.47
588.127	24262.12
588.487	24249.69
588.846	24448.78
589.206	24280.87
589.565	24375.79
589.925	24503.92
590.284	24346.63
590.643	24350.25
591.003	24318.16
591.362	24502.11
591.721	24446.29
592.08	24328.1
592.44	24413.07
592.799	24468.44
593.158	24278.61
593.517	24406.97
593.876	24421.21
594.235	24380.31
594.593	24383.02
594.952	24460.76
595.311	24437.48
595.67	24404.26
596.029	24504.6
596.387	24576.91
596.746	24533.97
597.104	24509.57
597.463	24366.97
597.822	24532.39
598.18	24389.8
598.538	24432.28
598.897	24505.27
599.255	24345.28
599.613	24618.49
599.972	24461.43
600.33	24470.02
600.688	24429.8
601.046	24607.19
601.404	24629.34
601.762	24532.17
602.12	24686.51
602.478	24698.71
602.836	24699.84
603.194	24679.51
603.552	24605.61
603.91	24568.1
604.268	24745.04
604.625	24609.23
604.983	24700.52
605.341	24651.03
605.698	24704.36
606.056	24870.46
606.413	24711.6
606.771	24793.63
607.128	24981.87
607.485	24909.78
607.843	24939.16
608.2	25020.06
608.557	24931.25
608.914	24957.47
609.272	24977.8
609.629	25096.67
609.986	25087.63
610.343	25019.38
610.7	25154.75
611.057	25295.08
611.414	25215.31
611.771	25174.41
612.127	25285.37
612.484	25291.24
612.841	25430
613.198	25286.27
613.554	25358.81
613.911	25565.58
614.267	25539.37
614.624	25411.69
614.98	25549.54
615.337	25639.48
615.693	25614.4
616.05	25697.78
616.406	25725.35
616.762	25704.56
617.118	25606.04
617.475	25687.16
617.831	25835.41
618.187	25773.04
618.543	25746.6
618.899	26003.54
619.255	25889.87
619.611	25945.01
619.967	25926.03
620.323	26001.28
620.678	25914.28
621.034	25942.07
621.39	25981.62
621.746	25853.03
622.101	26141.39
622.457	25970.55
622.812	25953.6
623.168	26078.79
623.523	26051.67
623.879	26149.52
624.234	25980.04
624.589	26107.27
624.945	26180.26
625.3	26108.62
625.655	26147.94
626.01	26198.11
626.365	26407.82
626.72	26065.91
627.075	26213.48
627.43	26226.81
627.785	26061.62
628.14	26079.24
628.495	26240.82
628.85	26201.27
629.205	26123.54
629.559	26133.48
629.914	26021.62
630.269	26041.73
630.623	26073.37
630.978	26128.06
631.332	26148.85
631.687	26075.18
632.041	26126.25
632.396	26154.95
632.75	25915.86
633.104	26132.12
633.459	26003.54
633.813	26061.17
634.167	26021.62
634.521	25826.14
634.875	25985.46
635.229	25962.64
635.583	25785.47
635.937	25744.56
636.291	25779.82
636.645	25770.33
636.999	25768.07
637.352	25779.59
637.706	25695.07
638.06	25848.06
638.413	25579.14
638.767	25542.76
639.121	25764
639.474	25509.09
639.828	25599.48
640.181	25563.1
640.534	25514.74
640.888	25353.16
641.241	25358.13
641.594	25423.44
641.947	25463.67
642.301	25436.1
642.654	25461.86
643.007	25449.66
643.36	25381.18
643.713	25228.42
644.066	25478.13
644.419	25211.47
644.771	25122.66
645.124	24896.45
645.477	24875.21
645.83	24693.29
646.182	24644.25
646.535	24617.36
646.888	24576.68
647.24	24415.33
647.593	24670.02
647.945	24601.32
648.298	24546.63
648.65	24412.17
649.002	24355.45
649.355	24431.15
649.707	24418.72
650.059	24561.09
650.411	24780.07
650.763	24856
651.115	25086.28
651.467	24983.23
651.819	25006.05
652.171	25007.63
652.523	24920.63
652.875	24975.32
653.227	24839.28
653.578	24940.97
653.93	24927.86
654.282	24800.63
654.633	24796.79
654.985	24878.82
655.337	24907.3
655.688	24897.35
656.039	25024.36
656.391	24780.29
656.742	24858.26
657.094	24773.06
657.445	24818.26
657.796	24865.94
658.147	24759.73
658.498	24881.99
658.849	24865.49
659.2	24832.27
659.551	24733.52
659.902	24912.95
660.253	24872.95
660.604	24792.27
660.955	24773.52
661.306	24876.34
661.656	24865.49
662.007	24852.61
662.358	24862.33
662.708	24841.76
663.059	24807.19
663.409	24717.02
663.76	24903.91
664.11	24850.58
664.461	24922.66
664.811	24880.86
665.161	24986.17
665.511	24777.36
665.862	24972.38
666.212	24957.24
666.562	24931.03
666.912	24895.09
667.262	24838.6
667.612	24805.38
667.962	24892.16
668.312	24833.4
668.662	24887.86
669.011	24886.05
669.361	24718.15
669.711	24695.55
670.06	24802.67
670.41	24753.18
670.76	24793.85
671.109	24780.75
671.459	24723.8
671.808	24638.6
672.157	24843.8
672.507	24569.9
672.856	24556.35
673.205	24736
673.554	24656
673.904	24474.09
674.253	24785.49
674.602	24628.21
674.951	24346.41
675.3	24252.17
675.649	24656.91
675.998	24556.57
676.346	24519.96
676.695	24613.97
677.044	24423.02
677.393	24438.16
677.741	24504.14
678.09	24490.13
678.438	24388.44
678.787	24382.11
679.135	24443.81
679.484	24134.89
679.832	24313.41
680.181	24169.69
680.529	24250.37
680.877	24026.42
681.225	24110.93
681.573	24221.44
681.922	24027.77
682.27	23957.72
682.618	24074.78
682.966	24009.02
683.314	24033.2
683.661	23935.35
684.009	23801.34
684.357	23798.4
684.705	23758.4
685.053	23704.39
685.4	23639.76
685.748	23642.25
686.095	23623.04
686.443	23495.13
686.79	23472.31
687.138	23548.46
687.485	23510.05
687.832	23485.87
688.18	23410.39
688.527	23399.77
688.874	23324.74
689.221	23196.83
689.568	23143.05
689.915	23077.51
690.262	23177.17
690.609	23009.49
690.956	22963.17
691.303	22876.62
691.65	22783.96
691.997	22795.71
692.344	22634.36
692.69	22616.74
693.037	22575.38
693.383	22358.89
693.73	22605.66
694.077	22299.23
694.423	22348.04
694.769	22253.58
695.116	22208.38
695.462	22076.86
695.808	22088.84
696.155	22139.23
696.501	21905.79
696.847	21877.77
697.193	21758.23
697.539	21782.63
697.885	21623.32
698.231	21542.41
698.577	21501.06
698.923	21528.18
699.269	21405.24
699.614	21291.12
699.96	21251.57
700.306	21162.99
700.651	21132.03
700.997	21055.19
701.342	21015.87
701.688	20912.6
702.033	20944.69
702.379	20796.44
702.724	20832.15
703.069	20825.37
703.415	20596
703.76	20675.77
704.105	20558.94
704.45	20424.48
704.795	20434.87
705.14	20287.76
705.485	20283.01
705.83	20269.23
706.175	20210.7
706.52	20105.16
706.865	20092.06
707.209	19993.98
707.554	19931.83
707.899	20090.47
708.243	19951.27
708.588	19912.63
708.932	19806.87
709.277	19791.05
709.621	19749.47
709.966	19610.71
710.31	19671.05
710.654	19535.46
710.998	19476.93
711.342	19586.98
711.687	19497.27
712.031	19373.43
712.375	19337.05
712.719	19339.31
713.063	19275.58
713.407	19231.06
713.75	19164.17
714.094	19078.75
714.438	19045.08
714.782	19085.53
715.125	19032.65
715.469	19082.37
715.812	18855.03
716.156	18767.8
716.499	18823.84
716.843	18770.51
717.186	18681.25
717.53	18773
717.873	18797.18
718.216	18734.35
718.559	18618.42
718.902	18531.19
719.246	18554.92
719.589	18547.92
719.932	18487.35
720.275	18418.88
720.617	18427.92
720.96	18363.74
721.303	18416.62
721.646	18425.21
721.989	18313.57
722.331	18363.51
722.674	18316.96
723.016	18318.09
723.359	18180.02
723.701	18275.38
724.044	18141.6
724.386	18060.25
724.729	18178.89
725.071	18109.28
725.413	18117.19
725.755	18144.09
726.097	17983.86
726.439	17989.51
726.782	18016.4
727.124	17972.56
727.465	17919.23
727.807	17872.68
728.149	17849.86
728.491	17832.68
728.833	17857.31
729.175	17787.71
729.516	17845.56
729.858	17874.71
730.199	17820.48
730.541	17729.86
730.882	17740.25
731.224	17781.38
731.565	17657.77
731.906	17769.18
732.248	17737.77
732.589	17613.48
732.93	17590.2
733.271	17541.39
733.612	17588.17
733.953	17753.59
734.294	17559.69
734.635	17559.47
734.976	17603.53
735.317	17550.43
735.658	17560.15
735.999	17622.06
736.339	17492.12
736.68	17596.75
737.021	17610.77
737.361	17465.23
737.702	17453.03
738.042	17526.47
738.383	17565.57
738.723	17506.36
739.063	17498.23
739.404	17503.42
739.744	17452.58
740.084	17520.15
740.424	17408.06
740.764	17381.17
741.104	17541.84
741.444	17335.97
741.784	17404.22
742.124	17368.51
742.464	17434.27
742.804	17451.67
743.143	17412.35
743.483	17521.95
743.823	17340.26
744.162	17458.68
744.502	17549.98
744.841	17520.82
745.181	17516.53
745.52	17525.8
745.86	17615.06
746.199	17553.59
746.538	17616.19
746.877	17698.9
747.216	17690.54
747.556	17658.22
747.895	17770.54
748.234	17732.12
748.573	17787.26
748.911	17716.07
749.25	17869.06
749.589	17883.75
749.928	17921.27
750.267	18019.57
750.605	17931.44
750.944	17962.17
751.283	17879.23
751.621	18153.58
751.96	18053.47
752.298	18148.15
752.636	18206.23
752.975	18217.76
753.313	18264.31
753.651	18435.38
753.989	18441.25
754.327	18508.82
754.666	18389.28
755.004	18631.53
755.342	18728.48
755.679	18693
756.017	18798.98
756.355	18959.43
756.693	18889.15
