Data from hue_160_FLMS001491_00092.txt Node
Date: Tue Feb 07 16:51:57 GMT 2017
User: dcchb
Spectrometer: FLMS00149
Trigger mode: 0
Integration Time (sec): 2.000000E-2
Scans to average: 10
Electric dark correction enabled: true
Nonlinearity correction enabled: false
Boxcar width: 0
XAxis mode: Wavelengths
Number of Pixels in Spectrum: 2048
>>>>>Begin Spectral Data<<<<<
341.393	-6.2
341.776	-6.2
342.16	-6.2
342.543	-57.5
342.927	-50.72
343.31	-70.15
343.693	-86.42
344.077	-48.69
344.46	-57.95
344.843	-55.01
345.226	-33.54
345.61	-48.46
345.993	-29.93
346.376	-7.78
346.759	10.3
347.142	30.63
347.525	51.43
347.908	59.33
348.291	92.78
348.674	85.32
349.057	108.15
349.44	133.46
349.823	136.62
350.206	165.77
350.588	191.99
350.971	207.13
351.354	235.6
351.737	235.15
352.119	265.66
352.502	251.42
352.884	257.52
353.267	283.96
353.65	301.59
354.032	320.34
354.414	334.13
354.797	334.36
355.179	331.64
355.562	331.19
355.944	306.33
356.326	340.91
356.709	324.64
357.091	339.33
357.473	345.65
357.855	346.11
358.238	333.23
358.62	363.96
359.002	353.56
359.384	342.04
359.766	344.52
360.148	341.81
360.53	336.84
360.912	319.44
361.294	345.43
361.676	323.73
362.057	320.34
362.439	326.22
362.821	305.43
363.203	309.27
363.584	316.73
363.966	326.9
364.348	331.19
364.729	331.87
365.111	344.07
365.493	348.37
365.874	317.86
366.256	328.71
366.637	345.43
367.019	308.37
367.4	292.55
367.781	312.44
368.163	316.73
368.544	323.06
368.925	315.6
369.306	321.02
369.688	305.43
370.069	317.63
370.45	311.31
370.831	328.71
371.212	311.08
371.593	324.19
371.974	307.69
372.355	335.49
372.736	317.86
373.117	330.97
373.498	306.79
373.879	329.38
374.26	315.83
374.641	327.12
375.021	313.79
375.402	334.81
375.783	328.48
376.163	341.14
376.544	325.54
376.925	330.06
377.305	338.42
377.686	315.6
378.066	330.74
378.447	347.69
378.827	336.39
379.208	313.34
379.588	343.62
379.968	336.39
380.349	325.99
380.729	342.94
381.109	346.56
381.489	335.03
381.87	317.86
382.25	349.04
382.63	335.03
383.01	349.27
383.39	350.4
383.77	333
384.15	352.43
384.53	349.5
384.91	347.24
385.29	354.47
385.67	343.39
386.049	359.67
386.429	346.33
386.809	332.32
387.189	348.37
387.568	353.11
387.948	344.75
388.328	350.63
388.707	383.62
389.087	375.26
389.466	367.12
389.846	384.98
390.225	367.12
390.605	387.46
390.984	367.35
391.363	378.42
391.743	362.83
392.122	385.65
392.501	342.49
392.881	348.37
393.26	409.61
393.639	370.29
394.018	366.67
394.397	388.37
394.776	350.17
395.155	381.13
395.534	365.09
395.913	389.5
396.292	394.69
396.671	378.65
397.05	372.09
397.429	401.02
397.808	384.3
398.186	393.11
398.565	382.26
398.944	377.29
399.323	390.85
399.701	413
400.08	391.98
400.458	403.28
400.837	404.18
401.215	390.85
401.594	407.57
401.972	403.28
402.351	405.09
402.729	398.08
403.107	409.61
403.486	401.7
403.864	409.61
404.242	398.53
404.62	405.77
404.999	427.46
405.377	420.46
405.755	408.03
406.133	438.99
406.511	442.15
406.889	436.73
407.267	425.88
407.645	436.5
408.023	449.61
408.401	424.97
408.779	432.21
409.156	457.52
409.534	443.51
409.912	434.47
410.29	456.84
410.667	470.62
411.045	445.99
411.422	466.78
411.8	464.3
412.178	470.17
412.555	485.54
412.933	485.31
413.31	481.47
413.687	494.13
414.065	485.76
414.442	502.26
414.819	491.19
415.197	501.81
415.574	493.45
415.951	521.7
416.328	516.27
416.705	498.42
417.082	505.42
417.46	522.15
417.837	512.43
418.214	507.91
418.591	544.75
418.967	519.21
419.344	539.32
419.721	555.82
420.098	542.71
420.475	542.49
420.852	542.03
421.228	542.94
421.605	544.97
421.982	536.38
422.358	557.63
422.735	569.83
423.111	570.06
423.488	556.95
423.864	557.4
424.241	583.16
424.617	577.06
424.994	597.85
425.37	593.33
425.746	584.29
426.123	584.29
426.499	592.65
426.875	589.72
427.251	602.37
427.627	615.7
428.003	628.81
428.379	620
428.756	643.5
429.132	619.32
429.507	619.77
429.883	646.44
430.259	616.16
430.635	652.77
431.011	659.32
431.387	652.31
431.763	656.38
432.138	650.96
432.514	698.64
432.89	704.74
433.265	709.26
433.641	716.49
434.016	712.2
434.392	727.57
434.767	730.5
435.143	733.44
435.518	758.3
435.894	754.23
436.269	769.37
436.644	741.58
437.02	768.02
437.395	785.87
437.77	762.59
438.145	791.07
438.52	817.05
438.895	784.97
439.271	806.43
439.646	824.74
440.021	783.16
440.395	825.87
440.77	832.65
441.145	845.08
441.52	843.72
441.895	838.52
442.27	831.29
442.645	842.14
443.019	856.38
443.394	861.35
443.769	892.98
444.143	890.5
444.518	892.31
444.892	897.5
445.267	880.56
445.641	884.62
446.016	913.1
446.39	890.27
446.764	917.39
447.139	899.09
447.513	943.61
447.887	939.99
448.262	963.94
448.636	931.4
449.01	945.19
449.384	958.07
449.758	979.08
450.132	969.37
450.506	989.93
450.88	1009.82
451.254	986.32
451.628	989.03
452.002	1005.75
452.376	1022.93
452.75	1026.99
453.123	1056.6
453.497	1061.12
453.871	1085.52
454.244	1093.88
454.618	1085.75
454.992	1099.31
455.365	1091.85
455.739	1156.03
456.112	1146.54
456.486	1166.2
456.859	1149.25
457.232	1163.03
457.606	1175.92
457.979	1204.16
458.352	1243.48
458.725	1214.56
459.099	1206.65
459.472	1272.41
459.845	1276.7
460.218	1307.89
460.591	1287.1
460.964	1307.89
461.337	1312.63
461.71	1342.92
462.083	1389.02
462.456	1393.08
462.829	1401.22
463.201	1419.3
463.574	1427.89
463.947	1445.06
464.32	1482.12
464.692	1483.03
465.065	1494.55
465.438	1506.53
465.81	1550.82
466.183	1558.5
466.555	1578.62
466.928	1594.66
467.3	1608.22
467.672	1694.77
468.045	1718.05
468.417	1703.81
468.789	1751.49
469.161	1745.84
469.534	1793.07
469.906	1826.52
470.278	1869
470.65	1931.15
471.022	1957.82
471.394	1981.77
471.766	1963.69
472.138	2011.15
472.51	2089.79
472.882	2107.87
473.253	2141.54
473.625	2184.7
473.997	2255.21
474.369	2291.14
474.74	2368.88
475.112	2406.62
475.484	2496.11
475.855	2513.28
476.227	2558.03
476.598	2617.01
476.97	2696.55
477.341	2766.61
477.713	2810
478.084	2814.29
478.455	2959.6
478.827	3015.64
479.198	3133.15
479.569	3168.86
479.94	3245.92
480.311	3345.8
480.682	3412.69
481.053	3537.89
481.424	3621.27
481.795	3705.11
482.166	3798.67
482.537	3868.27
482.908	3986.01
483.279	4100.13
483.65	4203.41
484.021	4325.89
484.391	4409.73
484.762	4505.77
485.133	4598.42
485.503	4705.09
485.874	4840
486.244	4952.77
486.615	5080.45
486.985	5158.64
487.356	5311.63
487.726	5415.8
488.097	5576.48
488.467	5636.59
488.837	5788.9
489.207	5912.51
489.578	6034.77
489.948	6183.69
490.318	6347.3
490.688	6402.22
491.058	6535.1
491.428	6747.75
491.798	6781.87
492.168	6977.8
492.538	7038.81
492.908	7219.6
493.278	7300.05
493.648	7437.67
494.017	7617.1
494.387	7773.71
494.757	7843.08
495.126	7982.06
495.496	8022.29
495.866	8189.97
496.235	8255.73
496.605	8349.96
496.974	8516.51
497.344	8639.9
497.713	8686.68
498.082	8774.13
498.452	8957.86
498.821	9064.97
499.19	9056.61
499.559	9224.07
499.928	9365.08
500.298	9401.46
500.667	9539.99
501.036	9567.79
501.405	9634.9
501.774	9689.82
502.143	9809.59
502.512	9915.12
502.88	10085.51
503.249	10040.09
503.618	10086.87
503.987	10191.05
504.356	10273.76
504.724	10347.2
505.093	10374.09
505.462	10466.07
505.83	10553.3
506.199	10674.42
506.567	10772.73
506.936	10783.8
507.304	10840.29
507.672	10888.65
508.041	10977.69
508.409	11109.67
508.777	11208.65
509.145	11177.23
509.514	11207.52
509.882	11293.84
510.25	11273.73
510.618	11351.92
510.986	11375.65
511.354	11422.43
511.722	11551.69
512.09	11594.85
512.458	11567.51
512.826	11698.12
513.193	11758.24
513.561	11726.37
513.929	11839.59
514.297	11852.47
514.664	11957.33
515.032	11952.58
515.4	12039.36
515.767	12075.74
516.135	12069.19
516.502	12011.34
516.869	12130.2
517.237	12136.31
517.604	12169.3
517.972	12220.37
518.339	12267.38
518.706	12307.6
519.073	12348.05
519.44	12314.61
519.808	12405
520.175	12339.92
520.542	12506.24
520.909	12514.83
521.276	12416.07
521.643	12591.43
522.009	12601.15
522.376	12636.18
522.743	12628.72
523.11	12819
523.477	12840.92
523.843	12820.35
524.21	12837.08
524.577	12949.62
524.943	12901.03
525.31	12890.64
525.676	12979.22
526.043	13012.21
526.409	13016.96
526.776	12999.33
527.142	13066.9
527.508	13089.05
527.874	13122.95
528.241	13112.32
528.607	13121.36
528.973	13150.29
529.339	13098.54
529.705	13201.14
530.071	13149.39
530.437	13247.46
530.803	13199.33
531.169	13202.72
531.535	13112.78
531.901	13098.31
532.267	13124.98
532.632	13151.42
532.998	13040.24
533.364	13132.89
533.73	13107.58
534.095	13158.43
534.461	13085.88
534.826	13131.08
535.192	13124.08
535.557	13191.64
535.923	13072.78
536.288	13034.36
536.653	13075.94
537.019	12928.6
537.384	13015.83
537.749	12971.54
538.114	12995.72
538.479	12905.55
538.845	12899.45
539.21	12871.43
539.575	12846.57
539.94	12871.65
540.305	12855.61
540.67	12690.87
541.034	12775.84
541.399	12747.81
541.764	12700.13
542.129	12745.1
542.494	12600.25
542.858	12689.28
543.223	12618.78
543.587	12576.29
543.952	12482.74
544.316	12491.55
544.681	12444.32
545.045	12485.45
545.41	12465.11
545.774	12416.75
546.138	12292.23
546.503	12373.81
546.867	12352.8
547.231	12325.45
547.595	12302.63
547.959	12275.06
548.324	12202.97
548.688	12148.06
549.052	12140.6
549.416	12143.99
549.779	12083.88
550.143	12094.95
550.507	12073.48
550.871	12014.95
551.235	11997.1
551.599	11978.8
551.962	11998.23
552.326	11889.08
552.689	11951.23
553.053	11901.96
553.417	11795.98
553.78	11891.57
554.143	11832.13
554.507	11887.05
554.87	11827.16
555.234	11951.45
555.597	11798.69
555.96	11789.87
556.323	11782.19
556.686	11772.7
557.05	11782.42
557.413	11793.72
557.776	11654.74
558.139	11745.58
558.502	11718.92
558.865	11667.62
559.228	11743.1
559.59	11681.63
559.953	11714.4
560.316	11755.98
560.679	11723.89
561.041	11771.79
561.404	11696.32
561.767	11696.77
562.129	11683.89
562.492	11738.12
562.854	11715.07
563.217	11701.74
563.579	11763.89
563.941	11753.49
564.304	11800.95
564.666	11828.06
565.028	11798.23
565.39	11789.65
565.753	11762.3
566.115	11824
566.477	11816.77
566.839	11786.48
567.201	11914.84
567.563	11867.39
567.925	11975.41
568.287	11864.67
568.648	11919.81
569.01	11956.2
569.372	12014.05
569.734	11868.06
570.095	11923.43
570.457	11985.8
570.819	11967.72
571.18	11994.39
571.542	11986.93
571.903	11909.19
572.265	12012.92
572.626	11994.61
572.987	12023.99
573.349	12032.58
573.71	12107.83
574.071	12061.96
574.432	12132.92
574.794	12142.63
575.155	12138.79
575.516	12061.05
575.877	12175.4
576.238	12178.11
576.599	12159.13
576.96	12082.97
577.32	12064.44
577.681	12151.67
578.042	12132.69
578.403	12129.07
578.763	12142.18
579.124	12172.24
579.485	12218.56
579.845	12126.36
580.206	12152.8
580.566	12154.61
580.927	12173.59
581.287	12195.51
581.648	12190.54
582.008	12194.38
582.368	12092.69
582.728	12185.34
583.089	12194.83
583.449	12165
583.809	12200.03
584.169	12158.68
584.529	12106.25
584.889	12201.84
585.249	12063.09
585.609	12068.51
585.969	12127.94
586.329	12073.71
586.688	12109.87
587.048	11987.61
587.408	12078.68
587.768	12074.61
588.127	12022.18
588.487	11938.34
588.846	12076.65
589.206	12008.4
589.565	12022.41
589.925	12087.72
590.284	11952.36
590.643	11969.98
591.003	12047.49
591.362	12040.26
591.721	12082.07
592.08	11959.81
592.44	12029.42
592.799	12028.06
593.158	12007.5
593.517	11860.15
593.876	11994.84
594.235	11953.71
594.593	11989.87
594.952	11913.94
595.311	11921.85
595.67	12016.31
596.029	11986.25
596.387	12024.67
596.746	11879.59
597.104	11965.91
597.463	11920.04
597.822	11912.13
598.18	11871.68
598.538	11922.3
598.897	12000.49
599.255	11827.16
599.613	11988.74
599.972	11887.05
600.33	11872.13
600.688	11849.31
601.046	11949.19
601.404	11915.75
601.762	11915.29
602.12	11924.11
602.478	11890.66
602.836	11966.14
603.194	11918.46
603.552	11893.6
603.91	11849.08
604.268	11936.08
604.625	11806.37
604.983	11937.67
605.341	11885.01
605.698	11923.66
606.056	11924.79
606.413	11920.94
606.771	11897.67
607.128	11988.06
607.485	11897.44
607.843	11904.22
608.2	12003.88
608.557	12018.34
608.914	11945.12
609.272	11972.69
609.629	12055.18
609.986	12041.84
610.343	12018.79
610.7	12117.32
611.057	12053.14
611.414	12003.88
611.771	12008.62
612.127	12087.72
612.484	12112.13
612.841	12117.1
613.198	12095.4
613.554	12100.6
613.911	12139.92
614.267	12076.65
614.624	12073.48
614.98	12021.28
615.337	12179.02
615.693	12134.5
616.05	12104.89
616.406	12209.98
616.762	12160.71
617.118	12217.43
617.475	12193.7
617.831	12234.61
618.187	12282.97
618.543	12207.72
618.899	12247.26
619.255	12245.91
619.611	12162.97
619.967	12309.41
620.323	12356.86
620.678	12205.68
621.034	12282.52
621.39	12268.28
621.746	12196.87
622.101	12292.69
622.457	12272.12
622.812	12269.64
623.168	12275.96
623.523	12231.44
623.879	12325.9
624.234	12244.32
624.589	12379.69
624.945	12252.69
625.3	12309.18
625.655	12188.28
626.01	12235.06
626.365	12352.57
626.72	12209.3
627.075	12249.07
627.43	12252.23
627.785	12267.83
628.14	12233.03
628.495	12252.01
628.85	12281.84
629.205	12164.1
629.559	12249.3
629.914	12210.88
630.269	12155.74
630.623	12139.24
630.978	12152.35
631.332	12158.23
631.687	12139.92
632.041	12154.61
632.396	12161.84
632.75	12074.16
633.104	12078.91
633.459	12057.66
633.813	12161.84
634.167	12062.41
634.521	12019.7
634.875	12034.39
635.229	12009.53
635.583	11961.39
635.937	11986.25
636.291	11967.27
636.645	11941.73
636.999	11949.64
637.352	11971.11
637.706	11877.1
638.06	11883.66
638.413	11822.64
638.767	11868.29
639.121	11891.79
639.474	11792.81
639.828	11856.76
640.181	11856.76
640.534	11932.47
640.888	11822.19
641.241	11729.99
641.594	11704
641.947	11807.27
642.301	11690.44
642.654	11741.06
643.007	11722.98
643.36	11754.62
643.713	11681.63
644.066	11730.44
644.419	11640.95
644.771	11589.2
645.124	11502.2
645.477	11487.96
645.83	11382.65
646.182	11341.3
646.535	11353.05
646.888	11334.29
647.24	11276.44
647.593	11370.22
647.945	11347.17
648.298	11190.57
648.65	11278.93
649.002	11237.8
649.355	11338.13
649.707	11308.08
650.059	11379.26
650.411	11444.57
650.763	11521.18
651.115	11579.71
651.467	11503.55
651.819	11546.49
652.171	11517.56
652.523	11569.09
652.875	11540.84
653.227	11532.93
653.578	11588.75
653.93	11514.63
654.282	11471.01
654.633	11462.65
654.985	11492.25
655.337	11561.18
655.688	11542.87
656.039	11606.38
656.391	11532.71
656.742	11543.1
657.094	11552.82
657.445	11641.4
657.796	11525.02
658.147	11584.46
658.498	11519.82
658.849	11584
659.2	11501.75
659.551	11520.05
659.902	11621.52
660.253	11544.91
660.604	11601.18
660.955	11488.86
661.306	11578.58
661.656	11614.96
662.007	11621.74
662.358	11542.2
662.708	11609.77
663.059	11586.26
663.409	11529.32
663.76	11594.85
664.11	11509.2
664.461	11542.87
664.811	11574.51
665.161	11568.18
665.511	11552.14
665.862	11567.96
666.212	11565.25
666.562	11593.04
666.912	11536.77
667.262	11574.06
667.612	11532.71
667.962	11633.72
668.312	11583.1
668.662	11645.02
669.011	11643.66
669.361	11577.68
669.711	11494.29
670.06	11547.85
670.41	11562.76
670.76	11510.78
671.109	11567.28
671.459	11577.9
671.808	11522.99
672.157	11642.08
672.507	11490.22
672.856	11461.07
673.205	11513.95
673.554	11552.82
673.904	11551.01
674.253	11559.15
674.602	11478.02
674.951	11384.69
675.3	11269.89
675.649	11458.36
675.998	11397.57
676.346	11502.2
676.695	11482.99
677.044	11365.03
677.393	11484.57
677.741	11458.58
678.09	11402.54
678.438	11348.08
678.787	11385.36
679.135	11328.64
679.484	11259.27
679.832	11347.17
680.181	11226.72
680.529	11197.8
680.877	11214.75
681.225	11235.54
681.573	11233.5
681.922	11127.29
682.27	11164.58
682.618	11114.19
682.966	11067.18
683.314	11114.41
683.661	11109.89
684.009	10991.25
684.357	11009.1
684.705	11039.16
685.053	10937.92
685.4	11004.81
685.748	10952.83
686.095	10983.12
686.443	10876
686.79	10839.16
687.138	10892.5
687.485	10873.06
687.832	10784.48
688.18	10917.13
688.527	10703.8
688.874	10713.07
689.221	10772.5
689.568	10682.33
689.915	10675.78
690.262	10670.36
690.609	10647.3
690.956	10512.17
691.303	10520.53
691.65	10440.3
691.997	10497.25
692.344	10415.22
692.69	10391.94
693.037	10339.74
693.383	10282.12
693.73	10323.7
694.077	10217.94
694.423	10191.5
694.769	10226.75
695.116	10271.04
695.462	10150.14
695.808	10085.29
696.155	10053.65
696.501	10062.01
696.847	10092.74
697.193	9961.9
697.539	9959.64
697.885	9939.07
698.231	9834.44
698.577	9835.57
698.923	9802.81
699.269	9781.34
699.614	9748.35
699.96	9688.69
700.306	9689.59
700.651	9543.83
700.997	9598.97
701.342	9601.91
701.688	9538.41
702.033	9536.6
702.379	9464.74
702.724	9477.39
703.069	9453.44
703.415	9365.53
703.76	9331.63
704.105	9384.97
704.45	9369.82
704.795	9294.12
705.14	9217.96
705.485	9244.4
705.83	9205.99
706.175	9182.26
706.52	9149.27
706.865	9139.77
707.209	9125.54
707.554	9085.54
707.899	9113.33
708.243	9003.28
708.588	9008.25
708.932	8934.36
709.277	8938.88
709.621	8962.38
709.966	8902.94
710.31	8875.6
710.654	8886
710.998	8829.73
711.342	8826.56
711.687	8777.75
712.031	8714.47
712.375	8729.62
712.719	8749.73
713.063	8667.92
713.407	8693.91
713.75	8696.62
714.094	8628.6
714.438	8691.88
714.782	8661.14
715.125	8556.96
715.469	8659.79
715.812	8557.19
716.156	8542.95
716.499	8589.05
716.843	8510.19
717.186	8512.9
717.53	8528.26
717.873	8538.43
718.216	8519.9
718.559	8468.83
718.902	8406.69
719.246	8449.17
719.589	8376.63
719.932	8355.61
720.275	8339.12
720.617	8303.86
720.96	8347.25
721.303	8323.52
721.646	8382.05
721.989	8287.37
722.331	8347.93
722.674	8305.9
723.016	8262.73
723.359	8227.93
723.701	8340.92
724.044	8212.79
724.386	8217.09
724.729	8258.89
725.071	8212.34
725.413	8229.06
725.755	8196.07
726.097	8211.89
726.439	8163.53
726.782	8176.64
727.124	8214.83
727.465	8176.41
727.807	8128.73
728.149	8129.4
728.491	8116.07
728.833	8173.02
729.175	8173.25
729.516	8171.21
729.858	8133.92
730.199	8146.81
730.541	8146.35
730.882	8167.14
731.224	8162.17
731.565	8196.07
731.906	8174.6
732.248	8144.09
732.589	8108.16
732.93	8086.24
733.271	8042.63
733.612	8140.25
733.953	8152.91
734.294	8132.12
734.635	8080.37
734.976	8149.07
735.317	8066.13
735.658	8123.98
735.999	8081.27
736.339	8088.73
736.68	8129.86
737.021	8112.68
737.361	8160.82
737.702	8149.07
738.042	8166.01
738.383	8145.9
738.723	8122.17
739.063	8142.96
739.404	8165.79
739.744	8180.03
740.084	8154.04
740.424	8192.45
740.764	8169.86
741.104	8226.13
741.444	8212.79
741.784	8228.84
742.124	8269.74
742.464	8293.69
742.804	8278.1
743.143	8290.98
743.483	8288.95
743.823	8321.94
744.162	8320.59
744.502	8361.04
744.841	8366.46
745.181	8436.52
745.52	8397.42
745.86	8479.23
746.199	8475.84
746.538	8508.15
746.877	8608.49
747.216	8647.81
747.556	8687.81
747.895	8751.31
748.234	8806.22
748.573	8784.53
748.911	8886.45
749.25	8954.02
749.589	8929.61
749.928	8957.86
750.267	9088.48
750.605	9141.81
750.944	9178.64
751.283	9220.45
751.621	9341.35
751.96	9374.8
752.298	9455.25
752.636	9618.86
752.975	9625.18
753.313	9755.8
753.651	9836.93
753.989	9900.21
754.327	10023.59
754.666	10093.87
755.004	10213.64
755.342	10330.48
755.679	10507.42
756.017	10583.58
756.355	10773.86
756.693	10802.33
757.031	11052.72
757.368	11152.15
757.706	11178.59
758.044	11338.59
758.381	11507.62
758.719	11640.72
759.056	11895.41
759.394	11911.9
759.731	12114.16
760.068	12234.61
