Data from hue_110_FLMS001491_00031.txt Node
Date: Tue Feb 07 17:01:13 GMT 2017
User: dcchb
Spectrometer: FLMS00149
Trigger mode: 0
Integration Time (sec): 2.000000E-2
Scans to average: 10
Electric dark correction enabled: true
Nonlinearity correction enabled: false
Boxcar width: 0
XAxis mode: Wavelengths
Number of Pixels in Spectrum: 2048
>>>>>Begin Spectral Data<<<<<
341.393	-15.1
341.776	-15.1
342.16	-15.1
342.543	-80.86
342.927	-63.23
343.31	-64.59
343.693	-50.13
344.077	-49.45
344.46	-71.37
344.843	-62.1
345.226	-43.8
345.61	-37.47
345.993	-51.93
346.376	-11.48
346.759	-4.25
347.142	40.72
347.525	53.83
347.908	66.48
348.291	85.46
348.674	90.21
349.057	109.87
349.44	120.27
349.823	133.6
350.206	172.92
350.588	188.96
350.971	212.92
351.354	212.24
351.737	227.38
352.119	238.91
352.502	254.05
352.884	251.11
353.267	287.04
353.65	285.23
354.032	309.86
354.414	293.37
354.797	320.03
355.179	320.94
355.562	337.89
355.944	328.17
356.326	333.59
356.709	329.75
357.091	344.89
357.473	358.68
357.855	357.32
358.238	335.17
358.62	336.76
359.002	341.05
359.384	319.13
359.766	338.34
360.148	338.79
360.53	332.24
360.912	337.66
361.294	342.63
361.676	319.58
362.057	327.04
362.439	321.16
362.821	333.37
363.203	308.06
363.584	329.53
363.966	340.82
364.348	316.19
364.729	303.09
365.111	330.2
365.493	335.17
365.874	323.2
366.256	319.36
366.637	318.68
367.019	313.25
367.4	338.79
367.781	299.24
368.163	310.54
368.544	321.16
368.925	298.57
369.306	314.61
369.688	285.68
370.069	306.7
370.45	313.71
370.831	297.89
371.212	326.36
371.593	322.07
371.974	281.62
372.355	291.56
372.736	305.35
373.117	327.27
373.498	311.9
373.879	323.88
374.26	334.5
374.641	323.42
375.021	318.23
375.402	303.09
375.783	329.3
376.163	319.81
376.544	319.81
376.925	338.79
377.305	320.94
377.686	328.85
378.066	358
378.447	341.5
378.827	336.98
379.208	322.52
379.588	325.91
379.968	343.99
380.349	343.31
380.729	332.01
381.109	342.86
381.489	331.56
381.87	338.34
382.25	352.35
382.63	335.17
383.01	361.16
383.39	357.1
383.77	351.22
384.15	364.1
384.53	337.66
384.91	356.87
385.29	350.54
385.67	343.54
386.049	359.13
386.429	361.61
386.809	359.35
387.189	356.42
387.568	344.89
387.948	362.07
388.328	358
388.707	353.25
389.087	346.7
389.466	380.15
389.846	349.64
390.225	365.46
390.605	381.28
390.984	371.78
391.363	378.34
391.743	362.52
392.122	367.04
392.501	368.39
392.881	366.36
393.26	372.91
393.639	362.29
394.018	389.41
394.397	391.67
394.776	372.46
395.155	378.56
395.534	387.15
395.913	376.76
396.292	390.31
396.671	401.39
397.05	385.57
397.429	383.99
397.808	404.78
398.186	394.83
398.565	405.46
398.944	405.46
399.323	410.65
399.701	395.96
400.08	406.36
400.458	405.91
400.837	399.81
401.215	391.44
401.594	401.61
401.972	406.81
402.351	417.43
402.729	425.79
403.107	442.06
403.486	425.12
403.864	408.39
404.242	440.26
404.62	407.94
404.999	433.48
405.377	427.15
405.755	426.92
406.133	428.96
406.511	421.27
406.889	463.31
407.267	440.71
407.645	444.1
408.023	449.07
408.401	461.73
408.779	458.34
409.156	470.54
409.534	456.75
409.912	460.6
410.29	475.96
410.667	442.97
411.045	470.09
411.422	471.22
411.8	480.26
412.178	477.77
412.555	473.02
412.933	486.13
413.31	489.52
413.687	491.1
414.065	503.76
414.442	491.1
414.819	486.58
415.197	501.72
415.574	520.48
415.951	523.87
416.328	517.09
416.705	549.18
417.082	531.1
417.46	547.37
417.837	548.95
418.214	529.07
418.591	538.11
418.967	533.81
419.344	569.29
419.721	543.76
420.098	545.56
420.475	548.95
420.852	544.43
421.228	559.8
421.605	567.03
421.982	560.71
422.358	575.17
422.735	587.6
423.111	595.05
423.488	581.72
423.864	582.4
424.241	549.63
424.617	598.67
424.994	591.67
425.37	604.09
425.746	611.78
426.123	612.91
426.499	626.01
426.875	619.24
427.251	622.85
427.627	647.03
428.003	640.48
428.379	639.35
428.756	646.13
429.132	655.39
429.507	641.83
429.883	666.01
430.259	683.19
430.635	673.7
431.011	680.25
431.387	678.22
431.763	697.88
432.138	702.85
432.514	706.46
432.89	706.92
433.265	682.51
433.641	719.12
434.016	736.07
434.392	714.83
434.767	730.42
435.143	754.37
435.518	761.38
435.894	762.06
436.269	751.44
436.644	786.91
437.02	788.95
437.395	774.49
437.77	794.15
438.145	797.08
438.52	813.58
438.895	804.99
439.271	796.41
439.646	824.65
440.021	843.41
440.395	862.17
440.77	832.11
441.145	838.66
441.52	854.94
441.895	825.11
442.27	859.23
442.645	882.73
443.019	860.81
443.394	865.56
443.769	882.51
444.143	882.05
444.518	891.77
444.892	873.24
445.267	906.23
445.641	902.39
446.016	905.56
446.39	911.43
446.764	942.39
447.139	933.58
447.513	954.14
447.887	927.93
448.262	910.98
448.636	963.63
449.01	978.1
449.384	952.79
449.758	971.09
450.132	982.16
450.506	972.22
450.88	980.81
451.254	991.88
451.628	1003.18
452.002	1003.41
452.376	1018.55
452.75	1028.04
453.123	1041.82
453.497	1084.76
453.871	1088.83
454.244	1078.88
454.618	1078.43
454.992	1090.64
455.365	1087.7
455.739	1138.09
456.112	1139.22
456.486	1158.66
456.859	1184.87
457.232	1190.75
457.606	1181.48
457.979	1175.6
458.352	1232.33
458.725	1216.06
459.099	1253.34
459.472	1245.66
459.845	1267.35
460.218	1301.48
460.591	1310.52
460.964	1292.44
461.337	1335.37
461.71	1372.66
462.083	1388.03
462.456	1380.12
462.829	1369.72
463.201	1407.69
463.574	1435.48
463.947	1432.55
464.32	1489.27
464.692	1484.52
465.065	1503.73
465.438	1495.82
465.81	1543.96
466.183	1558.87
466.555	1596.16
466.928	1630.28
467.3	1621.92
467.672	1658.76
468.045	1709.38
468.417	1718.87
468.789	1714.8
469.161	1752.31
469.534	1806.32
469.906	1864.4
470.278	1893.78
470.65	1855.13
471.022	1912.31
471.394	1966.54
471.766	1980.56
472.138	2011.51
472.51	2083.6
472.882	2135.58
473.253	2150.49
473.625	2193.88
473.997	2245.41
474.369	2266.88
474.74	2340.09
475.112	2397.49
475.484	2445.18
475.855	2508.45
476.227	2555.68
476.598	2660.76
476.97	2695.34
477.341	2813.3
477.713	2809.46
478.084	2873.87
478.455	2997.7
478.827	3013.52
479.198	3184.82
479.569	3206.06
479.94	3340.52
480.311	3397.47
480.682	3511.59
481.053	3581.64
481.424	3681.3
481.795	3793.16
482.166	3916.1
482.537	4008.07
482.908	4070.9
483.279	4220.95
483.65	4327.61
484.021	4433.37
484.391	4552.92
484.762	4655.97
485.133	4714.49
485.503	4869.74
485.874	5071.77
486.244	5127.82
486.615	5317.64
486.985	5406.45
487.356	5537.75
487.726	5710.85
488.097	5856.16
488.467	5945.65
488.837	6112.2
489.207	6272.87
489.578	6399.65
489.948	6572.3
490.318	6722.35
490.688	6837.15
491.058	6997.37
491.428	7099.97
491.798	7331.15
492.168	7480.3
492.538	7636.9
492.908	7725.49
493.278	7950.34
493.648	7998.25
494.017	8184.91
494.387	8330.67
494.757	8442.08
495.126	8629.42
495.496	8657.22
495.866	8870.09
496.235	9002.52
496.605	9154.6
496.974	9275.05
497.344	9413.81
497.713	9549.17
498.082	9634.37
498.452	9812.67
498.821	9924.08
499.19	10063.96
499.559	10208.59
499.928	10263.5
500.298	10351.41
500.667	10537.39
501.036	10559.31
501.405	10771.51
501.774	10705.3
502.143	10941.22
502.512	11052.41
502.88	11114.55
503.249	11181.22
503.618	11271.61
503.987	11408.78
504.356	11482.23
504.724	11633.18
505.093	11595.9
505.462	11680.87
505.83	11854.42
506.199	11952.04
506.567	12074.3
506.936	12116.79
507.304	12206.73
507.672	12351.13
508.041	12378.25
508.409	12460.96
508.777	12588.64
509.145	12662.76
509.514	12655.53
509.882	12806.94
510.25	12784.56
510.618	12904.56
510.986	12909.53
511.354	13076.08
511.722	13169.19
512.09	13278.56
512.458	13242.86
512.826	13301.16
513.193	13390.2
513.561	13385.91
513.929	13453.25
514.297	13624.77
514.664	13727.14
515.032	13700.93
515.4	13803.52
515.767	13800.81
516.135	13884.42
516.502	13749.74
516.869	13941.37
517.237	14094.14
517.604	13931.43
517.972	14040.58
518.339	14113.12
518.706	14080.8
519.073	14204.64
519.44	14228.14
519.808	14360.34
520.175	14361.25
520.542	14436.05
520.909	14576.61
521.276	14499.77
521.643	14547
522.009	14586.33
522.376	14656.61
522.743	14654.8
523.11	14742.48
523.477	14843.95
523.843	14854.57
524.21	14945.41
524.577	15021.79
524.943	15070.61
525.31	15031.29
525.676	15114.45
526.043	15242.58
526.409	15215.24
526.776	15285.97
527.142	15264.5
527.508	15316.25
527.874	15348.79
528.241	15355.12
528.607	15381.11
528.973	15370.03
529.339	15344.27
529.705	15506.53
530.071	15540.88
530.437	15497.71
530.803	15581.55
531.169	15555.79
531.535	15434.21
531.901	15434.44
532.267	15592.63
532.632	15587.43
532.998	15434.89
533.364	15498.17
533.73	15492.74
534.095	15599.18
534.461	15590.82
534.826	15629.91
535.192	15592.4
535.557	15625.39
535.923	15567.77
536.288	15558.5
536.653	15520.99
537.019	15474.66
537.384	15513.53
537.749	15491.16
538.114	15359.86
538.479	15387.66
538.845	15372.07
539.21	15294.78
539.575	15280.54
539.94	15376.36
540.305	15378.62
540.67	15248.68
541.034	15298.85
541.399	15367.1
541.764	15240.77
542.129	15186.08
542.494	15199.42
542.858	15194.22
543.223	15100.44
543.587	15092.53
543.952	15106.99
544.316	15057.5
544.681	15048.01
545.045	15007.33
545.41	15005.75
545.774	15024.96
546.138	14915.58
546.503	14885.07
546.867	14856.15
547.231	14968.46
547.595	14838.75
547.959	14817.28
548.324	14802.82
548.688	14782.93
549.052	14795.59
549.416	14657.28
549.779	14683.95
550.143	14638.3
550.507	14637.62
550.871	14659.77
551.235	14592.65
551.599	14636.95
551.962	14595.59
552.326	14541.35
552.689	14657.74
553.053	14499.55
553.417	14466.1
553.78	14561.24
554.143	14435.14
554.507	14434.69
554.87	14412.77
555.234	14485.76
555.597	14345.88
555.96	14381.36
556.323	14386.1
556.686	14301.14
557.05	14333
557.413	14442.83
557.776	14395.82
558.139	14421.58
558.502	14381.13
558.865	14371.19
559.228	14326.22
559.59	14365.77
559.953	14305.88
560.316	14424.52
560.679	14414.35
561.041	14354.02
561.404	14414.58
561.767	14455.26
562.129	14399.66
562.492	14495.03
562.854	14473.33
563.217	14363.28
563.579	14399.66
563.941	14469.27
564.304	14529.38
564.666	14600.56
565.028	14597.85
565.39	14503.16
565.753	14548.81
566.115	14646.66
566.477	14637.4
566.839	14654.57
567.201	14717.62
567.563	14607.34
567.925	14707.45
568.287	14773.89
568.648	14710.16
569.01	14736.83
569.372	14882.14
569.734	14749.49
570.095	14827
570.457	14836.49
570.819	14832.42
571.18	14768.92
571.542	14880.78
571.903	14884.4
572.265	14807.79
572.626	14884.62
572.987	14862.02
573.349	14883.94
573.71	14976.37
574.071	15032.19
574.432	14887.56
574.794	14924.62
575.155	15022.25
575.516	14956.03
575.877	15015.01
576.238	14930.27
576.599	15048.23
576.96	14946.77
577.32	14971.85
577.681	15010.5
578.042	15098.4
578.403	14993.32
578.763	15033.32
579.124	15068.57
579.485	15111.28
579.845	15085.07
580.206	15054.79
580.566	15005.3
580.927	15045.07
581.287	15125.52
581.648	15105.86
582.008	15096.14
582.368	15095.01
582.728	15085.3
583.089	15014.56
583.449	15155.8
583.809	15045.75
584.169	15091.62
584.529	14931.4
584.889	15119.87
585.249	14979.76
585.609	15009.82
585.969	15012.98
586.329	14970.04
586.688	14975.02
587.048	14958.07
587.408	14899.31
587.768	14948.35
588.127	14990.38
588.487	14885.07
588.846	15009.82
589.206	14881.01
589.565	14879.65
589.925	14897.96
590.284	14866.54
590.643	14816.83
591.003	14896.83
591.362	14867
591.721	14872.87
592.08	14879.65
592.44	14850.73
592.799	14902.93
593.158	14881.01
593.517	14871.97
593.876	14885.53
594.235	14747.68
594.593	14853.21
594.952	14768.92
595.311	14725.98
595.67	14774.12
596.029	14826.32
596.387	14777.96
596.746	14826.55
597.104	14678.75
597.463	14756.49
597.822	14864.28
598.18	14670.17
598.538	14735.25
598.897	14754
599.255	14688.24
599.613	14772.76
599.972	14710.39
600.33	14793.55
600.688	14769.37
601.046	14820.67
601.404	14760.11
601.762	14759.88
602.12	14824.29
602.478	14775.7
602.836	14829.71
603.194	14750.16
603.552	14861.35
603.91	14776.38
604.268	14749.71
604.625	14725.3
604.983	14805.08
605.341	14679.43
605.698	14768.47
606.056	14747
606.413	14853.21
606.771	14774.12
607.128	14886.66
607.485	14729.82
607.843	14782.48
608.2	14898.86
608.557	14831.74
608.914	14857.28
609.272	14934.56
609.629	14850.05
609.986	14937.28
610.343	14837.62
610.7	15026.99
611.057	14940.44
611.414	14896.83
611.771	14923.72
612.127	14928.24
612.484	14966.65
612.841	15043.71
613.198	14955.58
613.554	14964.17
613.911	14973.66
614.267	15096.14
614.624	15062.25
614.98	15050.27
615.337	15109.93
615.693	15056.37
616.05	15047.56
616.406	15305.4
616.762	15080.32
617.118	15117.16
617.475	15159.42
617.831	15244.16
618.187	15210.49
618.543	15230.83
618.899	15300.21
619.255	15227.89
619.611	15188.34
619.967	15274.44
620.323	15380.88
620.678	15286.42
621.034	15201.45
621.39	15138.18
621.746	15093.2
622.101	15325.52
622.457	15138.85
622.812	15180.21
623.168	15278.74
623.523	15207.1
623.879	15295.69
624.234	15245.29
624.589	15154.67
624.945	15182.69
625.3	15241.9
625.655	15305.4
626.01	15193.77
626.365	15256.82
626.72	15261.34
627.075	15324.39
627.43	15236.93
627.785	15215.24
628.14	15354.67
628.495	15346.31
628.85	15309.92
629.205	15080.55
629.559	15197.83
629.914	15146.31
630.269	15168.46
630.623	15119.19
630.978	15117.84
631.332	15160.55
631.687	15207.33
632.041	15013.66
632.396	15106.76
632.75	14961.23
633.104	15062.7
633.459	15029.7
633.813	15029.25
634.167	15033.09
634.521	14963.72
634.875	15001.91
635.229	14945.41
635.583	14884.85
635.937	14875.36
636.291	14916.94
636.645	14904.96
636.999	14806.88
637.352	14898.18
637.706	14810.73
638.06	14843.04
638.413	14848.24
638.767	14794.46
639.121	14785.64
639.474	14685.98
639.828	14721.01
640.181	14739.77
640.534	14827.22
640.888	14799.65
641.241	14621.13
641.594	14674.91
641.947	14759.88
642.301	14583.84
642.654	14609.83
643.007	14721.69
643.36	14661.8
643.713	14634.91
644.066	14701.8
644.419	14585.87
644.771	14520.34
645.124	14309.72
645.477	14389.27
645.83	14227.24
646.182	14199.89
646.535	14136.39
646.888	14201.48
647.24	14072.21
647.593	14213.91
647.945	14216.62
648.298	14151.08
648.65	14070.41
649.002	14043.97
649.355	14141.82
649.707	14065.44
650.059	14133.91
650.411	14350.63
650.763	14383.39
651.115	14510.85
651.467	14414.13
651.819	14454.58
652.171	14455.48
652.523	14467.46
652.875	14348.14
653.227	14299.55
653.578	14516.27
653.93	14466.33
654.282	14495.48
654.633	14368.25
654.985	14452.09
655.337	14424.52
655.688	14432.66
656.039	14536.61
656.391	14330.06
656.742	14451.41
657.094	14489.6
657.445	14452.77
657.796	14437.4
658.147	14437.4
658.498	14331.42
658.849	14514.69
659.2	14482.37
659.551	14435.37
659.902	14513.56
660.253	14407.12
660.604	14460.23
660.955	14304.98
661.306	14415.71
661.656	14377.07
662.007	14460.23
662.358	14443.96
662.708	14443.05
663.059	14425.2
663.409	14358.08
663.76	14493.9
664.11	14493.9
664.461	14481.92
664.811	14495.71
665.161	14446.67
665.511	14388.14
665.862	14491.86
666.212	14554.24
666.562	14549.94
666.912	14485.99
667.262	14475.37
667.612	14441.24
667.962	14517.17
668.312	14458.65
668.662	14547.46
669.011	14548.13
669.361	14469.49
669.711	14437.63
670.06	14393.79
670.41	14464.07
670.76	14411.87
671.109	14387.69
671.459	14343.17
671.808	14412.09
672.157	14396.73
672.507	14343.39
672.856	14406.9
673.205	14358.53
673.554	14432.21
673.904	14275.15
674.253	14448.25
674.602	14361.92
674.951	14096.39
675.3	14028.15
675.649	14321.7
675.998	14317.18
676.346	14218.2
676.695	14273.57
677.044	14220.01
677.393	14298.65
677.741	14259.1
678.09	14241.25
678.438	14168.48
678.787	14171.42
679.135	14167.35
679.484	14013.69
679.832	14125.55
680.181	14013.69
680.529	14037.64
680.877	14020.01
681.225	13928.72
681.573	14097.75
681.922	13961.26
682.27	13855.05
682.618	13887.59
682.966	13870.41
683.314	13878.77
683.661	13854.14
684.009	13817.08
684.357	13794.48
684.705	13805.56
685.053	13682.62
685.4	13798.32
685.748	13708.38
686.095	13645.56
686.443	13566.47
686.79	13574.37
687.138	13621.38
687.485	13531.44
687.832	13525.34
688.18	13539.35
688.527	13442.85
688.874	13374.83
689.221	13299.35
689.568	13352.69
689.915	13328.28
690.262	13283.99
690.609	13237.89
690.956	13145.91
691.303	13162.86
691.65	13126.7
691.997	13070.43
692.344	13034.73
692.69	12953.37
693.037	13012.13
693.383	12881.29
693.73	12930.1
694.077	12807.16
694.423	12828.63
694.769	12768.97
695.116	12588.19
695.462	12763.55
695.808	12560.16
696.155	12691.46
696.501	12551.8
696.847	12514.74
697.193	12419.15
697.539	12485.82
697.885	12368.3
698.231	12355.65
698.577	12364.46
698.923	12297.35
699.269	12206.5
699.614	12200.17
699.96	12124.47
700.306	12096.45
700.651	11997.69
700.997	11974.87
701.342	11922.89
701.688	11912.95
702.033	11953.63
702.379	11868.2
702.724	11851.03
703.069	11831.82
703.415	11729.23
703.76	11694.2
704.105	11756.12
704.45	11559.06
704.795	11589.34
705.14	11548.44
705.485	11507.76
705.83	11476.8
706.175	11508.89
706.52	11359.07
706.865	11346.86
707.209	11366.52
707.554	11291.95
707.899	11339.41
708.243	11195
708.588	11249.69
708.932	11157.49
709.277	11119.3
709.621	11179.18
709.966	11058.96
710.31	11062.12
710.654	10947.55
710.998	11014.89
711.342	10983.03
711.687	10937.16
712.031	10827.33
712.375	10908.91
712.719	10907.33
713.063	10816.03
713.407	10813.54
713.75	10819.64
714.094	10739.42
714.438	10693.55
714.782	10739.87
715.125	10720.21
715.469	10619.88
715.812	10637.5
716.156	10592.76
716.499	10586.43
716.843	10623.94
717.186	10484.06
717.53	10603.38
717.873	10578.75
718.216	10493.33
718.559	10521.8
718.902	10425.76
719.246	10499.88
719.589	10327.68
719.932	10399.54
720.275	10361.13
720.617	10425.3
720.96	10355.7
721.303	10349.83
721.646	10333.33
721.989	10355.02
722.331	10362.71
722.674	10294.46
723.016	10326.32
723.359	10271.41
723.701	10340.79
724.044	10300.11
724.386	10188.93
724.729	10234.35
725.071	10271.41
725.413	10227.34
725.755	10239.32
726.097	10178.76
726.439	10144.41
726.782	10143.5
727.124	10250.17
727.465	10208.81
727.807	10085.88
728.149	10180.79
728.491	10137.4
728.833	10150.51
729.175	10043.62
729.516	10106.9
729.858	10096.5
730.199	10123.39
730.541	10089.27
730.882	10118.87
731.224	10053.11
731.565	10089.04
731.906	10052.21
732.248	10089.72
732.589	10034.13
732.93	10048.37
733.271	10066.44
733.612	10105.77
733.953	10083.39
734.294	10037.07
734.635	10068.7
734.976	10074.81
735.317	10066.67
735.658	10032.32
735.999	10054.69
736.339	10038.42
736.68	10109.61
737.021	10144.41
737.361	10040.91
737.702	10056.28
738.042	10093.11
738.383	10119.55
738.723	10128.14
739.063	10172.88
739.404	10160.68
739.744	10176.27
740.084	10116.84
740.424	10137.18
740.764	10181.02
741.104	10148.02
741.444	10125.88
741.784	10193.9
742.124	10240.45
742.464	10219.66
742.804	10214.92
743.143	10274.12
743.483	10258.3
743.823	10273.67
744.162	10277.06
744.502	10423.72
744.841	10331.97
745.181	10443.84
745.52	10434.12
745.86	10534.23
746.199	10531.97
746.538	10603.61
746.877	10648.58
747.216	10656.49
747.556	10771.51
747.895	10747.1
748.234	10778.06
748.573	10829.81
748.911	10825.29
749.25	10934.44
749.589	10972.41
749.928	11084.04
750.267	11223.7
750.605	11291.5
750.944	11354.32
751.283	11365.85
751.621	11438.84
751.96	11524.49
752.298	11647.87
752.636	11760.86
752.975	11766.74
753.313	11903.46
753.651	11967.86
753.989	12101.19
754.327	12284.69
754.666	12377.12
755.004	12488.3
755.342	12685.58
755.679	12762.42
756.017	12825.69
