Data from hue_190_FLMS001491_00041.txt Node
Date: Tue Feb 07 16:45:19 GMT 2017
User: dcchb
Spectrometer: FLMS00149
Trigger mode: 0
Integration Time (sec): 2.000000E-2
Scans to average: 10
Electric dark correction enabled: true
Nonlinearity correction enabled: false
Boxcar width: 0
XAxis mode: Wavelengths
Number of Pixels in Spectrum: 2048
>>>>>Begin Spectral Data<<<<<
341.393	-6.98
341.776	-6.98
342.16	-6.98
342.543	-55.79
342.927	-61.67
343.31	-90.82
343.693	-72.06
344.077	-83.81
344.46	-52.4
344.843	-52.4
345.226	-32.74
345.61	-29.58
345.993	-13.3
346.376	8.62
346.759	18.33
347.142	37.09
347.525	48.16
347.908	53.36
348.291	73.7
348.674	78.9
349.057	108.95
349.44	128.39
349.823	154.15
350.206	175.16
350.588	193.02
350.971	212
351.354	214.26
351.737	245.22
352.119	251.77
352.502	279.34
352.884	266.69
353.267	285.44
353.65	275.28
354.032	300.81
354.414	301.26
354.797	329.29
355.179	314.14
355.562	304.43
355.944	328.38
356.326	316.63
356.709	339
357.091	321.38
357.473	357.08
357.855	334.93
358.238	341.04
358.62	342.84
359.002	341.26
359.384	340.36
359.766	337.42
360.148	335.16
360.53	325.44
360.912	339.91
361.294	336.97
361.676	335.16
362.057	313.24
362.439	333.35
362.821	331.32
363.203	355.95
363.584	333.35
363.966	321.83
364.348	315.5
364.729	317.53
365.111	328.38
365.493	317.99
365.874	327.03
366.256	315.95
366.637	316.63
367.019	313.47
367.4	297.87
367.781	329.29
368.163	316.86
368.544	305.33
368.925	302.85
369.306	331.09
369.688	315.95
370.069	306.23
370.45	297.87
370.831	317.76
371.212	311.66
371.593	334.71
371.974	317.76
372.355	304.2
372.736	320.7
373.117	318.21
373.498	309.85
373.879	334.26
374.26	341.71
374.641	307.59
375.021	315.05
375.402	324.99
375.783	327.7
376.163	310.98
376.544	317.53
376.925	330.64
377.305	322.96
377.686	339.23
378.066	321.15
378.447	344.2
378.827	317.99
379.208	319.12
379.588	334.93
379.968	332
380.349	327.7
380.729	338.32
381.109	344.43
381.489	332.22
381.87	317.53
382.25	337.19
382.63	339.45
383.01	342.62
383.39	356.86
383.77	333.58
384.15	324.77
384.53	330.42
384.91	340.58
385.29	364.09
385.67	346.46
386.049	356.18
386.429	356.63
386.809	354.37
387.189	355.27
387.568	344.2
387.948	370.41
388.328	353.01
388.707	361.6
389.087	334.26
389.466	374.48
389.846	353.92
390.225	361.6
390.605	370.64
390.984	360.24
391.363	365.44
391.743	374.48
392.122	376.06
392.501	391.66
392.881	376.74
393.26	375.84
393.639	399.11
394.018	369.51
394.397	369.06
394.776	385.78
395.155	393.92
395.534	393.24
395.913	389.4
396.292	390.3
396.671	401.83
397.05	393.46
397.429	400.47
397.808	394.82
398.186	383.75
398.565	360.47
398.944	410.19
399.323	400.92
399.701	416.06
400.08	406.57
400.458	414.48
400.837	419.45
401.215	429.4
401.594	412.9
401.972	440.47
402.351	420.81
402.729	405.44
403.107	432.79
403.486	426.23
403.864	417.87
404.242	440.24
404.62	449.73
404.999	424.42
405.377	441.6
405.755	444.54
406.133	462.61
406.511	466.23
406.889	463.07
407.267	463.74
407.645	469.17
408.023	466.46
408.401	459.23
408.779	486.8
409.156	506
409.534	497.87
409.912	512.78
410.29	505.1
410.667	533.35
411.045	531.77
411.422	541.48
411.8	546
412.178	537.19
412.555	558.88
412.933	547.81
413.31	581.03
413.687	580.8
414.065	596.4
414.442	571.54
414.819	591.88
415.197	610.63
415.574	623.97
415.951	646.56
416.328	623.51
416.705	624.64
417.082	628.26
417.46	643.4
417.837	670.52
418.214	673.68
418.591	702.83
418.967	684.98
419.344	684.76
419.721	698.09
420.098	712.78
420.475	736.28
420.852	735.15
421.228	741.7
421.605	753.91
421.982	769.95
422.358	765.88
422.735	811.31
423.111	810.18
423.488	809.27
423.864	817.63
424.241	861.02
424.617	862.15
424.994	872.1
425.37	877.07
425.746	894.02
426.123	909.16
426.499	889.72
426.875	933.56
427.251	965.88
427.627	972.88
428.003	979.66
428.379	968.82
428.756	971.75
429.132	997.97
429.507	1020.11
429.883	1014.24
430.259	1049.94
430.635	1042.94
431.011	1068.93
431.387	1076.61
431.763	1087.91
432.138	1109.15
432.514	1129.26
432.89	1125.42
433.265	1153.67
433.641	1177.62
434.016	1189.38
434.392	1234.8
434.767	1264.18
435.143	1251.75
435.518	1272.54
435.894	1285.87
436.269	1342.37
436.644	1385.53
437.02	1379.65
437.395	1404.96
437.77	1420.33
438.145	1426.43
438.52	1461.23
438.895	1463.72
439.271	1502.81
439.646	1556.6
440.021	1532.87
440.395	1571.06
440.77	1586.2
441.145	1593.66
441.52	1631.85
441.895	1633.43
442.27	1654.9
442.645	1643.15
443.019	1707.78
443.394	1683.6
443.769	1738.51
444.143	1726.54
444.518	1763.82
444.892	1764.05
445.267	1810.38
445.641	1799.98
446.016	1805.63
446.39	1839.75
446.764	1838.85
447.139	1844.95
447.513	1852.63
447.887	1898.28
448.262	1904.61
448.636	1913.65
449.01	1947.77
449.384	1950.03
449.758	2004.72
450.132	2010.14
450.506	2022.8
450.88	2027.55
451.254	2049.92
451.628	2060.31
452.002	2125.62
452.376	2135.34
452.75	2117.71
453.123	2129.92
453.497	2206.3
453.871	2182.57
454.244	2242.23
454.618	2244.49
454.992	2299.63
455.365	2284.26
455.739	2368.55
456.112	2340.08
456.486	2366.97
456.859	2417.59
457.232	2469.79
457.606	2470.25
457.979	2489.68
458.352	2543.69
458.725	2567.64
459.099	2530.36
459.472	2630.47
459.845	2666.62
460.218	2671.6
460.591	2697.81
460.964	2692.84
461.337	2773.51
461.71	2827.07
462.083	2831.82
462.456	2881.99
462.829	2857.58
463.201	2940.52
463.574	2983.9
463.947	3015.32
464.32	3084.47
464.692	3115.88
465.065	3135.99
465.438	3178.7
465.81	3243.56
466.183	3240.85
466.555	3324.01
466.928	3315.87
467.3	3341.86
467.672	3427.73
468.045	3536.66
468.417	3493.04
468.789	3550.22
469.161	3616.2
469.534	3643.1
469.906	3742.3
470.278	3740.72
470.65	3776.65
471.022	3862.3
471.394	3945.01
471.766	3973.48
472.138	3993.6
472.51	4098.23
472.882	4170.77
473.253	4261.16
473.625	4289.86
473.997	4374.38
474.369	4400.36
474.74	4452.57
475.112	4556.74
475.484	4620.7
475.855	4693.46
476.227	4734.59
476.598	4842.16
476.97	4910.63
477.341	5031.76
477.713	5094.13
478.084	5125.77
478.455	5254.35
478.827	5293.22
479.198	5460
479.569	5485.53
479.94	5591.52
480.311	5697.28
480.682	5800.1
481.053	5957.16
481.424	5984.05
481.795	6089.81
482.166	6136.59
482.537	6261.56
482.908	6377.71
483.279	6493.19
483.65	6542
484.021	6701.77
484.391	6844.82
484.762	6822
485.133	6911.26
485.503	7007.98
485.874	7141.31
486.244	7280.29
486.615	7403.45
486.985	7483.9
487.356	7644.8
487.726	7652.48
488.097	7804.12
488.467	7845.25
488.837	8002.53
489.207	8086.14
489.578	8163.2
489.948	8271.45
490.318	8420.15
490.688	8375.85
491.058	8538.11
491.428	8605
491.798	8742.62
492.168	8803.41
492.538	8957.53
492.908	8987.59
493.278	9134.93
493.648	9079.11
494.017	9227.58
494.387	9336.96
494.757	9379.22
495.126	9466.45
495.496	9492.43
495.866	9477.29
496.235	9579.66
496.605	9662.83
496.974	9787.57
497.344	9889.49
497.713	9878.86
498.082	9882.25
498.452	10044.96
498.821	10044.74
499.19	10022.36
499.559	10187.78
499.928	10169.48
500.298	10169.25
500.667	10259.65
501.036	10277.27
501.405	10328.12
501.774	10406.53
502.143	10384.84
502.512	10407.44
502.88	10540.32
503.249	10512.07
503.618	10544.38
503.987	10622.12
504.356	10630.03
504.724	10626.19
505.093	10686.53
505.462	10649.92
505.83	10746.86
506.199	10722.23
506.567	10883.81
506.936	10865.28
507.304	10939.85
507.672	10973.3
508.041	10955.22
508.409	11029.79
508.777	11094.88
509.145	11015.11
509.514	11079.74
509.882	11112.5
510.25	11082.67
510.618	11118.61
510.986	11175.33
511.354	11248.77
511.722	11274.76
512.09	11354.31
512.458	11272.5
512.826	11338.94
513.193	11309.34
513.561	11310.92
513.929	11403.12
514.297	11485.38
514.664	11474.3
515.032	11465.49
515.4	11521.31
515.767	11499.84
516.135	11526.05
516.502	11444.25
516.869	11622.77
517.237	11582.77
517.604	11500.52
517.972	11531.93
518.339	11672.26
518.706	11581.64
519.073	11548.65
519.44	11568.31
519.808	11608.99
520.175	11523.79
520.542	11686.27
520.909	11719.95
521.276	11656.44
521.643	11661.64
522.009	11668.87
522.376	11728.76
522.743	11623.45
523.11	11789.55
523.477	11740.51
523.843	11782.09
524.21	11802.66
524.577	11869.77
524.943	11773.28
525.31	11831.81
525.676	11901.41
526.043	11872.71
526.409	11796.33
526.776	11843.11
527.142	11884.46
527.508	11830.23
527.874	11812.37
528.241	11846.04
528.607	11799.49
528.973	11895.08
529.339	11718.36
529.705	11792.94
530.071	11772.37
530.437	11779.15
530.803	11773.96
531.169	11800.4
531.535	11666.16
531.901	11640.4
532.267	11613.73
532.632	11627.75
532.998	11602.66
533.364	11648.76
533.73	11500.29
534.095	11489.44
534.461	11471.14
534.826	11509.33
535.192	11456.45
535.557	11434.3
535.923	11357.02
536.288	11322.67
536.653	11325.83
537.019	11234.54
537.384	11253.74
537.749	11252.39
538.114	11178.72
538.479	11114.09
538.845	11108.44
539.21	10976.46
539.575	11037.48
539.94	10969.91
540.305	10947.99
540.67	10924.49
541.034	10836.58
541.399	10790.93
541.764	10695.34
542.129	10731.72
542.494	10651.5
542.858	10581.44
543.223	10517.27
543.587	10534.67
543.952	10430.04
544.316	10381.68
544.681	10340.1
545.045	10344.16
545.41	10243.6
545.774	10309.14
546.138	10121.12
546.503	10131.74
546.867	10112.98
547.231	10111.63
547.595	10008.58
547.959	9975.13
548.324	9922.48
548.688	9898.53
549.052	9838.87
549.416	9801.13
549.779	9715.48
550.143	9713.22
550.507	9673.22
550.871	9681.13
551.235	9578.31
551.599	9608.14
551.962	9511.64
552.326	9504.86
552.689	9441.81
553.053	9393.23
553.417	9341.93
553.78	9410.63
554.143	9335.15
554.507	9332.89
554.87	9230.97
555.234	9320.91
555.597	9191.88
555.96	9177.64
556.323	9179.67
556.686	9096.06
557.05	9080.24
557.413	9072.56
557.776	9038.43
558.139	9014.48
558.502	8989.17
558.865	8915.5
559.228	9028.27
559.59	8950.3
559.953	8921.38
560.316	8970.87
560.679	8873.92
561.041	8874.82
561.404	8884.54
561.767	8873.02
562.129	8759.35
562.492	8827.37
562.854	8776.97
563.217	8775.62
563.579	8843.19
563.941	8793.47
564.304	8790.53
564.666	8792.11
565.028	8774.26
565.39	8749.63
565.753	8776.52
566.115	8764.77
566.477	8776.52
566.839	8737.43
567.201	8764.32
567.563	8755.5
567.925	8805.22
568.287	8764.54
568.648	8712.57
569.01	8716.64
569.372	8732.91
569.734	8749.18
570.095	8725.9
570.457	8777.42
570.819	8839.34
571.18	8770.42
571.542	8721.61
571.903	8775.16
572.265	8787.14
572.626	8721.61
572.987	8713.7
573.349	8715.51
573.71	8739.91
574.071	8686.81
574.432	8778.78
574.794	8753.47
575.155	8785.79
575.516	8755.73
575.877	8687.71
576.238	8709.63
576.599	8724.77
576.96	8694.94
577.32	8731.55
577.681	8757.76
578.042	8747.14
578.403	8726.35
578.763	8762.06
579.124	8718.67
579.485	8698.78
579.845	8737.43
580.206	8631.67
580.566	8718.9
580.927	8642.96
581.287	8709.18
581.648	8662.63
582.008	8740.36
582.368	8668.73
582.728	8636.64
583.089	8634.38
583.449	8620.37
583.809	8646.35
584.169	8638.22
584.529	8595.73
584.889	8598.67
585.249	8655.39
585.609	8525.91
585.969	8665.34
586.329	8567.71
586.688	8564.1
587.048	8590.08
587.408	8564.77
587.768	8511.67
588.127	8487.26
588.487	8482.74
588.846	8525
589.206	8495.85
589.565	8448.85
589.925	8506.25
590.284	8509.86
590.643	8567.71
591.003	8478.68
591.362	8506.02
591.721	8457.43
592.08	8468.28
592.44	8427.15
592.799	8446.59
593.158	8357.77
593.517	8442.07
593.876	8418.56
594.235	8346.02
594.593	8371.11
594.952	8327.27
595.311	8337.66
595.67	8342.86
596.029	8376.08
596.387	8305.12
596.746	8393.71
597.104	8332.01
597.463	8288.62
597.822	8374.27
598.18	8330.66
598.538	8321.62
598.897	8309.87
599.255	8259.47
599.613	8344.22
599.972	8284.1
600.33	8350.32
600.688	8255.18
601.046	8275.74
601.404	8250.66
601.762	8313.03
602.12	8391.67
602.478	8315.29
602.836	8354.16
603.194	8312.35
603.552	8296.99
603.91	8257.44
604.268	8323.43
604.625	8224.67
604.983	8302.41
605.341	8246.37
605.698	8243.88
606.056	8285.46
606.413	8249.75
606.771	8275.74
607.128	8312.35
607.485	8273.26
607.843	8251.56
608.2	8287.72
608.557	8322.07
608.914	8314.61
609.272	8272.58
609.629	8300.37
609.986	8344.44
610.343	8304.44
610.7	8348.74
611.057	8343.99
611.414	8268.96
611.771	8304.89
612.127	8339.02
612.484	8360.49
612.841	8367.04
613.198	8311.45
613.554	8359.81
613.911	8381.5
614.267	8362.52
614.624	8411.33
614.98	8386.02
615.337	8383.08
615.693	8322.3
616.05	8395.51
616.406	8407.49
616.762	8387.38
617.118	8413.59
617.475	8372.24
617.831	8376.31
618.187	8447.94
618.543	8419.69
618.899	8418.79
619.255	8430.77
619.611	8402.97
619.967	8462.18
620.323	8394.16
620.678	8420.37
621.034	8394.84
621.39	8396.87
621.746	8345.57
622.101	8482.52
622.457	8417.43
622.812	8422.41
623.168	8493.59
623.523	8434.16
623.879	8450.43
624.234	8414.27
624.589	8433.25
624.945	8407.04
625.3	8428.28
625.655	8442.52
626.01	8449.07
626.365	8415.63
626.72	8376.31
627.075	8313.93
627.43	8356.42
627.785	8324.78
628.14	8430.54
628.495	8364.78
628.85	8365.46
629.205	8379.02
629.559	8397.77
629.914	8314.39
630.269	8313.71
630.623	8315.74
630.978	8275.74
631.332	8379.47
631.687	8314.84
632.041	8300.15
632.396	8261.96
632.75	8254.73
633.104	8266.48
633.459	8264.44
633.813	8266.93
634.167	8241.62
634.521	8278.45
634.875	8233.48
635.229	8226.7
635.583	8163.88
635.937	8191.9
636.291	8158.68
636.645	8208.17
636.999	8166.14
637.352	8208.63
637.706	8085.69
638.06	8178.12
638.413	8144.22
638.767	8139.7
639.121	8092.24
639.474	8001.17
639.828	8141.28
640.181	8096.99
640.534	8125.01
640.888	8045.24
641.241	8007.73
641.594	8041.4
641.947	8078.46
642.301	8029.2
642.654	8037.78
643.007	8044.56
643.36	8068.74
643.713	8019.7
644.066	7982.87
644.419	8001.17
644.771	7925.24
645.124	7844.12
645.477	7861.52
645.83	7831.01
646.182	7828.75
646.535	7789.43
646.888	7791.91
647.24	7747.4
647.593	7793.04
647.945	7738.36
648.298	7725.02
648.65	7684.12
649.002	7663.78
649.355	7710.56
649.707	7755.53
650.059	7732.03
650.411	7936.54
650.763	7906.26
651.115	7979.25
651.467	7970.89
651.819	7975.64
652.171	7971.12
652.523	7924.34
652.875	7870.56
653.227	7957.79
653.578	7931.8
653.93	7928.86
654.282	7891.57
654.633	7910.55
654.985	7917.56
655.337	7966.82
655.688	7922.76
656.039	7999.14
656.391	7929.76
656.742	7941.06
657.094	7948.75
657.445	7988.07
657.796	7965.92
658.147	7959.59
658.498	7919.59
658.849	7965.47
659.2	7978.12
659.551	7967.95
659.902	7960.04
660.253	7997.11
660.604	7966.15
660.955	7965.69
661.306	7977.45
661.656	8023.77
662.007	7946.71
662.358	7988.97
662.708	7974.51
663.059	8014.51
663.409	7971.8
663.76	8030.78
664.11	8033.72
664.461	8040.72
664.811	8038.46
665.161	8024.22
665.511	8027.39
665.862	8050.44
666.212	8087.27
666.562	8050.44
666.912	8044.11
667.262	8035.98
667.612	7989.42
667.962	8068.52
668.312	7990.78
668.662	8045.24
669.011	8062.42
669.361	8001.85
669.711	7998.46
670.06	8005.47
670.41	7937.45
670.76	7935.64
671.109	8009.76
671.459	7984.23
671.808	8013.15
672.157	8003.21
672.507	7856.09
672.856	7970.44
673.205	7961.63
673.554	7967.95
673.904	7979.25
674.253	7944.68
674.602	7967.73
674.951	7812.03
675.3	7842.99
675.649	7873.27
675.998	7814.51
676.346	7899.26
676.695	7935.41
677.044	7860.39
677.393	7882.98
677.741	7888.18
678.09	7873.49
678.438	7851.12
678.787	7804.79
679.135	7849.09
679.484	7818.81
679.832	7806.15
680.181	7720.73
680.529	7752.82
680.877	7751.69
681.225	7718.02
681.573	7777.22
681.922	7790.78
682.27	7653.84
682.618	7691.13
682.966	7714.63
683.314	7692.93
683.661	7648.87
684.009	7672.82
684.357	7576.1
684.705	7594.63
685.053	7634.18
685.4	7548.08
685.748	7581.75
686.095	7472.15
686.443	7527.74
686.79	7411.81
687.138	7481.64
687.485	7536.55
687.832	7433.51
688.18	7410
688.527	7442.32
688.874	7379.72
689.221	7236.45
689.568	7307.63
689.915	7333.17
690.262	7300.4
690.609	7279.61
690.956	7250.69
691.303	7256.11
691.65	7135.43
691.997	7235.77
692.344	7161.87
692.69	7169.78
693.037	7064.7
693.383	7039.17
693.73	7040.52
694.077	7025.83
694.423	7011.82
694.769	7003.23
695.116	6896.34
695.462	6920.98
695.808	6920.75
696.155	6932.05
696.501	6804.82
696.847	6792.17
697.193	6833.75
697.539	6791.26
697.885	6743.13
698.231	6749.23
698.577	6787.42
698.923	6732.51
699.269	6631.72
699.614	6631.27
699.96	6604.83
700.306	6610.48
700.651	6609.8
700.997	6557.37
701.342	6552.62
701.688	6500.2
702.033	6491.83
702.379	6470.14
702.724	6450.71
703.069	6420.65
703.415	6377.49
703.76	6392.63
704.105	6372.74
704.45	6338.62
704.795	6308.34
705.14	6318.51
705.485	6265.4
705.83	6291.39
706.175	6209.36
706.52	6202.13
706.865	6181.11
707.209	6212.52
707.554	6121.68
707.899	6170.26
708.243	6079.19
708.588	6097.04
708.932	6065.86
709.277	6039.87
709.621	6034.67
709.966	6034.45
710.31	6014.11
710.654	5998.74
710.998	5985.86
711.342	6015.01
711.687	5967.33
712.031	5957.84
712.375	5848.69
712.719	5862.47
713.063	5917.61
713.407	5931.85
713.75	5874
714.094	5848.91
714.438	5884.62
714.782	5832.64
715.125	5844.39
715.469	5881
715.812	5831.29
716.156	5823.38
716.499	5805.07
716.843	5789.71
717.186	5798.29
717.53	5745.19
717.873	5781.57
718.216	5812.53
718.559	5733.44
718.902	5769.37
719.246	5715.36
719.589	5687.11
719.932	5723.72
720.275	5642.82
720.617	5704.29
720.96	5626.55
721.303	5663.38
721.646	5713.78
721.989	5648.47
722.331	5669.71
722.674	5652.31
723.016	5664.51
723.359	5642.37
723.701	5652.08
724.044	5620.22
724.386	5588.58
724.729	5665.64
725.071	5586.1
725.413	5632.87
725.755	5591.52
726.097	5585.42
726.439	5564.63
726.782	5596.27
727.124	5605.08
727.465	5553.78
727.807	5587
728.149	5544.74
728.491	5564.63
728.833	5575.7
729.175	5541.13
729.516	5575.7
729.858	5605.76
730.199	5586.32
730.541	5549.94
730.882	5556.27
731.224	5583.84
731.565	5527.11
731.906	5594.91
732.248	5580.45
732.589	5543.16
732.93	5521.24
733.271	5556.49
733.612	5530.05
733.953	5607.11
734.294	5580.22
734.635	5562.59
734.976	5528.92
735.317	5558.53
735.658	5599.2
735.999	5584.51
736.339	5607.11
736.68	5631.52
737.021	5597.85
737.361	5612.76
737.702	5661.35
738.042	5637.39
738.383	5634.46
738.723	5667.9
739.063	5688.69
739.404	5644.85
739.744	5646.21
740.084	5655.25
740.424	5726.43
740.764	5692.99
741.104	5699.31
741.444	5749.48
741.784	5709.93
742.124	5736.83
742.464	5780.22
742.804	5806.88
743.143	5767.56
743.483	5885.52
743.823	5783.6
744.162	5856.82
744.502	5909.25
744.841	5888.46
745.181	5970.04
745.52	5960.78
745.86	6035.58
746.199	5995.58
746.538	6051.17
746.877	6092.52
747.216	6129.58
747.556	6194.67
747.895	6227.89
748.234	6298.39
748.573	6276.25
748.911	6296.81
749.25	6418.62
749.589	6499.29
749.928	6474.89
750.267	6621.1
750.605	6670.59
750.944	6716.24
751.283	6762.56
751.621	6925.72
751.96	6896.34
752.298	7009.56
752.636	7096.56
752.975	7174.53
753.313	7275.09
753.651	7420.62
753.989	7463.33
754.327	7585.82
754.666	7714.4
755.004	7904.23
755.342	7995.52
755.679	8126.14
756.017	8201.62
756.355	8405
756.693	8486.13
757.031	8650.42
757.368	8719.35
757.706	8911.88
758.044	9020.81
758.381	9290.18
758.719	9400.91
759.056	9581.92
759.394	9712.09
759.731	9814.23
760.068	10016.04
760.405	10160.89
760.743	10283.37
761.08	10461.22
761.417	10592.29
761.754	10832.96
762.091	11005.84
762.428	11171.03
762.765	11267.75
763.102	11536.9
763.438	11615.09
763.775	11850.56
764.112	12055.08
764.449	12230.22
764.785	12358.8
765.122	12556.99
765.458	12680.6
765.795	12855.28
766.131	12986.81
766.467	13185.9
