Data from hue_80_FLMS001491_49.txt Node
Date: Mon Feb 06 15:23:04 GMT 2017
User: dcchb
Spectrometer: FLMS00149
Trigger mode: 0
Integration Time (sec): 2.000000E-2
Scans to average: 10
Electric dark correction enabled: true
Nonlinearity correction enabled: false
Boxcar width: 0
XAxis mode: Wavelengths
Number of Pixels in Spectrum: 2048
>>>>>Begin Spectral Data<<<<<
341.393	-8.59
341.776	-8.59
342.16	-8.59
342.543	-61.92
342.927	-54.01
343.31	-63.73
343.693	-47.46
344.077	-55.59
344.46	-63.95
344.843	-56.72
345.226	-39.77
345.61	-23.95
345.993	-32.09
346.376	-15.37
346.759	0.45
347.142	35.93
347.525	46.33
347.908	44.97
348.291	78.87
348.674	91.97
349.057	100.11
349.44	125.65
349.823	122.48
350.206	143.5
350.588	206.32
350.971	213.55
351.354	228.47
351.737	234.57
352.119	228.92
352.502	252.65
352.884	274.8
353.267	273.89
353.65	293.1
354.032	286.09
354.414	309.14
354.797	304.4
355.179	315.7
355.562	307.34
355.944	320.44
356.326	314.57
356.709	327.45
357.091	325.64
357.473	334.68
357.855	318.18
358.238	343.04
358.62	332.87
359.002	345.3
359.384	343.49
359.766	363.15
360.148	332.65
360.53	356.83
360.912	312.76
361.294	326.55
361.676	322.7
362.057	321.8
362.439	333.32
362.821	327.9
363.203	324.74
363.584	312.31
363.966	326.55
364.348	317.28
364.729	299.65
365.111	317.73
365.493	324.51
365.874	325.87
366.256	310.95
366.637	320.9
367.019	313.89
367.4	288.58
367.781	303.04
368.163	315.25
368.544	308.47
368.925	301.46
369.306	301.46
369.688	307.34
370.069	312.76
370.45	327.45
370.831	308.92
371.212	289.71
371.593	316.83
371.974	319.09
372.355	317.05
372.736	308.24
373.117	326.09
373.498	311.86
373.879	314.79
374.26	318.41
374.641	319.77
375.021	305.3
375.402	322.7
375.783	311.4
376.163	332.19
376.544	319.77
376.925	329.26
377.305	325.42
377.686	315.02
378.066	330.39
378.447	331.06
378.827	349.37
379.208	328.58
379.588	341.91
379.968	324.96
380.349	325.87
380.729	322.25
381.109	334.23
381.489	295.13
381.87	338.52
382.25	311.86
382.63	348.69
383.01	322.25
383.39	329.71
383.77	336.26
384.15	345.75
384.53	357.5
384.91	334.91
385.29	331.29
385.67	343.27
386.049	350.73
386.429	340.33
386.809	346.21
387.189	348.24
387.568	343.27
387.948	350.5
388.328	343.72
388.707	351.4
389.087	348.92
389.466	354.34
389.846	364.51
390.225	363.15
390.605	372.42
390.984	363.83
391.363	336.49
391.743	354.34
392.122	354.79
392.501	380.33
392.881	341.69
393.26	341.46
393.639	352.31
394.018	391.4
394.397	367.67
394.776	357.73
395.155	384.17
395.534	365.19
395.913	371.52
396.292	389.14
396.671	376.26
397.05	381.23
397.429	364.74
397.808	406.32
398.186	400.22
398.565	379.65
398.944	377.17
399.323	390.95
399.701	375.81
400.08	380.78
400.458	398.41
400.837	378.52
401.215	392.08
401.594	385.98
401.972	403.83
402.351	414.68
402.729	422.36
403.107	403.83
403.486	406.09
403.864	405.87
404.242	397.73
404.62	395.7
404.999	399.99
405.377	419.42
405.755	411.51
406.133	404.06
406.511	419.65
406.889	417.84
407.267	426.66
407.645	409.93
408.023	439.31
408.401	442.25
408.779	432.08
409.156	438.63
409.534	433.21
409.912	430.27
410.29	439.99
410.667	431.4
411.045	450.16
411.422	456.26
411.8	440.44
412.178	475.02
412.555	454.68
412.933	480.21
413.31	465.75
413.687	468.91
414.065	473.43
414.442	464.39
414.819	467.33
415.197	504.17
415.574	463.04
415.951	465.07
416.328	457.39
416.705	484.51
417.082	484.73
417.46	494.9
417.837	496.94
418.214	486.54
418.591	482.93
418.967	511.4
419.344	507.78
419.721	525.86
420.098	512.75
420.475	538.52
420.852	534.68
421.228	524.05
421.605	526.54
421.982	498.52
422.358	526.31
422.735	519.08
423.111	551.85
423.488	539.42
423.864	549.82
424.241	539.42
424.617	558.18
424.994	553.66
425.37	555.47
425.746	562.92
426.123	568.57
426.499	548.01
426.875	564.96
427.251	595.46
427.627	571.96
428.003	587.33
428.379	596.37
428.756	578.29
429.132	601.11
429.507	599.53
429.883	607.89
430.259	609.93
430.635	634.79
431.011	617.38
431.387	631.62
431.763	662.36
432.138	655.58
432.514	644.05
432.89	662.13
433.265	648.12
433.641	668.91
434.016	690.15
434.392	657.84
434.767	690.6
435.143	663.49
435.518	682.92
435.894	728.34
436.269	683.82
436.644	703.03
437.02	728.79
437.395	723.14
437.77	727.44
438.145	712.75
438.52	735.35
438.895	713.43
439.271	758.62
439.646	751.84
440.021	752.75
440.395	742.58
440.77	754.33
441.145	753.88
441.52	766.53
441.895	778.51
442.27	784.84
442.645	775.12
443.019	792.97
443.394	804.27
443.769	784.16
444.143	790.94
444.518	803.37
444.892	821.22
445.267	830.49
445.641	813.31
446.016	837.27
446.39	833.42
446.764	822.8
447.139	837.27
447.513	853.76
447.887	831.16
448.262	855.34
448.636	827.1
449.01	854.67
449.384	861.45
449.758	869.81
450.132	889.92
450.506	875.01
450.88	907.77
451.254	908.22
451.628	906.42
452.002	921.78
452.376	950.03
452.75	910.48
453.123	933.99
453.497	942.35
453.871	963.36
454.244	951.84
454.618	951.84
454.992	986.41
455.365	993.19
455.739	1022.12
456.112	1012.85
456.486	1030.26
456.859	1043.81
457.232	1069.12
457.606	1057.15
457.979	1058.05
458.352	1084.04
458.725	1083.59
459.099	1071.84
459.472	1125.39
459.845	1128.56
460.218	1142.79
460.591	1159.74
460.964	1156.81
461.337	1181.21
461.71	1204.26
462.083	1221.89
462.456	1244.26
462.829	1231.83
463.201	1269.35
463.574	1262.34
463.947	1280.87
464.32	1309.8
464.692	1306.86
465.065	1367.42
465.438	1321.1
465.81	1385.27
466.183	1382.11
466.555	1405.84
466.928	1447.65
467.3	1439.51
467.672	1463.92
468.045	1517.7
468.417	1488.55
468.789	1504.82
469.161	1535.78
469.534	1578.49
469.906	1604.93
470.278	1645.38
470.65	1666.4
471.022	1678.37
471.394	1719.95
471.766	1764.7
472.138	1804.25
472.51	1838.6
472.882	1863.45
473.253	1904.58
473.625	1936.9
473.997	1976.45
474.369	1991.36
474.74	2019.83
475.112	2080.62
475.484	2142.54
475.855	2192.03
476.227	2242.88
476.598	2275.65
476.97	2342.54
477.341	2410.11
477.713	2463.89
478.084	2484.91
478.455	2602.87
478.827	2627.73
479.198	2686.03
479.569	2726.03
479.94	2864.56
480.311	2904.78
480.682	2984.78
481.053	3108.62
481.424	3214.15
481.795	3234.72
482.166	3365.11
482.537	3416.18
482.908	3536.63
483.279	3583.63
483.65	3698.43
484.021	3846
484.391	3942.72
484.762	3981.82
485.133	4093.68
485.503	4204.41
485.874	4317.63
486.244	4422.71
486.615	4591.52
486.985	4732.98
487.356	4857.5
487.726	4949.47
488.097	5110.15
488.467	5123.71
488.837	5344.94
489.207	5420.65
489.578	5560.08
489.948	5677.82
490.318	5776.12
490.688	5925.04
491.058	6106.73
491.428	6157.13
491.798	6318.93
492.168	6554.86
492.538	6607.74
492.908	6793.27
493.278	6899.93
493.648	6982.64
494.017	7138.57
494.387	7256.98
494.757	7385.57
495.126	7501.5
495.496	7646.58
495.866	7899.23
496.235	7939.23
496.605	8069.62
496.974	8225.55
497.344	8371.53
497.713	8477.07
498.082	8577.85
498.452	8724.29
498.821	8799.77
499.19	8959.99
499.559	9120.89
499.928	9204.28
500.298	9315.91
500.667	9441.33
501.036	9434.33
501.405	9662.57
501.774	9727.65
502.143	9844.49
502.512	9922.22
502.88	10086.97
503.249	10127.42
503.618	10279.73
503.987	10319.73
504.356	10474.3
504.724	10542.32
505.093	10599.27
505.462	10811.92
505.83	10896.44
506.199	10987.73
506.567	11177.11
506.936	11250.55
507.304	11346.14
507.672	11433.37
508.041	11538.91
508.409	11562.63
508.777	11721.5
509.145	11780.26
509.514	11857.54
509.882	11985.67
510.25	12002.85
510.618	12126.69
510.986	12146.35
511.354	12335.27
511.722	12399
512.09	12590.63
512.458	12523.51
512.826	12712.66
513.193	12679.89
513.561	12706.78
513.929	12914.91
514.297	12981.81
514.664	13024.97
515.032	13134.12
515.4	13231.52
515.767	13284.85
516.135	13330.5
516.502	13258.63
516.869	13546.31
517.237	13518.97
517.604	13546.76
517.972	13678.28
518.339	13789.47
518.706	13808
519.073	13841.44
519.44	13949.01
519.808	13985.17
520.175	14139.06
520.542	14222.9
520.909	14233.52
521.276	14231.04
521.643	14354.42
522.009	14487.3
522.376	14500.64
522.743	14505.61
523.11	14774.98
523.477	14801.87
523.843	14793.06
524.21	14908.08
524.577	15034.41
524.943	15148.53
525.31	15086.38
525.676	15237.57
526.043	15356.21
526.409	15384.45
526.776	15507.16
527.142	15563.21
527.508	15546.94
527.874	15654.05
528.241	15643.88
528.607	15725.46
528.973	15774.05
529.339	15686.37
529.705	15847.04
530.071	15925
530.437	16056.07
530.803	16039.35
531.169	16120.25
531.535	16007.26
531.901	16131.33
532.267	16065.11
532.632	16114.38
532.998	16173.13
533.364	16303.75
533.73	16264.43
534.095	16308.72
534.461	16418.55
534.826	16475.95
535.192	16411.09
535.557	16475.5
535.923	16409.74
536.288	16552.79
536.653	16536.74
537.019	16434.37
537.384	16486.57
537.749	16560.69
538.114	16523.63
538.479	16492.45
538.845	16563.63
539.21	16409.29
539.575	16551.66
539.94	16495.39
540.305	16618.55
540.67	16564.31
541.034	16584.42
541.399	16585.55
541.764	16567.93
542.129	16680.47
542.494	16589.62
542.858	16571.54
543.223	16606.57
543.587	16714.81
543.952	16583.07
544.316	16625.55
544.681	16549.62
545.045	16515.72
545.41	16629.62
545.774	16576.06
546.138	16627.36
546.503	16685.44
546.867	16524.76
547.231	16696.28
547.595	16584.2
547.959	16597.3
548.324	16662.84
548.688	16691.31
549.052	16662.39
549.416	16563.41
549.779	16610.41
550.143	16544.65
550.507	16637.08
550.871	16675.49
551.235	16648.6
551.599	16715.27
551.962	16642.27
552.326	16725.66
552.689	16741.71
553.053	16671.88
553.417	16581.03
553.78	16840.24
554.143	16675.95
554.507	16677.98
554.87	16721.82
555.234	16816.28
555.597	16660.13
555.96	16676.17
556.323	16758.2
556.686	16714.36
557.05	16844.98
557.413	16891.53
557.776	16733.8
558.139	16875.49
558.502	16863.06
558.865	16913.23
559.228	17028.48
559.59	16963.85
559.953	16972.21
560.316	17119.1
560.679	17075.71
561.041	17127.69
561.404	17159.55
561.767	17152.77
562.129	17169.94
562.492	17293.56
562.854	17265.31
563.217	17278.64
563.579	17221.69
563.941	17359.32
564.304	17472.99
564.666	17469.6
565.028	17398.86
565.39	17437.96
565.753	17495.81
566.115	17612.64
566.477	17586.2
566.839	17651.29
567.201	17698.07
567.563	17705.98
567.925	17807.89
568.287	17818.29
568.648	17779.42
569.01	17950.94
569.372	17908.23
569.734	17905.52
570.095	17999.98
570.457	18086.76
570.819	18100.54
571.18	18023.48
571.542	18101.44
571.903	18165.17
572.265	18186.41
572.626	18171.27
572.987	18278.39
573.349	18253.08
573.71	18270.93
574.071	18240.65
574.432	18333.3
574.794	18406.07
575.155	18315.68
575.516	18320.65
575.877	18360.2
576.238	18348.67
576.599	18481.77
576.96	18526.52
577.32	18434.54
577.681	18566.52
578.042	18570.81
578.403	18615.78
578.763	18553.64
579.124	18642
579.485	18631.37
579.845	18714.31
580.206	18619.17
580.566	18564.03
580.927	18612.84
581.287	18624.14
581.648	18667.53
582.008	18654.42
582.368	18574.43
582.728	18657.81
583.089	18625.27
583.449	18661.88
583.809	18586.18
584.169	18692.16
584.529	18549.57
584.889	18794.76
585.249	18660.53
585.609	18609.23
585.969	18639.74
586.329	18533.98
586.688	18592.05
587.048	18564.94
587.408	18592.05
587.768	18449.23
588.127	18543.69
588.487	18504.6
588.846	18570.36
589.206	18534.43
589.565	18579.62
589.925	18622.56
590.284	18469.8
590.643	18588.89
591.003	18587.99
591.362	18630.02
591.721	18557.7
592.08	18539.4
592.44	18525.61
592.799	18548.66
593.158	18553.41
593.517	18601.32
593.876	18592.73
594.235	18546.63
594.593	18466.18
594.952	18530.13
595.311	18513.86
595.67	18522.68
596.029	18658.72
596.387	18629.57
596.746	18583.69
597.104	18469.57
597.463	18388.9
597.822	18556.35
598.18	18466.63
598.538	18473.19
598.897	18584.82
599.255	18365.62
599.613	18705.27
599.972	18550.92
600.33	18716.57
600.688	18567.87
601.046	18575.1
601.404	18582.56
601.762	18585.73
602.12	18720.64
602.478	18645.16
602.836	18622.79
603.194	18508.44
603.552	18633.86
603.91	18578.49
604.268	18674.09
604.625	18543.92
604.983	18739.85
605.341	18576.69
605.698	18660.75
606.056	18717.25
606.413	18677.47
606.771	18775.33
607.128	18775.55
607.485	18683.8
607.843	18707.08
608.2	18764.25
608.557	18853.97
608.914	18698.27
609.272	18839.73
609.629	18863.23
609.986	18917.24
610.343	18812.61
610.7	18942.55
611.057	18927.41
611.414	18926.73
611.771	18885.61
612.127	19053.06
612.484	18953.4
612.841	19151.81
613.198	19014.64
613.554	18963.12
613.911	19055.09
614.267	19127.41
614.624	19047.63
614.98	19116.56
615.337	19206.95
615.693	19137.35
616.05	19094.41
616.406	19250.57
616.762	19081.53
617.118	19210.57
617.475	19199.95
617.831	19246.95
618.187	19255.76
618.543	19248.76
618.899	19509.09
619.255	19367.63
619.611	19313.62
619.967	19300.51
620.323	19356.1
620.678	19338.02
621.034	19309.55
621.39	19284.92
621.746	19279.72
622.101	19560.16
622.457	19361.07
622.812	19382.32
623.168	19463.22
623.523	19429.09
623.879	19495.31
624.234	19327.85
624.589	19407.85
624.945	19566.27
625.3	19521.07
625.655	19457.79
626.01	19456.89
626.365	19502.09
626.72	19496.66
627.075	19452.14
627.43	19436.33
627.785	19451.69
628.14	19496.89
628.495	19490.33
628.85	19555.87
629.205	19371.24
629.559	19478.58
629.914	19435.42
630.269	19362.2
630.623	19317.23
630.978	19326.5
631.332	19387.06
631.687	19401.75
632.041	19256.44
632.396	19349.32
632.75	19296.44
633.104	19320.17
633.459	19119.05
633.813	19139.61
634.167	19222.32
634.521	19141.87
634.875	19204.92
635.229	19142.55
635.583	19124.47
635.937	19162.66
636.291	18974.87
636.645	19077.01
636.999	19032.95
637.352	19044.25
637.706	18987.98
638.06	19119.72
638.413	18924.47
638.767	18961.08
639.121	18968.77
639.474	18820.52
639.828	18913.18
640.181	18952.72
640.534	18893.74
640.888	18816.45
641.241	18748.43
641.594	18836.34
641.947	18773.74
642.301	18835.66
642.654	18867.3
643.007	18743.91
643.36	18674.31
643.713	18707.3
644.066	18816.91
644.419	18687.19
644.771	18543.02
645.124	18390.93
645.477	18378.05
645.83	18189.58
646.182	18143.48
646.535	18135.12
646.888	18237.49
647.24	18049.92
647.593	18145.29
647.945	18137.38
648.298	18080.65
648.65	18033.65
649.002	18067.55
649.355	18079.75
649.707	18092.63
650.059	18197.26
650.411	18302.8
650.763	18439.52
651.115	18583.69
651.467	18477.48
651.819	18507.08
652.171	18512.06
652.523	18489.46
652.875	18472.73
653.227	18295.79
653.578	18484.71
653.93	18416.69
654.282	18452.85
654.633	18361.78
654.985	18443.13
655.337	18361.55
655.688	18420.76
656.039	18488.33
656.391	18336.47
656.742	18400.87
657.094	18414.21
657.445	18446.97
657.796	18448.55
658.147	18417.14
658.498	18358.84
658.849	18473.86
659.2	18503.47
659.551	18321.78
659.902	18505.28
660.253	18423.92
660.604	18378.95
660.955	18357.48
661.306	18351.61
661.656	18329.69
662.007	18420.76
662.358	18430.02
662.708	18483.58
663.059	18488.33
663.409	18371.49
663.76	18509.57
664.11	18441.1
664.461	18459.85
664.811	18496.01
665.161	18536.46
665.511	18362.91
665.862	18493.07
666.212	18536.24
666.562	18533.98
666.912	18494.2
667.262	18491.04
667.612	18423.02
667.962	18482.9
668.312	18507.54
668.662	18499.17
669.011	18443.13
669.361	18526.29
669.711	18483.81
670.06	18386.86
670.41	18307.32
670.76	18382.34
671.109	18418.5
671.459	18301.89
671.808	18313.19
672.157	18327.65
672.507	18338.73
672.856	18355.45
673.205	18311.83
673.554	18336.69
673.904	18251.27
674.253	18399.52
674.602	18352.51
674.951	17999.75
675.3	17865.74
675.649	18297.15
675.998	18197.04
676.346	18249.46
676.695	18271.38
677.044	18126.53
677.393	18189.58
677.741	18242.68
678.09	18133.31
678.438	18079.07
678.787	18135.34
679.135	18086.53
679.484	17992.07
679.832	18069.81
680.181	17890.6
680.529	17963.37
680.877	17924.27
681.225	17992.3
681.573	17969.7
681.922	17925.18
682.27	17839.76
682.618	17799.31
682.966	17729.48
683.314	17775.35
683.661	17708.46
684.009	17640.89
684.357	17572.65
684.705	17582.59
685.053	17558.86
685.4	17528.13
685.748	17385.53
686.095	17457.62
686.443	17360
686.79	17378.98
687.138	17348.24
687.485	17307.79
687.832	17244.74
688.18	17263.73
688.527	17063.73
688.874	17051.53
689.221	17107.12
689.568	16925.88
689.915	17074.81
690.262	16972.44
690.609	16980.12
690.956	16898.09
691.303	16914.13
691.65	16741.93
691.997	16750.29
692.344	16629.17
692.69	16664.42
693.037	16716.85
693.383	16454.48
693.73	16555.72
694.077	16368.16
694.423	16421.26
694.769	16357.31
695.116	16345.33
695.462	16290.42
695.808	16223.53
696.155	16230.76
696.501	16150.54
696.847	16082.74
697.193	15944.67
697.539	15958
697.885	15883.65
698.231	15799.13
698.577	15817.66
698.923	15768.4
699.269	15691.11
699.614	15695.18
699.96	15540.38
700.306	15629.87
700.651	15523.43
700.997	15457.67
701.342	15351.46
701.688	15324.34
702.033	15342.42
702.379	15256.77
702.724	15211.8
703.069	15214.06
703.415	14973.84
703.76	15086.61
704.105	14980.4
704.45	14908.08
704.795	14924.58
705.14	14821.53
705.485	14865.6
705.83	14732.95
706.175	14746.73
706.52	14784.02
706.865	14674.19
707.209	14668.31
707.554	14504.93
707.899	14589.9
708.243	14538.15
708.588	14460.86
708.932	14363.24
709.277	14344.48
709.621	14288.66
709.966	14292.51
710.31	14246.63
710.654	14165.73
710.998	14202.34
711.342	14126.41
711.687	14119.18
712.031	14062.91
712.375	14012.74
712.719	14003.7
713.063	14057.71
713.407	14077.6
713.75	14015.45
714.094	13894.78
714.438	13884.61
714.782	13887.09
715.125	13797.15
715.469	13819.75
715.812	13673.99
716.156	13642.58
716.499	13638.06
716.843	13731.16
717.186	13673.99
717.53	13633.54
717.873	13598.74
718.216	13651.39
718.559	13544.5
718.902	13455.24
719.246	13562.81
719.589	13449.14
719.932	13359.2
720.275	13394.9
720.617	13448.69
720.96	13364.62
721.303	13432.64
721.646	13392.64
721.989	13311.51
722.331	13334.56
722.674	13294.79
723.016	13273.78
723.359	13244.85
723.701	13270.84
724.044	13210.27
724.386	13240.78
724.729	13228.58
725.071	13148.81
725.413	13175.47
725.755	13143.38
726.097	13173.66
726.439	13077.17
726.782	13045.31
727.124	13132.08
727.465	13001.69
727.807	13037.85
728.149	13017.28
728.491	13015.48
728.833	13068.58
729.175	13017.74
729.516	12961.02
729.858	12902.03
730.199	13003.95
730.541	12949.72
730.882	12892.32
731.224	12969.38
731.565	12876.05
731.906	12935.03
732.248	13012.99
732.589	12850.51
732.93	12890.51
733.271	12837.63
733.612	12876.27
733.953	12900.9
734.294	12877.63
734.635	12775.48
734.976	12914.24
735.317	12834.46
735.658	12864.52
735.999	12801.47
736.339	12950.39
736.68	12936.83
737.021	12850.28
737.361	12814.13
737.702	12846.67
738.042	12875.37
738.383	12807.8
738.723	12895.93
739.063	12898.42
739.404	12890.96
739.744	12846.67
740.084	12843.96
740.424	12855.26
740.764	12822.04
741.104	13037.62
741.444	12937.74
741.784	12887.8
742.124	12989.71
742.464	12974.57
742.804	13031.97
743.143	12973.9
743.483	13024.74
743.823	12949.72
744.162	12994.23
744.502	13089.15
744.841	12998.08
745.181	13117.4
745.52	13091.63
745.86	13056.61
746.199	13181.8
746.538	13191.29
746.877	13300.67
747.216	13273.55
747.556	13234.45
747.895	13288.92
748.234	13384.05
748.573	13398.07
748.911	13388.57
749.25	13438.29
749.589	13561.45
749.928	13583.37
750.267	13670.83
750.605	13732.75
750.944	13687.1
751.283	13807.77
751.621	13991.72
751.96	13897.04
752.298	13996.24
752.636	14112.62
752.975	14150.14
753.313	14226.07
753.651	14316.46
753.989	14405.5
754.327	14524.14
754.666	14471.26
755.004	14679.39
755.342	14774.53
755.679	14863.34
756.017	14922.77
