Data from hue_300_FLMS001491_00043.txt Node
Date: Tue Feb 07 15:50:46 GMT 2017
User: dcchb
Spectrometer: FLMS00149
Trigger mode: 0
Integration Time (sec): 2.000000E-2
Scans to average: 10
Electric dark correction enabled: true
Nonlinearity correction enabled: false
Boxcar width: 0
XAxis mode: Wavelengths
Number of Pixels in Spectrum: 2048
>>>>>Begin Spectral Data<<<<<
341.393	-10.65
341.776	-10.65
342.16	-10.65
342.543	-55.17
342.927	-68.5
343.31	-74.15
343.693	-71.89
344.077	-42.74
344.46	-60.37
344.843	-66.47
345.226	-59.69
345.61	-22.63
345.993	-13.59
346.376	9.01
346.759	8.79
347.142	21.44
347.525	37.48
347.908	38.84
348.291	81.33
348.674	108.22
349.057	106.41
349.44	128.56
349.823	145.05
350.206	148.89
350.588	181.89
350.971	214.43
351.354	215.56
351.737	234.99
352.119	274.77
352.502	255.78
352.884	281.77
353.267	261.66
353.65	274.09
354.032	298.49
354.414	289.23
354.797	296.46
355.179	318.38
355.562	323.35
355.944	352.5
356.326	336.91
356.709	329.23
357.091	338.27
357.473	343.24
357.855	341.88
358.238	306.63
358.62	351.6
359.002	342.56
359.384	343.24
359.766	334.65
360.148	354.09
360.53	347.76
360.912	329.45
361.294	318.38
361.676	322.22
362.057	312.51
362.439	315.9
362.821	327.65
363.203	332.84
363.584	330.36
363.966	343.24
364.348	325.39
364.729	327.65
365.111	319.51
365.493	324.26
365.874	315.44
366.256	303.24
366.637	296.46
367.019	302.11
367.4	306.18
367.781	318.16
368.163	304.82
368.544	288.1
368.925	326.74
369.306	325.16
369.688	305.95
370.069	301.21
370.45	317.93
370.831	303.01
371.212	324.93
371.593	289.68
371.974	309.57
372.355	298.95
372.736	318.83
373.117	326.74
373.498	305.27
373.879	293.98
374.26	303.24
374.641	321.77
375.021	328.78
375.402	329.68
375.783	333.3
376.163	322.68
376.544	320.42
376.925	326.29
377.305	320.42
377.686	342.56
378.066	339.62
378.447	340.53
378.827	337.14
379.208	327.42
379.588	330.13
379.968	334.2
380.349	325.61
380.729	342.79
381.109	350.92
381.489	343.92
381.87	321.77
382.25	344.37
382.63	362.9
383.01	345.05
383.39	356.57
383.77	334.2
384.15	335.1
384.53	344.14
384.91	333.75
385.29	340.98
385.67	369.23
386.049	367.87
386.429	363.13
386.809	358.15
387.189	353.41
387.568	348.89
387.948	369.23
388.328	364.03
388.707	368.78
389.087	354.76
389.466	385.95
389.846	367.19
390.225	375.33
390.605	385.27
390.984	374.65
391.363	375.78
391.743	393.18
392.122	382.11
392.501	396.35
392.881	398.83
393.26	380.07
393.639	411.26
394.018	416.46
394.397	401.09
394.776	390.47
395.155	417.36
395.534	402.67
395.913	413.75
396.292	396.57
396.671	391.6
397.05	402.67
397.429	422.11
397.808	388.44
398.186	414.65
398.565	429.11
398.944	425.05
399.323	412.84
399.701	416.23
400.08	440.86
400.458	439.06
400.837	414.65
401.215	442.22
401.594	455.78
401.972	422.11
402.351	439.73
402.729	443.12
403.107	454.2
403.486	453.29
403.864	434.08
404.242	462.11
404.62	471.82
404.999	466.63
405.377	484.7
405.755	460.3
406.133	475.44
406.511	492.84
406.889	475.67
407.267	510.24
407.645	531.03
408.023	521.77
408.401	514.31
408.779	523.35
409.156	519.96
409.534	523.35
409.912	545.04
410.29	540.75
410.667	530.35
411.045	536
411.422	550.01
411.8	563.57
412.178	582.56
412.555	581.88
412.933	587.98
413.31	586.17
413.687	609.22
414.065	633.4
414.442	623.01
414.819	640.86
415.197	643.57
415.574	674.76
415.951	670.46
416.328	695.09
416.705	678.37
417.082	696
417.46	710.01
417.837	696.45
418.214	708.2
418.591	718.6
418.967	714.3
419.344	753.85
419.721	754.98
420.098	745.04
420.475	748.43
420.852	778.03
421.228	799.95
421.605	785.49
421.982	791.59
422.358	827.75
422.735	831.81
423.111	830.68
423.488	866.62
423.864	843.57
424.241	893.73
424.617	874.53
424.994	879.5
425.37	904.13
425.746	897.58
426.123	924.24
426.499	920.63
426.875	958.14
427.251	960.17
427.627	947.29
428.003	957.91
428.379	988.42
428.756	997.01
429.132	985.26
429.507	1029.32
429.883	989.78
430.259	1042.2
430.635	1040.62
431.011	1051.92
431.387	1069.1
431.763	1094.18
432.138	1099.15
432.514	1139.15
432.89	1108.42
433.265	1124.24
433.641	1145.7
434.016	1167.85
434.392	1215.76
434.767	1197.45
435.143	1225.25
435.518	1209.66
435.894	1227.51
436.269	1228.64
436.644	1266.15
437.02	1240.62
437.395	1274.29
437.77	1315.42
438.145	1316.1
438.52	1338.24
438.895	1337.34
439.271	1345.25
439.646	1346.15
440.021	1380.05
440.395	1372.82
440.77	1357.22
441.145	1399.48
441.52	1385.92
441.895	1406.26
442.27	1420.27
442.645	1393.16
443.019	1446.04
443.394	1402.42
443.769	1457.33
444.143	1432.48
444.518	1467.73
444.892	1456.66
445.267	1458.92
445.641	1496.43
446.016	1502.76
446.39	1490.55
446.764	1502.53
447.139	1487.62
447.513	1544.56
447.887	1515.64
448.262	1504.79
448.636	1508.63
449.01	1536.43
449.384	1526.71
449.758	1562.42
450.132	1559.93
450.506	1539.82
450.88	1587.73
451.254	1581.4
451.628	1584.79
452.002	1591.34
452.376	1599.03
452.75	1601.96
453.123	1625.47
453.497	1663.88
453.871	1683.77
454.244	1668.18
454.618	1705.69
454.992	1700.49
455.365	1703.66
455.739	1731.23
456.112	1718.34
456.486	1735.52
456.859	1755.18
457.232	1767.16
457.606	1758.8
457.979	1798.34
458.352	1788.4
458.725	1832.24
459.099	1838.57
459.472	1861.84
459.845	1875.4
460.218	1897.32
460.591	1894.16
460.964	1881.05
461.337	1910.66
461.71	1929.19
462.083	1983.65
462.456	1982.07
462.829	1986.59
463.201	1983.65
463.574	2004.21
463.947	2025
464.32	2048.51
464.692	2085.11
465.065	2088.5
465.438	2097.09
465.81	2108.62
466.183	2137.99
466.555	2160.82
466.928	2166.92
467.3	2198.33
467.672	2184.55
468.045	2249.18
468.417	2188.84
468.789	2246.92
469.161	2262.29
469.534	2304.32
469.906	2364.43
470.278	2343.86
470.65	2366.46
471.022	2407.14
471.394	2439.23
471.766	2431.09
472.138	2521.04
472.51	2500.02
472.882	2536.4
473.253	2567.36
473.625	2586.34
473.997	2622.73
474.369	2641.03
474.74	2633.12
475.112	2676.96
475.484	2704.31
475.855	2687.58
476.227	2779.56
476.598	2822.95
476.97	2821.14
477.341	2857.75
477.713	2926.22
478.084	2932.78
478.455	2982.72
478.827	3008.03
479.198	3039.21
479.569	3016.39
479.94	3115.37
480.311	3122.15
480.682	3161.24
481.053	3225.65
481.424	3262.03
481.795	3261.81
482.166	3340
482.537	3335.93
482.908	3378.19
483.279	3425.42
483.65	3470.61
484.021	3523.27
484.391	3524.85
484.762	3583.38
485.133	3576.15
485.503	3657.28
485.874	3650.27
486.244	3723.72
486.615	3783.6
486.985	3790.15
487.356	3830.61
487.726	3821.11
488.097	3927.33
488.467	3898.4
488.837	3969.36
489.207	4042.35
489.578	4072.86
489.948	4095.01
490.318	4113.76
490.688	4123.03
491.058	4183.14
491.428	4234.89
491.798	4246.64
492.168	4330.71
492.538	4331.61
492.908	4385.17
493.278	4418.84
493.648	4406.18
494.017	4440.53
494.387	4482.79
494.757	4500.42
495.126	4558.72
495.496	4548.33
495.866	4527.31
496.235	4657.25
496.605	4599.62
496.974	4689.11
497.344	4700.19
497.713	4741.54
498.082	4722.11
498.452	4778.15
498.821	4780.86
499.19	4776.34
499.559	4786.29
499.928	4813.63
500.298	4841.2
500.667	4871.71
501.036	4882.78
501.405	4935.89
501.774	4932.72
502.143	5003
502.512	5006.62
502.88	5048.2
503.249	4995.32
503.618	5043
503.987	5069.44
504.356	5123.45
504.724	5120.06
505.093	5105.83
505.462	5136.56
505.83	5130.23
506.199	5159.16
506.567	5205.48
506.936	5242.77
507.304	5279.38
507.672	5266.27
508.041	5295.43
508.409	5326.16
508.777	5334.52
509.145	5334.52
509.514	5406.61
509.882	5374.75
510.25	5434.41
510.618	5459.94
510.986	5397.12
511.354	5528.41
511.722	5516.89
512.09	5512.6
512.458	5562.54
512.826	5590.11
513.193	5600.05
513.561	5552.37
513.929	5620.84
514.297	5665.36
514.664	5667.85
515.032	5712.82
515.4	5662.2
515.767	5708.07
516.135	5768.18
516.502	5730.22
516.869	5783.77
517.237	5849.08
517.604	5747.62
517.972	5804.11
518.339	5893.6
518.706	5802.76
519.073	5859.93
519.44	5913.04
519.808	5898.57
520.175	5885.24
520.542	5957.56
520.909	6015.63
521.276	6000.04
521.643	6056.99
522.009	6078.46
522.376	6081.85
522.743	6103.09
523.11	6174.5
523.477	6189.64
523.843	6190.54
524.21	6278.45
524.577	6263.99
524.943	6306.02
525.31	6354.15
525.676	6394.15
526.043	6395.28
526.409	6462.4
526.776	6474.38
527.142	6462.4
527.508	6480.25
527.874	6593.24
528.241	6579.23
528.607	6610.19
528.973	6634.37
529.339	6668.72
529.705	6712.56
530.071	6735.16
530.437	6812.9
530.803	6824.2
531.169	6854.25
531.535	6899.45
531.901	6913.46
532.267	6920.47
532.632	6917.08
532.998	6946.91
533.364	7044.08
533.73	7043.4
534.095	7107.36
534.461	7068.03
534.826	7158.88
535.192	7141.7
535.557	7192.78
535.923	7178.54
536.288	7247.92
536.653	7302.6
537.019	7261.7
537.384	7322.72
537.749	7370.4
538.114	7350.74
538.479	7445.65
538.845	7415.82
539.21	7396.61
539.575	7403.84
539.94	7467.12
540.305	7560.68
540.67	7551.41
541.034	7557.74
541.399	7626.66
541.764	7642.03
542.129	7650.39
542.494	7713.22
542.858	7708.92
543.223	7793.67
543.587	7809.94
543.952	7839.54
544.316	7915.24
544.681	7894
545.045	7931.06
545.41	7929.03
545.774	8015.58
546.138	7922.48
546.503	8071.17
546.867	8018.97
547.231	8131.96
547.595	8049.7
547.959	8141.45
548.324	8205.41
548.688	8115.69
549.052	8160.44
549.416	8199.08
549.779	8206.54
550.143	8255.12
550.507	8284.73
550.871	8298.96
551.235	8302.13
551.599	8401.56
551.962	8425.51
552.326	8418.73
552.689	8468.45
553.053	8414.44
553.417	8474.1
553.78	8628.45
554.143	8510.48
554.507	8632.29
554.87	8596.58
555.234	8706.41
555.597	8664.38
555.96	8672.29
556.323	8716.35
556.686	8729.69
557.05	8783.92
557.413	8852.17
557.776	8839.51
558.139	8868.21
558.502	8862.34
558.865	8856.46
559.228	8858.5
559.59	8922.9
559.953	8968.78
560.316	9038.38
560.679	9060.52
561.041	9097.36
561.404	9129.45
561.767	9127.42
562.129	9142.56
562.492	9198.37
562.854	9231.59
563.217	9231.14
563.579	9295.55
563.941	9288.09
564.304	9373.28
564.666	9342.32
565.028	9368.31
565.39	9459.84
565.753	9480.85
566.115	9515.43
566.477	9562.43
566.839	9522.21
567.201	9613.96
567.563	9610.11
567.925	9680.85
568.287	9697.8
568.648	9695.31
569.01	9716.1
569.372	9830.9
569.734	9790.9
570.095	9951.8
570.457	9895.53
570.819	9922.2
571.18	9992.48
571.542	10083.77
571.903	10034.51
572.265	10120.16
572.626	10169.42
572.987	10205.58
573.349	10224.56
573.71	10338.46
574.071	10361.96
574.432	10514.5
574.794	10506.59
575.155	10653.25
575.516	10666.13
575.877	10658.67
576.238	10806.69
576.599	10861.38
576.96	10893.24
577.32	10995.16
577.681	11087.82
578.042	11209.85
578.403	11239.45
578.763	11418.2
579.124	11529.61
579.485	11683.05
579.845	11754.92
580.206	11871.98
580.566	11973.22
580.927	12134.57
581.287	12292.53
581.648	12382.92
582.008	12659.53
582.368	12738.85
582.728	12855.23
583.089	13057.93
583.449	13193.98
583.809	13418.15
584.169	13649.56
584.529	13774.52
584.889	14057.46
585.249	14188.98
585.609	14337.67
585.969	14686.82
586.329	14809.75
586.688	15097.43
587.048	15306.01
587.408	15555.49
587.768	15836.84
588.127	16076.16
588.487	16263.05
588.846	16640.44
589.206	16833.2
589.565	17101.67
589.925	17421.21
590.284	17682.44
590.643	17956.56
591.003	18297.12
591.362	18576.66
591.721	18723.32
592.08	19095.06
592.44	19480.36
592.799	19786.8
593.158	20039.44
593.517	20368.7
593.876	20655.47
594.235	20892.76
594.593	21297.49
594.952	21604.83
595.311	21787.42
595.67	22141.31
596.029	22466.27
596.387	22888.64
596.746	23240.49
597.104	23320.04
597.463	23676.86
597.822	24069.17
598.18	24124.99
598.538	24614.24
598.897	25029.37
599.255	25015.13
599.613	25735.57
599.972	25780.31
600.33	26140.53
600.688	26294.42
601.046	26809.89
601.404	27167.39
601.762	27448.29
602.12	27751.56
602.478	28009.18
602.836	28267.93
603.194	28392.22
603.552	28646.45
603.91	28856.61
604.268	29284.85
604.625	29361.91
604.983	29712.18
605.341	30057.49
605.698	30346.52
606.056	30395.56
606.413	30782.44
606.771	31118.93
607.128	31179.94
607.485	31421.52
607.843	31740.38
608.2	31963.88
608.557	32352.34
608.914	32428.5
609.272	32718.21
609.629	32969.5
609.986	33324.52
610.343	33329.04
610.7	33622.82
611.057	33806.77
611.414	33840.89
611.771	34211.73
612.127	34368.79
612.484	34611.49
612.841	34782.79
613.198	35067.3
613.554	35066.39
613.911	35570.11
614.267	35606.27
614.624	35684.01
614.98	35788.18
615.337	36148.17
615.693	36201.51
616.05	36331.45
616.406	36824.54
616.762	36687.59
617.118	36874.03
617.475	37033.8
617.831	37290.52
618.187	37507.91
618.543	37620
618.899	37866.55
619.255	37869.94
619.611	37876.49
619.967	38258.17
620.323	38167.56
620.678	38261.79
621.034	38363.93
621.39	38386.99
621.746	38535.46
622.101	39062.67
622.457	38657.71
622.812	39002.56
623.168	39088.21
623.523	39174.99
623.879	39384.25
624.234	39229.45
624.589	39553.51
624.945	39557.12
625.3	39657.23
625.655	39774.75
626.01	39768.19
626.365	39890.45
626.72	39812.03
627.075	39949.66
627.43	40064.23
627.785	39952.14
628.14	40175.86
628.495	40215.19
628.85	40336.54
629.205	40065.13
629.559	40458.34
629.914	40325.69
630.269	40350.1
630.623	40415.86
630.978	40278.91
631.332	40567.72
631.687	40526.14
632.041	40483.2
632.396	40594.38
632.75	40371.11
633.104	40646.81
633.459	40353.04
633.813	40543.54
634.167	40524.1
634.521	40511.22
634.875	40741.73
635.229	40605.23
635.583	40421.51
635.937	40479.13
636.291	40581.05
636.645	40481.85
636.999	40443.2
637.352	40615.85
637.706	40442.75
638.06	40492.24
638.413	40482.98
638.767	40519.81
639.121	40613.37
639.474	40308.97
639.828	40477.55
640.181	40426.48
640.534	40556.19
640.888	40424.22
641.241	40203.21
641.594	40355.29
641.947	40466.03
642.301	40184.23
642.654	40374.73
643.007	40430.77
643.36	40320.04
643.713	40331.11
644.066	40554.61
644.419	40180.84
644.771	40045.7
645.124	39659.49
645.477	39699.04
645.83	39490.23
646.182	39238.71
646.535	39299.05
646.888	39356.68
647.24	39005.05
647.593	39342.89
647.945	39181.54
648.298	39160.52
648.65	39044.37
649.002	39067.87
649.355	39173.86
649.707	39225.83
650.059	39345.83
650.411	39750.79
650.763	39738.14
651.115	40138.8
651.467	40059.71
651.819	40029.65
652.171	39918.02
652.523	39898.36
652.875	39903.78
653.227	39696.1
653.578	40136.32
653.93	40042.76
654.282	39745.37
654.633	39798.47
654.985	39919.83
655.337	39829.88
655.688	39802.09
656.039	40150.78
656.391	39710.34
656.742	39727.97
657.094	39822.43
657.445	39931.8
657.796	39712.37
658.147	39764.58
658.498	39786.72
658.849	39787.63
659.2	39746.05
659.551	39546.05
659.902	39829.21
660.253	39750.79
660.604	39566.62
660.955	39524.36
661.306	39782.2
661.656	39656.1
662.007	39735.42
662.358	39760.06
662.708	39793.73
663.059	39461.98
663.409	39499.95
663.76	39643.68
664.11	39663.79
664.461	39711.02
664.811	39744.24
665.161	39781.98
665.511	39502.89
665.862	39658.59
666.212	39565.03
666.562	39649.32
666.912	39561.42
667.262	39514.64
667.612	39527.07
667.962	39618.14
668.312	39509.67
668.662	39751.02
669.011	39623.11
669.361	39645.03
669.711	39514.86
670.06	39358.94
670.41	39474.87
670.76	39372.04
671.109	39563
671.459	39510.8
671.808	39391.7
672.157	39336.79
672.507	39163.46
672.856	39254.31
673.205	39333.4
673.554	39368.2
673.904	39186.29
674.253	39362.55
674.602	39317.81
674.951	38665.85
675.3	38667.2
675.649	39251.14
675.998	39137.02
676.346	39255.66
676.695	39336.79
677.044	38987.65
677.393	39125.04
677.741	39145.84
678.09	39089.79
678.438	38999.17
678.787	39063.58
679.135	39085.72
679.484	38773.87
679.832	38948.78
680.181	38672.63
680.529	38768.67
680.877	38720.54
681.225	38578.39
681.573	38866.97
681.922	38584.49
682.27	38437.61
682.618	38483.71
682.966	38300.21
683.314	38470.15
683.661	38350.83
684.009	38198.74
684.357	38184.96
684.705	37991.52
685.053	38170.72
685.4	38088.24
685.748	37952.42
686.095	37931.4
686.443	37725.53
686.79	37861.12
687.138	37845.08
687.485	37812.76
687.832	37554.69
688.18	37763.72
688.527	37501.36
688.874	37503.84
689.221	37316.28
689.568	37294.81
689.915	37190.63
690.262	37254.13
690.609	37132.55
690.956	37024.53
691.303	36989.28
691.65	36810.08
691.997	36818.89
692.344	36670.65
692.69	36518.79
693.037	36592
693.383	36282.18
693.73	36546.13
694.077	36163.77
694.423	36105.69
694.769	36025.69
695.116	36059.14
695.462	35987.27
695.808	35909.99
696.155	35989.53
696.501	35643.55
696.847	35583.67
697.193	35460.73
697.539	35454.41
697.885	35282.89
698.231	35185.04
698.577	35152.27
698.923	35182.32
699.269	35130.12
699.614	35021.42
699.96	34712.28
700.306	34860.3
700.651	34697.82
700.997	34469.35
701.342	34468.9
701.688	34450.82
702.033	34243.37
702.379	34260.54
702.724	34234.78
703.069	34296.47
703.415	33891.96
703.76	33877.95
704.105	33810.83
704.45	33736.49
704.795	33540.33
705.14	33447
705.485	33615.59
705.83	33387.12
706.175	33379.66
706.52	33265.31
706.865	33173.56
707.209	33170.4
707.554	33015.15
707.899	33103.28
708.243	32955.04
708.588	32879.79
708.932	32526.12
709.277	32785.32
709.621	32701.03
709.966	32422.62
710.31	32559.57
710.654	32153.02
710.998	32311.21
711.342	32279.12
711.687	32128.17
712.031	32075.96
712.375	31952.13
712.719	31938.57
713.063	31842.07
713.407	32020.37
713.75	31772.24
714.094	31749.65
714.438	31681.17
714.782	31788.06
715.125	31586.26
715.469	31629.65
715.812	31418.58
716.156	31238.25
716.499	31391.69
716.843	31342.65
717.186	31197.12
717.53	31345.59
717.873	31433.04
718.216	31233.73
718.559	30994.19
718.902	30777.24
719.246	30890.01
719.589	30835.55
719.932	30735.66
720.275	30939.05
720.617	30693.18
720.96	30613.4
721.303	30740.86
721.646	30638.49
721.989	30518.27
722.331	30537.93
722.674	30393.97
723.016	30457.93
723.359	30311.27
723.701	30300.19
724.044	30149.91
724.386	30019.97
724.729	30133.42
725.071	30137.03
725.413	30007.77
725.755	30060.65
726.097	29856.59
726.439	29681
726.782	29866.53
727.124	29939.07
727.465	29705.41
727.807	29759.42
728.149	29632.19
728.491	29507.67
728.833	29581.79
729.175	29423.38
729.516	29569.59
729.858	29329.37
730.199	29396.71
730.541	29371.63
730.882	29272.2
731.224	29396.03
731.565	29105.87
731.906	29156.95
732.248	29262.93
732.589	29011.41
732.93	28893.22
733.271	28956.05
733.612	28971.19
733.953	28933.9
734.294	28824.75
734.635	28868.59
734.976	28936.16
735.317	28715.6
735.658	28669.05
735.999	28746.56
736.339	28691.19
736.68	28761.7
737.021	28687.58
737.361	28412.11
737.702	28745.88
738.042	28572.78
738.383	28458.66
738.723	28581.14
739.063	28410.52
739.404	28556.06
739.744	28269.74
740.084	28335.5
740.424	28332.56
740.764	28233.35
741.104	28303.86
741.444	28039.01
741.784	28098.44
742.124	28082.85
742.464	28199.91
742.804	28099.35
743.143	27893.7
743.483	27941.61
743.823	27796.3
744.162	27741.62
744.502	27942.51
744.841	27644.67
745.181	27876.3
745.52	27678.79
745.86	27768.73
746.199	27820.94
746.538	27648.51
746.877	27627.95
747.216	27643.99
747.556	27670.66
747.895	27642.41
748.234	27510.89
748.573	27563.99
748.911	27433.6
749.25	27594.5
749.589	27406.71
749.928	27418.01
750.267	27408.06
750.605	27303.43
750.944	27261.4
751.283	27209.88
751.621	27245.13
751.96	27033.84
752.298	27062.09
752.636	27157.68
752.975	26994.29
753.313	26978.47
753.651	27098.69
753.989	26822.32
754.327	26947.74
754.666	26760.62
755.004	26897.8
755.342	26877.46
755.679	26865.03
756.017	26635.66
756.355	26753.62
756.693	26530.35
757.031	26616.67
757.368	26405.38
757.706	26447.86
758.044	26426.17
758.381	26416.68
758.719	26359.28
