Data from hue_80_FLMS001491_82.txt Node
Date: Mon Feb 06 15:23:53 GMT 2017
User: dcchb
Spectrometer: FLMS00149
Trigger mode: 0
Integration Time (sec): 2.000000E-2
Scans to average: 10
Electric dark correction enabled: true
Nonlinearity correction enabled: false
Boxcar width: 0
XAxis mode: Wavelengths
Number of Pixels in Spectrum: 2048
>>>>>Begin Spectral Data<<<<<
341.393	7.17
341.776	7.17
342.16	7.17
342.543	-52.26
342.927	-61.75
343.31	-71.69
343.693	-75.99
344.077	-52.48
344.46	-60.62
344.843	-64.69
345.226	-39.83
345.61	-19.49
345.993	-21.07
346.376	6.05
346.759	6.27
347.142	26.16
347.525	37.68
347.908	25.48
348.291	93.95
348.674	110.45
349.057	99.83
349.44	114.97
349.823	136.44
350.206	144.12
350.588	186.15
350.971	204.23
351.354	218.47
351.737	235.19
352.119	247.62
352.502	253.04
352.884	268.41
353.267	279.94
353.65	290.78
354.032	316.09
354.414	295.53
354.797	308.64
355.179	326.94
355.562	300.5
355.944	327.39
356.326	321.74
356.709	321.07
357.091	333.27
357.473	333.49
357.855	333.49
358.238	332.59
358.62	345.47
359.002	329.88
359.384	324.68
359.766	327.62
360.148	338.92
360.53	335.08
360.912	309.99
361.294	341.63
361.676	309.54
362.057	351.12
362.439	319.94
362.821	338.47
363.203	315.87
363.584	304.34
363.966	329.2
364.348	324
364.729	319.94
365.111	304.57
365.493	319.71
365.874	298.47
366.256	317.68
366.637	303.21
367.019	327.62
367.4	319.71
367.781	304.12
368.163	319.03
368.544	304.34
368.925	312.48
369.306	306.15
369.688	302.53
370.069	292.82
370.45	294.4
370.831	322.42
371.212	319.71
371.593	316.55
371.974	306.83
372.355	319.03
372.736	286.72
373.117	307.28
373.498	303.21
373.879	308.64
374.26	304.57
374.641	324.68
375.021	318.58
375.402	295.98
375.783	312.7
376.163	332.36
376.544	307.96
376.925	322.87
377.305	340.27
377.686	310.44
378.066	336.43
378.447	326.71
378.827	336.88
379.208	326.94
379.588	320.39
379.968	326.04
380.349	323.55
380.729	350.22
381.109	321.97
381.489	345.92
381.87	335.08
382.25	331.23
382.63	327.84
383.01	339.82
383.39	305.7
383.77	343.21
384.15	337.56
384.53	335.3
384.91	324.45
385.29	339.37
385.67	342.53
386.049	341.63
386.429	340.5
386.809	338.69
387.189	335.75
387.568	332.82
387.948	334.62
388.328	334.62
388.707	348.41
389.087	352.25
389.466	355.41
389.846	333.04
390.225	361.06
390.605	363.32
390.984	357.67
391.363	372.82
391.743	349.76
392.122	345.02
392.501	359.03
392.881	354.74
393.26	362.42
393.639	376.66
394.018	380.72
394.397	363.1
394.776	367.84
395.155	358.35
395.534	359.48
395.913	370.33
396.292	362.65
396.671	387.73
397.05	378.69
397.429	387.96
397.808	369.88
398.186	366.71
398.565	365.13
398.944	373.72
399.323	368.75
399.701	378.01
400.08	354.51
400.458	382.08
400.837	391.35
401.215	396.54
401.594	379.59
401.972	387.96
402.351	380.05
402.729	381.4
403.107	393.15
403.486	386.83
403.864	397.9
404.242	401.74
404.62	377.33
404.999	385.92
405.377	404.45
405.755	382.98
406.133	383.21
406.511	400.38
406.889	393.61
407.267	426.6
407.645	404.9
408.023	427.5
408.401	427.05
408.779	434.28
409.156	402.19
409.534	406.94
409.912	404.45
410.29	451.91
410.667	418.92
411.045	408.75
411.422	415.75
411.8	466.6
412.178	436.54
412.555	452.59
412.933	432.7
413.31	427.05
413.687	441.29
414.065	450.55
414.442	448.52
414.819	434.96
415.197	444.23
415.574	461.17
415.951	486.48
416.328	474.73
416.705	469.76
417.082	470.67
417.46	463.89
417.837	495.75
418.214	470.21
418.591	478.35
418.967	485.35
419.344	480.38
419.721	498.69
420.098	497.56
420.475	488.07
420.852	514.28
421.228	505.47
421.605	500.5
421.982	495.98
422.358	490.78
422.735	511.12
423.111	520.38
423.488	510.89
423.864	519.03
424.241	516.77
424.617	516.54
424.994	522.64
425.37	526.71
425.746	539.36
426.123	545.01
426.499	531.68
426.875	530.78
427.251	536.65
427.627	577.1
428.003	558.35
428.379	536.2
428.756	555.18
429.132	563.54
429.507	563.54
429.883	566.26
430.259	567.61
430.635	570.78
431.011	576.2
431.387	606.26
431.763	615.07
432.138	611
432.514	607.61
432.89	616.88
433.265	636.08
433.641	596.76
434.016	630.89
434.392	643.99
434.767	660.49
435.143	636.54
435.518	634.05
435.894	636.31
436.269	660.49
436.644	643.77
437.02	674.28
437.395	640.38
437.77	681.06
438.145	680.15
438.52	682.64
438.895	700.72
439.271	667.27
439.646	693.26
440.021	704.33
440.395	719.7
440.77	716.53
441.145	714.28
441.52	749.75
441.895	722.86
442.27	715.63
442.645	726.25
443.019	707.95
443.394	723.99
443.769	757.66
444.143	746.59
444.518	764.44
444.892	767.38
445.267	765.35
445.641	740.71
446.016	777.32
446.39	777.1
446.764	772.35
447.139	791.34
447.513	789.08
447.887	799.47
448.262	781.17
448.636	803.31
449.01	777.78
449.384	801.05
449.758	814.39
450.132	816.42
450.506	829.07
450.88	834.95
451.254	839.47
451.628	814.84
452.002	834.27
452.376	861.39
452.75	867.27
453.123	870.88
453.497	867.27
453.871	883.54
454.244	907.72
454.618	894.61
454.992	892.35
455.365	904.1
455.739	917.43
456.112	933.93
456.486	938.68
456.859	955.85
457.232	941.61
457.606	960.6
457.979	975.29
458.352	998.34
458.725	989.52
459.099	1006.02
459.472	1020.26
459.845	1007.83
460.218	1057.09
460.591	1049.41
460.964	1071.33
461.337	1100.25
461.71	1119.69
462.083	1130.54
462.456	1118.56
462.829	1098.22
463.201	1119.46
463.574	1177.09
463.947	1155.62
464.32	1196.52
464.692	1218.44
465.065	1212.34
465.438	1217.31
465.81	1237.88
466.183	1275.62
466.555	1300.7
466.928	1294.15
467.3	1311.32
467.672	1339.12
468.045	1362.17
468.417	1360.59
468.789	1399.68
469.161	1401.94
469.534	1445.33
469.906	1477.42
470.278	1503.41
470.65	1527.13
471.022	1522.16
471.394	1584.08
471.766	1592.22
472.138	1631.77
472.51	1681.26
472.882	1687.58
473.253	1715.6
473.625	1777.3
473.997	1809.39
474.369	1824.3
474.74	1862.49
475.112	1916.28
475.484	1957.63
475.855	1997.41
476.227	2077.63
476.598	2108.14
476.97	2171.41
477.341	2202.6
477.713	2285.53
478.084	2309.26
478.455	2379.99
478.827	2420.9
479.198	2504.96
479.569	2550.84
479.94	2654.11
480.311	2739.76
480.682	2790.6
481.053	2870.6
481.424	2948.11
481.795	3025.85
482.166	3128.9
482.537	3164.61
482.908	3303.81
483.279	3373.41
483.65	3482.56
484.021	3618.83
484.391	3694.54
484.762	3812.5
485.133	3840.97
485.503	3967.75
485.874	4091.59
486.244	4170.46
486.615	4278.7
486.985	4443.22
487.356	4555.98
487.726	4604.79
488.097	4807.27
488.467	4917.33
488.837	4988.74
489.207	5193.25
489.578	5319.35
489.948	5379.69
490.318	5547.37
490.688	5669.17
491.058	5756.4
491.428	5908.71
491.798	6014.7
492.168	6280.23
492.538	6347.35
492.908	6453.79
493.278	6650.62
493.648	6712.08
494.017	6872.08
494.387	7021
494.757	7156.59
495.126	7243.37
495.496	7362.69
495.866	7498.96
496.235	7630.93
496.605	7748.44
496.974	7901.2
497.344	8065.04
497.713	8172.38
498.082	8263
498.452	8472.49
498.821	8526.05
499.19	8610.79
499.559	8792.03
499.928	8928.97
500.298	9020.5
500.667	9132.36
501.036	9211
501.405	9387.27
501.774	9421.39
502.143	9610.99
502.512	9689.63
502.88	9809.86
503.249	9819.35
503.618	9943.86
503.987	9992.9
504.356	10188.15
504.724	10260.46
505.093	10293.23
505.462	10415.94
505.83	10458.2
506.199	10636.5
506.567	10872.43
506.936	10825.87
507.304	11012.08
507.672	11026.32
508.041	11080.33
508.409	11300.44
508.777	11357.61
509.145	11533.88
509.514	11477.61
509.882	11586.98
510.25	11633.76
510.618	11713.76
510.986	11841.44
511.354	11927.09
511.722	12006.86
512.09	12164.82
512.458	12136.35
512.826	12236.01
513.193	12340.41
513.561	12438.26
513.929	12475.1
514.297	12605.26
514.664	12646.62
515.032	12708.31
515.4	12811.58
515.767	12874.18
516.135	12900.17
516.502	12810.68
516.869	13094.06
517.237	13112.82
517.604	13088.19
517.972	13228.07
518.339	13342.19
518.706	13324.79
519.073	13375.19
519.44	13445.24
519.808	13599.13
520.175	13522.75
520.542	13718.23
520.909	13853.36
521.276	13701.28
521.643	13930.65
522.009	13923.87
522.376	14033.25
522.743	13997.09
523.11	14182.85
523.477	14333.13
523.843	14378.32
524.21	14459.68
524.577	14469.85
524.943	14536.96
525.31	14525.66
525.676	14672.33
526.043	14725.43
526.409	14770.18
526.776	14907.12
527.142	14923.39
527.508	15023.05
527.874	15013.56
528.241	15009.27
528.607	15070.51
528.973	15218.98
529.339	15178.08
529.705	15280.67
530.071	15340.78
530.437	15319.77
530.803	15397.28
531.169	15502.59
531.535	15472.98
531.901	15472.98
532.267	15430.5
532.632	15554.34
532.998	15516.6
533.364	15612.41
533.73	15669.81
534.095	15719.98
534.461	15658.51
534.826	15703.94
535.192	15663.49
535.557	15799.3
535.923	15635.69
536.288	15685.63
536.653	15748.46
537.019	15675.01
537.384	15723.37
537.749	15834.78
538.114	15689.47
538.479	15750.04
538.845	15775.12
539.21	15648.12
539.575	15792.75
539.94	15737.38
540.305	15775.8
540.67	15749.36
541.034	15705.29
541.399	15805.18
541.764	15729.25
542.129	15885.4
542.494	15765.18
542.858	15734.67
543.223	15761.11
543.587	15803.82
543.952	15743.94
544.316	15799.53
544.681	15698.06
545.045	15790.94
545.41	15818.74
545.774	15776.48
546.138	15732.64
546.503	15743.94
546.867	15733.09
547.231	15788.45
547.595	15812.86
547.959	15708.91
548.324	15728.34
548.688	15682.47
549.052	15743.94
549.416	15658.51
549.779	15731.06
550.143	15735.12
550.507	15758.63
550.871	15703.71
551.235	15684.28
551.599	15777.16
551.962	15716.59
552.326	15764.27
552.689	15854.22
553.053	15713.65
553.417	15675.46
553.78	15776.7
554.143	15710.04
554.507	15802.47
554.87	15758.4
555.234	15919.52
555.597	15728.8
555.96	15788
556.323	15826.65
556.686	15821
557.05	15808.79
557.413	15842.24
557.776	15838.17
558.139	15975.12
558.502	15907.77
558.865	15796.14
559.228	15963.37
559.59	15986.19
559.953	16013.53
560.316	16100.54
560.679	16068.22
561.041	16078.16
561.404	16058.28
561.767	16077.26
562.129	16112.29
562.492	16252.4
562.854	16080.88
563.217	16208.78
563.579	16194.09
563.941	16329.91
564.304	16386.86
564.666	16373.07
565.028	16402.45
565.39	16368.33
565.753	16445.39
566.115	16497.36
566.477	16436.35
566.839	16557.93
567.201	16583.24
567.563	16618.72
567.925	16612.16
568.287	16572.16
568.648	16538.27
569.01	16731.03
569.372	16996.11
569.734	16692.16
570.095	16851.48
570.457	16847.86
570.819	16856.22
571.18	16824.36
571.542	16823.23
571.903	16864.36
572.265	16831.82
572.626	17010.34
572.987	16968.99
573.349	17122.43
573.71	17055.09
574.071	17052.38
574.432	17098.7
574.794	17256.66
575.155	17026.16
575.516	17128.08
575.877	17234.07
576.238	17094.64
576.599	17206.95
576.96	17211.92
577.32	17220.96
577.681	17241.52
578.042	17364.01
578.403	17256.21
578.763	17261.64
579.124	17345.7
579.485	17378.92
579.845	17435.64
580.206	17355.42
580.566	17387.73
580.927	17254.63
581.287	17385.48
581.648	17369.2
582.008	17391.12
582.368	17377.57
582.728	17398.58
583.089	17368.3
583.449	17402.65
583.809	17380.05
584.169	17373.5
584.529	17338.24
584.889	17480.39
585.249	17390.22
585.609	17315.19
585.969	17353.61
586.329	17355.65
586.688	17331.01
587.048	17318.36
587.408	17249.66
587.768	17310.45
588.127	17302.99
588.487	17235.65
588.846	17343.22
589.206	17242.43
589.565	17347.06
589.925	17329.88
590.284	17280.85
590.643	17291.92
591.003	17286.72
591.362	17424.57
591.721	17348.41
592.08	17359.49
592.44	17319.71
592.799	17307.74
593.158	17272.48
593.517	17248.08
593.876	17303.44
594.235	17311.13
594.593	17241.3
594.952	17201.07
595.311	17191.36
595.67	17338.7
596.029	17318.58
596.387	17291.92
596.746	17279.49
597.104	17219.15
597.463	17229.32
597.822	17279.04
598.18	17226.38
598.538	17244.01
598.897	17227.97
599.255	17205.14
599.613	17436.55
599.972	17296.44
600.33	17315.87
600.688	17277
601.046	17379.83
601.404	17373.05
601.762	17280.85
602.12	17434.51
602.478	17385.93
602.836	17293.95
603.194	17347.06
603.552	17323.78
603.91	17199.27
604.268	17294.4
604.625	17306.83
604.983	17397.23
605.341	17280.39
605.698	17341.18
606.056	17367.4
606.413	17399.26
606.771	17370.56
607.128	17397.68
607.485	17357
607.843	17321.52
608.2	17454.17
608.557	17446.49
608.914	17339.15
609.272	17482.87
609.629	17512.25
609.986	17619.14
610.343	17458.92
610.7	17713.15
611.057	17642.87
611.414	17655.98
611.771	17605.36
612.127	17711.57
612.484	17708.4
612.841	17685.58
613.198	17631.34
613.554	17681.51
613.911	17821.62
614.267	17843.77
614.624	17722.19
614.98	17780.04
615.337	17809.19
615.693	17786.59
616.05	17806.25
616.406	17856.42
616.762	17812.58
617.118	17830.44
617.475	17796.54
617.831	17869.3
618.187	17894.39
618.543	17909.53
618.899	18016.19
619.255	17978
619.611	17932.58
619.967	18012.35
620.323	18044.89
620.678	17982.75
621.034	17900.49
621.39	18053.71
621.746	17976.19
622.101	18219.35
622.457	17983.43
622.812	18014.61
623.168	18104.78
623.523	18052.35
623.879	18161.05
624.234	17909.08
624.589	17977.78
624.945	18065.46
625.3	18090.32
625.655	18053.71
626.01	18024.78
626.365	18103.2
626.72	18046.7
627.075	18067.49
627.43	18035.85
627.785	18013.48
628.14	17983.88
628.495	18123.99
628.85	17945.23
629.205	17936.2
629.559	18067.27
629.914	18010.32
630.269	17974.16
630.623	17942.3
630.978	17927.16
631.332	17982.3
631.687	18011
632.041	17954.05
632.396	17954.95
632.75	17773.04
633.104	17901.17
633.459	17884.45
633.813	17901.62
634.167	17782.53
634.521	17807.84
634.875	17806.03
635.229	17757.89
635.583	17756.31
635.937	17808.97
636.291	17713.15
636.645	17659.37
636.999	17688.97
637.352	17780.27
637.706	17516.55
638.06	17730.78
638.413	17666.37
638.767	17676.99
639.121	17651.68
639.474	17460.5
639.828	17613.49
640.181	17551.57
640.534	17496.43
640.888	17430.22
641.241	17382.76
641.594	17476.09
641.947	17515.87
642.301	17444.46
642.654	17401.52
643.007	17387.06
643.36	17467.73
643.713	17382.99
644.066	17506.15
644.419	17353.61
644.771	17245.59
645.124	17137.57
645.477	17035.2
645.83	16925.15
646.182	16775.32
646.535	16799.28
646.888	16885.6
647.24	16708.2
647.593	16825.72
647.945	16808.99
648.298	16733.06
648.65	16832.04
649.002	16768.77
649.355	16867.07
649.707	16732.16
650.059	16865.49
650.411	16994.52
650.763	17068.65
651.115	17204.46
651.467	17191.13
651.819	17236.1
652.171	17085.6
652.523	17120.17
652.875	17140.74
653.227	17131.7
653.578	17227.74
653.93	17176.44
654.282	17028.42
654.633	17111.36
654.985	17083.79
655.337	17110
655.688	17072.04
656.039	17123.34
656.391	17037.46
656.742	17159.04
657.094	17030
657.445	17207.85
657.796	17105.71
658.147	17022.09
658.498	17068.87
658.849	17168.53
659.2	17228.19
659.551	17037.24
659.902	17058.25
660.253	17046.5
660.604	17047.86
660.955	16982.32
661.306	17126.05
661.656	17139.15
662.007	17167.85
662.358	17102.77
662.708	17098.48
663.059	17142.54
663.409	16957.46
663.76	17232.94
664.11	17098.25
664.461	17208.98
664.811	17201.75
665.161	17196.55
665.511	17152.71
665.862	17121.3
666.212	17235.65
666.562	17263.44
666.912	17185.71
667.262	17192.94
667.612	17171.24
667.962	17221.86
668.312	17186.38
668.662	17232.26
669.011	17197.46
669.361	17219.6
669.711	17125.82
670.06	17152.03
670.41	17143.67
670.76	17124.69
671.109	17161.98
671.459	17064.35
671.808	17119.72
672.157	17124.92
672.507	16980.97
672.856	17007.41
673.205	16942.77
673.554	17070
673.904	16951.36
674.253	17106.16
674.602	17023.22
674.951	16656.68
675.3	16659.62
675.649	16884.7
675.998	16920.63
676.346	16937.13
676.695	16918.14
677.044	16725.38
677.393	16888.54
677.741	16788.65
678.09	16863
678.438	16726.74
678.787	16796.11
679.135	16804.02
679.484	16674.99
679.832	16727.41
680.181	16544.59
680.529	16735.77
680.877	16743.23
681.225	16620.75
681.573	16668.66
681.922	16532.84
682.27	16554.08
682.618	16557.02
682.966	16556.57
683.314	16525.16
683.661	16419.62
684.009	16391.15
684.357	16314.32
684.705	16349.12
685.053	16323.58
685.4	16341.66
685.748	16178.5
686.095	16188.67
686.443	16098.05
686.79	16088.56
687.138	16065.96
687.485	16110.03
687.832	16038.62
688.18	16079.52
688.527	15947.32
688.874	15928.11
689.221	15897.38
689.568	15813.76
689.915	15793.88
690.262	15776.03
690.609	15803.37
690.956	15725.86
691.303	15659.87
691.65	15628.69
691.997	15657.84
692.344	15484.96
692.69	15473.89
693.037	15495.58
693.383	15339.65
693.73	15333.78
694.077	15291.07
694.423	15270.28
694.769	15144.86
695.116	15142.14
695.462	15169.71
695.808	15030.28
696.155	15061.92
696.501	14909.38
696.847	14982.83
697.193	14807.24
697.539	14879.33
697.885	14747.13
698.231	14611.31
698.577	14636.39
698.923	14652.89
699.269	14452.44
699.614	14444.76
699.96	14288.61
700.306	14458.32
700.651	14313.92
700.997	14348.49
701.342	14247.48
701.688	14241.83
702.033	14147.82
702.379	14189.63
702.724	14148.72
703.069	14144.66
703.415	13895.17
703.76	13949.41
704.105	13971.78
704.45	13956.41
704.795	13873.03
705.14	13830.99
705.485	13766.81
705.83	13761.39
706.175	13763.65
706.52	13627.16
706.865	13595.97
707.209	13562.3
707.554	13526.59
707.899	13569.08
708.243	13479.36
708.588	13426.94
708.932	13381.74
709.277	13334.73
709.621	13341.29
709.966	13264.91
710.31	13285.24
710.654	13081.41
710.998	13047.74
711.342	13154.17
711.687	13110.11
712.031	13014.29
712.375	12958.02
712.719	12972.26
713.063	12969.55
713.407	12950.34
713.75	12972.03
714.094	12973.39
714.438	12763.22
714.782	12945.59
715.125	12791.47
715.469	12812.26
715.812	12692.04
716.156	12748.08
716.499	12744.92
716.843	12721.19
717.186	12587.64
717.53	12671.7
717.873	12689.78
718.216	12589.22
718.559	12600.74
718.902	12440.97
719.246	12573.62
719.589	12460.86
719.932	12459.5
720.275	12469.9
720.617	12498.37
720.96	12399.39
721.303	12414.08
721.646	12433.97
721.989	12347.87
722.331	12390.13
722.674	12391.93
723.016	12356.68
723.359	12341.54
723.701	12316.23
724.044	12326.63
724.386	12219.28
724.729	12305.38
725.071	12252.95
725.413	12160.08
725.755	12225.61
726.097	12186.52
726.439	12140.64
726.782	12159.62
727.124	12193.07
727.465	12177.02
727.807	12205.27
728.149	12158.49
728.491	12126.86
728.833	12110.36
729.175	12101.77
729.516	12059.51
729.858	12047.31
730.199	12074.88
730.541	12021.77
730.882	12067.87
731.224	12182.67
731.565	11993.75
731.906	11926.41
732.248	12005.73
732.589	11944.71
732.93	11962.79
733.271	11935.45
733.612	11980.42
733.953	11990.36
734.294	11892.74
734.635	11921.89
734.976	11949.46
735.317	11887.31
735.658	11980.65
735.999	11929.35
736.339	11956.01
736.68	11951.27
737.021	12000.76
737.361	11957.14
737.702	11992.4
738.042	12026.29
738.383	12021.77
738.723	12004.15
739.063	11931.16
739.404	11956.47
739.744	12000.53
740.084	11893.87
740.424	11971.15
740.764	12006.86
741.104	11989.91
741.444	11956.47
741.784	11982.91
742.124	12022.68
742.464	12052.06
742.804	12016.58
743.143	12082.11
743.483	12063.36
743.823	12034.66
744.162	12111.94
744.502	12198.27
744.841	12106.74
745.181	12218.61
745.52	12174.09
745.86	12297.7
746.199	12234.42
746.538	12301.09
746.877	12338.15
747.216	12386.74
747.556	12405.04
747.895	12448.43
748.234	12465.38
748.573	12453.85
748.911	12577.69
749.25	12628.99
749.589	12727.74
749.928	12817.23
750.267	12919.38
750.605	12927.06
750.944	12981.98
751.283	12993.27
751.621	13073.72
751.96	13190.11
752.298	13121.86
752.636	13230.56
752.975	13304
753.313	13426.48
753.651	13607.04
753.989	13521.62
754.327	13677.78
754.666	13676.65
755.004	13887.71
755.342	13930.65
755.679	13991.21
756.017	14202.28
756.355	14292.68
756.693	14301.71
757.031	14500.58
