Data from hue_160_FLMS001491_00023.txt Node
Date: Tue Feb 07 16:50:57 GMT 2017
User: dcchb
Spectrometer: FLMS00149
Trigger mode: 0
Integration Time (sec): 2.000000E-2
Scans to average: 10
Electric dark correction enabled: true
Nonlinearity correction enabled: false
Boxcar width: 0
XAxis mode: Wavelengths
Number of Pixels in Spectrum: 2048
>>>>>Begin Spectral Data<<<<<
341.393	-19.56
341.776	-19.56
342.16	-19.56
342.543	-82.84
342.927	-92.78
343.31	-85.77
343.693	-66.57
344.077	-66.57
344.46	-66.11
344.843	-49.39
345.226	-18.43
345.61	-24.53
345.993	-22.95
346.376	-28.6
346.759	31.28
347.142	24.51
347.525	39.87
347.908	66.54
348.291	73.54
348.674	88.23
349.057	104.95
349.44	114.67
349.823	134.56
350.206	177.5
350.588	215.69
350.971	205.07
351.354	203.94
351.737	214.1
352.119	256.14
352.502	253.88
352.884	275.8
353.267	299.53
353.65	278.96
354.032	286.42
354.414	299.3
354.797	313.31
355.179	314.67
355.562	315.8
355.944	328.23
356.326	312.63
356.709	335.91
357.091	316.7
357.473	341.56
357.855	349.69
358.238	340.88
358.62	324.16
359.002	360.77
359.384	341.56
359.766	338.62
360.148	326.87
360.53	342.91
360.912	336.81
361.294	323.71
361.676	335.68
362.057	316.93
362.439	323.25
362.821	316.93
363.203	342.01
363.584	311.96
363.966	316.02
364.348	303.59
364.729	317.38
365.111	331.84
365.493	297.49
365.874	311.73
366.256	311.5
366.637	311.96
367.019	298.85
367.4	297.94
367.781	316.93
368.163	329.36
368.544	323.48
368.925	302.69
369.306	318.96
369.688	303.14
370.069	323.03
370.45	317.6
370.831	335.23
371.212	302.92
371.593	295.23
371.974	328
372.355	304.95
372.736	317.6
373.117	304.5
373.498	321.67
373.879	294.33
374.26	305.63
374.641	307.66
375.021	303.14
375.402	317.83
375.783	300.88
376.163	317.15
376.544	316.02
376.925	309.24
377.305	311.05
377.686	317.6
378.066	323.03
378.447	315.8
378.827	320.77
379.208	320.77
379.588	311.96
379.968	291.62
380.349	318.96
380.729	348.11
381.109	351.73
381.489	326.64
381.87	325.29
382.25	327.77
382.63	330.03
383.01	331.16
383.39	339.07
383.77	343.82
384.15	337.04
384.53	337.49
384.91	351.5
385.29	335.01
385.67	338.62
386.049	352.18
386.429	333.2
386.809	331.39
387.189	356.47
387.568	341.11
387.948	341.33
388.328	358.06
388.707	338.85
389.087	360.99
389.466	362.35
389.846	371.84
390.225	354.44
390.605	381.33
390.984	353.08
391.363	340.65
391.743	342.46
392.122	361.67
392.501	385.4
392.881	362.58
393.26	365.96
393.639	353.08
394.018	383.37
394.397	366.64
394.776	373.65
395.155	357.38
395.534	351.28
395.913	353.54
396.292	378.62
396.671	372.97
397.05	382.24
397.429	399.64
397.808	366.19
398.186	378.17
398.565	376.13
398.944	394.89
399.323	383.82
399.701	391.95
400.08	389.02
400.458	374.1
400.837	407.09
401.215	403.7
401.594	397.38
401.972	394.66
402.351	407.55
402.729	386.53
403.107	398.73
403.486	377.94
403.864	409.35
404.242	391.05
404.62	412.52
404.999	417.04
405.377	415.91
405.755	423.14
406.133	409.35
406.511	409.81
406.889	406.19
407.267	419.52
407.645	417.72
408.023	439.18
408.401	434.21
408.779	447.09
409.156	433.53
409.534	429.92
409.912	447.09
410.29	433.99
410.667	460.2
411.045	445.51
411.422	473.08
411.8	469.24
412.178	456.58
412.555	467.21
412.933	478.28
413.31	501.1
413.687	467.66
414.065	489.58
414.442	494.78
414.819	450.26
415.197	480.99
415.574	495.45
415.951	516.7
416.328	507.43
416.705	483.25
417.082	497.49
417.46	491.39
417.837	510.37
418.214	526.41
418.591	530.03
418.967	510.14
419.344	526.64
419.721	535.68
420.098	525.06
420.475	537.03
420.852	522.35
421.228	546.75
421.605	528.45
421.982	527.77
422.358	560.31
422.735	540.42
423.111	565.06
423.488	563.93
423.864	581.33
424.241	568.45
424.617	593.98
424.994	587.88
425.37	585.39
425.746	589.91
426.123	570.71
426.499	588.78
426.875	612.51
427.251	606.18
427.627	621.55
428.003	638.27
428.379	614.55
428.756	607.31
429.132	631.49
429.507	661.1
429.883	649.35
430.259	654.77
430.635	648.44
431.011	655.45
431.387	679.86
431.763	665.62
432.138	635.11
432.514	676.24
432.89	668.1
433.265	683.47
433.641	723.7
434.016	695.9
434.392	724.37
434.767	742.68
435.143	715.33
435.518	745.39
435.894	731.83
436.269	742.9
436.644	756.69
437.02	751.72
437.395	760.08
437.77	758.72
438.145	769.12
438.52	793.3
438.895	797.59
439.271	805.5
439.646	838.49
440.021	821.55
440.395	807.99
440.77	812.96
441.145	848.44
441.52	853.18
441.895	850.47
442.27	830.81
442.645	854.77
443.019	849.57
443.394	855.9
443.769	885.5
444.143	882.11
444.518	885.27
444.892	877.59
445.267	860.42
445.641	913.75
446.016	908.1
446.39	901.32
446.764	906.29
447.139	931.37
447.513	950.58
447.887	942.22
448.262	953.07
448.636	925.72
449.01	938.83
449.384	952.84
449.758	973.86
450.132	974.31
450.506	953.97
450.88	1006.17
451.254	972.05
451.628	1010.24
452.002	1009.11
452.376	1013.63
452.75	1027.19
453.123	1049.56
453.497	1071.03
453.871	1077.36
454.244	1081.2
454.618	1091.14
454.992	1092.95
455.365	1108.77
455.739	1138.37
456.112	1146.28
456.486	1131.14
456.859	1164.59
457.232	1199.62
457.606	1176.57
457.979	1191.93
458.352	1220.86
458.725	1208.2
459.099	1220.86
459.472	1245.04
459.845	1266.51
460.218	1277.81
460.591	1276.68
460.964	1289.56
461.337	1319.84
461.71	1363.9
462.083	1400.97
462.456	1391.93
462.829	1364.58
463.201	1408.88
463.574	1454.75
463.947	1433.28
464.32	1465.6
464.692	1486.61
465.065	1517.57
465.438	1524.8
465.81	1562.09
466.183	1568.42
466.555	1622.43
466.928	1625.14
467.3	1600.73
467.672	1660.62
468.045	1695.65
468.417	1701.07
468.789	1726.38
469.161	1740.84
469.534	1800.5
469.906	1825.81
470.278	1872.59
470.65	1870.78
471.022	1923.21
471.394	1976.09
471.766	2020.16
472.138	2040.95
472.51	2059.71
472.882	2150.55
473.253	2155.52
473.625	2186.03
473.997	2258.34
474.369	2292.02
474.74	2355.52
475.112	2400.04
475.484	2468.73
475.855	2479.58
476.227	2569.75
476.598	2652.91
476.97	2672.57
477.341	2773.59
477.713	2799.8
478.084	2859.01
478.455	2965.9
478.827	2994.82
479.198	3132.67
479.569	3142.39
479.94	3275.94
480.311	3358.65
480.682	3409.05
481.053	3552.55
481.424	3637.97
481.795	3762.26
482.166	3788.93
482.537	3871.86
482.908	3978.53
483.279	4041.57
483.65	4179.2
484.021	4262.59
484.391	4396.82
484.762	4490.38
485.133	4552.07
485.503	4679.98
485.874	4823.7
486.244	4928.33
486.615	5041.32
486.985	5203.13
487.356	5317.02
487.726	5367.19
488.097	5546.39
488.467	5634.08
488.837	5749.33
489.207	5943.67
489.578	6053.5
489.948	6153.61
490.318	6309.31
490.688	6366.49
491.058	6504.33
491.428	6692.13
491.798	6793.82
492.168	6969.41
492.538	7046.92
492.908	7193.58
493.278	7373.46
493.648	7418.66
494.017	7473.35
494.387	7711.08
494.757	7773.91
495.126	7947.91
495.496	8006.44
495.866	8155.14
496.235	8252.54
496.605	8328.92
496.974	8417.96
497.344	8633.77
497.713	8645.52
498.082	8754.67
498.452	8908.57
498.821	8923.71
499.19	9039.18
499.559	9081.67
499.928	9219.74
500.298	9317.14
500.667	9472.17
501.036	9514.88
501.405	9589.23
501.774	9679.39
502.143	9797.13
502.512	9808.43
502.88	9986.5
503.249	9925.94
503.618	10071.7
503.987	10093.84
504.356	10235.54
504.724	10261.52
505.093	10384.01
505.462	10311.24
505.83	10450.45
506.199	10539.71
506.567	10590.78
506.936	10594.17
507.304	10790.32
507.672	10845.24
508.041	10843.88
508.409	10960.49
508.777	11001.17
509.145	11068.96
509.514	11084.33
509.882	11193.93
510.25	11208.39
510.618	11215.85
510.986	11290.65
511.354	11382.17
511.722	11480.02
512.09	11530.64
512.458	11482.96
512.826	11602.73
513.193	11583.3
513.561	11593.47
513.929	11666.91
514.297	11733.12
514.664	11804.99
515.032	11821.48
515.4	11892.67
515.767	11884.31
516.135	11927.02
516.502	11824.42
516.869	11988.71
517.237	12053.79
517.604	12018.54
517.972	12056.28
518.339	12085.66
518.706	12114.36
519.073	12174.02
519.44	12152.55
519.808	12298.53
520.175	12196.61
520.542	12375.59
520.909	12353.67
521.276	12358.19
521.643	12431.86
522.009	12395.48
522.376	12441.35
522.743	12443.84
523.11	12631.86
523.477	12564.97
523.843	12616.72
524.21	12609.03
524.577	12660.78
524.943	12691.52
525.31	12771.29
525.676	12830.5
526.043	12850.38
526.409	12841.34
526.776	12898.06
527.142	12814.23
527.508	12775.13
527.874	12952.07
528.241	12846.54
528.607	12884.73
528.973	12947.78
529.339	12928.57
529.705	12990.49
530.071	12939.42
530.437	12996.59
530.803	13019.87
531.169	13001.11
531.535	12939.42
531.901	12912.75
532.267	12844.51
532.632	12941.45
532.998	12931.74
533.364	12931.51
533.73	12895.13
534.095	12939.42
534.461	12908.01
534.826	12949.81
535.192	12841.57
535.557	12960.66
535.923	12751.85
536.288	12783.94
536.653	12863.94
537.019	12754.11
537.384	12721.57
537.749	12771.51
538.114	12635.25
538.479	12710.73
538.845	12575.36
539.21	12559.32
539.575	12576.94
539.94	12476.83
540.305	12524.97
540.67	12460.34
541.034	12404.52
541.399	12454.46
541.764	12420.11
542.129	12439.32
542.494	12372.43
542.858	12313.67
543.223	12257.86
543.587	12327.46
543.952	12281.58
544.316	12234.81
544.681	12196.61
545.045	12198.42
545.41	12214.69
545.774	12153.9
546.138	12097.63
546.503	12053.34
546.867	11923.18
547.231	12047.47
547.595	11937.19
547.959	11888.83
548.324	11899.22
548.688	11855.38
549.052	11820.13
549.416	11868.94
549.779	11846.79
550.143	11681.83
550.507	11772.44
550.871	11742.16
551.235	11567.7
551.599	11672.56
551.962	11670.07
552.326	11724.31
552.689	11571.77
553.053	11532.23
553.417	11547.82
553.78	11589.4
554.143	11492
554.507	11513.24
554.87	11466.01
555.234	11526.8
555.597	11491.1
555.96	11330.65
556.323	11399.35
556.686	11322.96
557.05	11336.98
557.413	11351.44
557.776	11321.16
558.139	11321.16
558.502	11355.28
558.865	11378.33
559.228	11390.53
559.59	11374.94
559.953	11277.09
560.316	11395.96
560.679	11353.7
561.041	11365.45
561.404	11386.92
561.767	11393.92
562.129	11295.85
562.492	11450.65
562.854	11326.58
563.217	11322.06
563.579	11371.78
563.941	11441.61
564.304	11397.09
564.666	11443.19
565.028	11436.41
565.39	11360.03
565.753	11464.43
566.115	11443.64
566.477	11448.39
566.839	11426.69
567.201	11499.46
567.563	11480.93
567.925	11498.78
568.287	11467.14
568.648	11468.05
569.01	11428.05
569.372	11539.46
569.734	11477.99
570.095	11511.43
570.457	11539.91
570.819	11516.41
571.18	11514.6
571.542	11552.34
571.903	11545.11
572.265	11663.3
572.626	11619.45
572.987	11593.47
573.349	11631.66
573.71	11643.41
574.071	11569.29
574.432	11632.79
574.794	11731.77
575.155	11742.16
575.516	11619.91
575.877	11678.89
576.238	11623.75
576.599	11554.6
576.96	11701.03
577.32	11572.9
577.681	11640.24
578.042	11613.35
578.403	11707.59
578.763	11693.12
579.124	11652
579.485	11800.01
579.845	11790.52
580.206	11767.7
580.566	11786.46
580.927	11700.36
581.287	11759.56
581.648	11695.84
582.008	11723.18
582.368	11761.15
582.728	11676.63
583.089	11755.72
583.449	11733.58
583.809	11668.72
584.169	11690.41
584.529	11697.42
584.889	11636.63
585.249	11587.59
585.609	11628.72
585.969	11642.05
586.329	11604.54
586.688	11607.25
587.048	11631.43
587.408	11579.46
587.768	11536.97
588.127	11565.67
588.487	11585.56
588.846	11606.12
589.206	11502.85
589.565	11626.91
589.925	11516.63
590.284	11553.69
590.643	11517.08
591.003	11525.45
591.362	11541.26
591.721	11472.79
592.08	11522.96
592.44	11519.57
592.799	11515.05
593.158	11487.71
593.517	11506.46
593.876	11504.2
594.235	11399.57
594.593	11551.43
594.952	11473.7
595.311	11393.25
595.67	11454.26
596.029	11440.25
596.387	11562.28
596.746	11481.15
597.104	11374.04
597.463	11433.02
597.822	11443.19
598.18	11407.71
598.538	11337.43
598.897	11455.62
599.255	11312.34
599.613	11506.01
599.972	11443.87
600.33	11443.19
600.688	11388.73
601.046	11411.55
601.404	11424.66
601.762	11393.92
602.12	11493.36
602.478	11533.35
602.836	11532
603.194	11332.46
603.552	11472.57
603.91	11378.56
604.268	11474.37
604.625	11382.4
604.983	11464.2
605.341	11454.94
605.698	11436.41
606.056	11451.1
606.413	11418.56
606.771	11477.31
607.128	11468.05
607.485	11376.3
607.843	11440.48
608.2	11483.19
608.557	11500.36
608.914	11401.38
609.272	11529.06
609.629	11499.01
609.986	11500.59
610.343	11521.15
610.7	11559.12
611.057	11544.88
611.414	11524.32
611.771	11522.51
612.127	11596.86
612.484	11494.03
612.841	11584.43
613.198	11592.34
613.554	11587.14
613.911	11609.96
614.267	11612.45
614.624	11612
614.98	11633.24
615.337	11675.27
615.693	11687.48
616.05	11612
616.406	11712.79
616.762	11677.98
617.118	11641.37
617.475	11669.17
617.831	11661.26
618.187	11668.04
618.543	11755.5
618.899	11764.54
619.255	11718.89
619.611	11685.89
619.967	11732.45
620.323	11859
620.678	11732.9
621.034	11696.74
621.39	11708.49
621.746	11780.13
622.101	11859.22
622.457	11679.57
622.812	11645.44
623.168	11759.11
623.523	11785.78
623.879	11743.74
624.234	11669.17
624.589	11754.59
624.945	11785.33
625.3	11738.1
625.655	11764.08
626.01	11824.19
626.365	11786.68
626.72	11671.66
627.075	11746.23
627.43	11746
627.785	11676.85
628.14	11745.55
628.495	11710.3
628.85	11773.57
629.205	11674.59
629.559	11752.11
629.914	11597.99
630.269	11694.03
630.623	11628.95
630.978	11581.26
631.332	11609.51
631.687	11617.87
632.041	11611.32
632.396	11568.83
632.75	11569.74
633.104	11649.51
633.459	11576.97
633.813	11555.73
634.167	11602.96
634.521	11579.91
634.875	11580.36
635.229	11586.01
635.583	11470.08
635.937	11543.3
636.291	11509.17
636.645	11512.34
636.999	11462.17
637.352	11500.36
637.706	11362.96
638.06	11461.72
638.413	11397.31
638.767	11382.17
639.121	11390.31
639.474	11338.56
639.828	11363.42
640.181	11315.73
640.534	11313.25
640.888	11322.29
641.241	11202.29
641.594	11329.74
641.947	11332.46
642.301	11260.37
642.654	11224.66
643.007	11253.14
643.36	11267.83
643.713	11203.65
644.066	11271.44
644.419	11136.08
644.771	11099.47
645.124	11033.48
645.477	11033.93
645.83	10969.98
646.182	10872.81
646.535	10898.8
646.888	10845.69
647.24	10889.53
647.593	11018.11
647.945	10908.96
648.298	10828.06
648.65	10875.97
649.002	10827.16
649.355	10896.99
649.707	10907.38
650.059	10972.92
650.411	11045.68
650.763	11103.54
651.115	11138.79
651.467	11186.7
651.819	11115.29
652.171	11127.94
652.523	11060.15
652.875	11063.31
653.227	11056.76
653.578	11179.92
653.93	11133.82
654.282	11074.84
654.633	11076.19
654.985	11078.9
655.337	11068.51
655.688	11122.74
656.039	11113.25
656.391	11081.84
656.742	11092.91
657.094	11070.09
657.445	11183.08
657.796	11100.37
658.147	11038.68
658.498	11099.69
658.849	11145.79
659.2	11063.08
659.551	11157.55
659.902	11074.84
660.253	11101.05
660.604	11147.15
660.955	11150.54
661.306	11133.14
661.656	11102.41
662.007	11101.5
662.358	11096.3
662.708	11189.41
663.059	11147.6
663.409	11110.54
663.76	11152.12
664.11	11170.88
664.461	11141.27
664.811	11193.48
665.161	11104.67
665.511	11151.44
665.862	11163.65
666.212	11235.51
666.562	11207.49
666.912	11219.46
667.262	11210.43
667.612	11107.83
667.962	11240.71
668.312	11226.24
668.662	11184.44
669.011	11158
669.361	11166.58
669.711	11110.77
670.06	11096.76
670.41	11126.59
670.76	11157.55
671.109	11158.68
671.459	11136.98
671.808	11105.8
672.157	11149.41
672.507	11156.42
672.856	11082.29
673.205	11061.05
673.554	11101.5
673.904	11091.78
674.253	11151.67
674.602	11098.56
674.951	10964.78
675.3	10889.76
675.649	11042.29
675.998	11035.51
676.346	11046.59
676.695	11109.64
677.044	11010.2
677.393	10993.48
677.741	10968.4
678.09	11009.53
678.438	10962.07
678.787	10941.05
679.135	10964.56
679.484	10859.93
679.832	10842.75
680.181	10892.24
680.529	10848.4
680.877	10808.85
681.225	10840.49
681.573	10884.56
681.922	10831.45
682.27	10774.5
682.618	10840.27
682.966	10669.2
683.314	10757.78
683.661	10774.96
684.009	10632.36
684.357	10624.68
684.705	10649.08
685.053	10683.66
685.4	10567.5
685.748	10609.99
686.095	10452.25
686.443	10489.31
686.79	10484.79
687.138	10463.33
687.485	10445.93
687.832	10496.77
688.18	10449.54
688.527	10325.03
688.874	10396.66
689.221	10305.14
689.568	10305.59
689.915	10325.48
690.262	10294.74
690.609	10275.31
690.956	10196.67
691.303	10218.59
691.65	10133.62
691.997	10053.62
692.344	10071.7
692.69	10051.81
693.037	10033.28
693.383	9951.48
693.73	9961.64
694.077	9912.38
694.423	9924.58
694.769	9814.08
695.116	9835.55
695.462	9777.92
695.808	9775.66
696.155	9775.21
696.501	9670.81
696.847	9648.21
697.193	9664.25
697.539	9693.4
697.885	9493.41
698.231	9532.28
698.577	9495.67
698.923	9540.64
699.269	9455.67
699.614	9406.41
699.96	9362.34
700.306	9351.04
700.651	9315.79
700.997	9330.25
701.342	9231.49
701.688	9215.22
702.033	9133.42
702.379	9156.92
702.724	9060.88
703.069	9114.89
703.415	8975.46
703.76	9109.01
704.105	9076.7
704.45	8989.92
704.795	8954.44
705.14	8892.75
705.485	8895.23
705.83	8857.04
706.175	8853.65
706.52	8833.31
706.865	8737.04
707.209	8812.52
707.554	8693.2
707.899	8707.21
708.243	8723.49
708.588	8714.22
708.932	8639.87
709.277	8605.52
709.621	8629.93
709.966	8519.87
710.31	8599.19
710.654	8469.25
710.998	8468.12
711.342	8477.16
711.687	8483.94
712.031	8460.22
712.375	8431.74
712.719	8459.31
713.063	8422.93
713.407	8379.99
713.75	8314.91
714.094	8374.34
714.438	8295.47
714.782	8328.69
715.125	8262.25
715.469	8331.86
715.812	8282.14
716.156	8202.37
716.499	8239.2
716.843	8236.49
717.186	8193.78
717.53	8271.52
717.873	8259.09
718.216	8246.66
718.559	8160.79
718.902	8074.69
719.246	8169.38
719.589	8060.45
719.932	8055.03
720.275	8088.93
720.617	8149.04
720.96	8111.07
721.303	8182.93
721.646	8102.94
721.989	8022.71
722.331	8098.87
722.674	8085.08
723.016	8068.14
723.359	8007.35
723.701	8019.32
724.044	8028.59
724.386	7964.41
724.729	8007.35
725.071	7941.13
725.413	8044.41
725.755	7998.31
726.097	7952.66
726.439	7917.86
726.782	7945.43
727.124	7918.76
727.465	7871.98
727.807	7892.09
728.149	7899.78
728.491	7863.62
728.833	7924.18
729.175	7918.76
729.516	7884.19
729.858	7872.66
730.199	7884.19
730.541	7899.55
730.882	7858.42
731.224	7921.25
731.565	7817.29
731.906	7848.25
732.248	7842.6
732.589	7803.74
732.93	7804.41
733.271	7778.65
733.612	7853
733.953	7930.06
734.294	7891.64
734.635	7823.4
734.976	7885.99
735.317	7798.54
735.658	7892.55
735.999	7794.24
736.339	7833.79
736.68	7832.44
737.021	7922.6
737.361	7821.59
737.702	7901.81
738.042	7846.45
738.383	7901.36
738.723	7905.65
739.063	7896.16
739.404	7885.54
739.744	7924.18
740.084	7892.09
740.424	7918.31
740.764	7966.9
741.104	7897.52
741.444	7993.79
741.784	8002.37
742.124	8042.37
742.464	7982.26
742.804	8028.14
743.143	8018.65
743.483	8071.98
743.823	8001.47
744.162	8106.78
744.502	8090.51
744.841	8088.25
745.181	8175.7
745.52	8171.18
745.86	8240.33
746.199	8257.51
746.538	8324.63
746.877	8302.03
747.216	8415.47
747.556	8458.41
747.895	8502.47
748.234	8498.86
748.573	8562.81
748.911	8600.78
749.25	8663.83
749.589	8702.24
749.928	8791.73
750.267	8856.59
750.605	8907.44
750.944	8977.94
751.283	9008
751.621	9158.05
751.96	9171.16
752.298	9290.93
752.636	9310.59
752.975	9402.79
753.313	9494.09
753.651	9674.19
753.989	9715.1
754.327	9867.86
754.666	9904.47
755.004	10026.28
755.342	10178.36
755.679	10303.56
756.017	10353.5
756.355	10546.26
756.693	10651.8
757.031	10756.88
757.368	10871.68
757.706	11007.72
758.044	11153.03
758.381	11332.46
758.719	11453.58
759.056	11579.91
759.394	11728.6
759.731	11841.37
