Data from hue_22_FLMS001491_00057.txt Node
Date: Tue Feb 07 17:10:20 GMT 2017
User: dcchb
Spectrometer: FLMS00149
Trigger mode: 0
Integration Time (sec): 2.000000E-2
Scans to average: 10
Electric dark correction enabled: true
Nonlinearity correction enabled: false
Boxcar width: 0
XAxis mode: Wavelengths
Number of Pixels in Spectrum: 2048
>>>>>Begin Spectral Data<<<<<
341.393	-9.27
341.776	-9.27
342.16	-9.27
342.543	-64.41
342.927	-76.61
343.31	-59.89
343.693	-76.38
344.077	-68.92
344.46	-73.22
344.843	-45.87
345.226	-45.87
345.61	-35.48
345.993	-12.88
346.376	-7.68
346.759	20.56
347.142	25.08
347.525	48.13
347.908	51.52
348.291	80.22
348.674	85.2
349.057	115.48
349.44	107.12
349.823	146.44
350.206	156.83
350.588	188.47
350.971	222.59
351.354	236.15
351.737	250.84
352.119	228.24
352.502	269.15
352.884	299.2
353.267	299.2
353.65	304.85
354.032	288.81
354.414	307.56
354.797	306.88
355.179	334.68
355.562	336.04
355.944	328.13
356.326	336.71
356.709	332.42
357.091	338.3
357.473	348.92
357.855	324.51
358.238	349.82
358.62	361.12
359.002	338.75
359.384	365.64
359.766	329.03
360.148	349.14
360.53	351.18
360.912	327
361.294	338.75
361.676	327.9
362.057	342.36
362.439	357.73
362.821	316.38
363.203	339.88
363.584	327.22
363.966	304.4
364.348	330.16
364.729	322.25
365.111	319.77
365.493	324.96
365.874	316.6
366.256	326.77
366.637	325.87
367.019	318.86
367.4	320.44
367.781	327
368.163	324.29
368.544	319.31
368.925	310.27
369.306	320.44
369.688	303.04
370.069	291.97
370.45	319.31
370.831	322.48
371.212	325.87
371.593	321.35
371.974	317.73
372.355	320.9
372.736	298.3
373.117	315.7
373.498	329.71
373.879	318.64
374.26	327.68
374.641	303.72
375.021	309.37
375.402	328.8
375.783	328.35
376.163	337.17
376.544	317.05
376.925	335.36
377.305	312.08
377.686	329.48
378.066	309.37
378.447	339.88
378.827	310.5
379.208	367.22
379.588	344.17
379.968	324.06
380.349	326.32
380.729	320.67
381.109	336.94
381.489	343.04
381.87	341.23
382.25	342.36
382.63	347.56
383.01	349.82
383.39	341.23
383.77	357.96
384.15	340.78
384.53	372.87
384.91	351.4
385.29	352.08
385.67	355.24
386.049	347.11
386.429	354.79
386.809	348.47
387.189	359.09
387.568	364.96
387.948	359.31
388.328	375.36
388.707	361.12
389.087	384.85
389.466	360.22
389.846	363.61
390.225	379.65
390.605	382.14
390.984	397.5
391.363	363.61
391.743	385.07
392.122	368.58
392.501	378.52
392.881	370.39
393.26	397.73
393.639	362.25
394.018	375.81
394.397	382.81
394.776	376.71
395.155	367.67
395.534	385.07
395.913	388.69
396.292	378.52
396.671	392.08
397.05	387.79
397.429	391.4
397.808	376.94
398.186	394.11
398.565	381.91
398.944	394.57
399.323	395.24
399.701	395.02
400.08	391.85
400.458	391.63
400.837	403.38
401.215	406.32
401.594	401.8
401.972	402.93
402.351	396.15
402.729	411.97
403.107	417.39
403.486	382.14
403.864	419.2
404.242	416.71
404.62	425.07
404.999	410.38
405.377	431.4
405.755	430.72
406.133	436.15
406.511	435.02
406.889	447.67
407.267	439.54
407.645	430.72
408.023	455.36
408.401	435.47
408.779	438.63
409.156	440.67
409.534	438.18
409.912	450.16
410.29	454.45
410.667	451.06
411.045	465.07
411.422	462.59
411.8	443.6
412.178	466.65
412.555	480.44
412.933	468.91
413.31	493.09
413.687	465.07
414.065	481.34
414.442	479.76
414.819	501.46
415.197	486.77
415.574	478.18
415.951	496.71
416.328	489.7
416.705	510.95
417.082	506.2
417.46	514.79
417.837	530.83
418.214	506.2
418.591	514.34
418.967	508.46
419.344	505.98
419.721	525.86
420.098	536.03
420.475	523.38
420.852	541.45
421.228	526.77
421.605	527.9
421.982	522.7
422.358	554.11
422.735	536.94
423.111	542.81
423.488	536.26
423.864	559.08
424.241	570.83
424.617	569.02
424.994	572.64
425.37	575.58
425.746	578.52
426.123	577.84
426.499	559.76
426.875	589.59
427.251	602.92
427.627	602.92
428.003	588.46
428.379	603.6
428.756	605.63
429.132	604.73
429.507	622.36
429.883	616.71
430.259	624.16
430.635	629.14
431.011	628.91
431.387	635.01
431.763	659.42
432.138	643.82
432.514	639.31
432.89	618.29
433.265	663.71
433.641	663.94
434.016	679.08
434.392	661.23
434.767	678.63
435.143	703.71
435.518	669.81
435.894	729.02
436.269	701.45
436.644	713.65
437.02	724.73
437.395	714.78
437.77	725.4
438.145	731.28
438.52	734.67
438.895	731.96
439.271	744.16
439.646	776.25
440.021	750.49
440.395	747.78
440.77	766.53
441.145	742.35
441.52	764.5
441.895	773.76
442.27	783.71
442.645	759.3
443.019	795.46
443.394	786.87
443.769	802.92
444.143	803.59
444.518	814.67
444.892	803.82
445.267	809.02
445.641	808.11
446.016	819.19
446.39	837.49
446.764	825.97
447.139	818.06
447.513	841.56
447.887	866.19
448.262	849.92
448.636	850.83
449.01	856.47
449.384	879.75
449.758	854.89
450.132	874.33
450.506	865.97
450.88	877.27
451.254	896.02
451.628	905.51
452.002	890.37
452.376	908.22
452.75	889.92
453.123	902.8
453.497	908.22
453.871	938.73
454.244	934.44
454.618	960.2
454.992	991.16
455.365	1002.46
455.739	959.3
456.112	986.87
456.486	973.08
456.859	999.75
457.232	1028.22
457.606	1029.8
457.979	1036.13
458.352	1052.63
458.725	1071.61
459.099	1060.76
459.472	1080.42
459.845	1099.63
460.218	1087.2
460.591	1103.02
460.964	1086.07
461.337	1134.43
461.71	1164.49
462.083	1145.96
462.456	1145.96
462.829	1183.02
463.201	1196.58
463.574	1187.77
463.947	1213.3
464.32	1218.95
464.692	1239.52
465.065	1236.58
465.438	1256.01
465.81	1270.48
466.183	1279.06
466.555	1310.93
466.928	1337.82
467.3	1310.7
467.672	1355.9
468.045	1354.77
468.417	1390.25
468.789	1381.43
469.161	1390.92
469.534	1426.4
469.906	1429.79
470.278	1503.24
470.65	1480.64
471.022	1519.73
471.394	1521.54
471.766	1538.94
472.138	1579.85
472.51	1580.98
472.882	1627.53
473.253	1649.22
473.625	1655.32
473.997	1709.33
474.369	1731.25
474.74	1720.18
475.112	1785.49
475.484	1777.81
475.855	1816
476.227	1832.27
476.598	1886.73
476.97	1910.01
477.341	1930.12
477.713	1981.64
478.084	2000.63
478.455	2068.65
478.827	2067.52
479.198	2179.15
479.569	2166.27
479.94	2219.83
480.311	2220.28
480.682	2322.65
481.053	2344.57
481.424	2378.24
481.795	2409.88
482.166	2454.4
482.537	2504.79
482.908	2515.19
483.279	2554.51
483.65	2603.55
484.021	2669.53
484.391	2702.75
484.762	2730.55
485.133	2799.7
485.503	2819.81
485.874	2891.45
486.244	2902.07
486.615	3008.73
486.985	3019.36
487.356	3077.21
487.726	3107.04
488.097	3187.94
488.467	3204.21
488.837	3300.48
489.207	3337.09
489.578	3423.64
489.948	3447.82
490.318	3477.2
490.688	3477.65
491.058	3575.27
491.428	3573.69
491.798	3640.13
492.168	3717.42
492.538	3758.77
492.908	3846.45
493.278	3831.54
493.648	3840.58
494.017	3913.8
494.387	3983.62
494.757	3998.31
495.126	4060.23
495.496	4088.03
495.866	4127.35
496.235	4152.43
496.605	4198.53
496.974	4247.35
497.344	4297.51
497.713	4311.3
498.082	4302.03
498.452	4359.89
498.821	4380.45
499.19	4389.72
499.559	4464.52
499.928	4512.88
500.298	4563.5
500.667	4577.51
501.036	4581.57
501.405	4609.6
501.774	4673.55
502.143	4661.8
502.512	4718.97
502.88	4745.86
503.249	4771.17
503.618	4761.23
503.987	4796.71
504.356	4852.53
504.724	4897.5
505.093	4889.36
505.462	4885.52
505.83	4945.41
506.199	5007.1
506.567	4984.5
506.936	5014.33
507.304	5104.72
507.672	5126.64
508.041	5177.94
508.409	5156.02
508.777	5192.41
509.145	5191.5
509.514	5210.03
509.882	5229.69
510.25	5296.13
510.618	5273.31
510.986	5321.67
511.354	5364.15
511.722	5402.34
512.09	5436.69
512.458	5401.67
512.826	5495
513.193	5450.93
513.561	5492.51
513.929	5526.86
514.297	5606.18
514.664	5645.73
515.032	5642.34
515.4	5680.98
515.767	5684.37
516.135	5696.8
516.502	5712.39
516.869	5738.15
517.237	5719.85
517.604	5740.87
517.972	5854.76
518.339	5857.47
518.706	5815.21
519.073	5845.72
519.44	5876.91
519.808	5992.61
520.175	5937.02
520.542	6005.49
520.909	6073.29
521.276	6004.81
521.643	6071.03
522.009	6142.66
522.376	6163
522.743	6182.21
523.11	6224.47
523.477	6263.34
523.843	6293.17
524.21	6356.9
524.577	6359.15
524.943	6343.11
525.31	6426.72
525.676	6478.25
526.043	6491.35
526.409	6530
526.776	6597.79
527.142	6579.94
527.508	6599.83
527.874	6658.81
528.241	6701.07
528.607	6715.76
528.973	6771.8
529.339	6809.99
529.705	6828.97
530.071	6937.67
530.437	6969.08
530.803	6950.1
531.169	6951
531.535	7053.15
531.901	6981.06
532.267	7030.1
532.632	7107.38
532.998	7119.36
533.364	7149.19
533.73	7174.05
534.095	7216.76
534.461	7273.03
534.826	7320.49
535.192	7347.38
535.557	7381.95
535.923	7402.97
536.288	7379.92
536.653	7415.85
537.019	7388.96
537.384	7480.71
537.749	7512.57
538.114	7470.31
538.479	7567.03
538.845	7612.23
539.21	7584.43
539.575	7598.67
539.94	7690.19
540.305	7723.41
540.67	7704.43
541.034	7765.45
541.399	7872.34
541.764	7856.06
542.129	7890.87
542.494	7895.16
542.858	7936.29
543.223	7946.68
543.587	8045.21
543.952	8003.41
544.316	8082.73
544.681	8109.84
545.045	8095.38
545.41	8145.55
545.774	8164.08
546.138	8162.27
546.503	8281.59
546.867	8265.09
547.231	8332.44
547.595	8348.48
547.959	8359.55
548.324	8355.94
548.688	8429.83
549.052	8471.19
549.416	8453.56
549.779	8429.16
550.143	8545.31
550.507	8625.31
550.871	8606.33
551.235	8685.87
551.599	8698.75
551.962	8703.5
552.326	8694.69
552.689	8738.98
553.053	8717.51
553.417	8803.16
553.78	8838.86
554.143	8793.67
554.507	8904.4
554.87	8858.98
555.234	9048.8
555.597	8953.21
555.96	9011.97
556.323	9017.39
556.686	9007.9
557.05	9131.29
557.413	9157.05
557.776	9186.65
558.139	9193.2
558.502	9218.51
558.865	9226.65
559.228	9261.9
559.59	9309.13
559.953	9283.15
560.316	9362.01
560.679	9400.66
561.041	9484.72
561.404	9460.77
561.767	9536.7
562.129	9490.37
562.492	9578.73
562.854	9583.48
563.217	9628.22
563.579	9635.23
563.941	9727.2
564.304	9784.6
564.666	9753.19
565.028	9833.64
565.39	9852.17
565.753	9899.85
566.115	9945.28
566.477	9963.81
566.839	10044.03
567.201	10014.43
567.563	10031.37
567.925	10101.66
568.287	10182.78
568.648	10131.71
569.01	10319.5
569.372	10333.74
569.734	10238.6
570.095	10394.3
570.457	10392.72
570.819	10385.72
571.18	10467.75
571.542	10539.16
571.903	10504.81
572.265	10606.05
572.626	10663
572.987	10691.24
573.349	10717.46
573.71	10803.78
574.071	10822.09
574.432	10914.29
574.794	11001.07
575.155	10992.03
575.516	11099.82
575.877	11145.47
576.238	11189.31
576.599	11284.9
576.96	11389.76
577.32	11395.63
577.681	11514.73
578.042	11647.15
578.403	11643.08
578.763	11732.12
579.124	11805.34
579.485	11941.61
579.845	12176.4
580.206	12195.16
580.566	12315.38
580.927	12386.57
581.287	12558.31
581.648	12711.98
582.008	12839.44
582.368	12942.48
582.728	13122.82
583.089	13252.31
583.449	13455.92
583.809	13602.35
584.169	13728
584.529	13900.65
584.889	14242.79
585.249	14258.61
585.609	14397.81
585.969	14739.5
586.329	14782.44
586.688	15145.14
587.048	15340.84
587.408	15552.13
587.768	15835.29
588.127	16000.03
588.487	16250.65
588.846	16596.85
589.206	16746.68
589.565	17032.77
589.925	17396.38
590.284	17600.67
590.643	17813.09
591.003	18220.54
591.362	18453.53
591.721	18733.74
592.08	19001.08
592.44	19238.59
592.799	19559.49
593.158	19879.48
593.517	20120.83
593.876	20538.89
594.235	20750.87
594.593	21030.86
594.952	21321.02
595.311	21784.96
595.67	22053.43
596.029	22476.25
596.387	22719.4
596.746	23127.75
597.104	23232.61
597.463	23612.49
597.822	24005.02
598.18	24206.37
598.538	24524.1
598.897	25013.58
599.255	25008.38
599.613	25741.47
599.972	25878.42
600.33	26206.09
600.688	26475.46
601.046	26823.25
601.404	27133.07
601.762	27451.26
602.12	27797.01
602.478	28181.86
602.836	28410.55
603.194	28502.53
603.552	28941.16
603.91	29117.2
604.268	29638.99
604.625	29750.4
604.983	29990.62
605.341	30229.49
605.698	30689.59
606.056	31017.04
606.413	31102.23
606.771	31520.53
607.128	31895.21
607.485	31928.2
607.843	32159.61
608.2	32574.74
608.557	32925.46
608.914	33153.03
609.272	33517.54
609.629	33740.36
609.986	34048.82
610.343	34061.03
610.7	34494.91
611.057	34582.82
611.414	34807.9
611.771	34931.96
612.127	35414.21
612.484	35333.76
612.841	35743.24
613.198	35765.39
613.554	36048.09
613.911	36247.41
614.267	36556.55
614.624	36767.85
614.98	36761.75
615.337	37244.22
615.693	37338
616.05	37396.53
616.406	37950.64
616.762	37801.27
617.118	37986.57
617.475	38143.86
617.831	38421.36
618.187	38485.32
618.543	38681.47
618.899	39031.74
619.255	38981.57
619.611	39144.51
619.967	39439.41
620.323	39625.62
620.678	39606.42
621.034	39593.76
621.39	39783.81
621.746	39782
622.101	40397.58
622.457	40080.75
622.812	40207.53
623.168	40543.57
623.523	40464.02
623.879	40764.58
624.234	40584.92
624.589	40818.14
624.945	40882.99
625.3	41016.32
625.655	41072.59
626.01	41254.96
626.365	41204.34
626.72	41356.65
627.075	41324.79
627.43	41456.09
627.785	41456.76
628.14	41617.66
628.495	41573.82
628.85	41710.09
629.205	41613.14
629.559	42003.87
629.914	41736.3
630.269	41842.29
630.623	41814.49
630.978	41819.69
631.332	42037.99
631.687	42251.09
632.041	41952.8
632.396	42087.93
632.75	42059.23
633.104	42114.15
633.459	41998.67
633.813	42079.12
634.167	42071.89
634.521	42144.43
634.875	42217.65
635.229	42239.12
635.583	42051.32
635.937	42233.24
636.291	42059.46
636.645	42221.26
636.999	42185.78
637.352	42220.81
637.706	41986.01
638.06	42253.58
638.413	42140.59
638.767	42090.19
639.121	42337.64
639.474	41929.52
639.828	42008.39
640.181	42247.93
640.534	42150.76
640.888	42125.22
641.241	41975.85
641.594	41998.67
641.947	42055.39
642.301	42030.99
642.654	42095.62
643.007	42088.61
643.36	42105.33
643.713	41913.02
644.066	42168.38
644.419	41806.58
644.771	41662.41
645.124	41334.28
645.477	41390.1
645.83	41140.39
646.182	41019.94
646.535	40933.16
646.888	40914.4
647.24	40822.66
647.593	41070.78
647.945	40913.27
648.298	40793.96
648.65	40722.09
649.002	40565.94
649.355	40900.62
649.707	40696.78
650.059	40853.39
650.411	41322.3
650.763	41597.1
651.115	41781.05
651.467	41575.63
651.819	41592.58
652.171	41573.37
652.523	41584.44
652.875	41497.21
653.227	41358.01
653.578	41732.01
653.93	41670.77
654.282	41500.15
654.633	41524.56
654.985	41500.83
655.337	41448.85
655.688	41511.68
656.039	41725.46
656.391	41233.27
656.742	41455.63
657.094	41400.72
657.445	41682.29
657.796	41402.98
658.147	41400.72
658.498	41398.91
658.849	41334.05
659.2	41396.43
659.551	41209.99
659.902	41491.79
660.253	41365.24
660.604	41409.31
660.955	41223.77
661.306	41310.55
661.656	41274.62
662.007	41276.2
662.358	41388.52
662.708	41253.83
663.059	41336.77
663.409	41001.41
663.76	41401.62
664.11	41373.6
664.461	41419.7
664.811	41458.8
665.161	41395.97
665.511	41204.79
665.862	41200.5
666.212	41332.47
666.562	41292.93
666.912	41221.51
667.262	41119.14
667.612	41159.82
667.962	41215.87
668.312	41129.54
668.662	41327.95
669.011	41177.9
669.361	41149.43
669.711	41094.74
670.06	41172.25
670.41	40963.67
670.76	41072.59
671.109	41255.86
671.459	41096.55
671.808	41050.67
672.157	41126.15
672.507	40892.94
672.856	40935.42
673.205	40941.75
673.554	41126.6
673.904	40967.96
674.253	41238.92
674.602	40777.23
674.951	40386.96
675.3	40311.71
675.649	41043.44
675.998	40955.53
676.346	40880.06
676.695	40967.74
677.044	40660.4
677.393	40702.88
677.741	40747.4
678.09	40651.36
678.438	40767.97
678.787	40593.06
679.135	40803.22
679.484	40577.92
679.832	40698.82
680.181	40470.8
680.529	40379.73
680.877	40311.93
681.225	40426.73
681.573	40492.27
681.922	40244.82
682.27	40166.4
682.618	40314.42
682.966	40028.33
683.314	40254.08
683.661	39966.63
684.009	39861.55
684.357	39855.68
684.705	39760.54
685.053	39844.6
685.4	39753.98
685.748	39637.15
686.095	39538.62
686.443	39441.22
686.79	39350.15
687.138	39524.84
687.485	39479.87
687.832	39314.22
688.18	39361.22
688.527	39039.65
688.874	39127.56
689.221	39069.48
689.568	39036.26
689.915	38866.1
690.262	38861.8
690.609	38774.8
690.956	38733.22
691.303	38612.32
691.65	38529.83
691.997	38555.37
692.344	38387.47
692.69	38253.91
693.037	38249.62
693.383	37914.71
693.73	38197.64
694.077	37869.06
694.423	37881.26
694.769	37787.93
695.116	37683.53
695.462	37559.69
695.808	37479.92
696.155	37630.42
696.501	37260.72
696.847	37307.04
697.193	36978.46
697.539	37161.51
697.885	36971.68
698.231	36760.16
698.577	36848.07
698.923	36810.11
699.269	36485.59
699.614	36418.93
699.96	36409.89
700.306	36541.41
700.651	36253.96
700.997	36104.59
701.342	36105.27
701.688	35968.55
702.033	35842
702.379	35909.11
702.724	35800.19
703.069	35800.64
703.415	35474.77
703.76	35463.47
704.105	35454.44
704.45	35391.16
704.795	35201.33
705.14	35085.18
705.485	34972.87
705.83	34836.37
706.175	34927.44
706.52	34733.55
706.865	34740.78
707.209	34784.62
707.554	34617.85
707.899	34743.04
708.243	34383.5
708.588	34400.45
708.932	34138.09
709.277	34206.56
709.621	34354.12
709.966	34000.69
710.31	34085.43
710.654	33816.06
710.998	33815.83
711.342	33790.07
711.687	33575.84
712.031	33655.84
712.375	33517.08
712.719	33638.21
713.063	33586.01
713.407	33591.89
713.75	33402.29
714.094	33396.18
714.438	33255.62
714.782	33309.18
715.125	33140.15
715.469	33281.61
715.812	33054.95
716.156	32852.7
716.499	32881.4
716.843	32957.78
717.186	32681.17
717.53	32826.93
717.873	32695.86
718.216	32768.4
718.559	32470.33
718.902	32404.57
719.246	32414.51
719.589	32270.11
719.932	32171.58
720.275	32294.07
720.617	32142.43
720.96	32161.87
721.303	32070.8
721.646	32001.64
721.989	31923.45
722.331	32072.6
722.674	31736.11
723.016	31816.11
723.359	31796.68
723.701	31818.15
724.044	31625.38
724.386	31568.21
724.729	31751.03
725.071	31526.85
725.413	31574.31
725.755	31453.41
726.097	31259.07
726.439	31134.1
726.782	31212.96
727.124	31313.3
727.465	31080.76
727.807	31203.25
728.149	31029.69
728.491	31060.43
728.833	31068.79
729.175	30823.14
729.516	30878.28
729.858	30934.1
730.199	30784.28
730.541	30583.6
730.882	30687.1
731.224	30782.47
731.565	30523.72
731.906	30680.78
732.248	30584.51
732.589	30466.77
732.93	30328.69
733.271	30525.3
733.612	30401.91
733.953	30367.34
734.294	30346.55
734.635	30271.07
734.976	30234.46
735.317	30200.79
735.658	30137.96
735.999	30206.89
736.339	30013.22
736.68	30071.3
737.021	30065.88
737.361	29820.91
737.702	30034.69
738.042	29875.15
738.383	29729.39
738.723	29944.75
739.063	29660.24
739.404	29762.61
739.744	29644.64
740.084	29512.67
740.424	29715.15
740.764	29552.9
741.104	29667.47
741.444	29435.16
741.784	29449.62
742.124	29434.25
742.464	29379.79
742.804	29329.4
743.143	29269.29
743.483	29241.04
743.823	29133.02
744.162	29192.9
744.502	29230.19
744.841	29049.18
745.181	29145.67
745.52	28967.15
745.86	29112.45
746.199	29058.9
746.538	28992.68
746.877	29079.91
747.216	29009.18
747.556	28824.1
747.895	28788.62
748.234	28754.27
748.573	28870.2
748.911	28707.49
749.25	28757.66
749.589	28530.1
749.928	28501.4
750.267	28549.08
750.605	28445.58
750.944	28450.1
751.283	28309.76
751.621	28402.19
751.96	28281.06
752.298	28284.45
752.636	28245.13
752.975	28098.47
753.313	27985.93
753.651	28109.32
753.989	27952.71
754.327	27846.27
754.666	27792.49
755.004	27882.43
755.342	27920.62
755.679	27773.96
756.017	27693.06
756.355	27787.29
756.693	27546.85
757.031	27699.16
757.368	27458.94
757.706	27466.4
758.044	27397.47
758.381	27450.58
758.719	27242.67
759.056	27228.44
759.394	27263.69
759.731	27019.63
760.068	27037.03
760.405	26963.58
