Data from hue_32_FLMS001491_00099.txt Node
Date: Tue Feb 07 17:24:17 GMT 2017
User: dcchb
Spectrometer: FLMS00149
Trigger mode: 0
Integration Time (sec): 2.000000E-2
Scans to average: 10
Electric dark correction enabled: true
Nonlinearity correction enabled: false
Boxcar width: 0
XAxis mode: Wavelengths
Number of Pixels in Spectrum: 2048
>>>>>Begin Spectral Data<<<<<
341.393	-19.91
341.776	-19.91
342.16	-19.91
342.543	-71.89
342.927	-79.8
343.31	-73.02
343.693	-54.49
344.077	-58.78
344.46	-59.69
344.843	-47.26
345.226	-35.51
345.61	-42.74
345.993	-23.3
346.376	-11.33
346.759	19.63
347.142	14.43
347.525	30.93
347.908	44.72
348.291	91.27
348.674	93.08
349.057	112.06
349.44	122.23
349.823	137.82
350.206	157.48
350.588	198.84
350.971	204.26
351.354	235.9
351.737	221.21
352.119	262.79
352.502	265.5
352.884	277.25
353.267	272.51
353.65	298.95
354.032	304.37
354.414	310.02
354.797	326.06
355.179	330.36
355.562	327.87
355.944	344.14
356.326	330.13
356.709	348.44
357.091	334.65
357.473	333.07
357.855	327.87
358.238	344.82
358.62	340.53
359.002	357.7
359.384	348.89
359.766	345.5
360.148	344.14
360.53	344.14
360.912	339.17
361.294	321.77
361.676	348.66
362.057	318.16
362.439	327.19
362.821	352.05
363.203	322.22
363.584	332.39
363.966	346.4
364.348	337.14
364.729	323.35
365.111	333.3
365.493	329.91
365.874	324.26
366.256	323.35
366.637	312.05
367.019	308.44
367.4	308.21
367.781	332.62
368.163	310.47
368.544	317.7
368.925	325.16
369.306	308.66
369.688	321.55
370.069	317.7
370.45	339.17
370.831	304.6
371.212	318.38
371.593	313.18
371.974	311.6
372.355	330.13
372.736	344.37
373.117	340.75
373.498	334.43
373.879	318.61
374.26	322.68
374.641	326.29
375.021	290.81
375.402	321.32
375.783	338.72
376.163	311.15
376.544	317.93
376.925	319.96
377.305	346.4
377.686	338.04
378.066	338.27
378.447	320.64
378.827	332.39
379.208	332.84
379.588	354.54
379.968	327.42
380.349	329.23
380.729	338.04
381.109	314.09
381.489	360.41
381.87	341.88
382.25	352.05
382.63	332.17
383.01	348.44
383.39	329.23
383.77	345.73
384.15	360.41
384.53	356.57
384.91	354.09
385.29	355.44
385.67	336.23
386.049	354.54
386.429	370.36
386.809	373.3
387.189	368.1
387.568	369.23
387.948	365.16
388.328	357.93
388.707	367.87
389.087	368.1
389.466	358.15
389.846	356.57
390.225	364.93
390.605	386.85
390.984	394.31
391.363	374.43
391.743	383.01
392.122	379.62
392.501	384.82
392.881	382.11
393.26	372.17
393.639	372.39
394.018	388.21
394.397	371.49
394.776	370.58
395.155	396.8
395.534	368.32
395.913	383.46
396.292	372.39
396.671	402.9
397.05	402.22
397.429	406.51
397.808	372.62
398.186	394.99
398.565	392.73
398.944	408.32
399.323	397.02
399.701	390.02
400.08	405.16
400.458	418.72
400.837	383.24
401.215	401.77
401.594	425.5
401.972	406.97
402.351	439.06
402.729	419.62
403.107	426.18
403.486	416.68
403.864	390.92
404.242	423.69
404.62	407.19
404.999	429.11
405.377	439.96
405.755	427.31
406.133	431.15
406.511	418.04
406.889	433.18
407.267	441.54
407.645	439.51
408.023	432.95
408.401	451.49
408.779	437.02
409.156	459.62
409.534	463.91
409.912	459.62
410.29	477.02
410.667	448.1
411.045	469.56
411.422	462.11
411.8	466.17
412.178	470.69
412.555	493.74
412.933	465.04
413.31	498.72
413.687	483.12
414.065	470.69
414.442	501.43
414.819	491.48
415.197	507.53
415.574	507.08
415.951	480.64
416.328	502.33
416.705	495.33
417.082	505.95
417.46	516.57
417.837	492.39
418.214	507.08
418.591	529.45
418.967	515.21
419.344	498.49
419.721	517.92
420.098	532.84
420.475	519.05
420.852	519.28
421.228	539.84
421.605	533.29
421.982	547.53
422.358	536.23
422.735	553.63
423.111	554.31
423.488	563.35
423.864	561.99
424.241	572.16
424.617	576.91
424.994	569.9
425.37	550.92
425.746	561.09
426.123	579.62
426.499	595.89
426.875	573.74
427.251	588.66
427.627	603.35
428.003	621.65
428.379	611.48
428.756	633.4
429.132	624.14
429.507	619.84
429.883	627.53
430.259	644.25
430.635	626.4
431.011	639.5
431.387	632.27
431.763	637.24
432.138	653.29
432.514	642.89
432.89	664.36
433.265	676.79
433.641	686.06
434.016	676.56
434.392	684.47
434.767	693.96
435.143	708.2
435.518	683.34
435.894	721.53
436.269	696
436.644	712.04
437.02	752.27
437.395	722.44
437.77	732.83
438.145	744.81
438.52	745.94
438.895	747.75
439.271	755.43
439.646	768.09
440.021	761.08
440.395	787.52
440.77	802.44
441.145	768.31
441.52	783.68
441.895	762.66
442.27	789.1
442.645	798.14
443.019	828.2
443.394	797.24
443.769	796.11
444.143	815.32
444.518	818.48
444.892	823.23
445.267	836.11
445.641	830.01
446.016	846.05
446.39	814.64
446.764	827.97
447.139	824.81
447.513	842.21
447.887	861.87
448.262	846.73
448.636	868.65
449.01	867.75
449.384	893.96
449.758	863
450.132	888.99
450.506	899.38
450.88	912.49
451.254	922.43
451.628	907.97
452.002	910
452.376	920.85
452.75	919.72
453.123	942.32
453.497	946.39
453.871	957.01
454.244	976.44
454.618	979.16
454.992	1025.71
455.365	980.74
455.739	982.54
456.112	1033.62
456.486	1015.76
456.859	1022.09
457.232	1034.07
457.606	1055.99
457.979	1047.4
458.352	1040.4
458.725	1085.59
459.099	1091.69
459.472	1110.45
459.845	1141.18
460.218	1110.23
460.591	1111.13
460.964	1146.16
461.337	1144.12
461.71	1192.48
462.083	1208.75
462.456	1194.74
462.829	1215.08
463.201	1217.11
463.574	1209.21
463.947	1252.14
464.32	1255.76
464.692	1273.84
465.065	1277.45
465.438	1307.51
465.81	1347.73
466.183	1310.22
466.555	1355.87
466.928	1382.31
467.3	1378.01
467.672	1388.86
468.045	1426.37
468.417	1414.17
468.789	1442.87
469.161	1477.45
469.534	1492.81
469.906	1498.24
470.278	1518.8
470.65	1540.27
471.022	1568.74
471.394	1626.37
471.766	1636.99
472.138	1641.06
472.51	1736.65
472.882	1735.07
473.253	1720.15
473.625	1785.91
473.997	1791.34
474.369	1814.84
474.74	1869.3
475.112	1883.99
475.484	1938.45
475.855	1960.15
476.227	1994.27
476.598	2057.77
476.97	2064.78
477.341	2106.58
477.713	2144.55
478.084	2205.34
478.455	2255.51
478.827	2280.14
479.198	2391.77
479.569	2392.23
479.94	2426.12
480.311	2535.5
480.682	2527.81
481.053	2605.1
481.424	2693.69
481.795	2751.54
482.166	2812.33
482.537	2878.77
482.908	2931.65
483.279	2991.08
483.65	3070.4
484.021	3128.48
484.391	3198.08
484.762	3268.59
485.133	3302.71
485.503	3370.96
485.874	3443.5
486.244	3529.82
486.615	3600.1
486.985	3692.08
487.356	3742.47
487.726	3858.63
488.097	3919.87
488.467	4008.91
488.837	4098.4
489.207	4139.07
489.578	4250.26
489.948	4339.29
490.318	4424.04
490.688	4470.59
491.058	4566.41
491.428	4655.89
491.798	4738.38
492.168	4847.98
492.538	4911.93
492.908	4955.55
493.278	5074.87
493.648	5144.47
494.017	5168.65
494.387	5282.32
494.757	5341.75
495.126	5430.34
495.496	5501.97
495.866	5577.68
496.235	5605.7
496.605	5676.43
496.974	5727.05
497.344	5861.96
497.713	5890.44
498.082	5956.43
498.452	6060.15
498.821	6108.96
499.19	6139.7
499.559	6236.64
499.928	6287.49
500.298	6379.92
500.667	6414.04
501.036	6456.53
501.405	6554.38
501.774	6579.01
502.143	6623.3
502.512	6716.18
502.88	6756.18
503.249	6813.8
503.618	6909.17
503.987	6895.61
504.356	6967.02
504.724	7025.32
505.093	7073.01
505.462	7103.97
505.83	7178.31
506.199	7282.27
506.567	7360.91
506.936	7327.01
507.304	7491.53
507.672	7456.72
508.041	7570.39
508.409	7581.02
508.777	7717.06
509.145	7725.42
509.514	7739.43
509.882	7833.44
510.25	7776.94
510.618	7851.52
510.986	7924.74
511.354	8005.41
511.722	8108.23
512.09	8183.49
512.458	8134
512.826	8190.94
513.193	8245.86
513.561	8303.93
513.929	8307.78
514.297	8474.33
514.664	8481.33
515.032	8539.41
515.4	8588.22
515.767	8601.33
516.135	8702.79
516.502	8647.43
516.869	8681.33
517.237	8797.93
517.604	8805.84
517.972	8836.12
518.339	8896.91
518.706	8919.06
519.073	8996.35
519.44	9066.63
519.808	9157.7
520.175	9092.84
520.542	9158.38
520.909	9286.06
521.276	9245.38
521.643	9359.27
522.009	9382.55
522.376	9424.58
522.743	9510.91
523.11	9541.64
523.477	9610.11
523.843	9643.33
524.21	9752.26
524.577	9760.17
524.943	9885.36
525.31	9909.99
525.676	9957
526.043	9983.21
526.409	10081.51
526.776	10223.21
527.142	10192.02
527.508	10221.85
527.874	10318.8
528.241	10378.68
528.607	10418.23
528.973	10526.25
529.339	10509.3
529.705	10610.54
530.071	10725.34
530.437	10753.81
530.803	10809.86
531.169	10863.87
531.535	10869.52
531.901	10906.35
532.267	10926.69
532.632	11065.44
532.998	10979.8
533.364	11132.33
533.73	11228.83
534.095	11294.36
534.461	11267.25
534.826	11332.56
535.192	11403.97
535.557	11450.74
535.923	11402.38
536.288	11474.02
536.653	11539.78
537.019	11507.92
537.384	11591.08
537.749	11660.46
538.114	11749.04
538.479	11775.03
538.845	11814.8
539.21	11773.9
539.575	11934.12
539.94	11892.77
540.305	11982.03
540.67	12034.23
541.034	12074.46
541.399	12111.74
541.764	12116.04
542.129	12177.73
542.494	12282.36
542.858	12339.31
543.223	12337.05
543.587	12461.11
543.952	12443.26
544.316	12366.65
544.681	12565.07
545.045	12629.02
545.41	12613.88
545.774	12692.52
546.138	12618.17
546.503	12789.24
546.867	12779.52
547.231	12883.25
547.595	12904.04
547.959	12947.2
548.324	12909.24
548.688	12979.29
549.052	13157.14
549.416	13106.52
549.779	13169.34
550.143	13132.51
550.507	13283.92
550.871	13309.45
551.235	13428.55
551.599	13446.17
551.962	13505.15
552.326	13431.26
552.689	13507.87
553.053	13524.59
553.417	13551.25
553.78	13698.14
554.143	13583.8
554.507	13808.42
554.87	13787.86
555.234	13939.27
555.597	13829.66
555.96	13899.27
556.323	13970
556.686	13964.58
557.05	14050
557.413	14193.72
557.776	14045.93
558.139	14193.27
558.502	14240.28
558.865	14251.8
559.228	14386.94
559.59	14369.31
559.953	14386.49
560.316	14593.94
560.679	14515.07
561.041	14647.72
561.404	14713.48
561.767	14847.94
562.129	14838
562.492	14878.22
562.854	14859.02
563.217	14910.54
563.579	14996.64
563.941	15090.87
564.304	15129.07
564.666	15183.53
565.028	15085.45
565.39	15228.95
565.753	15318.89
566.115	15395.73
566.477	15456.29
566.839	15475.5
567.201	15541.48
567.563	15634.59
567.925	15653.8
568.287	15565.21
568.648	15763.4
569.01	15781.7
569.372	15915.71
569.734	15809.05
570.095	16030.28
570.457	16121.81
570.819	16076.16
571.18	16173.33
571.542	16230.05
571.903	16329.49
572.265	16345.98
572.626	16443.16
572.987	16519.31
573.349	16639.08
573.71	16664.62
574.071	16732.41
574.432	16889.47
574.794	16978.28
575.155	17038.85
575.516	17090.82
575.877	17110.71
576.238	17298.73
576.599	17413.3
576.96	17557.48
577.32	17575.33
577.681	17830.92
578.042	17863.46
578.403	17954.75
578.763	18025.26
579.124	18174.18
579.485	18353.16
579.845	18435.42
580.206	18655.75
580.566	18728.29
580.927	18946.82
581.287	19174.38
581.648	19156.08
582.008	19422.06
582.368	19649.62
582.728	19825.44
583.089	19985.89
583.449	20066.56
583.809	20301.81
584.169	20477.63
584.529	20616.15
584.889	20902.7
585.249	21060.66
585.609	21186.31
585.969	21574.55
586.329	21707.65
586.688	21962.33
587.048	22145.15
587.408	22437.12
587.768	22571.81
588.127	22852.93
588.487	23089.08
588.846	23555.28
589.206	23522.74
589.565	23754.6
589.925	24144.2
590.284	24286.56
590.643	24523.62
591.003	24925.19
591.362	25229.82
591.721	25401.34
592.08	25696.92
592.44	26058.95
592.799	26249.45
593.158	26515.88
593.517	26707.29
593.876	26923.33
594.235	27287.62
594.593	27460.94
594.952	27846.25
595.311	28053.47
595.67	28355.61
596.029	28858.87
596.387	28973.45
596.746	29198.3
597.104	29344.28
597.463	29707.44
597.822	30095
598.18	30098.16
598.538	30452.28
598.897	30923.9
599.255	30816.34
599.613	31576.99
599.972	31428.52
600.33	31900.83
600.688	31957.78
601.046	32471.43
601.404	32693.12
601.762	32731.31
602.12	33090.85
602.478	33337.17
602.836	33487.9
603.194	33538.3
603.552	33850.16
603.91	34102.35
604.268	34365.85
604.625	34442.23
604.983	34746.63
605.341	34761.09
605.698	35153.85
606.056	35406.05
606.413	35487.4
606.771	35730.56
607.128	36014.84
607.485	35982.08
607.843	36327.83
608.2	36613.02
608.557	36730.98
608.914	36849.85
609.272	37287.13
609.629	37356.5
609.986	37578.42
610.343	37690.28
610.7	38086.65
611.057	37984.51
611.414	38250.27
611.771	38438.06
612.127	38581.56
612.484	38775.9
612.841	38934.32
613.198	39061.32
613.554	39172.05
613.911	39481.42
614.267	39460.63
614.624	39595.31
614.98	39739.04
615.337	39920.96
615.693	40004.12
616.05	40024.91
616.406	40414.73
616.762	40360.49
617.118	40372.02
617.475	40591.45
617.831	40816.07
618.187	40939.91
618.543	41100.13
618.899	41309.85
619.255	41349.84
619.611	41263.29
619.967	41602.49
620.323	41658.99
620.678	41677.07
621.034	41695.82
621.39	41797.06
621.746	41870.28
622.101	42351.63
622.457	42138.75
622.812	42151.18
623.168	42381.91
623.523	42500.78
623.879	42621.45
624.234	42359.31
624.589	42555.46
624.945	42627.55
625.3	42651.96
625.655	42642.92
626.01	42662.58
626.365	42809.02
626.72	42925.17
627.075	42830.94
627.43	42970.14
627.785	42906.64
628.14	42981.44
628.495	43135.79
628.85	43110.02
629.205	42892.63
629.559	43325.16
629.914	43100.31
630.269	43292.39
630.623	43151.61
630.978	43129.23
631.332	43492.61
631.687	43402.9
632.041	43271.6
632.396	43385.5
632.75	43121.32
633.104	43309.34
633.459	43183.7
633.813	43180.53
634.167	43304.37
634.521	43205.84
634.875	43361.32
635.229	43270.92
635.583	43285.16
635.937	43132.4
636.291	43314.77
636.645	43088.56
636.999	43150.25
637.352	43195.67
637.706	43097.82
638.06	43275.44
638.413	43151.83
638.767	43060.53
639.121	43305.5
639.474	43031.16
639.828	42898.73
640.181	43162.68
640.534	43086.3
640.888	43114.09
641.241	42876.81
641.594	43056.92
641.947	43065.05
642.301	42872.52
642.654	43040.2
643.007	43080.42
643.36	42894.44
643.713	42950.93
644.066	43025.73
644.419	42907.32
644.771	42597.04
645.124	42362.47
645.477	42218.75
645.83	41959.55
646.182	41821.24
646.535	41783.96
646.888	41776.27
647.24	41546.9
647.593	41894.01
647.945	41725.88
648.298	41590.29
648.65	41566.56
649.002	41376.28
649.355	41653.57
649.707	41680.91
650.059	41604.08
650.411	42205.87
650.763	42258.3
651.115	42469.59
651.467	42576.25
651.819	42421.91
652.171	42396.37
652.523	42319.76
652.875	42363.38
653.227	42359.31
653.578	42569.93
653.93	42305.07
654.282	42331.97
654.633	42146.43
654.985	42252.42
655.337	42300.1
655.688	42251.29
656.039	42444.96
656.391	42119.32
656.742	42241.35
657.094	42185.98
657.445	42359.54
657.796	42347.78
658.147	41997.51
658.498	42084.06
658.849	42285.87
659.2	42180.78
659.551	42082.93
659.902	42234.34
660.253	42102.14
660.604	42098.53
660.955	41946.44
661.306	42023.05
661.656	41896.72
662.007	42091.29
662.358	42096.49
662.708	41989.6
663.059	41961.13
663.409	41823.5
663.76	42143.04
664.11	42025.99
664.461	42034.57
664.811	42046.78
665.161	42076.38
665.511	42025.31
665.862	41936.95
666.212	41998.19
666.562	42042.26
666.912	41811.98
667.262	41869.83
667.612	41774.24
667.962	41781.02
668.312	41813.34
668.662	42004.74
669.011	41885.42
669.361	41834.58
669.711	41814.24
670.06	41778.99
670.41	41775.37
670.76	41722.26
671.109	41830.74
671.459	41709.84
671.808	41863.05
672.157	41793.68
672.507	41550.52
672.856	41555.72
673.205	41751.42
673.554	41793.22
673.904	41620.57
674.253	41999.55
674.602	41763.62
674.951	41101.26
675.3	40930.87
675.649	41449.96
675.998	41496.28
676.346	41503.97
676.695	41770.17
677.044	41286.12
677.393	41491.99
677.741	41447.7
678.09	41449.28
678.438	41370.41
678.787	41363.18
679.135	41470.07
679.484	41151.21
679.832	41302.84
680.181	41081.6
680.529	41195.27
680.877	41190.08
681.225	41118.44
681.573	41355.49
681.922	40929.07
682.27	40874.6
682.618	41037.99
682.966	40729.07
683.314	40781.27
683.661	40753.25
684.009	40457.67
684.357	40464.22
684.705	40440.04
685.053	40461.51
685.4	40449.3
685.748	40190.55
686.095	40269.2
686.443	40195.07
686.79	40120.5
687.138	40161.18
687.485	40207.5
687.832	40002.76
688.18	39937.23
688.527	39831.01
688.874	39740.62
689.221	39603.68
689.568	39694.97
689.915	39580.17
690.262	39602.77
690.609	39343.8
690.956	39388.09
691.303	39202.1
691.65	39021.54
691.997	39135.89
692.344	38799.4
692.69	38751.27
693.037	38839.18
693.383	38497.49
693.73	38709.69
694.077	38404.61
694.423	38421.11
694.769	38264.73
695.116	38110.38
695.462	38148.35
695.808	38072.87
696.155	38140.44
696.501	37840.78
696.847	37790.62
697.193	37653.22
697.539	37735.48
697.885	37405.99
698.231	37516.73
698.577	37497.74
698.923	37414.81
699.269	37166.9
699.614	37212.55
699.96	36947.25
700.306	37019.56
700.651	36761.27
700.997	36713.58
701.342	36643.98
701.688	36473.36
702.033	36512.91
702.379	36367.6
702.724	36434.72
703.069	36472.46
703.415	36028.63
703.76	36015.97
704.105	36077.44
704.45	35994.28
704.795	35731.46
705.14	35622.99
705.485	35683.55
705.83	35653.72
706.175	35564.69
706.52	35562.65
706.865	35368.99
707.209	35373.5
707.554	35223.23
707.899	35381.64
708.243	35083.57
708.588	35033.17
708.932	34994.31
709.277	34851.94
709.621	34857.36
709.966	34760.87
710.31	34732.84
710.654	34385.73
710.998	34422.57
711.342	34400.2
711.687	34370.14
712.031	34261.22
712.375	34073.88
712.719	34168.79
713.063	34088.79
713.407	34036.59
713.75	33962.47
714.094	33884.05
714.438	33766.77
714.782	33894.67
715.125	33659.65
715.469	33742.36
715.812	33666.66
716.156	33289.72
716.499	33319.77
716.843	33432.09
717.186	33232.09
717.53	33365.65
717.873	33383.27
718.216	33174.92
718.559	33046.11
718.902	32916.17
719.246	32896.06
719.589	32828.04
719.932	32718.21
720.275	32709.85
720.617	32746.46
720.96	32795.27
721.303	32682.28
721.646	32588.95
721.989	32385.56
722.331	32590.75
722.674	32396.63
723.016	32450.19
723.359	32426.01
723.701	32409.74
724.044	32149.63
724.386	32134.27
724.729	32198.67
725.071	32081.16
725.413	32123.87
725.755	32018.34
726.097	31933.6
726.439	31817.21
726.782	31688.18
727.124	31936.53
727.465	31706.71
727.807	31641.63
728.149	31578.58
728.491	31637.33
728.833	31676.43
729.175	31446.15
729.516	31295.19
729.858	31395.98
730.199	31498.58
730.541	31221.3
730.882	31242.31
731.224	31290
731.565	30989.89
731.906	31132.03
732.248	31075.76
732.589	30973.85
732.93	30870.12
733.271	30890.91
733.612	30913.74
733.953	30886.62
734.294	30649.79
734.635	30680.97
734.976	30652.95
735.317	30501.32
735.658	30627.87
735.999	30507.42
736.339	30491.37
736.68	30554.65
737.021	30452.5
737.361	30412.05
737.702	30527.53
738.042	30400.75
738.383	30369.34
738.723	30341.55
739.063	30104.94
739.404	30313.3
739.744	30178.61
740.084	30046.41
740.424	30059.07
740.764	29978.84
741.104	30066.53
741.444	29921.22
741.784	29925.74
742.124	29954.89
742.464	29831.96
742.804	29760.32
743.143	29767.55
743.483	29754.67
743.823	29606.42
744.162	29612.3
744.502	29640.1
744.841	29524.39
745.181	29567.1
745.52	29426.77
745.86	29380.22
746.199	29383.38
746.538	29346.32
746.877	29426.09
747.216	29506.31
747.556	29268.58
747.895	29250.05
748.234	29147.23
748.573	29077.4
748.911	29057.29
749.25	29012.32
749.589	28807.8
749.928	28955.37
750.267	29052.32
750.605	28875.37
750.944	28739.56
751.283	28706.34
751.621	28737.07
751.96	28706.79
752.298	28764.64
752.636	28637.86
752.975	28329.62
753.313	28335.5
753.651	28417.08
753.989	28365.33
754.327	28300.92
754.666	28133.92
755.004	28149.29
755.342	28215.95
755.679	28133.24
756.017	27939.58
756.355	28016.18
756.693	27858.9
757.031	27947.03
757.368	27789.75
757.706	27693.93
