Data from hue_200_FLMS001491_00082.txt Node
Date: Tue Feb 07 16:44:03 GMT 2017
User: dcchb
Spectrometer: FLMS00149
Trigger mode: 0
Integration Time (sec): 2.000000E-2
Scans to average: 10
Electric dark correction enabled: true
Nonlinearity correction enabled: false
Boxcar width: 0
XAxis mode: Wavelengths
Number of Pixels in Spectrum: 2048
>>>>>Begin Spectral Data<<<<<
341.393	-23.04
341.776	-23.04
342.16	-23.04
342.543	-54.9
342.927	-56.71
343.31	-81.34
343.693	-69.14
344.077	-55.8
344.46	-59.65
344.843	-52.87
345.226	-46.76
345.61	-38.63
345.993	-9.48
346.376	-11.74
346.759	31.43
347.142	25.78
347.525	42.95
347.908	60.58
348.291	67.13
348.674	91.99
349.057	105.55
349.44	120.24
349.823	134.7
350.206	156.39
350.588	192.33
350.971	204.08
351.354	208.6
351.737	220.8
352.119	242.04
352.502	269.84
352.884	249.05
353.267	279.78
353.65	286.11
354.032	291.76
354.414	302.38
354.797	304.86
355.179	312.77
355.562	302.83
355.944	296.05
356.326	327.92
356.709	317.97
357.091	338.31
357.473	360.46
357.855	343.73
358.238	343.73
358.62	339.67
359.002	317.52
359.384	324.3
359.766	318.88
360.148	344.86
360.53	321.36
360.912	341.93
361.294	343.28
361.676	336.5
362.057	342.15
362.439	337.86
362.821	334.02
363.203	331.98
363.584	317.07
363.966	316.84
364.348	317.97
364.729	304.86
365.111	312.1
365.493	321.14
365.874	307.8
366.256	314.13
366.637	315.03
367.019	296.05
367.4	280.68
367.781	303.28
368.163	317.29
368.544	298.54
368.925	302.15
369.306	323.62
369.688	293.57
370.069	322.04
370.45	317.97
370.831	307.8
371.212	311.19
371.593	310.74
371.974	305.54
372.355	314.13
372.736	308.25
373.117	312.32
373.498	288.59
373.879	316.84
374.26	333.79
374.641	295.37
375.021	306.22
375.402	301.93
375.783	329.05
376.163	341.25
376.544	317.75
376.925	315.26
377.305	296.73
377.686	325.43
378.066	319.1
378.447	315.94
378.827	317.07
379.208	330.63
379.588	327.69
379.968	314.13
380.349	308.25
380.729	320.23
381.109	307.12
381.489	328.59
381.87	332.43
382.25	332.21
382.63	343.73
383.01	352.1
383.39	360.46
383.77	327.46
384.15	351.42
384.53	335.6
384.91	343.06
385.29	344.19
385.67	345.54
386.049	361.59
386.429	345.54
386.809	360
387.189	358.65
387.568	364.52
387.948	341.25
388.328	361.36
388.707	358.2
389.087	351.87
389.466	368.59
389.846	364.75
390.225	364.3
390.605	370.4
390.984	383.51
391.363	383.96
391.743	348.25
392.122	367.01
392.501	366.33
392.881	367.46
393.26	382.15
393.639	374.69
394.018	371.98
394.397	386.9
394.776	373.34
395.155	376.05
395.534	383.51
395.913	389.16
396.292	390.29
396.671	376.95
397.05	386.44
397.429	386.67
397.808	406.33
398.186	405.65
398.565	384.41
398.944	407.24
399.323	407.01
399.701	421.02
400.08	388.25
400.458	416.95
400.837	418.53
401.215	411.98
401.594	406.11
401.972	441.81
402.351	433.45
402.729	451.75
403.107	415.37
403.486	444.3
403.864	443.17
404.242	442.94
404.62	449.49
404.999	461.7
405.377	476.84
405.755	472.77
406.133	465.54
406.511	461.7
406.889	483.62
407.267	496.27
407.645	499.89
408.023	498.98
408.401	500.34
408.779	493.11
409.156	511.41
409.534	505.09
409.912	517.51
410.29	534.01
410.667	561.58
411.045	537.85
411.422	552.99
411.8	574.01
412.178	595.7
412.555	594.35
412.933	607.68
413.31	610.62
413.687	626.44
414.065	650.62
414.442	643.84
414.819	643.84
415.197	655.82
415.574	632.77
415.951	662.37
416.328	670.73
416.705	670.73
417.082	701.92
417.46	686.78
417.837	716.61
418.214	705.53
418.591	719.54
418.967	729.94
419.344	756.15
419.721	764.29
420.098	762.25
420.475	785.98
420.852	798.41
421.228	813.33
421.605	815.36
421.982	843.83
422.358	859.2
422.735	872.99
423.111	884.74
423.488	886.54
423.864	899.65
424.241	931.06
424.617	942.36
424.994	966.32
425.37	970.61
425.746	983.72
426.123	993.66
426.499	992.53
426.875	1022.13
427.251	1057.84
427.627	1084.73
428.003	1064.84
428.379	1100.32
428.756	1105.97
429.132	1112.08
429.507	1139.42
429.883	1151.17
430.259	1159.08
430.635	1194.33
431.011	1183.49
431.387	1218.74
431.763	1217.38
432.138	1240.66
432.514	1262.13
432.89	1272.07
433.265	1315.46
433.641	1324.05
434.016	1351.17
434.392	1401.79
434.767	1427.55
435.143	1402.46
435.518	1427.77
435.894	1489.24
436.269	1493.99
436.644	1542.57
437.02	1565.17
437.395	1578.96
437.77	1587.99
438.145	1623.02
438.52	1656.47
438.895	1685.62
439.271	1705.96
439.646	1731.49
440.021	1810.59
440.395	1780.53
440.77	1797.93
441.145	1834.99
441.52	1870.47
441.895	1850.36
442.27	1927.65
442.645	1924.48
443.019	1931.71
443.394	1976.23
443.769	2007.42
444.143	2020.07
444.518	2046.29
444.892	2039.28
445.267	2056.46
445.641	2059.17
446.016	2082.45
446.39	2106.17
446.764	2134.87
447.139	2152.27
447.513	2170.13
447.887	2168.54
448.262	2196.34
448.636	2217.81
449.01	2248.09
449.384	2259.84
449.758	2292.38
450.132	2283.8
450.506	2317.69
450.88	2348.2
451.254	2384.58
451.628	2370.8
452.002	2431.81
452.376	2423.68
452.75	2444.7
453.123	2476.56
453.497	2512.26
453.871	2530.8
454.244	2614.86
454.618	2610.11
454.992	2627.97
455.365	2652.37
455.739	2716.55
456.112	2684.92
456.486	2755.42
456.859	2792.48
457.232	2835.19
457.606	2798.81
457.979	2845.14
458.352	2908.41
458.725	2957.68
459.099	2941.63
459.472	3009.65
459.845	3047.84
460.218	3065.24
460.591	3126.03
460.964	3157.22
461.337	3226.14
461.71	3198.57
462.083	3314.96
462.456	3268.63
462.829	3300.04
463.201	3362.19
463.574	3367.16
463.947	3388.63
464.32	3530.77
464.692	3524.44
465.065	3551.56
465.438	3602.41
465.81	3644.21
466.183	3675.62
466.555	3791.55
466.928	3762.85
467.3	3766.02
467.672	3821.83
468.045	3973.92
468.417	3936.41
468.789	3964.43
469.161	4017.54
469.534	4058.21
469.906	4182.73
470.278	4206.46
470.65	4214.14
471.022	4301.6
471.394	4376.17
471.766	4441.93
472.138	4473.12
472.51	4580.68
472.882	4626.33
473.253	4684.41
473.625	4727.35
473.997	4764.63
474.369	4854.35
474.74	4896.83
475.112	5006.21
475.484	5043.5
475.855	5128.92
476.227	5170.95
476.598	5288.91
476.97	5315.35
477.341	5422.47
477.713	5557.16
478.084	5514.45
478.455	5737.72
478.827	5725.06
479.198	5880.09
479.569	5885.74
479.94	6033.3
480.311	6090.02
480.682	6221.55
481.053	6338.83
481.424	6339.96
481.795	6467.41
482.166	6540.86
482.537	6558.49
482.908	6811.59
483.279	6755.32
483.65	6923.45
484.021	7022.43
484.391	7117.79
484.762	7121.18
485.133	7250.22
485.503	7324.34
485.874	7459.48
486.244	7468.52
486.615	7584.67
486.985	7732.92
487.356	7840.26
487.726	7885.23
488.097	8007.49
488.467	8020.82
488.837	8250.19
489.207	8222.62
489.578	8428.27
489.948	8369.96
490.318	8527.7
490.688	8570.41
491.058	8688.37
491.428	8751.65
491.798	8789.16
492.168	8931.08
492.538	8995.94
492.908	9107.35
493.278	9208.36
493.648	9234.57
494.017	9256.04
494.387	9367.9
494.757	9457.39
495.126	9513.44
495.496	9478.86
495.866	9566.32
496.235	9667.33
496.605	9738.29
496.974	9766.76
497.344	9830.72
497.713	9885.18
498.082	9908.45
498.452	9968.57
498.821	10014.89
499.19	9995.46
499.559	10088.56
499.928	10160.2
500.298	10209.46
500.667	10308.22
501.036	10235.68
501.405	10330.82
501.774	10302.12
502.143	10399.74
502.512	10374.43
502.88	10443.58
503.249	10395.45
503.618	10463.24
503.987	10459.4
504.356	10526.97
504.724	10551.15
505.093	10613.29
505.462	10666.63
505.83	10693.07
506.199	10750.24
506.567	10724.7
506.936	10795.21
507.304	10889.45
507.672	10812.16
508.041	10959.95
508.409	10931.03
508.777	10980.97
509.145	10997.24
509.514	10987.52
509.882	10999.27
510.25	11004.47
510.618	11081.53
510.986	11074.98
511.354	11184.13
511.722	11211.7
512.09	11192.49
512.458	11211.02
512.826	11266.84
513.193	11204.47
513.561	11276.55
513.929	11275.65
514.297	11329.89
514.664	11422.76
515.032	11328.08
515.4	11425.25
515.767	11378.02
516.135	11415.08
516.502	11295.54
516.869	11527.62
517.237	11471.12
517.604	11416.66
517.972	11467.96
518.339	11554.51
518.706	11504.8
519.073	11538.92
519.44	11580.5
519.808	11586.15
520.175	11533.72
520.542	11575.08
520.909	11562.65
521.276	11569.65
521.643	11621.4
522.009	11630.67
522.376	11622.08
522.743	11653.27
523.11	11715.86
523.477	11818.01
523.843	11766.48
524.21	11775.75
524.577	11822.53
524.943	11762.87
525.31	11804
525.676	11856.43
526.043	11870.44
526.409	11847.16
526.776	11920.15
527.142	11829.31
527.508	11866.59
527.874	11918.8
528.241	11873.37
528.607	11834.28
528.973	11906.14
529.339	11801.96
529.705	11884.67
530.071	11953.37
530.437	11841.06
530.803	11792.47
531.169	11864.79
531.535	11795.18
531.901	11769.87
532.267	11768.97
532.632	11801.74
532.998	11685.58
533.364	11667.28
533.73	11697.33
534.095	11675.19
534.461	11722.42
534.826	11714.06
535.192	11699.59
535.557	11662.08
535.923	11622.31
536.288	11579.6
536.653	11519.49
537.019	11415.76
537.384	11451.92
537.749	11379.38
538.114	11395.19
538.479	11222.54
538.845	11260.73
539.21	11217.35
539.575	11182.32
539.94	11193.39
540.305	11173.05
540.67	11092.83
541.034	11070.68
541.399	11040.18
541.764	11034.75
542.129	10976
542.494	10897.35
542.858	10848.09
543.223	10893.74
543.587	10865.49
543.952	10737.36
544.316	10719.51
544.681	10671.15
545.045	10676.34
545.41	10710.02
545.774	10606.74
546.138	10564.03
546.503	10507.53
546.867	10486.74
547.231	10540.53
547.595	10470.7
547.959	10379.85
548.324	10340.99
548.688	10283.59
549.052	10268.44
549.416	10246.98
549.779	10154.55
550.143	10139.63
550.507	10132.63
550.871	10057.6
551.235	10094.21
551.599	10105.74
551.962	10053.08
552.326	9950.71
552.689	9980.32
553.053	9867.33
553.417	9844.73
553.78	9942.58
554.143	9811.06
554.507	9792.3
554.87	9750.04
555.234	9799.08
555.597	9658.74
555.96	9656.03
556.323	9714.79
556.686	9644.96
557.05	9681.34
557.413	9577.16
557.776	9590.95
558.139	9553.21
558.502	9447
558.865	9524.96
559.228	9533.55
559.59	9587.33
559.953	9504.4
560.316	9533.1
560.679	9459.43
561.041	9495.36
561.404	9524.06
561.767	9538.97
562.129	9429.6
562.492	9466.88
562.854	9427.56
563.217	9408.81
563.579	9472.53
563.941	9505.75
564.304	9394.34
564.666	9440.9
565.028	9453.78
565.39	9470.27
565.753	9470.73
566.115	9462.59
566.477	9488.58
566.839	9436.6
567.201	9493.32
567.563	9492.87
567.925	9513.66
568.287	9464.17
568.648	9480.44
569.01	9504.4
569.372	9558.63
569.734	9504.85
570.095	9524.96
570.457	9550.72
570.819	9552.08
571.18	9527.9
571.542	9584.62
571.903	9537.84
572.265	9553.66
572.626	9567.67
572.987	9478.63
573.349	9619.65
573.71	9594.34
574.071	9597.28
574.432	9584.62
574.794	9618.07
575.155	9588.01
575.516	9562.02
575.877	9518.18
576.238	9601.8
576.599	9626.2
576.96	9590.5
577.32	9592.98
577.681	9689.7
578.042	9598.63
578.403	9616.26
578.763	9571.06
579.124	9544.4
579.485	9680.66
579.845	9597.73
580.206	9616.03
580.566	9563.83
580.927	9604.28
581.287	9606.09
581.648	9568.12
582.008	9629.82
582.368	9611.29
582.728	9637.5
583.089	9639.76
583.449	9598.86
583.809	9617.84
584.169	9657.39
584.529	9568.12
584.889	9636.82
585.249	9580.55
585.609	9561.12
585.969	9611.96
586.329	9597.73
586.688	9565.64
587.048	9536.49
587.408	9597.73
587.768	9598.41
588.127	9554.79
588.487	9513.21
588.846	9571.97
589.206	9522.93
589.565	9514.57
589.925	9576.49
590.284	9526.77
590.643	9536.71
591.003	9498.07
591.362	9604.06
591.721	9524.51
592.08	9535.13
592.44	9579.88
592.799	9537.84
593.158	9417.62
593.517	9487.45
593.876	9494.45
594.235	9439.77
594.593	9528.8
594.952	9492.65
595.311	9519.76
595.67	9495.58
596.029	9439.09
596.387	9527
596.746	9517.28
597.104	9425.98
597.463	9455.58
597.822	9490.84
598.18	9495.13
598.538	9401.35
598.897	9425.53
599.255	9379.65
599.613	9495.36
599.972	9434.79
600.33	9444.96
600.688	9410.16
601.046	9492.65
601.404	9476.15
601.762	9465.98
602.12	9494.45
602.478	9454.45
602.836	9439.31
603.194	9415.81
603.552	9457.17
603.91	9425.98
604.268	9424.85
604.625	9388.69
604.983	9466.88
605.341	9385.08
605.698	9368.13
606.056	9439.31
606.413	9456.94
606.771	9423.72
607.128	9476.15
607.485	9426.66
607.843	9492.42
608.2	9435.47
608.557	9571.06
608.914	9480.89
609.272	9512.08
609.629	9538.07
609.986	9472.76
610.343	9478.18
610.7	9540.1
611.057	9531.97
611.414	9517.96
611.771	9491.52
612.127	9566.32
612.484	9520.89
612.841	9653.32
613.198	9527
613.554	9557.95
613.911	9617.39
614.267	9591.63
614.624	9612.42
614.98	9514.57
615.337	9648.57
615.693	9536.49
616.05	9607.45
616.406	9667.78
616.762	9583.72
617.118	9608.12
617.475	9632.76
617.831	9590.72
618.187	9640.44
618.543	9650.61
618.899	9677.05
619.255	9722.24
619.611	9634.79
619.967	9696.03
620.323	9772.19
620.678	9665.75
621.034	9681.12
621.39	9640.89
621.746	9658.74
622.101	9691.96
622.457	9660.55
622.812	9665.52
623.168	9663.49
623.523	9710.04
623.879	9707.1
624.234	9668.69
624.589	9689.02
624.945	9694
625.3	9637.5
625.655	9634.79
626.01	9640.66
626.365	9668.23
626.72	9680.66
627.075	9712.75
627.43	9653.55
627.785	9614.22
628.14	9670.49
628.495	9642.02
628.85	9607.45
629.205	9558.86
629.559	9599.99
629.914	9527.9
630.269	9663.26
630.623	9626.43
630.978	9573.1
631.332	9572.42
631.687	9613.32
632.041	9528.13
632.396	9618.52
632.75	9584.39
633.104	9569.03
633.459	9515.7
633.813	9474.12
634.167	9471.4
634.521	9487.9
634.875	9519.09
635.229	9464.4
635.583	9399.99
635.937	9447.22
636.291	9430.05
636.645	9347.56
636.999	9443.38
637.352	9357.96
637.706	9365.64
638.06	9339.43
638.413	9352.31
638.767	9328.13
639.121	9336.27
639.474	9327.68
639.828	9294.01
640.181	9351.18
640.534	9329.94
640.888	9258.3
641.241	9269.6
641.594	9260.34
641.947	9247.68
642.301	9224.4
642.654	9231.18
643.007	9279.09
643.36	9176.95
643.713	9196.16
644.066	9225.99
644.419	9183.05
644.771	9170.62
645.124	9011.53
645.477	9037.52
645.83	8949.84
646.182	8961.36
646.535	8944.41
646.888	8896.05
647.24	8900.8
647.593	8923.4
647.945	8907.35
648.298	8867.58
648.65	8883.85
649.002	8836.17
649.355	8868.03
649.707	8853.34
650.059	8879.78
650.411	9040.45
650.763	8999.78
651.115	9121.58
651.467	9091.53
651.819	9063.96
652.171	9124.07
652.523	9059.44
652.875	9037.74
653.227	9033.9
653.578	9038.19
653.93	9075.93
654.282	8972.89
654.633	9005.88
654.985	9053.34
655.337	9031.42
655.688	9092.2
656.039	9138.98
656.391	9020.12
656.742	9063.05
657.094	9077.74
657.445	9101.02
657.796	9082.94
658.147	9068.48
658.498	9053.79
658.849	9120.23
659.2	9094.01
659.551	9033.45
659.902	9087.01
660.253	9174.91
660.604	9132.43
660.955	9047.23
661.306	9148.25
661.656	9137.63
662.007	9097.63
662.358	9134.46
662.708	9082.71
663.059	9109.15
663.409	9093.56
663.76	9142.6
664.11	9115.25
664.461	9093.33
664.811	9141.69
665.161	9149.15
665.511	9125.65
665.862	9092.43
666.212	9136.72
666.562	9112.32
666.912	9144.86
667.262	9095.37
667.612	9063.5
667.962	9156.84
668.312	9152.77
668.662	9121.13
669.011	9145.08
669.361	9166.55
669.711	9110.51
670.06	9065.76
670.41	9139.43
670.76	9089.27
671.109	9112.77
671.459	9085.65
671.808	9049.49
672.157	9101.02
672.507	9020.34
672.856	9041.58
673.205	9044.97
673.554	9076.84
673.904	9075.26
674.253	9017.86
674.602	9115.71
674.951	8947.8
675.3	8923.62
675.649	9004.75
675.998	9042.94
676.346	9004.75
676.695	9003.62
677.044	9008.82
677.393	8952.32
677.741	9014.24
678.09	8970.63
678.438	8975.6
678.787	8916.84
679.135	8891.98
679.484	8862.61
679.832	8921.36
680.181	8753.46
680.529	8846.11
680.877	8843.17
681.225	8854.47
681.573	8869.61
681.922	8849.5
682.27	8806.56
682.618	8790.29
682.966	8776.05
683.314	8801.36
683.661	8700.58
684.009	8657.64
684.357	8786.9
684.705	8610.64
685.053	8626.23
685.4	8597.98
685.748	8593.46
686.095	8518.43
686.443	8536.51
686.79	8583.29
687.138	8562.05
687.485	8512.78
687.832	8456.06
688.18	8476.4
688.527	8439.57
688.874	8400.47
689.221	8346.46
689.568	8428.27
689.915	8371.77
690.262	8353.47
690.609	8374.26
690.956	8341.72
691.303	8289.74
691.65	8219.46
691.997	8247.48
692.344	8167.93
692.69	8122.06
693.037	8157.54
693.383	8066.24
693.73	8075.51
694.077	8059.01
694.423	8080.03
694.769	8010.88
695.116	8014.04
695.462	8021.27
695.808	7946.25
696.155	7934.27
696.501	7825.8
696.847	7870.32
697.193	7776.98
697.539	7863.08
697.885	7737.89
698.231	7714.39
698.577	7725.23
698.923	7730.88
699.269	7583.77
699.614	7625.35
699.96	7561.62
700.306	7573.83
700.651	7521.17
700.997	7506.71
701.342	7513.94
701.688	7425.81
702.033	7457.67
702.379	7372.93
702.724	7368.18
703.069	7423.55
703.415	7295.19
703.76	7294.51
704.105	7297.22
704.45	7260.84
704.795	7233.72
705.14	7206.83
705.485	7125.7
705.83	7133.16
706.175	7163.22
706.52	7130
706.865	7091.81
707.209	7125.7
707.554	7061.3
707.899	7063.78
708.243	7078.02
708.588	6970.45
708.932	6919.83
709.277	6989.21
709.621	6921.19
709.966	6923.22
710.31	6907.63
710.654	6855.65
710.998	6856.33
711.342	6859.49
711.687	6810.91
712.031	6827.41
712.375	6778.37
712.719	6842.77
713.063	6773.17
713.407	6745.83
713.75	6753.51
714.094	6751.25
714.438	6709.22
714.782	6704.47
715.125	6682.78
715.469	6680.52
715.812	6616.56
716.156	6598.71
716.499	6545.15
716.843	6638.71
717.186	6577.47
717.53	6611.14
717.873	6657.69
718.216	6572.5
718.559	6563.46
718.902	6519.39
719.246	6561.2
719.589	6537.24
719.932	6482.78
720.275	6580.41
720.617	6514.65
720.96	6494.76
721.303	6479.17
721.646	6469.22
721.989	6478.04
722.331	6487.75
722.674	6502.67
723.016	6529.79
723.359	6436.68
723.701	6436.46
724.044	6389.22
724.386	6384.03
724.729	6497.02
725.071	6398.49
725.413	6442.78
725.755	6472.16
726.097	6374.76
726.439	6422.44
726.782	6429.68
727.124	6394.42
727.465	6360.52
727.807	6353.07
728.149	6303.13
728.491	6361.2
728.833	6330.7
729.175	6387.87
729.516	6328.89
729.858	6393.97
730.199	6282.33
730.541	6380.19
730.882	6313.97
731.224	6356.68
731.565	6366.85
731.906	6359.39
732.248	6365.04
732.589	6324.14
732.93	6346.51
733.271	6349.23
733.612	6321.43
733.953	6369.56
734.294	6314.42
734.635	6303.35
734.976	6364.59
735.317	6320.98
735.658	6310.81
735.999	6382.45
736.339	6334.54
736.68	6381.09
737.021	6337.7
737.361	6358.72
737.702	6382.45
738.042	6336.34
738.383	6365.5
738.723	6317.81
739.063	6389.22
739.404	6424.03
739.744	6442.56
740.084	6440.3
740.424	6470.13
740.764	6420.64
741.104	6445.04
741.444	6420.18
741.784	6475.78
742.124	6461.77
742.464	6480.75
742.804	6534.31
743.143	6512.61
743.483	6565.04
743.823	6534.08
744.162	6539.28
744.502	6632.16
744.841	6644.13
745.181	6674.19
745.52	6666.96
745.86	6673.28
746.199	6716.67
746.538	6751.02
746.877	6872.83
747.216	6913.73
747.556	6881.19
747.895	6905.6
748.234	6947.85
748.573	6986.27
748.911	7059.49
749.25	7130.67
749.589	7149.66
749.928	7216.55
750.267	7324.79
750.605	7392.14
750.944	7424.68
751.283	7399.82
751.621	7602.98
751.96	7599.59
752.298	7727.49
752.636	7864.89
752.975	7889.07
753.313	7937.66
753.651	8109.18
753.989	8204.09
754.327	8365.67
754.666	8382.62
755.004	8523.18
755.342	8671.65
755.679	8746.22
756.017	8842.95
756.355	9143.95
756.693	9219.43
757.031	9356.38
757.368	9445.42
757.706	9618.97
758.044	9804.28
758.381	9909.13
758.719	9955.46
759.056	10250.82
759.394	10350.93
759.731	10453.52
760.068	10686.06
760.405	10877.69
760.743	10962.89
761.08	11166.95
761.417	11357
761.754	11526.49
762.091	11677
762.428	11914.28
762.765	11982.07
763.102	12262.06
763.438	12349.75
763.775	12525.33
764.112	12747.7
764.449	12997.19
764.785	13061.37
765.122	13143.62
765.458	13318.08
765.795	13515.59
