Data from hue_270_FLMS001491_00065.txt Node
Date: Tue Feb 07 15:57:32 GMT 2017
User: dcchb
Spectrometer: FLMS00149
Trigger mode: 0
Integration Time (sec): 2.000000E-2
Scans to average: 10
Electric dark correction enabled: true
Nonlinearity correction enabled: false
Boxcar width: 0
XAxis mode: Wavelengths
Number of Pixels in Spectrum: 2048
>>>>>Begin Spectral Data<<<<<
341.393	-11.69
341.776	-11.69
342.16	-11.69
342.543	-52.37
342.927	-60.96
343.31	-80.39
343.693	-60.05
344.077	-53.73
344.46	-52.15
344.843	-47.4
345.226	-59.15
345.61	-29.32
345.993	-17.8
346.376	-7.4
346.759	29.66
347.142	23.11
347.525	30.11
347.908	61.3
348.291	80.73
348.674	67.17
349.057	115.31
349.44	120.28
349.823	130.67
350.206	145.82
350.588	197.34
350.971	198.24
351.354	229.88
351.737	219.94
352.119	241.63
352.502	261.97
352.884	252.71
353.267	264.23
353.65	280.05
354.032	282.99
354.414	299.26
354.797	304.68
355.179	314.17
355.562	312.36
355.944	325.25
356.326	324.79
356.709	321.4
357.091	328.86
357.473	339.48
357.855	340.84
358.238	338.58
358.62	315.98
359.002	311.91
359.384	317.79
359.766	343.32
360.148	327.96
360.53	342.42
360.912	313.49
361.294	353.49
361.676	327.05
362.057	332.48
362.439	346.94
362.821	335.41
363.203	334.06
363.584	339.26
363.966	299.94
364.348	320.95
364.729	312.82
365.111	313.04
365.493	316.21
365.874	300.61
366.256	331.12
366.637	312.82
367.019	323.44
367.4	313.95
367.781	309.88
368.163	315.53
368.544	296.09
368.925	303.78
369.306	304
369.688	306.94
370.069	304
370.45	294.51
370.831	318.24
371.212	304.68
371.593	301.97
371.974	303.1
372.355	315.08
372.736	322.53
373.117	292.93
373.498	298.13
373.879	310.1
374.26	313.95
374.641	313.95
375.021	329.99
375.402	318.24
375.783	297.22
376.163	309.65
376.544	334.06
376.925	335.87
377.305	316.43
377.686	334.06
378.066	315.3
378.447	314.62
378.827	314.4
379.208	314.85
379.588	314.62
379.968	330.44
380.349	329.99
380.729	324.34
381.109	328.64
381.489	336.32
381.87	336.77
382.25	319.6
382.63	352.59
383.01	341.06
383.39	349.2
383.77	335.41
384.15	340.16
384.53	349.65
384.91	351.91
385.29	356.66
385.67	341.06
386.049	336.54
386.429	331.35
386.809	349.65
387.189	357.56
387.568	336.54
387.948	354.62
388.328	348.07
388.707	352.14
389.087	361.63
389.466	362.76
389.846	372.25
390.225	367.5
390.605	351.46
390.984	358.69
391.363	363.44
391.743	367.96
392.122	380.39
392.501	358.24
392.881	369.54
393.26	371.57
393.639	383.78
394.018	395.75
394.397	386.71
394.776	416.54
395.155	383.1
395.534	367.05
395.913	374.74
396.292	398.46
396.671	394.4
397.05	406.37
397.429	391.01
397.808	382.42
398.186	396.43
398.565	388.07
398.944	393.49
399.323	384
399.701	410.22
400.08	408.18
400.458	402.53
400.837	435.3
401.215	410.89
401.594	406.83
401.972	410.89
402.351	446.82
402.729	411.35
403.107	441.17
403.486	415.19
403.864	419.03
404.242	446.15
404.62	432.81
404.999	432.59
405.377	435.53
405.755	449.76
406.133	457.45
406.511	457.22
406.889	489.08
407.267	484.56
407.645	480.04
408.023	466.71
408.401	443.89
408.779	499.25
409.156	475.52
409.534	483.89
409.912	486.37
410.29	488.86
410.667	494.05
411.045	532.25
411.422	515.52
411.8	527.73
412.178	531.34
412.555	524.56
412.933	552.58
413.31	558.01
413.687	560.04
414.065	561.4
414.442	600.49
414.819	583.77
415.197	581.51
415.574	582.41
415.951	590.32
416.328	614.28
416.705	613.15
417.082	599.81
417.46	607.05
417.837	631.45
418.214	634.16
418.591	637.78
418.967	641.85
419.344	657.67
419.721	651.11
420.098	662.64
420.475	674.16
420.852	684.11
421.228	689.53
421.605	717.1
421.982	709.64
422.358	734.5
422.735	733.37
423.111	721.39
423.488	751.68
423.864	750.55
424.241	760.71
424.617	776.08
424.994	791.67
425.37	778.57
425.746	805.69
426.123	834.38
426.499	820.6
426.875	827.83
427.251	834.61
427.627	849.53
428.003	880.94
428.379	869.86
428.756	871.9
429.132	853.14
429.507	878.68
429.883	905.12
430.259	926.13
430.635	935.17
431.011	940.37
431.387	939.47
431.763	982.86
432.138	963.42
432.514	962.52
432.89	975.62
433.265	1012.23
433.641	1010.2
434.016	1023.76
434.392	1074.38
434.767	1103.53
435.143	1090.88
435.518	1106.47
435.894	1104.43
436.269	1153.92
436.644	1179.01
437.02	1186.01
437.395	1172
437.77	1215.39
438.145	1229.85
438.52	1248.84
438.895	1255.84
439.271	1239.57
439.646	1298.1
440.021	1289.06
440.395	1334.94
440.77	1305.11
441.145	1313.24
441.52	1342.17
441.895	1359.12
442.27	1382.62
442.645	1384.43
443.019	1387.59
443.394	1394.82
443.769	1409.06
444.143	1407.25
444.518	1431.88
444.892	1412
445.267	1417.87
445.641	1447.02
446.016	1460.36
446.39	1475.95
446.764	1475.5
447.139	1474.82
447.513	1504.2
447.887	1521.6
448.262	1507.36
448.636	1527.02
449.01	1540.81
449.384	1570.18
449.758	1563.63
450.132	1573.35
450.506	1596.4
450.88	1591.88
451.254	1583.07
451.628	1614.7
452.002	1632.1
452.376	1641.6
452.75	1639.11
453.123	1660.13
453.497	1673.23
453.871	1722.5
454.244	1710.07
454.618	1729.73
454.992	1760.69
455.365	1714.59
455.739	1769.5
456.112	1781.48
456.486	1792.33
456.859	1822.38
457.232	1847.24
457.606	1867.35
457.979	1855.6
458.352	1899.44
458.725	1907.58
459.099	1918.2
459.472	1950.74
459.845	1970.63
460.218	1969.04
460.591	1985.09
460.964	1989.38
461.337	2020.12
461.71	2057.63
462.083	2079.55
462.456	2051.98
462.829	2081.58
463.201	2123.39
463.574	2171.98
463.947	2157.51
464.32	2174.24
464.692	2219.43
465.065	2234.8
465.438	2251.3
465.81	2272.77
466.183	2283.39
466.555	2335.36
466.928	2319.32
467.3	2339.43
467.672	2387.34
468.045	2417.17
468.417	2448.81
468.789	2410.16
469.161	2457.84
469.534	2466.66
469.906	2522.93
470.278	2535.13
470.65	2573.1
471.022	2584.62
471.394	2680.44
471.766	2662.13
472.138	2668.23
472.51	2732.19
472.882	2750.04
473.253	2778.97
473.625	2852.41
473.997	2843.6
474.369	2868.68
474.74	2858.96
475.112	2949.36
475.484	2964.27
475.855	3008.56
476.227	3061.22
476.598	3113.87
476.97	3118.62
477.341	3215.11
477.713	3221.67
478.084	3221.21
478.455	3290.14
478.827	3315.22
479.198	3423.24
479.569	3388.89
479.94	3459.63
480.311	3496.24
480.682	3573.75
481.053	3669.56
481.424	3655.78
481.795	3667.53
482.166	3744.82
482.537	3796.57
482.908	3821.88
483.279	3821.65
483.65	3907.3
484.021	3974.42
484.391	3963.34
484.762	4018.26
485.133	4057.35
485.503	4058.71
485.874	4179.83
486.244	4224.35
486.615	4252.37
486.985	4309.32
487.356	4357.68
487.726	4394.07
488.097	4432.93
488.467	4445.14
488.837	4487.85
489.207	4549.54
489.578	4622.08
489.948	4612.82
490.318	4700.05
490.688	4685.58
491.058	4744.34
491.428	4806.03
491.798	4850.32
492.168	4925.58
492.538	4950.89
492.908	4968.97
493.278	4990.21
493.648	5012.13
494.017	5053.48
494.387	5129.87
494.757	5135.74
495.126	5202.63
495.496	5215.96
495.866	5250.09
496.235	5274.95
496.605	5271.33
496.974	5301.16
497.344	5397.65
497.713	5369.41
498.082	5407.82
498.452	5462.29
498.821	5455.28
499.19	5485.79
499.559	5456.18
499.928	5515.84
500.298	5497.54
500.667	5617.08
501.036	5595.84
501.405	5606.91
501.774	5610.76
502.143	5657.08
502.512	5660.25
502.88	5745.44
503.249	5698.66
503.618	5718.32
503.987	5727.14
504.356	5813.46
504.724	5778.89
505.093	5833.8
505.462	5805.55
505.83	5802.16
506.199	5898.88
506.567	5927.81
506.936	5903.86
507.304	5962.84
507.672	5992.22
508.041	6019.11
508.409	6023.63
508.777	6048.49
509.145	6094.59
509.514	6067.47
509.882	6114.02
510.25	6067.69
510.618	6114.92
510.986	6123.96
511.354	6133.45
511.722	6171.65
512.09	6231.76
512.458	6224.3
512.826	6218.88
513.193	6280.8
513.561	6289.61
513.929	6281.93
514.297	6301.59
514.664	6302.26
515.032	6363.5
515.4	6367.8
515.767	6400.79
516.135	6373.9
516.502	6366.44
516.869	6413.9
517.237	6383.84
517.604	6389.72
517.972	6504.97
518.339	6457.29
518.706	6513.56
519.073	6456.61
519.44	6510.17
519.808	6550.39
520.175	6549.49
520.542	6581.35
520.909	6605.53
521.276	6525.53
521.643	6644.4
522.009	6666.55
522.376	6630.62
522.743	6652.76
523.11	6687.79
523.477	6738.86
523.843	6763.95
524.21	6801.01
524.577	6807.79
524.943	6838.52
525.31	6853.44
525.676	6830.16
526.043	6946.31
526.409	6934.56
526.776	6952.42
527.142	6960.55
527.508	6953.77
527.874	7047.1
528.241	7049.36
528.607	7014.11
528.973	7066.31
529.339	7023.83
529.705	7091.85
530.071	7152.18
530.437	7095.46
530.803	7193.54
531.169	7204.61
531.535	7138.4
531.901	7151.28
532.267	7217.04
532.632	7242.8
532.998	7242.13
533.364	7231.73
533.73	7299.3
534.095	7273.09
534.461	7332.75
534.826	7319.19
535.192	7332.29
535.557	7435.79
535.923	7357.6
536.288	7358.06
536.653	7382.01
537.019	7352.18
537.384	7350.82
537.749	7367.32
538.114	7415.68
538.479	7439.41
538.845	7421.1
539.21	7398.51
539.575	7416.13
539.94	7470.14
540.305	7437.15
540.67	7474.44
541.034	7464.04
541.399	7493.19
541.764	7465.85
542.129	7558.73
542.494	7498.62
542.858	7426.08
543.223	7557.6
543.587	7586.07
543.952	7551.72
544.316	7522.8
544.681	7540.42
545.045	7544.94
545.41	7610.48
545.774	7622
546.138	7594.89
546.503	7599.63
546.867	7587.43
547.231	7637.14
547.595	7688.44
547.959	7678.95
548.324	7603.92
548.688	7631.72
549.052	7636.47
549.416	7671.95
549.779	7672.85
550.143	7650.48
550.507	7736.58
550.871	7743.81
551.235	7686.63
551.599	7700.64
551.962	7727.54
552.326	7760.98
552.689	7815.22
553.053	7735.67
553.417	7798.95
553.78	7830.81
554.143	7779.74
554.507	7820.64
554.87	7828.55
555.234	7866.97
555.597	7840.75
555.96	7785.16
556.323	7816.8
556.686	7880.98
557.05	7939.06
557.413	7913.07
557.776	7951.71
558.139	7977.47
558.502	7988.32
558.865	8002.33
559.228	8047.98
559.59	8086.17
559.953	8084.14
560.316	8160.29
560.679	8163.46
561.041	8142.89
561.404	8237.35
561.767	8223.57
562.129	8230.35
562.492	8273.06
562.854	8280.29
563.217	8284.36
563.579	8313.06
563.941	8317.35
564.304	8405.94
564.666	8403.23
565.028	8408.42
565.39	8488.19
565.753	8453.62
566.115	8584.01
566.477	8566.61
566.839	8577.23
567.201	8621.52
567.563	8593.28
567.925	8687.51
568.287	8642.09
568.648	8682.09
569.01	8712.37
569.372	8732.03
569.734	8774.74
570.095	8847.28
570.457	8835.76
570.819	8811.12
571.18	8850.45
571.542	8982.87
571.903	8932.03
572.265	9019.71
572.626	9010.89
572.987	8994.62
573.349	9041.85
573.71	9096.77
574.071	9096.77
574.432	9084.11
574.794	9179.02
575.155	9179.25
575.516	9180.15
575.877	9191.91
576.238	9288.85
576.599	9314.16
576.96	9379.02
577.32	9325.69
577.681	9400.71
578.042	9385.57
578.403	9442.07
578.763	9458.79
579.124	9461.28
579.485	9591.22
579.845	9577.21
580.206	9619.69
580.566	9637.54
580.927	9553.7
581.287	9721.61
581.648	9603.19
582.008	9694.04
582.368	9691.55
582.728	9735.17
583.089	9802.74
583.449	9801.38
583.809	9856.07
584.169	9871.44
584.529	9842.06
584.889	9993.69
585.249	9898.55
585.609	9934.71
585.969	10002.51
586.329	10073.92
586.688	10067.59
587.048	10036.4
587.408	10048.38
587.768	10093.58
588.127	10129.06
588.487	10141.26
588.846	10177.19
589.206	10201.82
589.565	10192.56
589.925	10268.26
590.284	10269.62
590.643	10330.41
591.003	10330.18
591.362	10401.82
591.721	10331.99
592.08	10348.03
592.44	10443.85
592.799	10465.32
593.158	10453.34
593.517	10412.21
593.876	10473.45
594.235	10468.71
594.593	10552.77
594.952	10531.53
595.311	10581.47
595.67	10505.54
596.029	10690.62
596.387	10652.88
596.746	10690.17
597.104	10592.09
597.463	10665.09
597.822	10710.28
598.18	10697.85
598.538	10711.87
598.897	10779.66
599.255	10694.01
599.613	10881.58
599.972	10868.47
600.33	10798.19
600.688	10816.72
601.046	10800.45
601.404	10967.68
601.762	10894.91
602.12	10908.02
602.478	10935.14
602.836	10914.57
603.194	10884.74
603.552	10975.14
603.91	10867.79
604.268	10948.24
604.625	10935.36
604.983	11009.71
605.341	10937.4
605.698	11017.17
606.056	10994.34
606.413	11007.68
606.771	11064.62
607.128	11109.82
607.485	10996.38
607.843	11069.14
608.2	11187.11
608.557	11112.98
608.914	11085.87
609.272	11112.76
609.629	11205.41
609.986	11262.81
610.343	11208.12
610.7	11232.76
611.057	11282.47
611.414	11179.88
611.771	11284.28
612.127	11206.54
612.484	11255.58
612.841	11301.23
613.198	11199.99
613.554	11277.27
613.911	11390.27
614.267	11359.76
614.624	11240.66
614.98	11315.01
615.337	11414.22
615.693	11380.32
616.05	11314.34
616.406	11458.51
616.762	11380.32
617.118	11361.11
617.475	11415.35
617.831	11418.97
618.187	11467.55
618.543	11487.66
618.899	11525.63
619.255	11508.91
619.611	11477.95
619.967	11538.06
620.323	11487.66
620.678	11483.6
621.034	11481.79
621.39	11449.02
621.746	11466.2
622.101	11631.39
622.457	11511.39
622.812	11466.87
623.168	11603.37
623.523	11489.25
623.879	11559.07
624.234	11477.95
624.589	11532.63
624.945	11537.38
625.3	11547.78
625.655	11505.29
626.01	11571.73
626.365	11556.14
626.72	11490.6
627.075	11519.75
627.43	11486.76
627.785	11522.92
628.14	11552.97
628.495	11534.67
628.85	11573.99
629.205	11427.55
629.559	11526.08
629.914	11437.72
630.269	11428.68
630.623	11479.98
630.978	11496.48
631.332	11480.66
631.687	11464.84
632.041	11444.28
632.396	11433.2
632.75	11363.15
633.104	11417.16
633.459	11340.32
633.813	11299.87
634.167	11305.07
634.521	11351.62
634.875	11403.82
635.229	11358.85
635.583	11296.48
635.937	11267.56
636.291	11190.95
636.645	11235.69
636.999	11244.51
637.352	11279.99
637.706	11206.99
638.06	11228.24
638.413	11213.55
638.767	11164.73
639.121	11157.5
639.474	11117.5
639.828	11150.5
640.181	11190.95
640.534	11255.58
640.888	11119.09
641.241	11060.56
641.594	11129.48
641.947	11047.22
642.301	11115.02
642.654	11137.62
643.007	11121.8
643.36	11050.84
643.713	11035.25
644.066	11067.34
644.419	11004.06
644.771	10969.94
645.124	10770.62
645.477	10872.54
645.83	10838.87
646.182	10711.87
646.535	10629.83
646.888	10642.94
647.24	10615.37
647.593	10717.51
647.945	10646.33
648.298	10665.99
648.65	10604.52
649.002	10570.17
649.355	10674.35
649.707	10693.79
650.059	10642.94
650.411	10797.29
650.763	10827.12
651.115	10862.82
651.467	10903.27
651.819	10882.93
652.171	10863.05
652.523	10877.96
652.875	10830.05
653.227	10812.65
653.578	10837.96
653.93	10880
654.282	10830.73
654.633	10811.98
654.985	10808.81
655.337	10778.3
655.688	10862.6
656.039	10841.58
656.391	10722.26
656.742	10847.23
657.094	10903.27
657.445	10883.39
657.796	10842.94
658.147	10779.21
658.498	10831.18
658.849	10848.13
659.2	10774.46
659.551	10837.74
659.902	10861.24
660.253	10768.81
660.604	10891.75
660.955	10835.93
661.306	10795.25
661.656	10840.9
662.007	10829.83
662.358	10800.68
662.708	10797.96
663.059	10831.18
663.409	10770.62
663.76	10867.12
664.11	10867.34
664.461	10846.1
664.811	10889.26
665.161	10804.74
665.511	10763.62
665.862	10889.26
666.212	10889.26
666.562	10896.49
666.912	10837.74
667.262	10812.43
667.612	10838.42
667.962	10808.36
668.312	10816.95
668.662	10923.84
669.011	10826.89
669.361	10741.02
669.711	10774.46
670.06	10820.34
670.41	10768.81
670.76	10704.63
671.109	10830.51
671.459	10792.32
671.808	10760.68
672.157	10801.81
672.507	10646.33
672.856	10734.69
673.205	10717.51
673.554	10720.45
673.904	10679.78
674.253	10715.03
674.602	10764.75
674.951	10554.13
675.3	10505.54
675.649	10700.57
675.998	10658.53
676.346	10621.47
676.695	10701.92
677.044	10674.35
677.393	10604.52
677.741	10680.45
678.09	10536.28
678.438	10593.22
678.787	10604.07
679.135	10566.33
679.484	10479.1
679.832	10558.42
680.181	10478.2
680.529	10511.42
680.877	10500.12
681.225	10459.67
681.573	10503.28
681.922	10356.39
682.27	10370.63
682.618	10377.86
682.966	10442.72
683.314	10367.92
683.661	10382.83
684.009	10325.66
684.357	10260.8
684.705	10263.97
685.053	10301.71
685.4	10281.82
685.748	10211.77
686.095	10188.04
686.443	10153.69
686.79	10161.6
687.138	10194.14
687.485	10132.9
687.832	10136.97
688.18	10110.53
688.527	10042.96
688.874	10013.13
689.221	10020.36
689.568	9949.85
689.915	9997.76
690.262	9941.94
690.609	9822.4
690.956	9830.08
691.303	9812
691.65	9829.18
691.997	9777.65
692.344	9721.16
692.69	9732.46
693.037	9726.35
693.383	9645.9
693.73	9619.24
694.077	9660.37
694.423	9562.52
694.769	9501.73
695.116	9517.77
695.462	9500.37
695.808	9466.25
696.155	9443.65
696.501	9445.46
696.847	9443.88
697.193	9301.73
697.539	9332.01
697.885	9261.28
698.231	9191.45
698.577	9222.19
698.923	9260.38
699.269	9165.69
699.614	9088.41
699.96	9074.85
700.306	9045.02
700.651	8992.36
700.997	8995.07
701.342	8914.17
701.688	8945.13
702.033	8895.19
702.379	8908.97
702.724	8888.86
703.069	8868.52
703.415	8812.48
703.76	8834.4
704.105	8808.86
704.45	8837.79
704.795	8715.99
705.14	8668.98
705.485	8676.21
705.83	8616.1
706.175	8699.26
706.52	8598.47
706.865	8539.27
707.209	8571.81
707.554	8491.13
707.899	8502.66
708.243	8470.34
708.588	8431.47
708.932	8376.79
709.277	8400.29
709.621	8423.11
709.966	8270.12
710.31	8407.97
710.654	8175.89
710.998	8270.12
711.342	8295.43
711.687	8226.96
712.031	8240.97
712.375	8149.67
712.719	8214.53
713.063	8220.86
713.407	8152.84
713.75	8167.3
714.094	8174.08
714.438	8070.58
714.782	8144.25
715.125	8083.91
715.469	8064.25
715.812	8070.8
716.156	8020.41
716.499	8007.98
716.843	8004.14
717.186	7963.69
717.53	7993.74
717.873	7962.11
718.216	7996.91
718.559	7923.24
718.902	7888.44
719.246	7925.05
719.589	7931.6
719.932	7899.06
720.275	7892.28
720.617	7847.08
720.96	7850.02
721.303	7846.63
721.646	7834.88
721.989	7785.84
722.331	7818.38
722.674	7878.72
723.016	7832.39
723.359	7780.19
723.701	7813.64
724.044	7763.92
724.386	7739.51
724.729	7819.51
725.071	7794.2
725.413	7807.99
725.755	7803.24
726.097	7695.9
726.439	7691.83
726.782	7735.67
727.124	7717.37
727.465	7725.05
727.807	7735.45
728.149	7693.64
728.491	7682.57
728.833	7721.66
729.175	7651.15
729.516	7653.87
729.858	7657.26
730.199	7695.9
730.541	7679.63
730.882	7640.08
731.224	7659.29
731.565	7590.82
731.906	7637.14
732.248	7663.36
732.589	7578.84
732.93	7601.66
733.271	7661.1
733.612	7561.44
733.953	7676.01
734.294	7603.92
734.635	7610.25
734.976	7627.43
735.317	7603.02
735.658	7589.46
735.999	7632.17
736.339	7630.14
736.68	7588.33
737.021	7619.74
737.361	7502.68
737.702	7606.86
738.042	7622.68
738.383	7561.21
738.723	7645.28
739.063	7610.7
739.404	7683.02
739.744	7617.71
740.084	7596.24
740.424	7681.21
740.764	7704.49
741.104	7674.88
741.444	7706.07
741.784	7676.69
742.124	7702.23
742.464	7675.79
742.804	7646.18
743.143	7719.85
743.483	7762.11
743.823	7730.7
744.162	7775.22
744.502	7747.2
744.841	7746.52
745.181	7809.79
745.52	7833.52
745.86	7806.86
746.199	7889.79
746.538	7911.26
746.877	7947.87
747.216	8034.42
747.556	8037.13
747.895	8088.66
748.234	8038.04
748.573	8098.6
748.911	8124.36
749.25	8195.55
749.589	8223.57
749.928	8336.79
750.267	8383.11
750.605	8437.57
750.944	8441.64
751.283	8512.6
751.621	8637.12
751.96	8612.94
752.298	8693.84
752.636	8878.92
752.975	8867.85
753.313	8929.99
753.651	9013.38
753.989	9145.8
754.327	9175.18
754.666	9275.97
755.004	9388.28
755.342	9545.12
755.679	9667.82
756.017	9666.47
756.355	9825.56
756.693	9952.79
757.031	10132.67
757.368	10209.73
757.706	10397.3
758.044	10442.27
758.381	10590.74
758.719	10717.06
759.056	10831.41
759.394	11030.95
759.731	11100.1
760.068	11245.64
760.405	11330.61
760.743	11537.83
761.08	11788.67
761.417	11854.43
761.754	11996.58
762.091	12074.99
762.428	12254.2
762.765	12405.15
763.102	12684.69
