Data from hue_340_FLMS001491_22.txt Node
Date: Mon Feb 06 15:42:41 GMT 2017
User: dcchb
Spectrometer: FLMS00149
Trigger mode: 0
Integration Time (sec): 2.000000E-2
Scans to average: 10
Electric dark correction enabled: true
Nonlinearity correction enabled: false
Boxcar width: 0
XAxis mode: Wavelengths
Number of Pixels in Spectrum: 2048
>>>>>Begin Spectral Data<<<<<
341.393	-2.26
341.776	-2.26
342.16	-2.26
342.543	-63.28
342.927	-72.77
343.31	-79.09
343.693	-66.66
344.077	-62.37
344.46	-65.99
344.843	-52.2
345.226	-46.33
345.61	-35.71
345.993	-12.2
346.376	-6.1
346.759	-8.81
347.142	18.53
347.525	70.73
347.908	48.36
348.291	86.78
348.674	109.15
349.057	101.92
349.44	107.12
349.823	126.1
350.206	167
350.588	191.41
350.971	191.41
351.354	236.15
351.737	234.12
352.119	240.9
352.502	263.27
352.884	261.91
353.267	270.05
353.65	302.36
354.032	298.52
354.414	318.64
354.797	308.92
355.179	320.44
355.562	337.84
355.944	331.97
356.326	340.78
356.709	344.62
357.091	327
357.473	346.66
357.855	359.99
358.238	339.43
358.62	348.69
359.002	343.04
359.384	334.91
359.766	339.65
360.148	323.61
360.53	339.88
360.912	331.52
361.294	334.91
361.676	314.12
362.057	327.22
362.439	347.34
362.821	335.36
363.203	327.67
363.584	315.02
363.966	332.19
364.348	324.29
364.729	311.18
365.111	306.66
365.493	324.74
365.874	314.79
366.256	327.45
366.637	305.98
367.019	310.5
367.4	327.22
367.781	330.61
368.163	322.93
368.544	327.9
368.925	326.09
369.306	319.31
369.688	326.55
370.069	311.63
370.45	321.8
370.831	313.21
371.212	319.31
371.593	316.6
371.974	309.6
372.355	311.18
372.736	327.68
373.117	316.38
373.498	303.72
373.879	338.3
374.26	295.81
374.641	324.29
375.021	321.8
375.402	338.52
375.783	335.81
376.163	314.57
376.544	338.97
376.925	308.69
377.305	328.35
377.686	322.93
378.066	337.84
378.447	300.78
378.827	342.14
379.208	344.85
379.588	336.94
379.968	317.28
380.349	320.67
380.729	331.52
381.109	307.79
381.489	345.08
381.87	333.1
382.25	322.25
382.63	337.17
383.01	338.97
383.39	339.43
383.77	343.49
384.15	348.47
384.53	356.83
384.91	337.84
385.29	349.6
385.67	370.16
386.049	350.27
386.429	339.88
386.809	350.05
387.189	337.62
387.568	365.19
387.948	332.87
388.328	342.36
388.707	341.23
389.087	329.71
389.466	351.4
389.846	339.2
390.225	343.04
390.605	355.92
390.984	387.79
391.363	356.83
391.743	350.5
392.122	360.44
392.501	355.47
392.881	366.09
393.26	368.35
393.639	364.28
394.018	361.12
394.397	359.76
394.776	399.54
395.155	380.55
395.534	363.61
395.913	378.52
396.292	387.56
396.671	387.79
397.05	372.65
397.429	378.97
397.808	374.45
398.186	382.36
398.565	382.36
398.944	369.93
399.323	392.31
399.701	393.66
400.08	381.23
400.458	380.55
400.837	392.98
401.215	395.92
401.594	387.33
401.972	377.84
402.351	394.34
402.729	384.85
403.107	414.23
403.486	397.96
403.864	404.96
404.242	417.62
404.62	399.09
404.999	418.52
405.377	421.01
405.755	421.01
406.133	423.04
406.511	407.22
406.889	419.42
407.267	410.61
407.645	422.81
408.023	434.11
408.401	438.63
408.779	423.27
409.156	446.99
409.534	454.68
409.912	425.07
410.29	434.79
410.667	464.17
411.045	437.95
411.422	471.85
411.8	467.11
412.178	456.94
412.555	463.72
412.933	502.59
413.31	490.61
413.687	476.37
414.065	479.54
414.442	512.3
414.819	498.07
415.197	497.61
415.574	499.87
415.951	491.74
416.328	501.68
416.705	519.99
417.082	515.92
417.46	511.62
417.837	535.58
418.214	515.92
418.591	519.53
418.967	536.71
419.344	526.99
419.721	559.76
420.098	534.68
420.475	548.01
420.852	569.25
421.228	560.89
421.605	573.54
421.982	567.44
422.358	581
422.735	576.03
423.111	563.83
423.488	599.08
423.864	595.24
424.241	602.24
424.617	590.94
424.994	590.27
425.37	612.87
425.746	602.7
426.123	621
426.499	614.45
426.875	617.84
427.251	637.27
427.627	635.01
428.003	647.89
428.379	635.92
428.756	643.15
429.132	650.6
429.507	644.28
429.883	653.54
430.259	685.41
430.635	677.5
431.011	682.02
431.387	652.86
431.763	704.39
432.138	699.19
432.514	715.69
432.89	731.96
433.265	727.89
433.641	711.85
434.016	733.31
434.392	768.57
434.767	738.96
435.143	775.57
435.518	764.05
435.894	777.38
436.269	763.37
436.644	772.64
437.02	771.73
437.395	782.13
437.77	784.16
438.145	800.2
438.52	803.37
438.895	835.23
439.271	817.83
439.646	828.23
440.021	859.19
440.395	855.8
440.77	823.71
441.145	852.63
441.52	875.01
441.895	845.18
442.27	877.04
442.645	847.66
443.019	882.46
443.394	886.3
443.769	894.67
444.143	886.98
444.518	862.58
444.892	901.9
445.267	885.85
445.641	919.75
446.016	904.83
446.39	902.35
446.764	939.86
447.139	931.27
447.513	918.62
447.887	911.39
448.262	921.78
448.636	937.15
449.01	939.86
449.384	934.21
449.758	932.4
450.132	949.58
450.506	977.83
450.88	966.75
451.254	973.99
451.628	978.96
452.002	984.61
452.376	976.02
452.75	1007.88
453.123	991.84
453.497	997.04
453.871	978.05
454.244	1020.09
454.618	1013.76
454.992	1036.81
455.365	1022.35
455.739	1059.63
456.112	1056.47
456.486	1070.48
456.859	1067.32
457.232	1075
457.606	1062.12
457.979	1090.14
458.352	1094.21
458.725	1118.16
459.099	1123.81
459.472	1132.85
459.845	1121.78
460.218	1160.2
460.591	1154.32
460.964	1154.09
461.337	1207.43
461.71	1182.79
462.083	1175.79
462.456	1195
462.829	1197.48
463.201	1239.06
463.574	1240.87
463.947	1246.07
464.32	1262.79
464.692	1276.35
465.065	1274.32
465.438	1317.25
465.81	1320.19
466.183	1298.5
466.555	1363.13
466.928	1323.13
467.3	1343.24
467.672	1351.83
468.045	1395.44
468.417	1407.42
468.789	1409.68
469.161	1422.34
469.534	1420.53
469.906	1456.46
470.278	1464.59
470.65	1494.2
471.022	1497.81
471.394	1484.93
471.766	1538.94
472.138	1555.21
472.51	1574.2
472.882	1594.99
473.253	1581.43
473.625	1620.75
473.997	1646.28
474.369	1664.14
474.74	1659.62
475.112	1686.74
475.484	1712.27
475.855	1751.59
476.227	1767.41
476.598	1799.05
476.97	1845.6
477.341	1822.78
477.713	1846.05
478.084	1867.07
478.455	1915.43
478.827	1937.8
479.198	2002.66
479.569	2000.63
479.94	2056.67
480.311	2043.11
480.682	2070
481.053	2166.5
481.424	2177.34
481.795	2178.7
482.166	2210.56
482.537	2241.97
482.908	2264.12
483.279	2311.35
483.65	2319.94
484.021	2373.72
484.391	2405.81
484.762	2396.1
485.133	2451.69
485.503	2460.95
485.874	2493.72
486.244	2541.4
486.615	2546.15
486.985	2617.56
487.356	2605.81
487.726	2670.21
488.097	2726.03
488.467	2701.4
488.837	2761.96
489.207	2796.99
489.578	2859.81
489.948	2874.05
490.318	2896.2
490.688	2892.81
491.058	2957.44
491.428	2984.1
491.798	3007.38
492.168	3052.58
492.538	3072.69
492.908	3100.94
493.278	3142.06
493.648	3151.78
494.017	3176.64
494.387	3166.02
494.757	3255.96
495.126	3270.65
495.496	3262.29
495.866	3300.25
496.235	3293.7
496.605	3330.08
496.974	3361.04
497.344	3384.54
497.713	3432.23
498.082	3459.57
498.452	3474.71
498.821	3482.17
499.19	3487.82
499.559	3570.53
499.928	3537.99
500.298	3565.1
500.667	3629.96
501.036	3625.89
501.405	3579.34
501.774	3642.16
502.143	3650.53
502.512	3657.98
502.88	3693.91
503.249	3719.9
503.618	3716.74
503.987	3760.13
504.356	3764.65
504.724	3795.83
505.093	3741.37
505.462	3833.35
505.83	3800.8
506.199	3865.89
506.567	3855.72
506.936	3854.81
507.304	3947.47
507.672	3920.57
508.041	3947.92
508.409	3949.5
508.777	3984.08
509.145	3996.73
509.514	4012.55
509.882	4037.63
510.25	4031.08
510.618	4050.74
510.986	4036.96
511.354	4072.21
511.722	4078.31
512.09	4147.69
512.458	4111.3
512.826	4165.54
513.193	4113.79
513.561	4141.59
513.929	4192.66
514.297	4251.64
514.664	4253.9
515.032	4219.55
515.4	4240.79
515.767	4240.79
516.135	4291.19
516.502	4262.94
516.869	4325.76
517.237	4318.3
517.604	4310.4
517.972	4353.78
518.339	4385.2
518.706	4348.36
519.073	4384.97
519.44	4390.62
519.808	4461.13
520.175	4419.54
520.542	4487.11
520.909	4490.96
521.276	4501.8
521.643	4508.58
522.009	4525.76
522.376	4585.42
522.743	4562.14
523.11	4561.69
523.477	4641.01
523.843	4662.25
524.21	4693.21
524.577	4701.57
524.943	4710.16
525.31	4756.71
525.676	4761.68
526.043	4758.07
526.409	4819.53
526.776	4833.09
527.142	4859.76
527.508	4843.04
527.874	4870.38
528.241	4912.87
528.607	4966.2
528.973	4957.84
529.339	5017.95
529.705	5034.44
530.071	5059.53
530.437	5081.22
530.803	5143.82
531.169	5169.13
531.535	5134.55
531.901	5177.72
532.267	5175.23
532.632	5234.44
532.998	5210.94
533.364	5215.68
533.73	5202.35
534.095	5248.45
534.461	5296.81
534.826	5328.9
535.192	5405.73
535.557	5383.59
535.923	5350.37
536.288	5424.04
536.653	5444.38
537.019	5440.31
537.384	5465.62
537.749	5495.67
538.114	5497.03
538.479	5513.3
538.845	5508.33
539.21	5560.08
539.575	5568.89
539.94	5572.96
540.305	5583.58
540.67	5620.42
541.034	5655.44
541.399	5684.37
541.764	5714.88
542.129	5734.31
542.494	5730.92
542.858	5777.25
543.223	5778.15
543.587	5915.1
543.952	5845.72
544.316	5833.07
544.681	5928.43
545.045	5868.55
545.41	5939.96
545.774	5961.43
546.138	5960.07
546.503	5953.74
546.867	6024.47
547.231	6054.53
547.595	6130.69
547.959	6095.43
548.324	6042.55
548.688	6117.58
549.052	6167.07
549.416	6175.43
549.779	6107.18
550.143	6216.33
550.507	6223.34
550.871	6217.92
551.235	6262.66
551.599	6326.16
551.962	6302.21
552.326	6319.83
552.689	6439.6
553.053	6337.01
553.417	6330.23
553.78	6470.11
554.143	6425.59
554.507	6473.05
554.87	6517.34
555.234	6504.46
555.597	6502.88
555.96	6528.87
556.323	6535.42
556.686	6559.6
557.05	6617.23
557.413	6651.35
557.776	6611.13
558.139	6661.75
558.502	6620.62
558.865	6724.57
559.228	6736.09
559.59	6756.88
559.953	6798.47
560.316	6777.67
560.679	6779.26
561.041	6887.28
561.404	6909.87
561.767	6890.21
562.129	6861.97
562.492	6982.19
562.854	6949.42
563.217	6948.52
563.579	6975.41
563.941	6982.42
564.304	7002.3
564.666	7071.9
565.028	7058.8
565.39	7075.07
565.753	7156.65
566.115	7190.32
566.477	7149.42
566.839	7198.23
567.201	7254.95
567.563	7255.4
567.925	7326.36
568.287	7289.07
568.648	7323.65
569.01	7411.78
569.372	7437.54
569.734	7397.77
570.095	7484.32
570.457	7474.83
570.819	7526.36
571.18	7612.91
571.542	7662.85
571.903	7614.49
572.265	7701.27
572.626	7695.62
572.987	7744.66
573.349	7824.2
573.71	7846.57
574.071	7859.45
574.432	7943.29
574.794	8024.87
575.155	8019
575.516	8074.36
575.877	8104.19
576.238	8159.33
576.599	8247.69
576.96	8276.62
577.32	8327.01
577.681	8450.17
578.042	8500.57
578.403	8545.76
578.763	8609.49
579.124	8749.15
579.485	8779.66
579.845	8861.01
580.206	9020.78
580.566	9072.76
580.927	9181.45
581.287	9318.85
581.648	9392.07
582.008	9533.08
582.368	9616.92
582.728	9854.2
583.089	9856.24
583.449	10099.85
583.809	10186.85
584.169	10410.57
584.529	10460.29
584.889	10699.38
585.249	10878.58
585.609	10922.88
585.969	11218.24
586.329	11359.93
586.688	11518.34
587.048	11648.28
587.408	11979.35
587.768	12073.81
588.127	12336.62
588.487	12514.47
588.846	12813
589.206	13012.54
589.565	13149.48
589.925	13425.41
590.284	13675.12
590.643	13938.16
591.003	14220.87
591.362	14370.24
591.721	14746.5
592.08	15047.29
592.44	15218.58
592.799	15489.99
593.158	15649.76
593.517	15932.24
593.876	16273.7
594.235	16460.36
594.593	16795.94
594.952	17099.21
595.311	17354.57
595.67	17631.4
596.029	18018.28
596.387	18199.97
596.746	18489.46
597.104	18725.38
597.463	19015.32
597.822	19364.69
598.18	19465.02
598.538	19777.79
598.897	20101.39
599.255	20311.1
599.613	20865.89
599.972	20936.85
600.33	21367.35
600.688	21494.8
601.046	21798.52
601.404	22041.23
601.762	22317.83
602.12	22600.08
602.478	22908.1
602.836	23179.5
603.194	23242.78
603.552	23563.22
603.91	23732.71
604.268	24100.61
604.625	24206.82
604.983	24663.31
605.341	24805.9
605.698	25118.44
606.056	25336.28
606.413	25491.08
606.771	25907.79
607.128	26033.89
607.485	26142.14
607.843	26357.27
608.2	26666.19
608.557	26985.51
608.914	27077.25
609.272	27384.36
609.629	27559.73
609.986	27915.2
610.343	28050.11
610.7	28450.33
611.057	28525.13
611.414	28633.37
611.771	28711.34
612.127	29007.37
612.484	29204.88
612.841	29456.17
613.198	29433.35
613.554	29642.84
613.911	29968.7
614.267	30090.73
614.624	30292.99
614.98	30303.84
615.337	30600.33
615.693	30721
616.05	30900.2
616.406	31156.02
616.762	31074.21
617.118	31336.35
617.475	31434.65
617.831	31494.54
618.187	31777.02
618.543	31905.6
618.899	32238.7
619.255	32282.54
619.611	32333.61
619.967	32587.84
620.323	32584.91
620.678	32695.41
621.034	32756.2
621.39	32789.87
621.746	32957.1
622.101	33311.67
622.457	33142.18
622.812	33361.83
623.168	33534.03
623.523	33521.6
623.879	33690.87
624.234	33633.92
624.589	33765.44
624.945	33996.62
625.3	33943.51
625.655	34005.66
626.01	34137.18
626.365	34253.79
626.72	34324.52
627.075	34335.37
627.43	34318.87
627.785	34367.01
628.14	34466.66
628.495	34554.57
628.85	34551.41
629.205	34447.91
629.559	34694.91
629.914	34524.06
630.269	34564.97
630.623	34705.08
630.978	34680.9
631.332	34837.5
631.687	34945.3
632.041	34761.35
632.396	35001.11
632.75	34839.31
633.104	35064.16
633.459	35011.51
633.813	34980.1
634.167	34897.16
634.521	34995.24
634.875	35096.93
635.229	35028.01
635.583	34901
635.937	34854.68
636.291	34966.31
636.645	35008.12
636.999	34962.7
637.352	35092.41
637.706	34873.66
638.06	34985.97
638.413	34979.87
638.767	35023.94
639.121	35040.21
639.474	34735.81
639.828	34901.91
640.181	34952.08
640.534	34974
640.888	34937.16
641.241	34748.24
641.594	34912.08
641.947	34972.64
642.301	34953.88
642.654	34869.59
643.007	34809.03
643.36	34820.78
643.713	34796.15
644.066	34880.89
644.419	34719.77
644.771	34446.78
645.124	34202.72
645.477	34150.51
645.83	34075.49
646.182	33903.06
646.535	33830.07
646.888	33924.31
647.24	33790.07
647.593	33921.59
647.945	33788.26
648.298	33761.15
648.65	33630.08
649.002	33649.51
649.355	33833.46
649.707	33769.96
650.059	33797.3
650.411	34171.98
650.763	34338.76
651.115	34669.37
651.467	34541.01
651.819	34490.17
652.171	34355.25
652.523	34401.13
652.875	34311.87
653.227	34225.54
653.578	34475.93
653.93	34411.52
654.282	34241.13
654.633	34217.86
654.985	34447.68
655.337	34361.13
655.688	34325.65
656.039	34407
656.391	34214.47
656.742	34194.58
657.094	34147.12
657.445	34347.57
657.796	34131.31
658.147	34182.38
658.498	34174.92
658.849	34311.41
659.2	34217.41
659.551	34252.88
659.902	34289.95
660.253	34092.21
660.604	34237.29
660.955	34063.06
661.306	34131.98
661.656	34145.99
662.007	34255.37
662.358	34099.22
662.708	34016.05
663.059	34114.36
663.409	34006.79
663.76	34369.49
664.11	34240
664.461	34157.97
664.811	34226.67
665.161	34058.77
665.511	34052.21
665.862	34147.12
666.212	34105.54
666.562	34162.27
666.912	34124.3
667.262	34038.88
667.612	34119.33
667.962	34244.75
668.312	33980.12
668.662	34063.51
669.011	34079.33
669.361	33980.8
669.711	33889.28
670.06	33967.02
670.41	33816.96
670.76	33815.83
671.109	34066
671.459	33965.43
671.808	33906.23
672.157	33963.85
672.507	33889.5
672.856	33783.74
673.205	33904.87
673.554	33866.45
673.904	33809.73
674.253	33938.54
674.602	33766.34
674.951	33329.75
675.3	33184.44
675.649	33752.33
675.998	33699.23
676.346	33674.14
676.695	33801.37
677.044	33426.92
677.393	33764.54
677.741	33633.01
678.09	33609.06
678.438	33520.02
678.787	33680.24
679.135	33680.92
679.484	33394.6
679.832	33560.47
680.181	33346.24
680.529	33386.92
680.877	33280.03
681.225	33324.1
681.573	33537.2
681.922	33240.26
682.27	33244.78
682.618	33216.53
682.966	33148.05
683.314	33176.75
683.661	33052.69
684.009	32947.83
684.357	32870.55
684.705	32804.11
685.053	32902.41
685.4	32721.4
685.748	32639.37
686.095	32722.08
686.443	32511.24
686.79	32465.81
687.138	32513.95
687.485	32615.87
687.832	32381.07
688.18	32468.52
688.527	32252.71
688.874	32196.89
689.221	32167.74
689.568	32093.39
689.915	32089.1
690.262	32102.66
690.609	31899.95
690.956	31860.86
691.303	32061.98
691.65	31678.49
691.997	31760.97
692.344	31570.92
692.69	31495.22
693.037	31505.39
693.383	31355.56
693.73	31410.93
694.077	31417.7
694.423	31255
694.769	31110.59
695.116	30999.86
695.462	31005.29
695.808	30849.36
696.155	30964.61
696.501	30733.2
696.847	30589.93
697.193	30475.13
697.539	30503.6
697.885	30312.65
698.231	30249.37
698.577	30295.47
698.923	30248.02
699.269	30096.61
699.614	29923.96
699.96	29942.72
700.306	29832.44
700.651	29752.44
700.997	29617.75
701.342	29651.2
701.688	29612.1
702.033	29605.55
702.379	29502.5
702.724	29384.99
703.069	29549.51
703.415	29126.24
703.76	29163.3
704.105	29160.59
704.45	29157.43
704.795	28945
705.14	28905.23
705.485	28889.64
705.83	28699.36
706.175	28701.17
706.52	28639.47
706.865	28574.39
707.209	28507.95
707.554	28484.67
707.899	28506.82
708.243	28259.6
708.588	28350.67
708.932	28188.86
709.277	28172.82
709.621	28149.99
709.966	27949.77
710.31	28000.17
710.654	27761.76
710.998	27742.1
711.342	27763.34
711.687	27728.08
712.031	27569.22
712.375	27486.06
712.719	27552.95
713.063	27436.57
713.407	27587.07
713.75	27266.18
714.094	27428.43
714.438	27412.16
714.782	27270.7
715.125	27089.46
715.469	27196.57
715.812	27037.48
716.156	26858.5
716.499	26960.2
716.843	26888.11
717.186	26955.9
717.53	26928.78
717.873	26856.02
718.216	26830.71
718.559	26695.8
718.902	26576.7
719.246	26676.36
719.589	26398.85
719.932	26369.93
720.275	26437.72
720.617	26301.23
720.96	26261.91
721.303	26248.8
721.646	26291.96
721.989	26145.53
722.331	26209.71
722.674	26088.13
723.016	26071.86
723.359	26208.8
723.701	26141.91
724.044	25921.8
724.386	25781.92
724.729	25931.97
725.071	25841.13
725.413	25819.66
725.755	25890.62
726.097	25649.04
726.439	25585.54
726.782	25592.55
727.124	25618.99
727.465	25505.77
727.807	25447.24
728.149	25434.59
728.491	25270.52
728.833	25499.22
729.175	25249.51
729.516	25356.62
729.858	25177.19
730.199	25246.12
730.541	25232.56
730.882	25086.57
731.224	25307.13
731.565	25204.99
731.906	25002.28
732.248	25069.62
732.589	24928.16
732.93	24875.73
733.271	24820.14
733.612	24988.95
733.953	25025.1
734.294	24885.22
734.635	24758.22
734.976	24863.53
735.317	24667.37
735.658	24663.08
735.999	24656.53
736.339	24513.93
736.68	24691.78
737.021	24508.73
737.361	24438.23
737.702	24443.2
738.042	24558.9
738.383	24436.87
738.723	24500.82
739.063	24389.64
739.404	24331.11
739.744	24294.5
740.084	24137.22
740.424	24203.88
740.764	24234.62
741.104	24263.77
741.444	24030.55
741.784	24056.99
742.124	24175.18
742.464	24076.66
742.804	23928.64
743.143	23931.12
743.483	23843.67
743.823	23704.69
744.162	23767.51
744.502	23836.89
744.841	23777.91
745.181	23840.5
745.52	23737.45
745.86	23656.55
746.199	23674.86
746.538	23637.34
746.877	23749.66
747.216	23647.74
747.556	23514.86
747.895	23550.12
748.234	23485.03
748.573	23433.28
748.911	23421.76
749.25	23370.46
749.589	23368.2
749.928	23388.54
750.267	23364.58
750.605	23178.37
750.944	23134.31
751.283	23105.38
751.621	23125.95
751.96	22954.65
752.298	23023.35
752.636	23032.61
752.975	22858.38
753.313	22803.92
753.651	22845.95
753.989	22729.8
754.327	22678.95
754.666	22626.07
755.004	22581.33
755.342	22623.59
755.679	22678.95
756.017	22362.35
756.355	22580.88
756.693	22387.66
757.031	22516.7
757.368	22369.13
757.706	22302.92
758.044	22166.87
758.381	22289.13
758.719	22069.02
759.056	22229.7
759.394	22041
759.731	21891.85
760.068	21981.79
760.405	21885.3
760.743	21862.48
761.08	21798.52
761.417	21688.92
