Data from hue_150_FLMS001491_00033.txt Node
Date: Tue Feb 07 16:53:57 GMT 2017
User: dcchb
Spectrometer: FLMS00149
Trigger mode: 0
Integration Time (sec): 2.000000E-2
Scans to average: 10
Electric dark correction enabled: true
Nonlinearity correction enabled: false
Boxcar width: 0
XAxis mode: Wavelengths
Number of Pixels in Spectrum: 2048
>>>>>Begin Spectral Data<<<<<
341.393	-28.01
341.776	-28.01
342.16	-28.01
342.543	-56.48
342.927	-68.23
343.31	-66.65
343.693	-67.55
344.077	-58.97
344.46	-41.34
344.843	-60.55
345.226	-58.74
345.61	-17.16
345.993	-14.9
346.376	-6.31
346.759	9.96
347.142	21.26
347.525	36.4
347.908	59
348.291	63.74
348.674	82.27
349.057	119.56
349.44	124.08
349.823	144.19
350.206	175.15
350.588	166.11
350.971	211.31
351.354	247.92
351.737	248.14
352.119	254.92
352.502	257.63
352.884	292.21
353.267	305.09
353.65	296.5
354.032	305.54
354.414	300.8
354.797	308.48
355.179	315.71
355.562	313.9
355.944	319.1
356.326	352.55
356.709	339.67
357.091	334.92
357.473	356.39
357.855	343.06
358.238	350.97
358.62	345.54
359.002	339.21
359.384	356.16
359.766	344.64
360.148	347.12
360.53	348.48
360.912	332.21
361.294	353
361.676	330.17
362.057	307.12
362.439	344.86
362.821	328.14
363.203	323.62
363.584	324.07
363.966	302.15
364.348	345.77
364.729	309.16
365.111	328.82
365.493	321.14
365.874	333.56
366.256	301.48
366.637	319.55
367.019	321.59
367.4	319.55
367.781	327.69
368.163	316.62
368.544	305.99
368.925	306.67
369.306	338.54
369.688	298.99
370.069	307.35
370.45	314.58
370.831	318.88
371.212	291.53
371.593	311.87
371.974	311.64
372.355	328.14
372.736	322.94
373.117	322.04
373.498	327.46
373.879	319.1
374.26	310.29
374.641	306.9
375.021	314.13
375.402	319.55
375.783	331.98
376.163	337.41
376.544	323.85
376.925	329.72
377.305	324.98
377.686	321.36
378.066	312.32
378.447	337.18
378.827	304.41
379.208	321.14
379.588	334.24
379.968	342.83
380.349	307.12
380.729	352.77
381.109	325.88
381.489	321.59
381.87	329.5
382.25	352.1
382.63	326.11
383.01	334.92
383.39	336.05
383.77	350.29
384.15	347.58
384.53	348.48
384.91	362.49
385.29	346.9
385.67	371.98
386.049	345.32
386.429	335.82
386.809	350.06
387.189	354.36
387.568	363.85
387.948	367.46
388.328	370.85
388.707	351.87
389.087	361.36
389.466	357.52
389.846	365.43
390.225	377.86
390.605	341.47
390.984	355.94
391.363	362.26
391.743	369.27
392.122	361.13
392.501	376.28
392.881	377.41
393.26	383.05
393.639	362.04
394.018	378.54
394.397	375.82
394.776	373.79
395.155	408.14
395.534	367.69
395.913	381.25
396.292	385.54
396.671	383.28
397.05	434.35
397.429	404.52
397.808	409.95
398.186	390.29
398.565	398.65
398.944	406.33
399.323	414.24
399.701	409.95
400.08	392.32
400.458	408.14
400.837	412.43
401.215	399.33
401.594	419.44
401.972	416.73
402.351	412.66
402.729	418.76
403.107	423.28
403.486	430.74
403.864	428.25
404.242	437.52
404.62	412.43
404.999	408.59
405.377	423.05
405.755	441.81
406.133	428.25
406.511	415.82
406.889	444.07
407.267	448.59
407.645	446.33
408.023	434.13
408.401	446.78
408.779	436.61
409.156	487.23
409.534	470.06
409.912	477.52
410.29	483.62
410.667	470.51
411.045	463.73
411.422	480.45
411.8	477.06
412.178	505.09
412.555	484.97
412.933	478.19
413.31	501.7
413.687	517.74
414.065	513.22
414.442	479.55
414.819	489.72
415.197	496.95
415.574	490.62
415.951	520.23
416.328	511.41
416.705	525.88
417.082	518.87
417.46	541.47
417.837	519.32
418.214	542.37
418.591	545.76
418.967	523.62
419.344	535.14
419.721	530.4
420.098	543.73
420.475	542.37
420.852	556.61
421.228	575.82
421.605	560.45
421.982	567.23
422.358	574.46
422.735	559.32
423.111	580.11
423.488	586.44
423.864	554.58
424.241	613.33
424.617	583.73
424.994	616.27
425.37	601.81
425.746	604.74
426.123	601.13
426.499	604.52
426.875	602.48
427.251	615.14
427.627	626.21
428.003	627.12
428.379	640.45
428.756	621.24
429.132	662.82
429.507	658.75
429.883	673.22
430.259	668.02
430.635	656.04
431.011	673.89
431.387	686.1
431.763	694.23
432.138	710.05
432.514	706.44
432.89	707.57
433.265	712.31
433.641	727.68
434.016	716.38
434.392	728.58
434.767	767.68
435.143	745.98
435.518	739.66
435.894	753.67
436.269	759.77
436.644	767.68
437.02	782.14
437.395	799.77
437.77	792.31
438.145	809.71
438.52	807.68
438.895	784.85
439.271	818.07
439.646	844.96
440.021	832.53
440.395	828.69
440.77	844.06
441.145	833.44
441.52	849.03
441.895	854
442.27	869.6
442.645	867.11
443.019	884.96
443.394	886.77
443.769	911.18
444.143	888.8
444.518	906.66
444.892	915.47
445.267	907.79
445.641	895.81
446.016	929.71
446.39	906.43
446.764	931.52
447.139	906.66
447.513	929.26
447.887	936.94
448.262	932.87
448.636	951.85
449.01	959.31
449.384	977.39
449.758	1012.19
450.132	995.47
450.506	1021.68
450.88	1017.16
451.254	1034.11
451.628	998.18
452.002	1018.74
452.376	1046.31
452.75	1016.26
453.123	1063.49
453.497	1041.57
453.871	1072.75
454.244	1097.39
454.618	1100.32
454.992	1105.75
455.365	1116.14
455.739	1152.53
456.112	1154.56
456.486	1164.5
456.859	1163.6
457.232	1209.93
457.606	1171.51
457.979	1213.09
458.352	1206.08
458.725	1254.44
459.099	1258.96
459.472	1278.17
459.845	1261.68
460.218	1297.61
460.591	1311.84
460.964	1320.43
461.337	1334.44
461.71	1367.21
462.083	1411.73
462.456	1360.2
462.829	1413.08
463.201	1443.37
463.574	1464.83
463.947	1474.33
464.32	1487.21
464.692	1523.82
465.065	1541.67
465.438	1541.67
465.81	1557.94
466.183	1592.29
466.555	1595.9
466.928	1627.09
467.3	1639.75
467.672	1678.61
468.045	1731.72
468.417	1743.7
468.789	1748.22
469.161	1764.71
469.534	1811.94
469.906	1841.77
470.278	1883.13
470.65	1911.6
471.022	1950.25
471.394	1970.81
471.766	2028.89
472.138	2046.06
472.51	2104.14
472.882	2145.04
473.253	2192.72
473.625	2202.89
473.997	2284.25
474.369	2324.25
474.74	2361.76
475.112	2386.17
475.484	2477.01
475.855	2521.76
476.227	2537.8
476.598	2634.75
476.97	2694.41
477.341	2761.75
477.713	2853.05
478.084	2887.85
478.455	3019.82
478.827	3049.43
479.198	3154.51
479.569	3201.51
479.94	3293.94
480.311	3346.14
480.682	3441.05
481.053	3561.73
481.424	3666.81
481.795	3724.21
482.166	3873.13
482.537	3926.01
482.908	4037.42
483.279	4126.01
483.65	4282.16
484.021	4426.34
484.391	4516.51
484.762	4566.45
485.133	4668.59
485.503	4765.99
485.874	4959.66
486.244	5038.3
486.615	5176.6
486.985	5250.5
487.356	5441.9
487.726	5532.3
488.097	5692.29
488.467	5792.63
488.837	5949.46
489.207	6063.13
489.578	6205.5
489.948	6351.94
490.318	6473.29
490.688	6590.58
491.058	6765.71
491.428	6887.52
491.798	7031.47
492.168	7232.82
492.538	7289.54
492.908	7480.27
493.278	7615.41
493.648	7679.13
494.017	7846.81
494.387	8000.93
494.757	8111.44
495.126	8288.16
495.496	8340.81
495.866	8491.77
496.235	8574.7
496.605	8697.86
496.974	8848.82
497.344	8985.99
497.713	9067.8
498.082	9173.11
498.452	9332.2
498.821	9421.01
499.19	9453.78
499.559	9649.93
499.928	9723.6
500.298	9779.64
500.667	9913.88
501.036	9931.73
501.405	10153.42
501.774	10205.17
502.143	10356.13
502.512	10340.76
502.88	10519.51
503.249	10520.42
503.618	10621.43
503.987	10704.82
504.356	10783.23
504.724	10940.52
505.093	10964.92
505.462	11004.7
505.83	11073.17
506.199	11217.35
506.567	11373.05
506.936	11283.79
507.304	11495.53
507.672	11505.02
508.041	11608.75
508.409	11595.42
508.777	11736.43
509.145	11851
509.514	11722.42
509.882	11949.53
510.25	11954.73
510.618	12046.7
510.986	12100.03
511.354	12137.55
511.722	12286.47
512.09	12362.85
512.458	12351.33
512.826	12373.25
513.193	12495.96
513.561	12533.7
513.929	12603.52
514.297	12650.53
514.664	12592
515.032	12730.3
515.4	12755.38
515.767	12787.7
516.135	12887.58
516.502	12782.28
516.869	13008.26
517.237	13001.48
517.604	12908.83
517.972	13051.42
518.339	12992.67
518.706	13109.27
519.073	13153.79
519.44	13133.68
519.808	13244.86
520.175	13181.59
520.542	13371.19
520.909	13382.94
521.276	13322.6
521.643	13472.65
522.009	13408.48
522.376	13506.33
522.743	13538.42
523.11	13591.07
523.477	13698.41
523.843	13627.45
524.21	13748.58
524.577	13885.3
524.943	13871.97
525.31	13848.01
525.676	13969.59
526.043	13944.96
526.409	13902.47
526.776	14067.44
527.142	13944.05
527.508	14073.54
527.874	14055.01
528.241	13973.88
528.607	14091.85
528.973	14104.5
529.339	14167.55
529.705	14122.58
530.071	14243.26
530.437	14183.6
530.803	14276.7
531.169	14324.84
531.535	14222.24
531.901	14200.54
532.267	14175.91
532.632	14219.75
532.998	14169.81
533.364	14266.53
533.73	14185.86
534.095	14200.32
534.461	14209.36
534.826	14257.27
535.192	14153.54
535.557	14230.6
535.923	14191.28
536.288	14135.91
536.653	14170.04
537.019	14033.09
537.384	14134.33
537.749	14097.95
538.114	14024.28
538.479	14018.63
538.845	14038.74
539.21	13907.9
539.575	13991.51
539.94	13905.19
540.305	13973.88
540.67	13851.85
541.034	13874.68
541.399	13909.25
541.764	13852.08
542.129	13855.47
542.494	13681.46
542.858	13711.52
543.223	13640.33
543.587	13709.26
543.952	13565.53
544.316	13654.57
544.681	13572.31
545.045	13530.28
545.41	13560.79
545.774	13516.49
546.138	13452.77
546.503	13462.03
546.867	13387.91
547.231	13439.66
547.595	13379.32
547.959	13456.84
548.324	13354.47
548.688	13257.74
549.052	13249.84
549.416	13276.28
549.779	13176.62
550.143	13142.72
550.507	13204.86
550.871	13236.05
551.235	13065.66
551.599	13155.37
551.962	13091.87
552.326	13062.27
552.689	13092.78
553.053	12982.5
553.417	12998.99
553.78	13143.17
554.143	12968.26
554.507	13001.25
554.87	12970.52
555.234	12971.65
555.597	12900.24
555.96	12862.95
556.323	12875.16
556.686	12871.77
557.05	12864.53
557.413	12926
557.776	12905.44
558.139	12904.76
558.502	12869.51
558.865	12845.33
559.228	12876.96
559.59	12828.15
559.953	12841.94
560.316	12943.85
560.679	12925.78
561.041	12902.95
561.404	12853.69
561.767	12971.88
562.129	12846.23
562.492	12975.72
562.854	12899.34
563.217	12855.27
563.579	12889.62
563.941	12939.56
564.304	12900.47
564.666	13045.32
565.028	12951.54
565.39	12987.7
565.753	13017.52
566.115	13063.85
566.477	13057.98
566.839	13091.87
567.201	13110.63
567.563	13074.92
567.925	13157.63
568.287	13057.07
568.648	13057.52
569.01	13138.88
569.372	13159.44
569.734	13027.69
570.095	13261.59
570.457	13157.41
570.819	13206.9
571.18	13162.38
571.542	13245.32
571.903	13232.43
572.265	13340
572.626	13274.69
572.987	13356.5
573.349	13255.03
573.71	13359.66
574.071	13300
574.432	13328.03
574.794	13454.12
575.155	13356.05
575.516	13316.73
575.877	13420.68
576.238	13369.61
576.599	13408.02
576.96	13449.15
577.32	13450.96
577.681	13478.76
578.042	13425.65
578.403	13451.86
578.763	13383.17
579.124	13443.73
579.485	13427.01
579.845	13443.28
580.206	13487.8
580.566	13415.03
580.927	13420.23
581.287	13463.39
581.648	13410.06
582.008	13483.28
582.368	13367.35
582.728	13438.98
583.089	13416.84
583.449	13482.37
583.809	13370.74
584.169	13344.07
584.529	13381.13
584.889	13443.95
585.249	13311.08
585.609	13279.21
585.969	13357.63
586.329	13244.19
586.688	13360.57
587.048	13406.44
587.408	13328.25
587.768	13344.97
588.127	13274.24
588.487	13325.77
588.846	13383.84
589.206	13308.36
589.565	13173.23
589.925	13313.56
590.284	13253.9
590.643	13263.17
591.003	13317.86
591.362	13300
591.721	13180.46
592.08	13228.82
592.44	13226.11
592.799	13347.23
593.158	13208.48
593.517	13250.74
593.876	13197.18
594.235	13229.27
594.593	13202.15
594.952	13216.16
595.311	13117.18
595.67	13281.02
596.029	13261.59
596.387	13243.96
596.746	13265.43
597.104	13179.33
597.463	13168.93
597.822	13178.88
598.18	13128.71
598.538	13185.88
598.897	13186.56
599.255	13031.31
599.613	13227.91
599.972	13155.15
600.33	13229.04
600.688	13147.47
601.046	13164.64
601.404	13236.28
601.762	13169.61
602.12	13175.94
602.478	13243.06
602.836	13168.26
603.194	13145.21
603.552	13178.42
603.91	13161.25
604.268	13190.18
604.625	13133.23
604.983	13132.55
605.341	13132.1
605.698	13207.35
606.056	13231.53
606.413	13120.12
606.771	13212.55
607.128	13229.04
607.485	13215.71
607.843	13164.41
608.2	13249.38
608.557	13272.66
608.914	13212.1
609.272	13315.6
609.629	13269.5
609.986	13424.97
610.343	13278.08
610.7	13344.52
611.057	13308.82
611.414	13314.69
611.771	13281.92
612.127	13440.11
612.484	13377.06
612.841	13362.37
613.198	13375.48
613.554	13459.32
613.911	13428.14
614.267	13450.51
614.624	13368.25
614.98	13387.68
615.337	13476.27
615.693	13440.56
616.05	13414.12
616.406	13488.7
616.762	13427.46
617.118	13471.75
617.475	13440.34
617.831	13566.89
618.187	13493.22
618.543	13504.52
618.899	13540.22
619.255	13563.27
619.611	13520.11
619.967	13553.1
620.323	13622.93
620.678	13584.52
621.034	13520.79
621.39	13496.38
621.746	13472.2
622.101	13637.85
622.457	13540.9
622.812	13538.19
623.168	13639.2
623.523	13659.99
623.879	13621.8
624.234	13567.12
624.589	13561.47
624.945	13624.06
625.3	13605.76
625.655	13570.73
626.01	13572.54
626.365	13608.92
626.72	13596.72
627.075	13553.78
627.43	13529.15
627.785	13508.36
628.14	13568.24
628.495	13595.59
628.85	13627.23
629.205	13497.29
629.559	13515.59
629.914	13410.51
630.269	13574.35
630.623	13481.47
630.978	13457.97
631.332	13525.08
631.687	13543.84
632.041	13433.33
632.396	13513.56
632.75	13400.11
633.104	13422.03
633.459	13394.46
633.813	13409.15
634.167	13400.11
634.521	13358.76
634.875	13426.1
635.229	13354.24
635.583	13299.1
635.937	13313.34
636.291	13216.16
636.645	13297.52
636.999	13211.19
637.352	13344.07
637.706	13189.72
638.06	13215.94
638.413	13180.23
638.767	13092.33
639.121	13179.55
639.474	13128.03
639.828	13067.69
640.181	13065.43
640.534	13152.44
640.888	13034.93
641.241	12983.63
641.594	13016.85
641.947	13037.41
642.301	13070.18
642.654	13043.74
643.007	13068.6
643.36	13043.96
643.713	13024.3
644.066	12991.76
644.419	12966
644.771	12900.69
645.124	12778.21
645.477	12780.7
645.83	12688.95
646.182	12672.68
646.535	12647.82
646.888	12594.03
647.24	12569.18
647.593	12597.2
647.945	12526.69
648.298	12540.02
648.65	12449.4
649.002	12506.58
649.355	12473.58
649.707	12589.06
650.059	12562.4
650.411	12686.23
650.763	12761.49
651.115	12904.31
651.467	12829.73
651.819	12858.21
652.171	12836.29
652.523	12830.86
652.875	12798.77
653.227	12709.51
653.578	12828.6
653.93	12831.32
654.282	12785.44
654.633	12740.7
654.985	12790.41
655.337	12728.04
655.688	12784.54
656.039	12811.88
656.391	12617.31
656.742	12768.49
657.094	12749.74
657.445	12787.7
657.796	12820.92
658.147	12766.23
658.498	12787.02
658.849	12909.05
659.2	12875.61
659.551	12805.78
659.902	12813.69
660.253	12881.94
660.604	12867.47
660.955	12834.03
661.306	12863.18
661.656	12895.72
662.007	12811.65
662.358	12886.91
662.708	12812.33
663.059	12811.65
663.409	12747.93
663.76	12853.01
664.11	12843.74
664.461	12801.49
664.811	12867.02
665.161	12856.4
665.511	12881.26
665.862	12822.73
666.212	12850.3
666.562	12815.27
666.912	12846
667.262	12845.33
667.612	12808.49
667.962	12804.88
668.312	12828.15
668.662	12871.31
669.011	12826.8
669.361	12831.77
669.711	12832.22
670.06	12763.07
670.41	12763.07
670.76	12755.61
671.109	12751.32
671.459	12808.49
671.808	12831.99
672.157	12863.86
672.507	12748.83
672.856	12730.3
673.205	12711.09
673.554	12749.28
673.904	12718.32
674.253	12731.2
674.602	12731.43
674.951	12572.56
675.3	12521.04
675.649	12651.21
675.998	12686.91
676.346	12648.5
676.695	12615.73
677.044	12499.8
677.393	12584.54
677.741	12595.62
678.09	12575.28
678.438	12599.46
678.787	12650.3
679.135	12554.71
679.484	12473.13
679.832	12515.17
680.181	12412.12
680.529	12447.82
680.877	12532.34
681.225	12484.88
681.573	12458.44
681.922	12377.99
682.27	12403.3
682.618	12306.58
682.966	12347.49
683.314	12317.43
683.661	12293.25
684.009	12249.86
684.357	12216.64
684.705	12123.76
685.053	12158.34
685.4	12185.46
685.748	12148.17
686.095	12041.96
686.443	12074.5
686.79	12089.19
687.138	12106.81
687.485	12036.53
687.832	12114.05
688.18	12034.27
688.527	12003.99
688.874	11951.11
689.221	11874.5
689.568	11868.18
689.915	11812.58
690.262	11840.38
690.609	11793.6
690.956	11751.8
691.303	11658.01
691.65	11619.37
691.997	11632.93
692.344	11521.29
692.69	11536.89
693.037	11515.42
693.383	11391.58
693.73	11380.05
694.077	11314.52
694.423	11280.17
694.769	11322.2
695.116	11243.33
695.462	11265.03
695.808	11174.86
696.155	11256.89
696.501	11153.17
696.847	11117.46
697.193	10997.24
697.539	11084.02
697.885	11051.93
698.231	10905.26
698.577	10953.4
698.923	10943.46
699.269	10924.47
699.614	10789.11
699.96	10764.02
700.306	10702.56
700.651	10632.28
700.997	10681.99
701.342	10670.24
701.688	10560.19
702.033	10509.12
702.379	10504.82
702.724	10472.51
703.069	10500.98
703.415	10390.93
703.76	10300.08
704.105	10380.76
704.45	10345.28
704.795	10260.08
705.14	10271.61
705.485	10199.29
705.83	10177.83
706.175	10126.98
706.52	10094.44
706.865	10021.45
707.209	10039.98
707.554	10018.06
707.899	9999.53
708.243	9955.23
708.588	9974.44
708.932	9940.09
709.277	9810.38
709.621	9880.43
709.966	9811.51
710.31	9808.34
710.654	9749.14
710.998	9750.04
711.342	9749.36
711.687	9717.05
712.031	9673.66
712.375	9628.69
712.719	9604.28
713.063	9623.04
713.407	9691.74
713.75	9562.47
714.094	9582.36
714.438	9472.99
714.782	9547.79
715.125	9501.46
715.469	9541.91
715.812	9547.33
716.156	9354.34
716.499	9448.35
716.843	9488.58
717.186	9376.26
717.53	9441.57
717.873	9404.51
718.216	9393.67
718.559	9375.36
718.902	9315.93
719.246	9383.5
719.589	9298.98
719.932	9218.53
720.275	9308.24
720.617	9216.72
720.96	9202.94
721.303	9226.44
721.646	9258.3
721.989	9118.19
722.331	9216.49
722.674	9113.67
723.016	9202.03
723.359	9148.93
723.701	9174.01
724.044	9077.06
724.386	9073.9
724.729	9158.19
725.071	9054.47
725.413	9128.59
725.755	9051.08
726.097	9052.43
726.439	9038.65
726.782	9004.52
727.124	9045.43
727.465	9085.88
727.807	9022.15
728.149	8989.83
728.491	9031.64
728.833	9014.24
729.175	9062.6
729.516	8988.25
729.858	8972.21
730.199	8980.34
730.541	8969.72
730.882	8937.63
731.224	9001.81
731.565	8906.9
731.906	8954.13
732.248	8959.55
732.589	8913.45
732.93	8961.36
733.271	8934.69
733.612	8976.5
733.953	8969.95
734.294	8909.84
734.635	8880.23
734.976	8943.51
735.317	8830.29
735.658	8891.31
735.999	8919.78
736.339	8946.67
736.68	8964.07
737.021	8923.85
737.361	8825.77
737.702	9004.75
738.042	8934.69
738.383	8950.29
738.723	8974.24
739.063	8993.9
739.404	9051.53
739.744	9033.45
740.084	8988.25
740.424	9021.47
740.764	9013.79
741.104	9075.48
741.444	9052.21
741.784	9028.7
742.124	9081.58
742.464	9028.03
742.804	9082.94
743.143	9066.89
743.483	9111.64
743.823	9003.62
744.162	9120.45
744.502	9122.71
744.841	9214.24
745.181	9335.59
745.52	9280.9
745.86	9352.99
746.199	9281.58
746.538	9402.48
746.877	9390.73
747.216	9463.04
747.556	9511.18
747.895	9549.59
748.234	9602.02
748.573	9719.31
748.911	9675.47
749.25	9724.73
749.589	9746.65
749.928	9839.76
750.267	9916.82
750.605	9945.52
750.944	9992.29
751.283	10138.05
751.621	10174.21
751.96	10228.9
752.298	10298.27
752.636	10463.24
752.975	10507.08
753.313	10544.14
753.651	10693.52
753.989	10771.03
754.327	10912.27
754.666	10900.97
755.004	11077.69
755.342	11295.08
755.679	11297.8
756.017	11445.59
756.355	11608.75
756.693	11645.36
757.031	11831.12
757.368	11918.8
757.706	12059.13
758.044	12145.46
758.381	12439.46
