Data from hue_270_FLMS001491_00019.txt Node
Date: Tue Feb 07 15:56:51 GMT 2017
User: dcchb
Spectrometer: FLMS00149
Trigger mode: 0
Integration Time (sec): 2.000000E-2
Scans to average: 10
Electric dark correction enabled: true
Nonlinearity correction enabled: false
Boxcar width: 0
XAxis mode: Wavelengths
Number of Pixels in Spectrum: 2048
>>>>>Begin Spectral Data<<<<<
341.393	-7.17
341.776	-7.17
342.16	-7.17
342.543	-58.47
342.927	-72.71
343.31	-77.91
343.693	-78.81
344.077	-66.16
344.46	-64.12
344.843	-63.9
345.226	-48.98
345.61	-31.58
345.993	-5.59
346.376	-6.95
346.759	20.62
347.142	27.85
347.525	50.45
347.908	49.55
348.291	88.64
348.674	89.77
349.057	117.12
349.44	128.41
349.823	157.34
350.206	150.56
350.588	193.95
350.971	194.85
351.354	228.53
351.737	220.62
352.119	249.32
352.502	261.29
352.884	279.82
353.267	261.97
353.65	290.9
354.032	285.02
354.414	304.91
354.797	319.37
355.179	326.83
355.562	295.42
355.944	302.65
356.326	324.34
356.709	339.93
357.091	323.44
357.473	351.69
357.855	344.68
358.238	329.99
358.62	338.8
359.002	315.75
359.384	352.36
359.766	343.55
360.148	347.84
360.53	324.12
360.912	348.07
361.294	354.17
361.676	322.99
362.057	329.54
362.439	320.05
362.821	321.63
363.203	315.75
363.584	303.78
363.966	304.91
364.348	312.14
364.729	329.54
365.111	317.34
365.493	315.75
365.874	330.44
366.256	333.61
366.637	314.62
367.019	297.9
367.4	305.36
367.781	314.62
368.163	317.34
368.544	296.32
368.925	311.91
369.306	308.52
369.688	326.15
370.069	307.85
370.45	319.37
370.831	300.61
371.212	327.51
371.593	303.78
371.974	311.23
372.355	318.92
372.736	304
373.117	306.26
373.498	318.24
373.879	305.81
374.26	324.34
374.641	305.81
375.021	312.36
375.402	316.21
375.783	333.16
376.163	318.92
376.544	325.25
376.925	322.53
377.305	332.48
377.686	319.6
378.066	298.13
378.447	318.47
378.827	340.61
379.208	326.83
379.588	327.73
379.968	337.67
380.349	325.92
380.729	346.49
381.109	336.32
381.489	351.46
381.87	337.67
382.25	335.64
382.63	331.12
383.01	350.33
383.39	337.22
383.77	333.38
384.15	338.13
384.53	347.62
384.91	353.72
385.29	344.91
385.67	356.43
386.049	340.39
386.429	360.05
386.809	356.43
387.189	360.27
387.568	359.82
387.948	345.36
388.328	374.28
388.707	353.27
389.087	364.79
389.466	349.65
389.846	353.04
390.225	346.26
390.605	351.69
390.984	365.47
391.363	354.62
391.743	368.86
392.122	378.13
392.501	358.24
392.881	372.25
393.26	386.26
393.639	368.18
394.018	371.57
394.397	399.14
394.776	404.11
395.155	391.68
395.534	408.86
395.913	403.66
396.292	391.91
396.671	402.53
397.05	382.87
397.429	396.2
397.808	389.65
398.186	406.83
398.565	412.02
398.944	410.44
399.323	404.57
399.701	421.74
400.08	409.76
400.458	400.72
400.837	422.42
401.215	419.03
401.594	416.99
401.972	407.96
402.351	411.8
402.729	419.93
403.107	443.43
403.486	442.08
403.864	431.68
404.242	446.82
404.62	468.74
404.999	455.41
405.377	458.58
405.755	443.43
406.133	463.32
406.511	479.82
406.889	468.07
407.267	484.34
407.645	481.63
408.023	470.55
408.401	472.81
408.779	491.34
409.156	501.74
409.534	492.7
409.912	512.81
410.29	520.95
410.667	529.08
411.045	488.18
411.422	519.36
411.8	544
412.178	539.03
412.555	579.02
412.933	555.75
413.31	565.92
413.687	541.29
414.065	575.18
414.442	580.83
414.819	591.45
415.197	612.92
415.574	604.33
415.951	609.98
416.328	624.67
416.705	632.81
417.082	614.73
417.46	624.45
417.837	668.74
418.214	643.66
418.591	665.35
418.967	668.51
419.344	686.59
419.721	702.41
420.098	689.53
420.475	710.55
420.852	696.76
421.228	716.65
421.605	702.86
421.982	714.16
422.358	728.85
422.735	732.47
423.111	756.42
423.488	747.16
423.864	793.03
424.241	766.82
424.617	789.41
424.994	799.81
425.37	818.57
425.746	827.61
426.123	853.37
426.499	830.54
426.875	861.5
427.251	869.64
427.627	892.01
428.003	889.75
428.379	902.63
428.756	895.17
429.132	899.02
429.507	929.07
429.883	922.29
430.259	938.79
430.635	938.11
431.011	952.35
431.387	964.55
431.763	982.63
432.138	1012.23
432.514	1014.49
432.89	1024.21
433.265	1052.91
433.641	1047.26
434.016	1050.42
434.392	1104.21
434.767	1115.06
435.143	1141.04
435.518	1136.07
435.894	1153.7
436.269	1188.27
436.644	1234.6
437.02	1195.73
437.395	1220.36
437.77	1259.23
438.145	1281.15
438.52	1262.17
438.895	1290.19
439.271	1286.8
439.646	1312.34
440.021	1352.79
440.395	1376.29
440.77	1341.49
441.145	1367.03
441.52	1381.94
441.895	1393.47
442.27	1404.54
442.645	1404.77
443.019	1446.12
443.394	1437.76
443.769	1473.46
444.143	1440.47
444.518	1455.39
444.892	1494.48
445.267	1480.47
445.641	1472.79
446.016	1520.02
446.39	1519.79
446.764	1550.75
447.139	1544.42
447.513	1541.26
447.887	1565.89
448.262	1580.13
448.636	1551.88
449.01	1595.04
449.384	1595.95
449.758	1595.04
450.132	1637.75
450.506	1648.15
450.88	1658.77
451.254	1647.02
451.628	1643.4
452.002	1714.59
452.376	1683.18
452.75	1717.3
453.123	1702.61
453.497	1734.7
453.871	1784.87
454.244	1778.99
454.618	1780.12
454.992	1815.15
455.365	1779.22
455.739	1836.84
456.112	1866.22
456.486	1880.01
456.859	1915.49
457.232	1915.94
457.606	1916.16
457.979	1939.89
458.352	1925.43
458.725	1989.16
459.099	1986.22
459.472	2019.89
459.845	2055.14
460.218	2041.58
460.591	2055.37
460.964	2051.08
461.337	2148.25
461.71	2162.94
462.083	2148.25
462.456	2145.31
462.829	2195.7
463.201	2200.45
463.574	2195.7
463.947	2219.21
464.32	2255.14
464.692	2279.54
465.065	2326.55
465.438	2334.68
465.81	2369.49
466.183	2377.62
466.555	2408.35
466.928	2419.43
467.3	2464.17
467.672	2464.4
468.045	2493.32
468.417	2507.11
468.789	2543.27
469.161	2524.96
469.534	2609.48
469.906	2625.75
470.278	2637.95
470.65	2654.9
471.022	2711.4
471.394	2748.46
471.766	2739.42
472.138	2799.76
472.51	2830.49
472.882	2878.62
473.253	2892.18
473.625	2913.2
473.997	3018.06
474.369	3018.06
474.74	3025.29
475.112	3068
475.484	3097.38
475.855	3171.72
476.227	3188.67
476.598	3257.15
476.97	3292.63
477.341	3296.92
477.713	3359.97
478.084	3377.14
478.455	3449.68
478.827	3475.22
479.198	3530.81
479.569	3566.97
479.94	3620.53
480.311	3642.45
480.682	3695.78
481.053	3801.76
481.424	3786.62
481.795	3836.57
482.166	3882.44
482.537	3902.78
482.908	4006.05
483.279	4028.88
483.65	4043.34
484.021	4166.95
484.391	4175.54
484.762	4193.84
485.133	4216.44
485.503	4248.98
485.874	4337.12
486.244	4368.08
486.615	4456.21
486.985	4447.62
487.356	4501.86
487.726	4628.18
488.097	4657.56
488.467	4638.8
488.837	4705.24
489.207	4747.73
489.578	4801.96
489.948	4875.86
490.318	4922.86
490.688	4877.89
491.058	4948.4
491.428	5032.92
491.798	5074.95
492.168	5159.92
492.538	5111.33
492.908	5241.27
493.278	5269.97
493.648	5236.08
494.017	5267.49
494.387	5320.14
494.757	5397.88
495.126	5413.25
495.496	5378.67
495.866	5410.08
496.235	5483.3
496.605	5526.92
496.974	5573.7
497.344	5598.55
497.713	5616.86
498.082	5624.32
498.452	5654.15
498.821	5669.29
499.19	5707.03
499.559	5768.49
499.928	5789.96
500.298	5744.76
500.667	5849.85
501.036	5795.84
501.405	5840.35
501.774	5820.24
502.143	5911.54
502.512	5904.76
502.88	5936.85
503.249	5953.8
503.618	5991.76
503.987	5971.2
504.356	6023.63
504.724	6044.87
505.093	6044.42
505.462	6085.55
505.83	6062.5
506.199	6147.01
506.567	6189.95
506.936	6159.67
507.304	6274.02
507.672	6263.17
508.041	6244.64
508.409	6293.68
508.777	6290.29
509.145	6344.52
509.514	6312.66
509.882	6350.62
510.25	6305.2
510.618	6383.17
510.986	6402.37
511.354	6401.24
511.722	6445.08
512.09	6511.75
512.458	6452.32
512.826	6486.67
513.193	6471.52
513.561	6525.76
513.929	6514.01
514.297	6582.26
514.664	6583.61
515.032	6571.41
515.4	6625.19
515.767	6622.48
516.135	6696.6
516.502	6603.27
516.869	6691.63
517.237	6651.86
517.604	6642.37
517.972	6690.05
518.339	6768.47
518.706	6729.6
519.073	6717.17
519.44	6728.02
519.808	6782.48
520.175	6740.44
520.542	6815.47
520.909	6802.82
521.276	6763.04
521.643	6853.66
522.009	6894.79
522.376	6882.81
522.743	6891.4
523.11	6930.72
523.477	7021.57
523.843	6914
524.21	6987.22
524.577	7040.32
524.943	7046.88
525.31	7083.03
525.676	7161
526.043	7130.26
526.409	7108.34
526.776	7170.72
527.142	7137.72
527.508	7185.4
527.874	7255.23
528.241	7287.55
528.607	7229.7
528.973	7335.23
529.339	7265.63
529.705	7356.25
530.071	7394.66
530.437	7385.4
530.803	7332.29
531.169	7442.12
531.535	7398.05
531.901	7407.09
532.267	7473.08
532.632	7488.22
532.998	7460.88
533.364	7509.24
533.73	7558.5
534.095	7522.57
534.461	7521.89
534.826	7570.03
535.192	7559.63
535.557	7577.71
535.923	7567.09
536.288	7584.49
536.653	7591.5
537.019	7624.49
537.384	7529.35
537.749	7607.31
538.114	7567.77
538.479	7665.17
538.845	7601.89
539.21	7610.48
539.575	7607.77
539.94	7609.35
540.305	7674.88
540.67	7574.09
541.034	7657.48
541.399	7643.47
541.764	7697.48
542.129	7685.28
542.494	7740.64
542.858	7725.05
543.223	7730.25
543.587	7706.52
543.952	7664.04
544.316	7710.81
544.681	7713.75
545.045	7724.37
545.41	7795.78
545.774	7789.91
546.138	7763.02
546.503	7757.59
546.867	7809.34
547.231	7775.22
547.595	7798.5
547.959	7789.68
548.324	7777.93
548.688	7824.03
549.052	7823.13
549.416	7833.07
549.779	7862.22
550.143	7830.36
550.507	7855.9
550.871	7849.57
551.235	7854.77
551.599	7899.51
551.962	7842.34
552.326	7913.29
552.689	7951.71
553.053	7905.39
553.417	7920.98
553.78	7968.66
554.143	7907.65
554.507	8004.37
554.87	8014.08
555.234	7953.07
555.597	8018.38
555.96	7934.76
556.323	8013.18
556.686	8027.87
557.05	8074.65
557.413	8070.58
557.776	8014.76
558.139	8046.62
558.502	8107.41
558.865	8131.59
559.228	8198.48
559.59	8198.26
559.953	8114.42
560.316	8219.95
560.679	8233.51
561.041	8153.51
561.404	8277.58
561.767	8335.66
562.129	8239.61
562.492	8388.99
562.854	8337.46
563.217	8410.23
563.579	8378.82
563.941	8441.87
564.304	8493.17
564.666	8459.72
565.028	8452.72
565.39	8479.61
565.753	8510.79
566.115	8610.68
566.477	8577.01
566.839	8609.55
567.201	8731.35
567.563	8662.65
567.925	8684.8
568.287	8732.93
568.648	8739.04
569.01	8739.26
569.372	8792.14
569.734	8886.83
570.095	8872.59
570.457	8862.65
570.819	8860.61
571.18	8927.73
571.542	8944.45
571.903	9054.06
572.265	9008.63
572.626	9090.66
572.987	9091.57
573.349	9072.59
573.71	9067.16
574.071	9174.96
574.432	9120.27
574.794	9215.18
575.155	9214.05
575.516	9231.45
575.877	9242.75
576.238	9259.93
576.599	9321.17
576.96	9407.27
577.32	9322.52
577.681	9404.78
578.042	9485.68
578.403	9454.05
578.763	9476.19
579.124	9562.06
579.485	9570.65
579.845	9564.32
580.206	9611.78
580.566	9603.42
580.927	9651.55
581.287	9687.49
581.648	9676.86
582.008	9755.28
582.368	9755.73
582.728	9771.1
583.089	9801.83
583.449	9849.06
583.809	9861.27
584.169	9863.3
584.529	9870.53
584.889	9983.3
585.249	9946.91
585.609	9899.68
585.969	10033.69
586.329	9977.42
586.688	10028.04
587.048	10022.62
587.408	10126.12
587.768	10090.41
588.127	10131.09
588.487	10157.08
588.846	10187.13
589.206	10160.69
589.565	10178.77
589.925	10294.48
590.284	10268.94
590.643	10276.4
591.003	10280.69
591.362	10404.3
591.721	10395.72
592.08	10347.13
592.44	10388.48
592.799	10321.37
593.158	10363.85
593.517	10481.59
593.876	10471.19
594.235	10488.37
594.593	10500.35
594.952	10525.43
595.311	10494.02
595.67	10515.71
596.029	10603.39
596.387	10648.82
596.746	10726.33
597.104	10553.9
597.463	10561.81
597.822	10694.46
598.18	10658.76
598.538	10641.36
598.897	10797.06
599.255	10652.43
599.613	10844.29
599.972	10742.6
600.33	10802.71
600.688	10783.5
601.046	10866.44
601.404	10869.6
601.762	10873.44
602.12	10888.36
602.478	10804.29
602.836	10829.83
603.194	10859.88
603.552	10915.25
603.91	10871.18
604.268	10858.08
604.625	10876.83
604.983	10934.46
605.341	10893.78
605.698	10986.43
606.056	10999.77
606.413	10943.27
606.771	10980.33
607.128	10992.54
607.485	10988.02
607.843	10972.42
608.2	11037.05
608.557	11013.1
608.914	11087.45
609.272	11070.73
609.629	11148.01
609.986	11155.47
610.343	11099.43
610.7	11144.17
611.057	11179.65
611.414	11154.11
611.771	11207.45
612.127	11192.76
612.484	11221.68
612.841	11235.69
613.198	11194.11
613.554	11261.23
613.911	11339.42
614.267	11229.59
614.624	11235.47
614.98	11256.48
615.337	11278.63
615.693	11275.24
616.05	11318.63
616.406	11407.67
616.762	11277.95
617.118	11334.9
617.475	11287.9
617.831	11358.85
618.187	11306.43
618.543	11323.6
618.899	11362.92
619.255	11351.4
619.611	11349.14
619.967	11453.54
620.323	11469.13
620.678	11354.79
621.034	11368.12
621.39	11418.97
621.746	11355.24
622.101	11484.5
622.457	11395.24
622.812	11445.63
623.168	11518.85
623.523	11487.44
623.879	11493.54
624.234	11430.72
624.589	11457.16
624.945	11406.99
625.3	11461.68
625.655	11436.82
626.01	11415.58
626.365	11466.65
626.72	11486.99
627.075	11429.36
627.43	11503.03
627.785	11420.32
628.14	11439.76
628.495	11498.51
628.85	11401.56
629.205	11429.13
629.559	11482.01
629.914	11379.19
630.269	11385.52
630.623	11345.07
630.978	11318.85
631.332	11373.09
631.687	11354.56
632.041	11282.7
632.396	11345.07
632.75	11370.15
633.104	11311.85
633.459	11276.37
633.813	11209.03
634.167	11255.58
634.521	11253.77
634.875	11260.78
635.229	11211.97
635.583	11168.12
635.937	11196.37
636.291	11193.21
636.645	11157.28
636.999	11168.58
637.352	11227.33
637.706	11120.67
638.06	11140.55
638.413	11105.53
638.767	11098.07
639.121	11152.76
639.474	11048.58
639.828	11020.56
640.181	11015.59
640.534	11048.35
640.888	11068.69
641.241	11016.49
641.594	10990.95
641.947	11014
642.301	10992.08
642.654	10905.08
643.007	11015.36
643.36	10997.73
643.713	10985.08
644.066	10941.69
644.419	10931.07
644.771	10818.76
645.124	10741.47
645.477	10796.83
645.83	10657.63
646.182	10684.97
646.535	10632.32
646.888	10607.01
647.24	10480.01
647.593	10558.87
647.945	10566.56
648.298	10561.13
648.65	10594.13
649.002	10564.07
649.355	10559.1
649.707	10520.23
650.059	10514.81
650.411	10779.66
650.763	10796.38
651.115	10812.43
651.467	10734.92
651.819	10803.61
652.171	10864.4
652.523	10702.37
652.875	10737.63
653.227	10720
653.578	10861.24
653.93	10771.98
654.282	10729.04
654.633	10781.02
654.985	10773.11
655.337	10755.03
655.688	10717.97
656.039	10819.66
656.391	10722.71
656.742	10763.62
657.094	10723.84
657.445	10754.12
657.796	10814.91
658.147	10752.54
658.498	10793.67
658.849	10776.72
659.2	10826.66
659.551	10809.04
659.902	10851.07
660.253	10765.65
660.604	10845.2
660.955	10804.74
661.306	10827.79
661.656	10742.6
662.007	10836.16
662.358	10829.6
662.708	10792.99
663.059	10814.69
663.409	10689.49
663.76	10830.73
664.11	10789.38
664.461	10833.9
664.811	10856.49
665.161	10808.36
665.511	10768.59
665.862	10769.94
666.212	10839.55
666.562	10835.03
666.912	10781.92
667.262	10799.09
667.612	10775.82
667.962	10801.35
668.312	10746.21
668.662	10772.65
669.011	10816.95
669.361	10740.34
669.711	10743.73
670.06	10738.98
670.41	10708.48
670.76	10705.31
671.109	10773.33
671.459	10718.42
671.808	10700.57
672.157	10708.93
672.507	10630.96
672.856	10665.31
673.205	10702.15
673.554	10713.45
673.904	10653.56
674.253	10748.93
674.602	10754.12
674.951	10529.05
675.3	10426.22
675.649	10688.81
675.998	10607.01
676.346	10664.86
676.695	10683.17
677.044	10623.73
677.393	10651.3
677.741	10589.61
678.09	10558.42
678.438	10599.33
678.787	10521.14
679.135	10539.21
679.484	10487.92
679.832	10527.24
680.181	10388.94
680.529	10484.07
680.877	10394.13
681.225	10389.84
681.573	10433
681.922	10404.75
682.27	10368.82
682.618	10331.54
682.966	10327.69
683.314	10386.68
683.661	10323.4
684.009	10285.21
684.357	10246.11
684.705	10236.4
685.053	10240.01
685.4	10212.44
685.748	10150.75
686.095	10221.93
686.443	10148.94
686.79	10102.84
687.138	10117.76
687.485	10146.23
687.832	10096.06
688.18	10105.1
688.527	10035.95
688.874	10015.39
689.221	9932.22
689.568	9924.32
689.915	9920.7
690.262	9836.63
690.609	9871.44
690.956	9842.06
691.303	9795.28
691.65	9691.33
691.997	9670.99
692.344	9655.85
692.69	9689.07
693.037	9706.92
693.383	9605.68
693.73	9546.7
694.077	9564.1
694.423	9498.34
694.769	9485.46
695.116	9486.59
695.462	9446.36
695.808	9482.97
696.155	9466.25
696.501	9343.54
696.847	9308.29
697.193	9273.26
697.539	9290.66
697.885	9217.44
698.231	9186.03
698.577	9176.09
698.923	9155.97
699.269	9082.3
699.614	9066.03
699.96	8981.97
700.306	8990.33
700.651	9005.47
700.997	8926.15
701.342	8962.76
701.688	8845.7
702.033	8847.28
702.379	8845.02
702.724	8864
703.069	8826.72
703.415	8716.66
703.76	8766.61
704.105	8685.03
704.45	8682.77
704.795	8610.23
705.14	8554.63
705.485	8607.06
705.83	8586.27
706.175	8565.26
706.52	8513.5
706.865	8485.26
707.209	8489.32
707.554	8432.6
707.899	8442.32
708.243	8377.01
708.588	8405.26
708.932	8342.66
709.277	8286.39
709.621	8371.36
709.966	8264.25
710.31	8202.78
710.654	8232.61
710.998	8244.13
711.342	8203.23
711.687	8203.23
712.031	8105.83
712.375	8069.22
712.719	8172.95
713.063	8151.25
713.407	8091.37
713.75	8054.08
714.094	8078.26
714.438	8067.64
714.782	8069.67
715.125	7981.54
715.469	8022.67
715.812	7919.85
716.156	7979.96
716.499	7896.8
716.843	7921.66
717.186	7894.76
717.53	7911.71
717.873	7947.64
718.216	7892.05
718.559	7939.28
718.902	7803.02
719.246	7822
719.589	7826.97
719.932	7790.59
720.275	7812.51
720.617	7805.95
720.96	7789
721.303	7771.83
721.646	7789.23
721.989	7719.18
722.331	7780.64
722.674	7712.17
723.016	7732.73
723.359	7763.47
723.701	7729.57
724.044	7690.7
724.386	7679.63
724.729	7705.62
725.071	7691.83
725.413	7723.24
725.755	7640.76
726.097	7690.93
726.439	7582.46
726.782	7611.83
727.124	7671.72
727.465	7617.03
727.807	7636.24
728.149	7636.92
728.491	7631.49
728.833	7608.67
729.175	7596.47
729.516	7537.03
729.858	7587.65
730.199	7557.37
730.541	7554.89
730.882	7543.59
731.224	7516.7
731.565	7556.69
731.906	7590.37
732.248	7544.04
732.589	7542.46
732.93	7542.91
733.271	7497.71
733.612	7578.84
733.953	7547.88
734.294	7586.52
734.635	7527.54
734.976	7519.41
735.317	7567.99
735.658	7576.58
735.999	7597.82
736.339	7507.43
736.68	7520.31
737.021	7528.67
737.361	7532.06
737.702	7540.65
738.042	7528.9
738.383	7591.27
738.723	7551.72
739.063	7539.07
739.404	7664.49
739.744	7587.2
740.084	7611.16
740.424	7602.79
740.764	7631.49
741.104	7677.14
741.444	7563.47
741.784	7650.93
742.124	7635.11
742.464	7568.45
742.804	7660.65
743.143	7680.31
743.483	7694.32
743.823	7649.8
744.162	7712.4
744.502	7725.73
744.841	7719.63
745.181	7805.73
745.52	7784.26
745.86	7900.19
746.199	7894.09
746.538	7885.5
746.877	7984.25
747.216	8013.41
747.556	8022.9
747.895	8019.73
748.234	8042.56
748.573	8102.22
748.911	8098.6
749.25	8222.89
749.589	8211.14
749.928	8280.29
750.267	8425.6
750.605	8469.66
750.944	8528.19
751.283	8519.83
751.621	8608.42
751.96	8622.2
752.298	8771.8
752.636	8870.33
752.975	8901.07
753.313	8950.78
753.651	9121.62
753.989	9184.67
754.327	9289.53
754.666	9383.99
755.004	9446.81
755.342	9589.41
755.679	9721.38
756.017	9763.42
756.355	9901.72
756.693	9997.76
757.031	10178.09
757.368	10330.41
757.706	10447.69
758.044	10532.43
758.381	10734.69
758.719	10802.48
759.056	11052.65
759.394	11193.21
759.731	11265.3
760.068	11313.21
760.405	11532.63
760.743	11705.29
761.08	11864.83
761.417	11931.04
761.754	12012.85
762.091	12262.78
762.428	12390.92
762.765	12515.89
763.102	12750.46
