Data from hue_10_FLMS001491_54.txt Node
Date: Mon Feb 06 15:32:08 GMT 2017
User: dcchb
Spectrometer: FLMS00149
Trigger mode: 0
Integration Time (sec): 2.000000E-2
Scans to average: 10
Electric dark correction enabled: true
Nonlinearity correction enabled: false
Boxcar width: 0
XAxis mode: Wavelengths
Number of Pixels in Spectrum: 2048
>>>>>Begin Spectral Data<<<<<
341.393	-7.8
341.776	-7.8
342.16	-7.8
342.543	-56.38
342.927	-70.39
343.31	-67.23
343.693	-31.52
344.077	-65.42
344.46	-64.74
344.843	-47.8
345.226	-46.21
345.61	-28.13
345.993	-20
346.376	8.25
346.759	-3.28
347.142	30.39
347.525	32.43
347.908	42.37
348.291	83.73
348.674	71.52
349.057	105.65
349.44	113.1
349.823	156.04
350.206	134.8
350.588	161.92
350.971	203.5
351.354	200.56
351.737	213.21
352.119	249.37
352.502	233.1
352.884	271.74
353.267	255.25
353.65	274.91
354.032	283.72
354.414	283.5
354.797	288.92
355.179	313.1
355.562	305.19
355.944	308.35
356.326	327.11
356.709	330.73
357.091	321.46
357.473	331.63
357.855	343.83
358.238	332.53
358.62	328.24
359.002	348.8
359.384	346.09
359.766	348.13
360.148	342.25
360.53	320.1
360.912	331.63
361.294	332.31
361.676	328.01
362.057	335.02
362.439	329.6
362.821	329.6
363.203	329.37
363.584	338.41
363.966	322.59
364.348	316.71
364.729	305.42
365.111	327.79
365.493	329.37
365.874	323.49
366.256	313.55
366.637	288.47
367.019	326.43
367.4	304.96
367.781	293.21
368.163	316.71
368.544	315.58
368.925	304.74
369.306	311.97
369.688	296.38
370.069	302.03
370.45	314.68
370.831	317.17
371.212	299.31
371.593	324.62
371.974	311.52
372.355	308.35
372.736	299.54
373.117	312.65
373.498	310.61
373.879	316.26
374.26	304.51
374.641	284.4
375.021	303.83
375.402	325.08
375.783	332.53
376.163	325.08
376.544	321.01
376.925	302.48
377.305	333.66
377.686	319.65
378.066	316.49
378.447	309.03
378.827	314.91
379.208	306.32
379.588	331.18
379.968	324.85
380.349	334.12
380.729	324.85
381.109	328.69
381.489	311.52
381.87	333.89
382.25	331.63
382.63	339.31
383.01	332.99
383.39	339.99
383.77	346.32
384.15	344.51
384.53	333.89
384.91	348.35
385.29	338.18
385.67	344.28
386.049	329.82
386.429	342.93
386.809	350.84
387.189	345.87
387.568	332.31
387.948	356.49
388.328	337.05
388.707	335.47
389.087	341.12
389.466	363.95
389.846	351.97
390.225	349.71
390.605	355.36
390.984	347.67
391.363	357.39
391.743	358.52
392.122	349.93
392.501	358.97
392.881	355.81
393.26	355.36
393.639	345.19
394.018	362.36
394.397	351.52
394.776	373.89
395.155	344.06
395.534	360.78
395.913	364.85
396.292	362.14
396.671	371.18
397.05	379.99
397.429	362.36
397.808	372.53
398.186	366.66
398.565	368.69
398.944	382.7
399.323	368.01
399.701	372.31
400.08	376.37
400.458	370.95
400.837	372.53
401.215	374.11
401.594	396.26
401.972	367.11
402.351	368.46
402.729	375.7
403.107	390.16
403.486	405.98
403.864	403.27
404.242	394.9
404.62	393.1
404.999	399.42
405.377	409.14
405.755	397.84
406.133	417.5
406.511	396.94
406.889	412.53
407.267	411.4
407.645	422.93
408.023	412.08
408.401	436.03
408.779	404.17
409.156	422.25
409.534	436.03
409.912	412.98
410.29	410.72
410.667	439.88
411.045	432.19
411.422	431.97
411.8	434.23
412.178	422.47
412.555	414.57
412.933	451.17
413.31	455.24
413.687	435.81
414.065	449.37
414.442	428.8
414.819	446.88
415.197	484.62
415.574	438.07
415.951	455.69
416.328	458.18
416.705	476.94
417.082	454.34
417.46	465.19
417.837	466.32
418.214	471.96
418.591	470.61
418.967	476.48
419.344	470.61
419.721	480.33
420.098	485.52
420.475	470.16
420.852	489.59
421.228	501.79
421.605	507.22
421.982	477.61
422.358	468.58
422.735	516.71
423.111	500.89
423.488	497.95
423.864	508.12
424.241	508.12
424.617	542.47
424.994	507.9
425.37	523.26
425.746	511.74
426.123	537.5
426.499	530.49
426.875	528.69
427.251	527.1
427.627	530.04
428.003	562.36
428.379	527.78
428.756	538.63
429.132	543.83
429.507	530.95
429.883	569.36
430.259	565.07
430.635	579.08
431.011	576.14
431.387	594.9
431.763	576.14
432.138	569.36
432.514	575.24
432.89	598.97
433.265	584.5
433.641	599.87
434.016	633.54
434.392	629.7
434.767	624.5
435.143	616.14
435.518	624.96
435.894	631.73
436.269	650.94
436.644	632.41
437.02	646.65
437.395	630.38
437.77	664.73
438.145	654.33
438.52	648.91
438.895	678.51
439.271	666.08
439.646	697.27
440.021	674.45
440.395	673.77
440.77	692.52
441.145	688
441.52	690.72
441.895	683.94
442.27	703.82
442.645	692.75
443.019	688.91
443.394	717.38
443.769	723.71
444.143	704.05
444.518	725.74
444.892	709.7
445.267	737.95
445.641	745.86
446.016	730.49
446.39	739.3
446.764	722.58
447.139	730.94
447.513	760.54
447.887	772.75
448.262	756.93
448.636	755.12
449.01	746.76
449.384	758.29
449.758	767.55
450.132	764.61
450.506	774.56
450.88	787.89
451.254	765.06
451.628	776.82
452.002	775.69
452.376	800.54
452.75	783.82
453.123	812.97
453.497	803.48
453.871	831.28
454.244	810.71
454.618	839.64
454.992	838.06
455.365	828.79
455.739	863.59
456.112	869.02
456.486	857.49
456.859	867.66
457.232	899.98
457.606	906.98
457.979	888.68
458.352	903.14
458.725	893.42
459.099	931.84
459.472	929.58
459.845	931.84
460.218	954.89
460.591	939.3
460.964	941.56
461.337	977.26
461.71	1002.12
462.083	1006.87
462.456	987.43
462.829	1010.48
463.201	1006.87
463.574	1009.13
463.947	1022.23
464.32	1075.34
464.692	1059.97
465.065	1068.79
465.438	1060.88
465.81	1097.49
466.183	1067.2
466.555	1136.13
466.928	1133.42
467.3	1137.26
467.672	1135.9
468.045	1185.84
468.417	1179.07
468.789	1182.91
469.161	1197.37
469.534	1213.64
469.906	1231.95
470.278	1238.95
470.65	1246.63
471.022	1288.67
471.394	1295.67
471.766	1302
472.138	1319.63
472.51	1339.29
472.882	1357.82
473.253	1370.25
473.625	1400.98
473.997	1415.89
474.369	1440.53
474.74	1456.8
475.112	1476.68
475.484	1515.78
475.855	1516.91
476.227	1534.31
476.598	1590.13
476.97	1600.75
477.341	1636.68
477.713	1643.91
478.084	1652.05
478.455	1715.55
478.827	1707.86
479.198	1794.87
479.569	1797.13
479.94	1811.59
480.311	1862.66
480.682	1901.08
481.053	1922.32
481.424	1958.71
481.795	1995.54
482.166	1995.99
482.537	2059.72
482.908	2105.37
483.279	2115.76
483.65	2173.16
484.021	2215.42
484.391	2245.93
484.762	2276.66
485.133	2264.46
485.503	2313.72
485.874	2396.21
486.244	2404.57
486.615	2470.1
486.985	2451.57
487.356	2525.47
487.726	2554.62
488.097	2601.17
488.467	2615.41
488.837	2723.88
489.207	2713.94
489.578	2740.83
489.948	2801.62
490.318	2856.31
490.688	2851.56
491.058	2896.53
491.428	2928.62
491.798	2969.75
492.168	3050.43
492.538	3025.8
492.908	3097.21
493.278	3150.31
493.648	3126.58
494.017	3170.2
494.387	3196.64
494.757	3239.12
495.126	3285
495.496	3297.2
495.866	3314.6
496.235	3354.83
496.605	3393.24
496.974	3391.66
497.344	3459.91
497.713	3474.37
498.082	3490.42
498.452	3583.97
498.821	3563.18
499.19	3573.58
499.559	3616.97
499.928	3615.84
500.298	3646.57
500.667	3741.26
501.036	3705.55
501.405	3748.94
501.774	3748.94
502.143	3811.54
502.512	3769.05
502.88	3830.29
503.249	3829.39
503.618	3851.76
503.987	3828.94
504.356	3906
504.724	3903.74
505.093	3901.48
505.462	3981.93
505.83	3947.58
506.199	4032.1
506.567	4052.44
506.936	3990.52
507.304	4082.94
507.672	4094.24
508.041	4122.04
508.409	4130.63
508.777	4146.22
509.145	4170.4
509.514	4184.86
509.882	4216.73
510.25	4232.77
510.618	4223.73
510.986	4211.75
511.354	4316.38
511.722	4319.77
512.09	4328.81
512.458	4346.67
512.826	4352.77
513.193	4357.06
513.561	4391.18
513.929	4434.57
514.297	4462.14
514.664	4465.76
515.032	4479.32
515.4	4512.99
515.767	4536.49
516.135	4511.86
516.502	4541.46
516.869	4585.98
517.237	4636.6
517.604	4562.48
517.972	4628.92
518.339	4683.61
518.706	4640.67
519.073	4635.7
519.44	4694.9
519.808	4709.59
520.175	4744.62
520.542	4812.87
520.909	4750.04
521.276	4750.72
521.643	4869.59
522.009	4896.93
522.376	4846.54
522.743	4904.62
523.11	4902.81
523.477	4896.71
523.843	4957.72
524.21	4972.41
524.577	5020.77
524.943	5056.7
525.31	5037.95
525.676	5130.37
526.043	5146.87
526.409	5119.3
526.776	5174.89
527.142	5212.86
527.508	5275.23
527.874	5298.96
528.241	5280.65
528.607	5282.01
528.973	5377.6
529.339	5311.16
529.705	5394.32
530.071	5436.58
530.437	5451.95
530.803	5476.58
531.169	5506.63
531.535	5546.86
531.901	5554.77
532.267	5572.17
532.632	5670.02
532.998	5634.09
533.364	5645.84
533.73	5680.87
534.095	5661.43
534.461	5707.76
534.826	5768.55
535.192	5734.43
535.557	5798.6
535.923	5799.73
536.288	5844.71
536.653	5871.82
537.019	5895.78
537.384	5862.11
537.749	5936.23
538.114	5924.03
538.479	5933.97
538.845	5991.14
539.21	6026.4
539.575	6010.58
539.94	6042.21
540.305	6122.21
540.67	6066.39
541.034	6133.29
541.399	6112.72
541.764	6194.98
542.129	6158.14
542.494	6223.9
542.858	6217.58
543.223	6216.9
543.587	6314.3
543.952	6293.96
544.316	6284.02
544.681	6352.26
545.045	6372.37
545.41	6397.23
545.774	6407.63
546.138	6424.8
546.503	6433.62
546.867	6434.29
547.231	6490.34
547.595	6528.75
547.959	6566.04
548.324	6587.74
548.688	6567.17
549.052	6649.88
549.416	6656.89
549.779	6645.36
550.143	6609.88
550.507	6766.26
550.871	6783.44
551.235	6747.28
551.599	6796.54
551.962	6839.93
552.326	6816.2
552.689	6838.58
553.053	6802.65
553.417	6804.91
553.78	6944.11
554.143	6907.73
554.507	6932.36
554.87	6967.39
555.234	7062.3
555.597	7015.97
555.96	7026.37
556.323	7058.46
556.686	7024.79
557.05	7080.6
557.413	7110.21
557.776	7169.87
558.139	7189.98
558.502	7223.2
558.865	7178.68
559.228	7269.3
559.59	7340.71
559.953	7292.8
560.316	7399.24
560.679	7338.9
561.041	7377.55
561.404	7420.71
561.767	7429.97
562.129	7443.99
562.492	7559.91
562.854	7577.77
563.217	7507.49
563.579	7574.38
563.941	7631.55
564.304	7629.74
564.666	7639.23
565.028	7663.87
565.39	7714.26
565.753	7752
566.115	7781.83
566.477	7804.43
566.839	7797.42
567.201	7868.38
567.563	7864.99
567.925	7904.09
568.287	7932.56
568.648	7950.41
569.01	7999.9
569.372	8068.15
569.734	8024.76
570.095	8057.08
570.457	8117.19
570.819	8142.05
571.18	8168.03
571.542	8298.43
571.903	8245.09
572.265	8287.35
572.626	8398.54
572.987	8411.19
573.349	8404.19
573.71	8479.44
574.071	8457.52
574.432	8574.35
574.794	8611.41
575.155	8669.72
575.516	8704.74
575.877	8795.14
576.238	8810.95
576.599	8893.66
576.96	8945.64
577.32	8926.66
577.681	9095.47
578.042	9156.48
578.403	9213.43
578.763	9254.56
579.124	9361.22
579.485	9501.11
579.845	9577.49
580.206	9560.77
580.566	9680.31
580.927	9765.28
581.287	9973.64
581.648	9970.7
582.008	10222.67
582.368	10235.32
582.728	10406.85
583.089	10532.27
583.449	10620.4
583.809	10777.68
584.169	10928.64
584.529	11024.23
584.889	11234.85
585.249	11438.23
585.609	11549.64
585.969	11743.53
586.329	11859.69
586.688	12129.29
587.048	12246.34
587.408	12335.16
587.768	12698.08
588.127	12750.96
588.487	12946.67
588.846	13348.01
589.206	13408.12
589.565	13650.83
589.925	13998.16
590.284	14079.97
590.643	14437.93
591.003	14680.18
591.362	14954.07
591.721	15073.61
592.08	15333.27
592.44	15667.5
592.799	15848.28
593.158	16134.38
593.517	16354.94
593.876	16646.91
594.235	16781.59
594.593	17086.22
594.952	17399.88
595.311	17671.29
595.67	18029.92
596.029	18321.44
596.387	18555.78
596.746	18959.84
597.104	19063.34
597.463	19377.91
597.822	19667.39
598.18	19757.79
598.538	20152.8
598.897	20488.39
599.255	20605.45
599.613	21081.14
599.972	21266.22
600.33	21527.23
600.688	21671.63
601.046	22051.51
601.404	22400.2
601.762	22517.71
602.12	23021.2
602.478	23206.96
602.836	23474.52
603.194	23551.58
603.552	23895.3
603.91	24044
604.268	24404.67
604.625	24604.21
604.983	24942.28
605.341	25096.18
605.698	25415.04
606.056	25717.4
606.413	25935.25
606.771	26084.85
607.128	26454.56
607.485	26534.78
607.843	26704.72
608.2	27160.98
608.557	27410.92
608.914	27458.37
609.272	27734.98
609.629	27933.16
609.986	28285.02
610.343	28301.52
610.7	28734.05
611.057	28811.56
611.414	28942.4
611.771	29162.06
612.127	29401.37
612.484	29621.48
612.841	29830.74
613.198	29816.5
613.554	30099.89
613.911	30389.6
614.267	30561.12
614.624	30615.58
614.98	30772.41
615.337	31053.76
615.693	31098.96
616.05	31343.24
616.406	31604.25
616.762	31738.49
617.118	31737.81
617.475	31863.68
617.831	32138.7
618.187	32335.08
618.543	32398.58
618.899	32614.62
619.255	32710.44
619.611	32712.25
619.967	33077.44
620.323	33133.71
620.678	33053.71
621.034	33142.29
621.39	33200.6
621.746	33287.83
622.101	33734.37
622.457	33699.79
622.812	33881.93
623.168	33827.25
623.523	34158.76
623.879	34178.42
624.234	34015.26
624.589	34269.72
624.945	34412.99
625.3	34426.55
625.655	34519.88
626.01	34603.04
626.365	34718.3
626.72	34671.97
627.075	34786.54
627.43	34750.61
627.785	34762.81
628.14	34903.6
628.495	34976.37
628.85	34995.35
629.205	35000.1
629.559	35156.93
629.914	35092.3
630.269	35191.96
630.623	35130.04
630.978	35117.38
631.332	35255.23
631.687	35269.02
632.041	35292.97
632.396	35283.71
632.75	35194.44
633.104	35344.95
633.459	35208.68
633.813	35357.38
634.167	35340.2
634.521	35318.05
634.875	35499.52
635.229	35338.84
635.583	35293.42
635.937	35444.38
636.291	35296.36
636.645	35354.66
636.999	35249.81
637.352	35438.73
637.706	35331.16
638.06	35425.62
638.413	35464.49
638.767	35374.55
639.121	35359.41
639.474	35202.35
639.828	35313.53
640.181	35396.92
640.534	35468.33
640.888	35284.83
641.241	35169.58
641.594	35323.48
641.947	35349.69
642.301	35323.25
642.654	35313.53
643.007	35338.17
643.36	35189.24
643.713	35104.05
644.066	35326.87
644.419	35120.55
644.771	34946.09
645.124	34682.36
645.477	34707.67
645.83	34430.17
646.182	34304.07
646.535	34240.79
646.888	34289.38
647.24	34146.79
647.593	34276.95
647.945	34206.9
648.298	34030.86
648.65	34059.33
649.002	34028.82
649.355	34118.09
649.707	33995.6
650.059	34288.25
650.411	34591.52
650.763	34621.12
651.115	35027.44
651.467	34978.18
651.819	34975.24
652.171	34760.1
652.523	34822.7
652.875	34902.92
653.227	34821.34
653.578	34896.82
653.93	34770.95
654.282	34669.71
654.633	34711.06
654.985	34678.3
655.337	34679.2
655.688	34647.34
656.039	34783.83
656.391	34462.48
656.742	34576.15
657.094	34734.34
657.445	34607.79
657.796	34564.85
658.147	34578.19
658.498	34516.49
658.849	34636.49
659.2	34618.86
659.551	34556.94
659.902	34602.14
660.253	34631.74
660.604	34613.67
660.955	34571.41
661.306	34518.75
661.656	34485.76
662.007	34513.56
662.358	34422.03
662.708	34490.28
663.059	34426.55
663.409	34214.13
663.76	34490.05
664.11	34495.48
664.461	34481.01
664.811	34539.77
665.161	34415.93
665.511	34420.22
665.862	34448.47
666.212	34632.2
666.562	34517.17
666.912	34348.36
667.262	34368.93
667.612	34422.03
667.962	34555.59
668.312	34351.75
668.662	34555.36
669.011	34406.21
669.361	34330.28
669.711	34392.66
670.06	34284.18
670.41	34274.24
670.76	34205.32
671.109	34323.96
671.459	34292.09
671.808	34163.28
672.157	34266.78
672.507	34152.66
672.856	34109.72
673.205	34134.81
673.554	34232.21
673.904	34084.64
674.253	34286.67
674.602	34161.93
674.951	33610.98
675.3	33547.25
675.649	33932.78
675.998	33945.21
676.346	34085.77
676.695	34281.7
677.044	33856.4
677.393	33918.54
677.741	34065.43
678.09	33881.03
678.438	33860.92
678.787	33956.51
679.135	33957.64
679.484	33761.26
679.832	33867.25
680.181	33757.42
680.529	33855.04
680.877	33642.84
681.225	33514.49
681.573	33783.18
681.922	33439.46
682.27	33445.56
682.618	33511.32
682.966	33430.87
683.314	33443.53
683.661	33423.41
684.009	33223.65
684.357	33214.38
684.705	33096.19
685.053	33239.69
685.4	33084.89
685.748	32915.86
686.095	32945.69
686.443	32816.2
686.79	32750.89
687.138	32789.76
687.485	32726.03
687.832	32737.56
688.18	32797.44
688.527	32595.41
688.874	32582.76
689.221	32592.02
689.568	32456.43
689.915	32363.56
690.262	32318.36
690.609	32310.45
690.956	32203.56
691.303	32143.9
691.65	31964.92
691.997	31932.15
692.344	31695.78
692.69	31761.99
693.037	31648.55
693.383	31485.16
693.73	31628.21
694.077	31416.69
694.423	31403.81
694.769	31320.65
695.116	31207.88
695.462	31252.17
695.808	31154.32
696.155	31096.92
696.501	30833.2
696.847	30883.82
697.193	30682.7
697.539	30839.75
697.885	30595.01
698.231	30442.02
698.577	30506.66
698.923	30489.03
699.269	30280.45
699.614	30159.32
699.96	30145.31
700.306	30297.4
700.651	30063.96
700.997	29974.24
701.342	29909.61
701.688	29858.99
702.033	29776.73
702.379	29771.99
702.724	29473.46
703.069	29627.81
703.415	29289.96
703.76	29295.16
704.105	29337.87
704.45	29235.05
704.795	29053.36
705.14	29059.24
705.485	29087.94
705.83	28919.13
706.175	28909.86
706.52	28718.45
706.865	28769.98
707.209	28762.29
707.554	28622.64
707.899	28757.32
708.243	28552.81
708.588	28568.85
708.932	28373.38
709.277	28299.93
709.621	28329.09
709.966	28142.2
710.31	28023.56
710.654	27973.16
710.998	27930.23
711.342	27965.03
711.687	27918.47
712.031	27730.91
712.375	27633.51
712.719	27739.95
713.063	27530.24
713.407	27743.34
713.75	27568.2
714.094	27561.42
714.438	27438.71
714.782	27481.88
715.125	27323.46
715.469	27409.34
715.812	27209.34
716.156	27031.49
716.499	27154.2
716.843	27104.49
717.186	26912.85
717.53	27075.11
717.873	27020.87
718.216	27060.19
718.559	26765.28
718.902	26675.12
719.246	26739.97
719.589	26556.93
719.932	26500.66
720.275	26478.29
720.617	26596.7
720.96	26505.4
721.303	26452.52
721.646	26470.6
721.989	26314.68
722.331	26477.83
722.674	26180.67
723.016	26268.12
723.359	26203.49
723.701	26181.35
724.044	26153.1
724.386	25897.06
724.729	26083.49
725.071	25955.81
725.413	25943.61
725.755	25934.57
726.097	25881.01
726.439	25776.38
726.782	25638.31
727.124	25827
727.465	25707.69
727.807	25690.06
728.149	25674.69
728.491	25513.57
728.833	25727.57
729.175	25548.59
729.516	25433.79
729.858	25449.61
730.199	25374.36
730.541	25332.55
730.882	25277.87
731.224	25354.02
731.565	25212.56
731.906	25198.77
732.248	25190.86
732.589	25198.09
732.93	25030.64
733.271	25061.6
733.612	25121.26
733.953	24957.42
734.294	24853.7
734.635	24897.54
734.976	24919.01
735.317	24755.17
735.658	24801.04
735.999	24829.74
736.339	24849.86
736.68	24815.96
737.021	24718.11
737.361	24631.1
737.702	24878.55
738.042	24740.48
738.383	24621.61
738.723	24607.15
739.063	24546.81
739.404	24577.77
739.744	24428.62
740.084	24373.48
740.424	24512.69
740.764	24380.71
741.104	24417.32
741.444	24184.11
741.784	24199.93
742.124	24184.56
742.464	24245.58
742.804	24203.54
743.143	24118.8
743.483	24121.51
743.823	24028.86
744.162	24007.39
744.502	24089.2
744.841	23969.88
745.181	24174.39
745.52	23905.93
745.86	23928.3
746.199	23912.25
746.538	23894.17
746.877	23891.69
747.216	23858.24
747.556	23674.07
747.895	23800.84
748.234	23620.51
748.573	23681.07
748.911	23631.36
749.25	23680.17
749.589	23540.51
749.928	23418.48
750.267	23458.25
750.605	23396.56
750.944	23402.44
751.283	23195.89
751.621	23360.85
751.96	23141.65
752.298	23194.98
752.636	23280.4
752.975	23124.93
753.313	23036.12
753.651	23084.03
753.989	23000.41
754.327	23000.41
754.666	22879.96
755.004	22858.04
755.342	22919.51
755.679	22893.3
756.017	22738.5
756.355	22814.65
756.693	22675.9
757.031	22720.19
757.368	22695.34
757.706	22628.9
758.044	22479.07
758.381	22528.33
758.719	22478.62
759.056	22536.7
759.394	22380.32
759.731	22313.42
760.068	22265.06
760.405	22133.09
760.743	22090.38
761.08	22131.06
