Data from hue_10_FLMS001491_39.txt Node
Date: Mon Feb 06 15:31:50 GMT 2017
User: dcchb
Spectrometer: FLMS00149
Trigger mode: 0
Integration Time (sec): 2.000000E-2
Scans to average: 10
Electric dark correction enabled: true
Nonlinearity correction enabled: false
Boxcar width: 0
XAxis mode: Wavelengths
Number of Pixels in Spectrum: 2048
>>>>>Begin Spectral Data<<<<<
341.393	-8.14
341.776	-8.14
342.16	-8.14
342.543	-69.38
342.927	-66.66
343.31	-83.61
343.693	-80.45
344.077	-65.31
344.46	-42.03
344.843	-47
345.226	-42.94
345.61	-42.26
345.993	-30.06
346.376	8.59
346.759	2.26
347.142	40
347.525	48.36
347.908	59.21
348.291	86.78
348.674	93.33
349.057	95.14
349.44	108.92
349.823	142.6
350.206	164.74
350.588	189.15
350.971	220.56
351.354	232.99
351.737	223.95
352.119	261.69
352.502	261.01
352.884	275.47
353.267	281.8
353.65	294.68
354.032	305.53
354.414	328.13
354.797	312.99
355.179	336.26
355.562	320.67
355.944	305.3
356.326	322.48
356.709	324.51
357.091	335.36
357.473	340.78
357.855	328.8
358.238	342.82
358.62	350.95
359.002	322.25
359.384	322.7
359.766	342.36
360.148	349.6
360.53	353.21
360.912	335.58
361.294	327.45
361.676	341.23
362.057	342.59
362.439	333.1
362.821	336.26
363.203	330.39
363.584	342.36
363.966	333.55
364.348	316.6
364.729	332.19
365.111	306.88
365.493	320.9
365.874	327.22
366.256	334
366.637	306.88
367.019	308.69
367.4	294.23
367.781	317.73
368.163	331.06
368.544	304.17
368.925	305.98
369.306	308.01
369.688	281.8
370.069	325.42
370.45	287.45
370.831	312.76
371.212	295.81
371.593	308.92
371.974	296.94
372.355	309.37
372.736	315.47
373.117	315.47
373.498	318.86
373.879	307.34
374.26	308.92
374.641	301.69
375.021	316.15
375.402	312.99
375.783	330.61
376.163	298.52
376.544	309.14
376.925	309.82
377.305	314.34
377.686	307.11
378.066	325.87
378.447	322.48
378.827	338.07
379.208	327.68
379.588	299.65
379.968	338.97
380.349	323.38
380.729	329.71
381.109	336.71
381.489	324.29
381.87	324.74
382.25	331.52
382.63	328.58
383.01	347.34
383.39	346.66
383.77	334.68
384.15	332.87
384.53	331.06
384.91	321.35
385.29	331.97
385.67	346.88
386.049	350.27
386.429	334.45
386.809	357.73
387.189	337.17
387.568	362.7
387.948	341.69
388.328	364.51
388.707	370.61
389.087	357.05
389.466	351.86
389.846	371.29
390.225	348.24
390.605	351.18
390.984	351.63
391.363	337.84
391.743	352.08
392.122	369.71
392.501	370.84
392.881	369.26
393.26	371.52
393.639	352.76
394.018	362.25
394.397	369.03
394.776	387.33
395.155	356.83
395.534	369.03
395.913	363.38
396.292	385.98
396.671	369.71
397.05	391.4
397.429	378.97
397.808	382.14
398.186	365.64
398.565	361.57
398.944	381.91
399.323	362.93
399.701	374.91
400.08	370.39
400.458	388.46
400.837	383.04
401.215	390.27
401.594	382.14
401.972	401.57
402.351	397.73
402.729	393.21
403.107	392.76
403.486	396.15
403.864	396.6
404.242	402.93
404.62	396.37
404.999	390.5
405.377	402.02
405.755	397.28
406.133	409.48
406.511	415.13
406.889	388.24
407.267	391.4
407.645	398.41
408.023	412.64
408.401	410.38
408.779	428.46
409.156	412.42
409.534	414.68
409.912	417.39
410.29	424.62
410.667	403.61
411.045	423.94
411.422	426.66
411.8	445.19
412.178	426.2
412.555	442.47
412.933	442.02
413.31	416.71
413.687	451.74
414.065	443.6
414.442	450.38
414.819	439.08
415.197	460.33
415.574	484.73
415.951	464.39
416.328	455.36
416.705	480.67
417.082	480.44
417.46	473.21
417.837	453.77
418.214	481.8
418.591	471.63
418.967	478.63
419.344	501.68
419.721	472.76
420.098	486.09
420.475	501.91
420.852	482.93
421.228	486.54
421.605	474.34
421.982	475.47
422.358	502.13
422.735	495.81
423.111	498.74
423.488	500.55
423.864	508.24
424.241	513.66
424.617	519.99
424.994	501.91
425.37	522.47
425.746	508.91
426.123	526.09
426.499	519.53
426.875	517.5
427.251	510.95
427.627	551.62
428.003	548.69
428.379	549.14
428.756	549.59
429.132	571.28
429.507	571.51
429.883	571.06
430.259	570.38
430.635	560.44
431.011	570.38
431.387	572.64
431.763	574.9
432.138	592.07
432.514	586.88
432.89	578.74
433.265	598.18
433.641	621.9
434.016	606.09
434.392	591.62
434.767	639.08
435.143	614.9
435.518	630.94
435.894	620.77
436.269	620.77
436.644	647.21
437.02	650.38
437.395	645.63
437.77	653.99
438.145	657.61
438.52	684.5
438.895	663.03
439.271	663.03
439.646	674.56
440.021	672.75
440.395	673.65
440.77	658.97
441.145	665.29
441.52	700.55
441.895	708.68
442.27	691.06
442.645	718.17
443.019	716.14
443.394	695.57
443.769	718.85
444.143	724.5
444.518	715.24
444.892	737.83
445.267	728.57
445.641	727.89
446.016	737.83
446.39	730.15
446.764	734.67
447.139	731.96
447.513	746.87
447.887	743.26
448.262	738.06
448.636	763.82
449.01	758.85
449.384	766.53
449.758	757.95
450.132	756.36
450.506	789.36
450.88	776.7
451.254	764.73
451.628	772.18
452.002	791.84
452.376	763.37
452.75	785.06
453.123	835.91
453.497	796.14
453.871	812.86
454.244	813.31
454.618	809.92
454.992	811.5
455.365	850.83
455.739	851.73
456.112	846.31
456.486	857.83
456.859	856.47
457.232	883.14
457.606	880.65
457.979	862.58
458.352	895.8
458.725	890.82
459.099	879.98
459.472	896.25
459.845	928.56
460.218	940.99
460.591	929.02
460.964	939.64
461.337	973.99
461.71	981.67
462.083	994.78
462.456	987.77
462.829	959.07
463.201	1002.23
463.574	1019.41
463.947	1037.26
464.32	1014.89
464.692	1033.19
465.065	1030.93
465.438	1054.89
465.81	1053.98
466.183	1092.85
466.555	1089.46
466.928	1100.54
467.3	1117.71
467.672	1122
468.045	1119.97
468.417	1141.44
468.789	1195
469.161	1166.52
469.534	1168.1
469.906	1195
470.278	1248.55
470.65	1227.54
471.022	1265.73
471.394	1260.98
471.766	1291.49
472.138	1282.45
472.51	1300.98
472.882	1318.38
473.253	1352.05
473.625	1366.74
473.997	1382.79
474.369	1397.7
474.74	1415.1
475.112	1462.79
475.484	1466.85
475.855	1525.16
476.227	1503.92
476.598	1556.12
476.97	1560.64
477.341	1598.83
477.713	1606.06
478.084	1610.13
478.455	1691.25
478.827	1707.98
479.198	1748.2
479.569	1766.28
479.94	1765.83
480.311	1784.59
480.682	1866.17
481.053	1902.32
481.424	1929.67
481.795	1971.47
482.166	2007.18
482.537	2013.28
482.908	2041.3
483.279	2079.72
483.65	2142.54
484.021	2139.15
484.391	2196.33
484.762	2216.44
485.133	2248.53
485.503	2315.19
485.874	2293.27
486.244	2353.38
486.615	2389.09
486.985	2427.51
487.356	2448.75
487.726	2515.41
488.097	2547.05
488.467	2560.38
488.837	2656.88
489.207	2665.92
489.578	2691.68
489.948	2728.29
490.318	2819.59
490.688	2812.36
491.058	2808.06
491.428	2874.05
491.798	2905.46
492.168	2974.84
492.538	2988.62
492.908	3023.65
493.278	3040.6
493.648	3078.11
494.017	3122.4
494.387	3123.31
494.757	3147.94
495.126	3218.67
495.496	3253.02
495.866	3293.92
496.235	3298.44
496.605	3288.73
496.974	3352.45
497.344	3388.16
497.713	3407.37
498.082	3450.98
498.452	3469.97
498.821	3482.62
499.19	3519.91
499.559	3525.78
499.928	3609.62
500.298	3584.76
500.667	3585.44
501.036	3653.24
501.405	3679
501.774	3662.5
502.143	3693.46
502.512	3717.19
502.88	3752.22
503.249	3758.77
503.618	3827.02
503.987	3794.48
504.356	3823.18
504.724	3822.5
505.093	3836.74
505.462	3881.93
505.83	3884.19
506.199	3933.68
506.567	3983.85
506.936	3995.38
507.304	4021.59
507.672	4019.78
508.041	4071.08
508.409	4033.79
508.777	4069.27
509.145	4094.36
509.514	4127.35
509.882	4156.27
510.25	4187.23
510.618	4161.25
510.986	4174.35
511.354	4246.67
511.722	4255.03
512.09	4307.23
512.458	4242.6
512.826	4322.37
513.193	4303.62
513.561	4309.27
513.929	4389.04
514.297	4367.34
514.664	4415.7
515.032	4380.68
515.4	4396.72
515.767	4424.74
516.135	4457.74
516.502	4417.74
516.869	4472.2
517.237	4497.51
517.604	4483.27
517.972	4515.14
518.339	4558.98
518.706	4603.95
519.073	4579.54
519.44	4624.96
519.808	4711.74
520.175	4636.94
520.542	4685.75
520.909	4707.45
521.276	4659.09
521.643	4742.93
522.009	4778.63
522.376	4771.17
522.743	4760.1
523.11	4843.26
523.477	4884.17
523.843	4923.03
524.21	4973.88
524.577	4947.21
524.943	4978.17
525.31	5005.29
525.676	5029.25
526.043	5064.95
526.409	5072.18
526.776	5123.71
527.142	5153.76
527.508	5171.16
527.874	5158.28
528.241	5238.51
528.607	5236.47
528.973	5278.96
529.339	5319.86
529.705	5273.53
530.071	5360.76
530.437	5364.15
530.803	5422.46
531.169	5457.26
531.535	5446.86
531.901	5469.69
532.267	5485.28
532.632	5463.81
532.998	5492.96
533.364	5574.09
533.73	5612.51
534.095	5633.52
534.461	5640.3
534.826	5655.22
535.192	5659.06
535.557	5674.65
535.923	5702
536.288	5697.03
536.653	5693.86
537.019	5757.81
537.384	5785.84
537.749	5812.95
538.114	5873.97
538.479	5817.93
538.845	5868.77
539.21	5851.6
539.575	5936.79
539.94	5943.35
540.305	5980.63
540.67	5963.68
541.034	6010.24
541.399	6030.58
541.764	6052.5
542.129	6083.23
542.494	6084.36
542.858	6110.12
543.223	6133.17
543.587	6177.69
543.952	6183.79
544.316	6275.32
544.681	6198.71
545.045	6288.2
545.41	6280.96
545.774	6326.16
546.138	6339.04
546.503	6383.33
546.867	6402.09
547.231	6419.27
547.595	6413.62
547.959	6454.75
548.324	6426.05
548.688	6483.45
549.052	6547.4
549.416	6534.52
549.779	6587.85
550.143	6571.58
550.507	6593.5
550.871	6631.24
551.235	6617.23
551.599	6750.56
551.962	6714.17
552.326	6743.33
552.689	6750.11
553.053	6695.19
553.417	6749.2
553.78	6814.96
554.143	6773.16
554.507	6835.53
554.87	6881.85
555.234	6953.94
555.597	6877.33
555.96	6945.81
556.323	6998.46
556.686	6936.77
557.05	7028.74
557.413	7040.49
557.776	7036.43
558.139	7061.06
558.502	7108.06
558.865	7143.09
559.228	7213.14
559.59	7207.49
559.953	7235.97
560.316	7216.31
560.679	7215.4
561.041	7284.55
561.404	7300.82
561.767	7367.04
562.129	7288.85
562.492	7398.9
562.854	7392.12
563.217	7450.88
563.579	7478.67
563.941	7477.32
564.304	7539.24
564.666	7558.67
565.028	7608.39
565.39	7539.91
565.753	7535.17
566.115	7633.7
566.477	7678.89
566.839	7697.65
567.201	7773.81
567.563	7743.3
567.925	7809.51
568.287	7793.47
568.648	7767.48
569.01	7839.34
569.372	7890.64
569.734	7847.03
570.095	7975.38
570.457	8029.39
570.819	8039.11
571.18	8059.9
571.542	8091.99
571.903	8157.53
572.265	8167.47
572.626	8182.16
572.987	8250.4
573.349	8306.67
573.71	8347.58
574.071	8433.45
574.432	8463.96
574.794	8505.54
575.155	8508.48
575.516	8559.77
575.877	8628.02
576.238	8821.46
576.599	8758.19
576.96	8796.38
577.32	8903.04
577.681	8937.39
578.042	9006.54
578.403	9102.81
578.763	9149.82
579.124	9223.94
579.485	9360.21
579.845	9399.3
580.206	9538.05
580.566	9616.92
580.927	9746.18
581.287	9776.24
581.648	9937.59
582.008	10037.02
582.368	10132.84
582.728	10295.77
583.089	10410.8
583.449	10501.64
583.809	10719.04
584.169	10839.94
584.529	10964.91
584.889	11233.15
585.249	11336.2
585.609	11431.56
585.969	11711.56
586.329	11800.14
586.688	12028.38
587.048	12253.92
587.408	12384.31
587.768	12590.18
588.127	12822.94
588.487	13026.32
588.846	13344.73
589.206	13423.6
589.565	13722.58
589.925	13963.02
590.284	14127.31
590.643	14474.65
591.003	14763.68
591.362	14945.82
591.721	15172.03
592.08	15502.87
592.44	15841.17
592.799	16000.48
593.158	16212.68
593.517	16505.33
593.876	16806.79
594.235	17053.56
594.593	17329.26
594.952	17634.56
595.311	17870.72
595.67	18150.71
596.029	18613.07
596.387	18795.89
596.746	19069.78
597.104	19262.09
597.463	19597.68
597.822	19933.71
598.18	20107.27
598.538	20425.9
598.897	20828.83
599.255	20907.7
599.613	21484.86
599.972	21564.18
600.33	22027.67
600.688	22214.78
601.046	22518.73
601.404	22690.02
601.762	23191.03
602.12	23400.06
602.478	23711.69
602.836	23956.43
603.194	24076.43
603.552	24443.65
603.91	24630.54
604.268	24983.98
604.625	25117.53
604.983	25408.37
605.341	25571.08
605.698	26055.81
606.056	26236.37
606.413	26481.11
606.771	26635.68
607.128	27087.42
607.485	27083.36
607.843	27367.64
608.2	27762.21
608.557	27975.08
608.914	28139.15
609.272	28501.4
609.629	28683.77
609.986	28955.85
610.343	29120.59
610.7	29361.49
611.057	29561.26
611.414	29849.61
611.771	29888.03
612.127	30310.84
612.484	30422.93
612.841	30649.36
613.198	30813.88
613.554	30869.92
613.911	31183.13
614.267	31307.65
614.624	31502.67
614.98	31643.69
615.337	31962.55
615.693	32008.65
616.05	32196.44
616.406	32466.26
616.762	32521.4
617.118	32595.3
617.475	32813.83
617.831	33069.19
618.187	33231.44
618.543	33432.34
618.899	33614.48
619.255	33699.23
619.611	33646.35
619.967	34023.51
620.323	34245.43
620.678	34099.44
621.034	34120.91
621.39	34349.61
621.746	34414.69
622.101	34749.82
622.457	34747.79
622.812	34746.43
623.168	34972.41
623.523	34954.11
623.879	35329.01
624.234	35098.29
624.589	35239.75
624.945	35323.82
625.3	35496.24
625.655	35433.87
626.01	35615.79
626.365	35690.81
626.72	35763.13
627.075	35749.34
627.43	35783.92
627.785	35924.25
628.14	36115.66
628.495	36145.04
628.85	36129.67
629.205	36017.13
629.559	36424.8
629.914	36157.24
630.269	36197.24
630.623	36312.49
630.978	36180.74
631.332	36400.4
631.687	36577.8
632.041	36457.8
632.396	36524.46
632.75	36489.89
633.104	36564.91
633.459	36390.91
633.813	36511.81
634.167	36438.82
634.521	36440.62
634.875	36547.29
635.229	36479.27
635.583	36352.04
635.937	36421.19
636.291	36392.04
636.645	36554.97
636.999	36453.05
637.352	36521.75
637.706	36306.62
638.06	36558.59
638.413	36405.37
638.767	36473.39
639.121	36608.3
639.474	36373.96
639.828	36427.74
640.181	36524.69
640.534	36532.37
640.888	36345.03
641.241	36360.17
641.594	36347.97
641.947	36518.14
642.301	36349.1
642.654	36477.23
643.007	36456.44
643.36	36319.27
643.713	36383.9
644.066	36492.83
644.419	36236.11
644.771	36061.88
645.124	35750.25
645.477	35686.29
645.83	35475.68
646.182	35383.02
646.535	35300.09
646.888	35510.25
647.24	35155.23
647.593	35415.34
647.945	35362.46
648.298	35139.87
648.65	35161.79
649.002	35090.38
649.355	35155.46
649.707	35090.83
650.059	35243.37
650.411	35796.35
650.763	35759.06
651.115	36260.06
651.467	36043.35
651.819	36003.57
652.171	35946.85
652.523	36044.7
652.875	36011.03
653.227	35857.14
653.578	36109.56
653.93	36035.66
654.282	35831.37
654.633	35791.15
654.985	35830.7
655.337	35819.4
655.688	35855.1
656.039	35984.82
656.391	35611.04
656.742	35694.2
657.094	35832.28
657.445	35846.52
657.796	35820.98
658.147	35640.87
658.498	35692.62
658.849	35684.03
659.2	35671.83
659.551	35641.77
659.902	35716.8
660.253	35682.45
660.604	35735.11
660.955	35531.72
661.306	35768.1
661.656	35600.87
662.007	35691.94
662.358	35579.63
662.708	35682.68
663.059	35571.04
663.409	35284.95
663.76	35622.79
664.11	35760.19
664.461	35548.22
664.811	35430.03
665.161	35508.9
665.511	35457.15
665.862	35598.61
666.212	35601.78
666.562	35638.16
666.912	35496.02
667.262	35511.38
667.612	35649.68
667.962	35542.57
668.312	35437.71
668.662	35698.5
669.011	35519.52
669.361	35418.5
669.711	35470.71
670.06	35436.58
670.41	35441.55
670.76	35329.69
671.109	35500.76
671.459	35359.52
671.808	35270.03
672.157	35435.45
672.507	35251.05
672.856	35067.33
673.205	35230.71
673.554	35321.78
673.904	35187.32
674.253	35413.31
674.602	35263.03
674.951	34652.42
675.3	34430.28
675.649	35094.9
675.998	35135.57
676.346	35161.34
676.695	35297.38
677.044	34969.02
677.393	35204.27
677.741	35105.52
678.09	34979.19
678.438	34969.7
678.787	35035.69
679.135	35021.45
679.484	34818.29
679.832	34991.17
680.181	34682.25
680.529	34795.02
680.877	34629.82
681.225	34792.31
681.573	34773.32
681.922	34545.76
682.27	34521.35
682.618	34492.65
682.966	34378.98
683.314	34529.94
683.661	34444.07
684.009	34155.03
684.357	34298.08
684.705	34104.87
685.053	34250.17
685.4	34145.09
685.748	34025.77
686.095	34101.48
686.443	33877.53
686.79	33881.14
687.138	33902.61
687.485	33784.87
687.832	33708.94
688.18	33721.15
688.527	33726.12
688.874	33748.72
689.221	33467.82
689.568	33376.98
689.915	33410.65
690.262	33329.52
690.609	33173.14
690.956	33028.51
691.303	33022.41
691.65	32922.07
691.997	32976.53
692.344	32672.14
692.69	32843.88
693.037	32722.3
693.383	32464.91
693.73	32591.01
694.077	32336.1
694.423	32502.87
694.769	32312.6
695.116	32250.23
695.462	32190.57
695.808	32017.69
696.155	32291.35
696.501	31982.66
696.847	31821.99
697.193	31772.27
697.539	31710.58
697.885	31559.62
698.231	31556.46
698.577	31407.99
698.923	31389.46
699.269	31422.45
699.614	31088.22
699.96	31119.41
700.306	31060.2
700.651	30998.06
700.997	30810.49
701.342	30801
701.688	30721.9
702.033	30709.93
702.379	30568.91
702.724	30491.18
703.069	30580.21
703.415	30132.54
703.76	30288.24
704.105	30340.22
704.45	30322.59
704.795	30067.46
705.14	30017.06
705.485	29935.48
705.83	29794.02
706.175	29883.96
706.52	29864.53
706.865	29663.85
707.209	29607.81
707.554	29465.44
707.899	29567.58
708.243	29415.72
708.588	29352.9
708.932	29267.93
709.277	29266.35
709.621	29316.29
709.966	28976.87
710.31	29005.34
710.654	28882.63
710.998	28928.05
711.342	28860.94
711.687	28824.33
712.031	28613.94
712.375	28596.76
712.719	28742.52
713.063	28678.57
713.407	28640.83
713.75	28403.32
714.094	28438.35
714.438	28308.63
714.782	28263.44
715.125	28283.78
715.469	28332.14
715.812	28101.18
716.156	27886.05
716.499	27914.97
716.843	27938.7
717.186	27870.23
717.53	27957.91
717.873	27846.05
718.216	27777.35
718.559	27745.03
718.902	27638.14
719.246	27632.04
719.589	27653.74
719.932	27405.83
720.275	27436.34
720.617	27442.22
720.96	27357.47
721.303	27376
721.646	27360.18
721.989	27146.18
722.331	27323.58
722.674	27196.8
723.016	27177.82
723.359	27114.09
723.701	27082.45
724.044	26870.03
724.386	26800.65
724.729	26882.23
725.071	26824.38
725.413	26777.83
725.755	26732.86
726.097	26592.97
726.439	26637.72
726.782	26566.08
727.124	26632.29
727.465	26467.78
727.807	26506.2
728.149	26481.79
728.491	26411.73
728.833	26401.11
729.175	26181.91
729.516	26279.99
729.858	26166.77
730.199	26262.81
730.541	26108.92
730.882	26073.44
731.224	26119.77
731.565	25963.39
731.906	26016.04
732.248	25993.67
732.589	25869.83
732.93	25794.58
733.271	25889.49
733.612	25801.13
733.953	25750.51
734.294	25732.43
734.635	25631.64
734.976	25766.33
735.317	25673
735.658	25659.21
735.999	25613.56
736.339	25523.85
736.68	25635.03
737.021	25502.15
737.361	25439.78
737.702	25587.8
738.042	25379.67
738.383	25347.13
738.723	25405.43
739.063	25261.93
739.404	25279.56
739.744	25168.83
740.084	25098.32
740.424	25215.38
740.764	25170.41
741.104	25219.45
741.444	24965.22
741.784	24917.31
742.124	24936.07
742.464	24950.98
742.804	24905.11
743.143	24875.96
743.483	24910.31
743.823	24728.62
744.162	24753.7
744.502	24806.58
744.841	24662.63
745.181	24777.2
745.52	24616.53
745.86	24669.86
746.199	24594.61
746.538	24640.26
746.877	24562.52
747.216	24444.1
747.556	24557.77
747.895	24588.51
748.234	24446.36
748.573	24384.67
748.911	24305.8
749.25	24305.12
749.589	24235.07
749.928	24192.36
750.267	24282.98
750.605	24194.84
750.944	24139.7
751.283	23956.43
751.621	24048.18
751.96	24002.53
752.298	23900.16
752.636	23997.79
752.975	23893.16
753.313	23808.41
753.651	23826.49
753.989	23671.24
754.327	23743.1
754.666	23610
755.004	23629.21
755.342	23712.37
755.679	23542.66
756.017	23453.62
756.355	23621.98
756.693	23399.61
757.031	23388.09
757.368	23292.27
757.706	23278.26
758.044	23067.19
758.381	23171.37
758.719	23134.31
759.056	23134.31
759.394	23013.18
759.731	22907.87
760.068	22987.42
760.405	22833.52
760.743	22780.64
761.08	22826.29
