Data from hue_00_FLMS001491_100.txt Node
Date: Mon Feb 06 15:30:42 GMT 2017
User: dcchb
Spectrometer: FLMS00149
Trigger mode: 0
Integration Time (sec): 2.000000E-2
Scans to average: 10
Electric dark correction enabled: true
Nonlinearity correction enabled: false
Boxcar width: 0
XAxis mode: Wavelengths
Number of Pixels in Spectrum: 2048
>>>>>Begin Spectral Data<<<<<
341.393	-17.53
341.776	-17.53
342.16	-17.53
342.543	-67.47
342.927	-59.33
343.31	-66.57
343.693	-71.76
344.077	-70.41
344.46	-51.65
344.843	-47.36
345.226	-34.93
345.61	-22.27
345.993	-10.07
346.376	-10.97
346.759	16.6
347.142	14.11
347.525	20.44
347.908	48.91
348.291	69.48
348.674	112.19
349.057	104.28
349.44	113.77
349.823	130.26
350.206	156.93
350.588	179.98
350.971	201.22
351.354	222.24
351.737	233.99
352.119	248.68
352.502	245.97
352.884	257.49
353.267	278.74
353.65	298.85
354.032	290.94
354.414	301.56
354.797	313.99
355.179	310.37
355.562	327.77
355.944	314.21
356.326	328.23
356.709	324.16
357.091	318.96
357.473	323.71
357.855	326.64
358.238	343.37
358.62	325.51
359.002	323.71
359.384	328
359.766	340.43
360.148	324.16
360.53	330.71
360.912	326.42
361.294	353.76
361.676	316.02
362.057	339.3
362.439	325.29
362.821	304.72
363.203	306.53
363.584	318.06
363.966	334.78
364.348	316.47
364.729	329.13
365.111	303.59
365.493	326.87
365.874	295.46
366.256	309.7
366.637	318.51
367.019	306.31
367.4	319.19
367.781	309.92
368.163	311.73
368.544	301.79
368.925	314.89
369.306	318.51
369.688	304.72
370.069	298.4
370.45	298.85
370.831	322.58
371.212	312.63
371.593	295.23
371.974	310.83
372.355	288.9
372.736	287.77
373.117	331.84
373.498	298.17
373.879	312.18
374.26	298.85
374.641	327.32
375.021	323.71
375.402	298.62
375.783	319.41
376.163	318.96
376.544	313.99
376.925	333.2
377.305	310.83
377.686	299.53
378.066	316.47
378.447	320.99
378.827	323.25
379.208	331.84
379.588	318.28
379.968	330.26
380.349	303.59
380.729	316.02
381.109	335.91
381.489	317.38
381.87	333.65
382.25	323.93
382.63	336.14
383.01	315.57
383.39	336.81
383.77	332.29
384.15	336.36
384.53	329.58
384.91	356.47
385.29	339.07
385.67	313.08
386.049	340.65
386.429	347.89
386.809	344.95
387.189	335.91
387.568	334.78
387.948	333.88
388.328	347.21
388.707	353.08
389.087	337.04
389.466	351.28
389.846	349.47
390.225	336.59
390.605	357.15
390.984	347.66
391.363	351.5
391.743	344.95
392.122	356.25
392.501	351.05
392.881	371.39
393.26	352.63
393.639	360.09
394.018	352.18
394.397	361.9
394.776	348.56
395.155	365.29
395.534	368.45
395.913	393.53
396.292	370.26
396.671	387.66
397.05	384.72
397.429	361.45
397.808	361.45
398.186	372.29
398.565	376.36
398.944	375.91
399.323	373.65
399.701	395.79
400.08	368.68
400.458	402.12
400.837	418.39
401.215	381.11
401.594	389.92
401.972	404.38
402.351	390.6
402.729	406.42
403.107	410.94
403.486	372.29
403.864	393.76
404.242	391.5
404.62	405.74
404.999	400.99
405.377	386.53
405.755	399.64
406.133	389.92
406.511	400.09
406.889	411.61
407.267	424.27
407.645	408
408.023	420.2
408.401	436.02
408.779	434.66
409.156	421.56
409.534	442.12
409.912	423.82
410.29	419.3
410.667	431.95
411.045	423.14
411.422	423.59
411.8	452.97
412.178	460.88
412.555	456.36
412.933	455.45
413.31	459.07
413.687	467.21
414.065	466.98
414.442	453.87
414.819	440.09
415.197	462.01
415.574	479.86
415.951	485.06
416.328	467.21
416.705	463.59
417.082	475.79
417.46	484.83
417.837	496.81
418.214	482.57
418.591	496.58
418.967	498.62
419.344	501.78
419.721	478.73
420.098	504.49
420.475	509.46
420.852	477.37
421.228	506.75
421.605	513.31
421.982	512.85
422.358	515.34
422.735	529.8
423.111	524.6
423.488	537.71
423.864	532.51
424.241	540.2
424.617	546.98
424.994	554.89
425.37	546.07
425.746	544.04
426.123	563.7
426.499	544.49
426.875	567.99
427.251	557.6
427.627	573.19
428.003	560.99
428.379	567.99
428.756	547.2
429.132	567.54
429.507	586.07
429.883	579.07
430.259	594.89
430.635	601.89
431.011	593.53
431.387	611.83
431.763	610.7
432.138	632.17
432.514	616.13
432.89	631.95
433.265	664.04
433.641	645.28
434.016	639.18
434.392	636.47
434.767	644.6
435.143	677.37
435.518	625.17
435.894	650.03
436.269	647.31
436.644	674.66
437.02	648.22
437.395	664.04
437.77	683.7
438.145	681.21
438.52	727.76
438.895	691.38
439.271	696.8
439.646	740.87
440.021	736.35
440.395	730.02
440.77	722.34
441.145	715.33
441.52	731.83
441.895	737.71
442.27	717.59
442.645	737.03
443.019	749.91
443.394	764.37
443.769	751.49
444.143	761.43
444.518	738.16
444.892	754.43
445.267	789.91
445.641	790.36
446.016	776.35
446.39	784.03
446.764	767.31
447.139	771.83
447.513	767.54
447.887	792.62
448.262	786.97
448.636	796.01
449.01	818.83
449.384	823.58
449.758	826.97
450.132	831.49
450.506	827.87
450.88	834.88
451.254	822.9
451.628	845.27
452.002	840.53
452.376	867.87
452.75	850.92
453.123	862.45
453.497	858.16
453.871	876.91
454.244	891.83
454.618	877.14
454.992	904.26
455.365	908.78
455.739	910.36
456.112	916.46
456.486	913.52
456.859	923.24
457.232	952.62
457.606	960.3
457.979	956.01
458.352	977.47
458.725	995.78
459.099	1003.01
459.472	989.68
459.845	1015.67
460.218	998.04
460.591	1025.16
460.964	1025.61
461.337	1038.26
461.71	1083.91
462.083	1064.03
462.456	1098.6
462.829	1076
463.201	1078.49
463.574	1086.17
463.947	1105.61
464.32	1132.5
464.692	1128.66
465.065	1138.6
465.438	1177.7
465.81	1126.4
466.183	1168.43
466.555	1208.88
466.928	1221.76
467.3	1188.54
467.672	1218.82
468.045	1253.17
468.417	1260.86
468.789	1260.63
469.161	1271.7
469.534	1313.74
469.906	1309.67
470.278	1326.39
470.65	1337.92
471.022	1363.23
471.394	1377.01
471.766	1392.6
472.138	1420.17
472.51	1431.93
472.882	1440.74
473.253	1482.32
473.625	1494.97
473.997	1506.27
474.369	1532.94
474.74	1541.98
475.112	1582.66
475.484	1627.17
475.855	1607.51
476.227	1622.2
476.598	1700.62
476.97	1701.75
477.341	1716.89
477.713	1736.32
478.084	1772.71
478.455	1846.6
478.827	1827.4
479.198	1863.55
479.569	1900.39
479.94	1948.75
480.311	1956.88
480.682	1989.2
481.053	2033.04
481.424	2084.11
481.795	2097.22
482.166	2123.21
482.537	2181.06
482.908	2242.53
483.279	2223.09
483.65	2288.85
484.021	2318.46
484.391	2352.13
484.762	2374.27
485.133	2383.77
485.503	2443.88
485.874	2491.11
486.244	2507.38
486.615	2600.93
486.985	2627.83
487.356	2623.53
487.726	2645.68
488.097	2707.37
488.467	2719.58
488.837	2786.01
489.207	2806.35
489.578	2839.8
489.948	2877.99
490.318	2950.98
490.688	2942.39
491.058	3017.42
491.428	3046.57
491.798	3068.49
492.168	3128.38
492.538	3128.15
492.908	3208.38
493.278	3196.85
493.648	3220.13
494.017	3284.53
494.387	3290.86
494.757	3360.01
495.126	3383.51
495.496	3402.72
495.866	3458.76
496.235	3461.93
496.605	3503.74
496.974	3494.7
497.344	3549.61
497.713	3537.41
498.082	3559.33
498.452	3641.36
498.821	3675.71
499.19	3659.66
499.559	3700.34
499.928	3679.32
500.298	3732.88
500.667	3728.36
501.036	3754.58
501.405	3824.18
501.774	3819.21
502.143	3852.65
502.512	3911.18
502.88	3907.79
503.249	3952.31
503.618	3957.51
503.987	3991.41
504.356	4003.16
504.724	4030.73
505.093	4006.77
505.462	3983.04
505.83	4082.25
506.199	4138.97
506.567	4147.56
506.936	4166.99
507.304	4161.57
507.672	4187.56
508.041	4200.44
508.409	4236.6
508.777	4256.03
509.145	4263.49
509.514	4263.26
509.882	4315.69
510.25	4340.55
510.618	4342.13
510.986	4322.92
511.354	4386.42
511.722	4426.2
512.09	4444.05
512.458	4452.86
512.826	4460.32
513.193	4492.86
513.561	4499.87
513.929	4505.07
514.297	4548.23
514.664	4580.54
515.032	4572.18
515.4	4607.66
515.767	4653.54
516.135	4642.46
516.502	4612.63
516.869	4688.79
517.237	4687.43
517.604	4672.74
517.972	4723.82
518.339	4748.9
518.706	4787.77
519.073	4768.11
519.44	4799.52
519.808	4828.67
520.175	4820.99
520.542	4909.57
520.909	4862.8
521.276	4871.16
521.643	4910.93
522.009	4933.98
522.376	4914.32
522.743	5027.31
523.11	5043.13
523.477	5007.88
523.843	5067.08
524.21	5145.27
524.577	5186.18
524.943	5162.22
525.31	5204.93
525.676	5209.68
526.043	5256.46
526.409	5293.74
526.776	5345.95
527.142	5346.62
527.508	5356.12
527.874	5381.2
528.241	5404.93
528.607	5397.02
528.973	5489.22
529.339	5470.46
529.705	5477.69
530.071	5567.86
530.437	5601.31
530.803	5637.01
531.169	5617.58
531.535	5625.94
531.901	5698.71
532.267	5678.82
532.632	5701.19
532.998	5728.76
533.364	5799.49
533.73	5782.32
534.095	5803.79
534.461	5814.64
534.826	5841.3
535.192	5868.42
535.557	5932.37
535.923	5944.12
536.288	5964.01
536.653	6052.82
537.019	5952.71
537.384	5979.38
537.749	6066.38
538.114	6052.14
538.479	6068.19
538.845	6090.33
539.21	6068.41
539.575	6117.9
539.94	6156.32
540.305	6204.23
540.67	6164.91
541.034	6241.29
541.399	6250.56
541.764	6280.16
542.129	6379.82
542.494	6338.01
542.858	6409.42
543.223	6361.29
543.587	6445.58
543.952	6428.86
544.316	6467.27
544.681	6445.58
545.045	6480.61
545.41	6462.98
545.774	6503.2
546.138	6604.44
546.503	6598.8
546.867	6563.77
547.231	6696.19
547.595	6661.84
547.959	6759.92
548.324	6707.27
548.688	6754.95
549.052	6767.15
549.416	6836.08
549.779	6784.78
550.143	6862.74
550.507	6878.11
550.871	6862.52
551.235	6860.26
551.599	6911.78
551.962	6943.42
552.326	6917.88
552.689	7011.67
553.053	7062.06
553.417	7037.2
553.78	7073.36
554.143	7052.34
554.507	7077.88
554.87	7148.61
555.234	7161.27
555.597	7149.74
555.96	7177.99
556.323	7117.2
556.686	7158.1
557.05	7210.08
557.413	7325.33
557.776	7320.36
558.139	7332.79
558.502	7322.17
558.865	7337.53
559.228	7410.53
559.59	7408.27
559.953	7432.45
560.316	7490.98
560.679	7482.61
561.041	7523.97
561.404	7558.54
561.767	7609.39
562.129	7543.4
562.492	7617.3
562.854	7696.62
563.217	7737.52
563.579	7673.34
563.941	7810.29
564.304	7808.26
564.666	7805.09
565.028	7806.67
565.39	7843.96
565.753	7911.98
566.115	7864.75
566.477	7901.59
566.839	7987.01
567.201	7967.12
567.563	8036.5
567.925	8079.21
568.287	8115.82
568.648	8147.23
569.01	8181.13
569.372	8170.28
569.734	8122.37
570.095	8273.55
570.457	8307
570.819	8301.12
571.18	8309.94
571.542	8379.31
571.903	8414.34
572.265	8542.7
572.626	8482.14
572.987	8544.73
573.349	8570.04
573.71	8615.47
574.071	8684.62
574.432	8683.71
574.794	8789.25
575.155	8790.83
575.516	8855.46
575.877	8925.29
576.238	8979.07
576.599	9018.84
576.96	9071.5
577.32	9132.06
577.681	9186.52
578.042	9325.96
578.403	9374.77
578.763	9381.55
579.124	9527.98
579.485	9603.24
579.845	9725.94
580.206	9792.16
580.566	9911.25
580.927	10000.29
581.287	10019.72
581.648	10159.15
582.008	10387.62
582.368	10475.76
582.728	10494.74
583.089	10539.71
583.449	10812.24
583.809	10904.9
584.169	11086.81
584.529	11185.34
584.889	11428.5
585.249	11462.85
585.609	11623.07
585.969	11898.77
586.329	12060.12
586.688	12237.97
587.048	12432.54
587.408	12560.22
587.768	12723.61
588.127	12966.54
588.487	13145.97
588.846	13519.52
589.206	13549.12
589.565	13828.89
589.925	14108.43
590.284	14331.7
590.643	14530.34
591.003	14823.66
591.362	15081.28
591.721	15206.48
592.08	15479.01
592.44	15735.28
592.799	15980.7
593.158	16253.91
593.517	16507.24
593.876	16787
594.235	16975.92
594.593	17259.76
594.952	17564.16
595.311	17815.22
595.67	17990.59
596.029	18319.62
596.387	18705.82
596.746	19033.95
597.104	19215.64
597.463	19380.61
597.822	19790.54
598.18	19957.99
598.538	20227.14
598.897	20546.45
599.255	20671.65
599.613	21266.66
599.972	21328.58
600.33	21617.38
600.688	21794.1
601.046	22230.93
601.404	22458.49
601.762	22602.67
602.12	23071.13
602.478	23221.86
602.836	23434.06
603.194	23562.19
603.552	23789.98
603.91	23960.15
604.268	24286.47
604.625	24527.82
604.983	24906.11
605.341	24864.3
605.698	25289.15
606.056	25518.98
606.413	25700.89
606.771	25962.35
607.128	26299.75
607.485	26378.84
607.843	26621.77
608.2	27046.62
608.557	27280.06
608.914	27305.6
609.272	27660.61
609.629	27811.57
609.986	28093.6
610.343	28221.5
610.7	28620.36
611.057	28761.38
611.414	28875.05
611.771	29020.58
612.127	29290.63
612.484	29419.44
612.841	29571.07
613.198	29705.08
613.554	29814.91
613.911	30124.73
614.267	30270.26
614.624	30348.68
614.98	30643.81
615.337	30874.54
615.693	30931.49
616.05	31032.05
616.406	31352.72
616.762	31180.07
617.118	31421.19
617.475	31480.63
617.831	31726.27
618.187	31961.07
618.543	32019.14
618.899	32250.55
619.255	32429.3
619.611	32605.34
619.967	32598.34
620.323	32870.65
620.678	32725.34
621.034	32824.77
621.39	32950.87
621.746	33034.48
622.101	33455.94
622.457	33373.01
622.812	33507.92
623.168	33581.36
623.523	33621.36
623.879	33748.59
624.234	33582.27
624.589	33774.35
624.945	33909.49
625.3	33955.14
625.655	34078.75
626.01	34152.87
626.365	34231.97
626.72	34238.07
627.075	34292.76
627.43	34388.12
627.785	34446.2
628.14	34447.1
628.495	34692.52
628.85	34564.39
629.205	34528
629.559	34872.18
629.914	34638.74
630.269	34748.79
630.623	34713.31
630.978	34705.63
631.332	34875.11
631.687	35117.37
632.041	34837.83
632.396	34845.28
632.75	34905.17
633.104	34910.14
633.459	34801.44
633.813	34847.09
634.167	34890.48
634.521	34930.71
634.875	34879.18
635.229	35003.02
635.583	34791.95
635.937	34872.4
636.291	34965.96
636.645	35012.06
636.999	34903.81
637.352	35089.8
637.706	34936.13
638.06	35059.97
638.413	34928.9
638.767	34820.65
639.121	34982.68
639.474	34804.83
639.828	34837.15
640.181	34871.27
640.534	35055.45
640.888	34759.64
641.241	34702.69
641.594	34881.89
641.947	34971.83
642.301	34887.09
642.654	34965.73
643.007	34794.44
643.36	34919.63
643.713	34751.95
644.066	34927.77
644.419	34809.81
644.771	34514.45
645.124	34309.93
645.477	34260.21
645.83	34050.28
646.182	33996.27
646.535	33794.01
646.888	33806.44
647.24	33640.34
647.593	33900.22
647.945	33849.6
648.298	33714.01
648.65	33569.39
649.002	33532.1
649.355	33714.69
649.707	33638.08
650.059	33664.07
650.411	34129.82
650.763	34242.81
651.115	34521
651.467	34353.77
651.819	34482.58
652.171	34397.61
652.523	34283.94
652.875	34264.28
653.227	34237.62
653.578	34356.48
653.93	34328.46
654.282	34223.83
654.633	34205.75
654.985	34264.06
655.337	34257.05
655.688	34224.74
656.039	34341.12
656.391	34115.13
656.742	34161.46
657.094	34053.44
657.445	34340.66
657.796	34105.19
658.147	34151.52
658.498	34037.4
658.849	34278.29
659.2	34161.46
659.551	34005.08
659.902	34144.51
660.253	34066.55
660.604	34227.22
660.955	33956.95
661.306	34152.87
661.656	33891.86
662.007	34027.68
662.358	33905.65
662.708	33966.21
663.059	34057.96
663.409	33845.76
663.76	34043.5
664.11	34045.98
664.461	34081.24
664.811	34055.25
665.161	34011.18
665.511	33938.19
665.862	33956.95
666.212	34108.81
666.562	34053.67
666.912	33947.91
667.262	34038.98
667.612	34004.4
667.962	34042.82
668.312	33796.72
668.662	34081.24
669.011	33892.32
669.361	33843.05
669.711	33895.25
670.06	33766.67
670.41	33766.89
670.76	33756.73
671.109	33838.31
671.459	33792.43
671.808	33726.22
672.157	33788.81
672.507	33582.27
672.856	33728.7
673.205	33692.77
673.554	33861.36
673.904	33714.69
674.253	33991.52
674.602	33811.87
674.951	33234.48
675.3	33163.75
675.649	33608.48
675.998	33546.56
676.346	33765.76
676.695	33712.43
677.044	33549.05
677.393	33540.91
677.741	33565.09
678.09	33579.78
678.438	33435.15
678.787	33567.58
679.135	33535.49
679.484	33206.91
679.832	33408.03
680.181	33221.15
680.529	33300.92
680.877	33214.59
681.225	33148.15
681.573	33252.78
681.922	33123.07
682.27	33007.59
682.618	33007.59
682.966	33053.69
683.314	33118.1
683.661	32946.58
684.009	32758.79
684.357	32768.28
684.705	32721.05
685.053	32673.14
685.4	32746.58
685.748	32538.68
686.095	32587.04
686.443	32423.65
686.79	32480.83
687.138	32428.85
687.485	32426.59
687.832	32282.64
688.18	32236.77
688.527	32137.33
688.874	32119.48
689.221	31964
689.568	32019.14
689.915	31982.76
690.262	31938.24
690.609	31806.72
690.956	31649.89
691.303	31746.38
691.65	31557.24
691.997	31420.06
692.344	31266.85
692.69	31325.83
693.037	31302.1
693.383	31098.94
693.73	31183.01
694.077	30951.6
694.423	30991.6
694.769	30885.39
695.116	30811.04
695.462	30841.77
695.808	30790.48
696.155	30748.44
696.501	30558.62
696.847	30549.8
697.193	30422.8
697.539	30484.27
697.885	30231.39
698.231	30158.18
698.577	30096.03
698.923	30124.5
699.269	29932.65
699.614	29883.15
699.96	29835.02
700.306	29729.71
700.651	29706.66
700.997	29454.24
701.342	29501.92
701.688	29534.69
702.033	29484.07
702.379	29231.42
702.724	29294.47
703.069	29343.06
703.415	28905.78
703.76	28972.44
704.105	29027.58
704.45	28999.56
704.795	28910.98
705.14	28740.13
705.485	28746.01
705.83	28576.07
706.175	28575.84
706.52	28571.55
706.865	28515.73
707.209	28330.88
707.554	28430.54
707.899	28420.82
708.243	28238.45
708.588	28254.27
708.932	28038.01
709.277	27886.37
709.621	28026.25
709.966	27772.02
710.31	27887.73
710.654	27653.84
710.998	27492.71
711.342	27612.93
711.687	27556.21
712.031	27421.3
712.375	27294.52
712.719	27481.64
713.063	27323.9
713.407	27358.25
713.75	27258.14
714.094	27216.78
714.438	27012.72
714.782	27040.52
715.125	27040.07
715.469	26974.08
715.812	26850.47
716.156	26677.59
716.499	26814.99
716.843	26716.01
717.186	26647.99
717.53	26749.23
717.873	26674.88
718.216	26648.66
718.559	26618.83
718.902	26420.87
719.246	26562.79
719.589	26342.23
719.932	26223.59
720.275	26296.58
720.617	26222.69
720.96	26219.75
721.303	26304.94
721.646	26133.87
721.989	26077.61
722.331	26113.31
722.674	26045.29
723.016	25934.33
723.359	26017.04
723.701	26001
724.044	25725.75
724.386	25716.94
724.729	25755.35
725.071	25688.91
725.413	25664.28
725.755	25692.53
726.097	25508.13
726.439	25496.15
726.782	25505.64
727.124	25549.48
727.465	25424.97
727.807	25382.71
728.149	25308.36
728.491	25227.46
728.833	25312.88
729.175	25157.86
729.516	25122.6
729.858	25087.12
730.199	25175.71
730.541	25017.97
730.882	25005.32
731.224	25055.94
731.565	24885.32
731.906	25002.61
732.248	24940.91
732.589	24726.68
732.93	24730.75
733.271	24708.38
733.612	24785.66
733.953	24774.81
734.294	24625.44
734.635	24553.58
734.976	24690.52
735.317	24603.97
735.658	24571.66
735.999	24561.49
736.339	24502.51
736.68	24521.71
737.021	24440.81
737.361	24240.37
737.702	24408.04
738.042	24402.62
738.383	24211.21
738.723	24368.05
739.063	24235.39
739.404	24250.08
739.744	24142.74
740.084	24086.92
740.424	24118.33
740.764	24019.81
741.104	24093.48
741.444	24005.8
741.784	24003.99
742.124	24016.19
742.464	23919.47
742.804	23900.49
743.143	23824.78
743.483	23768.51
743.823	23726.03
744.162	23715.63
744.502	23648.97
744.841	23611.46
745.181	23699.81
745.52	23602.64
745.86	23617.56
746.199	23575.52
746.538	23579.82
746.877	23631.79
747.216	23493.27
747.556	23445.81
747.895	23576.43
748.234	23359.26
748.573	23285.36
748.911	23382.31
749.25	23325.81
749.589	23173.5
749.928	23193.84
750.267	23180.28
750.605	23161.07
750.944	23094.41
751.283	22990.91
751.621	23053.96
751.96	22887.63
752.298	22927.41
752.636	22822.78
752.975	22714.98
753.313	22677.47
753.651	22787.52
753.989	22646.74
754.327	22694.19
754.666	22471.15
755.004	22670.69
755.342	22564.93
755.679	22517.47
756.017	22345.05
756.355	22432.05
756.693	22336.01
757.031	22394.54
757.368	22031.38
757.706	22160.19
758.044	22042.01
758.381	22085.62
758.719	22083.81
759.056	22065.28
759.394	21990.03
759.731	21920.88
760.068	21747.32
760.405	21801.79
