Data from hue_170_FLMS001491_00081.txt Node
Date: Tue Feb 07 16:49:18 GMT 2017
User: dcchb
Spectrometer: FLMS00149
Trigger mode: 0
Integration Time (sec): 2.000000E-2
Scans to average: 10
Electric dark correction enabled: true
Nonlinearity correction enabled: false
Boxcar width: 0
XAxis mode: Wavelengths
Number of Pixels in Spectrum: 2048
>>>>>Begin Spectral Data<<<<<
341.393	3.25
341.776	3.25
342.16	3.25
342.543	-41.27
342.927	-76.52
343.31	-55.96
343.693	-62.51
344.077	-79.46
344.46	-64.77
344.843	-73.81
345.226	-47.15
345.61	-29.97
345.993	-15.51
346.376	-6.47
346.759	11.61
347.142	10.03
347.525	45.06
347.908	64.72
348.291	87.54
348.674	99.74
349.057	116.92
349.44	127.31
349.823	138.39
350.206	169.57
350.588	174.54
350.971	208.21
351.354	214.99
351.737	230.36
352.119	233.3
352.502	260.19
352.884	265.61
353.267	283.02
353.65	297.25
354.032	288.89
354.414	304.26
354.797	309.23
355.179	330.92
355.562	318.95
355.944	330.47
356.326	346.97
356.709	342.45
357.091	329.57
357.473	342.9
357.855	341.32
358.238	310.36
358.62	316.23
359.002	329.79
359.384	336.12
359.766	337.48
360.148	325.27
360.53	343.8
360.912	334.09
361.294	343.58
361.676	347.65
362.057	331.83
362.439	339.74
362.821	322.34
363.203	314.88
363.584	332.73
363.966	311.71
364.348	336.8
364.729	343.35
365.111	320.98
365.493	316.46
365.874	325.5
366.256	304.48
366.637	326.63
367.019	311.49
367.4	325.73
367.781	298.83
368.163	302.9
368.544	308.33
368.925	317.36
369.306	322.11
369.688	339.74
370.069	310.36
370.45	310.59
370.831	328.89
371.212	317.82
371.593	324.37
371.974	312.62
372.355	320.75
372.736	294.54
373.117	320.3
373.498	286.4
373.879	311.94
374.26	317.59
374.641	297.25
375.021	306.29
375.402	332.73
375.783	341.77
376.163	332.96
376.544	327.76
376.925	309.46
377.305	324.14
377.686	318.04
378.066	327.08
378.447	321.21
378.827	343.8
379.208	331.83
379.588	330.25
379.968	323.92
380.349	325.95
380.729	330.25
381.109	335.9
381.489	356.23
381.87	324.6
382.25	341.54
382.63	336.35
383.01	339.51
383.39	315.33
383.77	348.32
384.15	338.38
384.53	358.49
384.91	367.53
385.29	365.5
385.67	352.39
386.049	346.97
386.429	349.45
386.809	352.39
387.189	364.37
387.568	357.36
387.948	353.97
388.328	369.79
388.707	367.53
389.087	367.53
389.466	356.01
389.846	349
390.225	374.99
390.605	363.24
390.984	358.04
391.363	377.93
391.743	406.4
392.122	382.22
392.501	364.59
392.881	370.02
393.26	386.74
393.639	364.37
394.018	372.73
394.397	379.06
394.776	370.92
395.155	375.22
395.534	397.14
395.913	406.63
396.292	388.55
396.671	370.7
397.05	410.7
397.429	408.66
397.808	396.23
398.186	408.21
398.565	407.08
398.944	394.2
399.323	395.55
399.701	407.53
400.08	410.7
400.458	421.09
400.837	431.94
401.215	430.13
401.594	412.28
401.972	414.76
402.351	403.24
402.729	429.45
403.107	423.8
403.486	440.07
403.864	444.37
404.242	433.07
404.62	440.07
404.999	449.56
405.377	451.6
405.755	437.36
406.133	452.28
406.511	466.74
406.889	442.33
407.267	478.04
407.645	467.87
408.023	461.09
408.401	469
408.779	482.11
409.156	485.95
409.534	488.21
409.912	473.07
410.29	494.99
410.667	495.66
411.045	514.87
411.422	506.74
411.8	523.23
412.178	513.97
412.555	540.86
412.933	544.25
413.31	545.83
413.687	545.61
414.065	531.14
414.442	560.52
414.819	553.52
415.197	541.09
415.574	541.99
415.951	580.63
416.328	600.97
416.705	588.54
417.082	572.5
417.46	580.86
417.837	575.66
418.214	592.61
418.591	603.46
418.967	612.27
419.344	623.57
419.721	638.26
420.098	632.84
420.475	636.45
420.852	644.36
421.228	657.02
421.605	638.94
421.982	642.55
422.358	656.34
422.735	686.39
423.111	648.88
423.488	687.52
423.864	720.97
424.241	699.73
424.617	707.18
424.994	717.81
425.37	717.81
425.746	731.59
426.123	741.53
426.499	729.33
426.875	723.68
427.251	767.52
427.627	768.65
428.003	752.61
428.379	776.34
428.756	796.22
429.132	805.71
429.507	807.07
429.883	804.36
430.259	794.19
430.635	830.57
431.011	816.79
431.387	832.61
431.763	881.42
432.138	868.54
432.514	896.11
432.89	880.29
433.265	898.14
433.641	917.12
434.016	917.12
434.392	951.7
434.767	950.79
435.143	939.5
435.518	953.05
435.894	976.33
436.269	978.59
436.644	994.63
437.02	1014.75
437.395	1023.11
437.77	1034.63
438.145	1044.13
438.52	1048.42
438.895	1056.33
439.271	1072.37
439.646	1080.73
440.021	1107.63
440.395	1091.36
440.77	1068.76
441.145	1094.07
441.52	1123.9
441.895	1131.58
442.27	1180.84
442.645	1160.05
443.019	1179.04
443.394	1167.74
443.769	1215.42
444.143	1177.68
444.518	1210.22
444.892	1205.02
445.267	1198.25
445.641	1222.43
446.016	1228.75
446.39	1238.02
446.764	1251.58
447.139	1268.3
447.513	1282.54
447.887	1270.79
448.262	1301.52
448.636	1291.35
449.01	1309.2
449.384	1345.59
449.758	1349.2
450.132	1352.82
450.506	1384.46
450.88	1377.68
451.254	1391.23
451.628	1443.21
452.002	1409.09
452.376	1397.11
452.75	1427.84
453.123	1427.39
453.497	1461.06
453.871	1495.19
454.244	1508.97
454.618	1520.95
454.992	1558.69
455.365	1527.5
455.739	1591.68
456.112	1598.01
456.486	1602.98
456.859	1634.62
457.232	1658.35
457.606	1663.09
457.979	1677.33
458.352	1719.14
458.725	1732.47
459.099	1737.89
459.472	1788.96
459.845	1812.92
460.218	1794.61
460.591	1869.41
460.964	1870.77
461.337	1892.69
461.71	1950.09
462.083	1967.04
462.456	1989.86
462.829	1973.59
463.201	1989.86
463.574	2037.55
463.947	2042.74
464.32	2151.89
464.692	2131.1
465.065	2142.85
465.438	2190.08
465.81	2220.14
466.183	2244.32
466.555	2305.33
466.928	2314.37
467.3	2346.69
467.672	2389.85
468.045	2447.48
468.417	2452.68
468.789	2494.93
469.161	2535.16
469.534	2595.27
469.906	2665.55
470.278	2632.33
470.65	2710.07
471.022	2787.36
471.394	2821.48
471.766	2889.27
472.138	2922.04
472.51	2976.96
472.882	3045.43
473.253	3065.99
473.625	3166.78
473.997	3227.57
474.369	3285.2
474.74	3317.96
475.112	3412.65
475.484	3506.66
475.855	3588.24
476.227	3607.9
476.598	3734.9
476.97	3797.73
477.341	3839.08
477.713	3949.59
478.084	4011.96
478.455	4095.8
478.827	4198.84
479.198	4361.33
479.569	4394.32
479.94	4525.84
480.311	4591.6
480.682	4748.43
481.053	4879.73
481.424	4980.97
481.795	5045.38
482.166	5143.45
482.537	5257.35
482.908	5396.78
483.279	5505.25
483.65	5688.52
484.021	5717.45
484.391	5884.22
484.762	6000.38
485.133	6107.27
485.503	6205.35
485.874	6388.62
486.244	6469.97
486.615	6641.27
486.985	6736.86
487.356	6909.73
487.726	6979.56
488.097	7182.49
488.467	7224.98
488.837	7469.49
489.207	7612.99
489.578	7685.53
489.948	7841.23
490.318	7981.57
490.688	8131.62
491.058	8245.07
491.428	8431.73
491.798	8488.45
492.168	8737.26
492.538	8784.71
492.908	8853.19
493.278	9037.36
493.648	9148.54
494.017	9241.42
494.387	9399.84
494.757	9511.93
495.126	9688.19
495.496	9696.1
495.866	9796.66
496.235	9936.09
496.605	10101.74
496.974	10122.76
497.344	10239.14
497.713	10302.64
498.082	10395.52
498.452	10661.73
498.821	10616.75
499.19	10586.25
499.559	10863.08
499.928	10842.51
500.298	10938.55
500.667	11071.43
501.036	11133.8
501.405	11260.81
501.774	11213.35
502.143	11342.16
502.512	11411.31
502.88	11483.62
503.249	11459.44
503.618	11637.07
503.987	11759.32
504.356	11725.2
504.724	11860.34
505.093	11802.49
505.462	11858.98
505.83	11975.59
506.199	12015.81
506.567	12251.06
506.936	12176.94
507.304	12263.72
507.672	12326.77
508.041	12407.22
508.409	12482.24
508.777	12521.34
509.145	12661.22
509.514	12624.84
509.882	12709.81
510.25	12644.72
510.618	12760.88
510.986	12757.72
511.354	12875.45
511.722	12879.97
512.09	12993.64
512.458	13029.8
512.826	13117.93
513.193	13099.63
513.561	13191.6
513.929	13229.12
514.297	13174.88
514.664	13262.33
515.032	13289.45
515.4	13420.07
515.767	13435.89
516.135	13434.53
516.502	13378.94
516.869	13613.06
517.237	13524.25
517.604	13507.3
517.972	13544.14
518.339	13623.91
518.706	13667.07
519.073	13690.12
519.44	13680.85
519.808	13834.52
520.175	13669.78
520.542	13849.44
520.909	13845.82
521.276	13807.86
521.643	13915.2
522.009	13933.73
522.376	13932.15
522.743	14033.39
523.11	14082.65
523.477	14170.79
523.843	14168.3
524.21	14286.71
524.577	14352.25
524.943	14232.03
525.31	14305.02
525.676	14340.95
526.043	14382.76
526.409	14239.03
526.776	14415.75
527.142	14436.77
527.508	14469.31
527.874	14512.47
528.241	14550.21
528.607	14453.04
528.973	14514.05
529.339	14437.45
529.705	14492.13
530.071	14493.49
530.437	14597.22
530.803	14519.25
531.169	14573.03
531.535	14492.36
531.901	14500.72
532.267	14423.43
532.632	14657.1
532.998	14515.41
533.364	14486.71
533.73	14519.48
534.095	14474.96
534.461	14467.95
534.826	14477.22
535.192	14452.81
535.557	14524.22
535.923	14440.83
536.288	14425.92
536.653	14412.36
537.019	14330.33
537.384	14314.51
537.749	14407.16
538.114	14324.91
538.479	14097.57
538.845	14220.28
539.21	14044.91
539.575	14154.29
539.94	14145.25
540.305	14117.23
540.67	14005.37
541.034	13988.19
541.399	13995.2
541.764	14010.34
542.129	13890.57
542.494	13894.63
542.858	13820.06
543.223	13806.73
543.587	13879.27
543.952	13699.84
544.316	13696.22
544.681	13693.96
545.045	13697.58
545.41	13629.78
545.774	13586.39
546.138	13536.45
546.503	13486.74
546.867	13518.15
547.231	13533.97
547.595	13413.29
547.959	13403.12
548.324	13361.54
548.688	13251.04
549.052	13321.99
549.416	13257.14
549.779	13240.41
550.143	13225.95
550.507	13256.91
550.871	13203.81
551.235	13055.79
551.599	13126.97
551.962	13039.74
552.326	12995.68
552.689	12993.19
553.053	12870.71
553.417	12907.77
553.78	12963.81
554.143	12901.67
554.507	12877.71
554.87	12853.98
555.234	12901.21
555.597	12789.58
555.96	12864.61
556.323	12845.62
556.686	12693.54
557.05	12842.91
557.413	12814.66
557.776	12713.65
558.139	12790.48
558.502	12750.71
558.865	12679.53
559.228	12755.23
559.59	12705.06
559.953	12682.69
560.316	12772.18
560.679	12711.61
561.041	12823.7
561.404	12759.75
561.767	12740.09
562.129	12699.19
562.492	12851.5
562.854	12745.06
563.217	12669.13
563.579	12769.92
563.941	12799.97
564.304	12706.19
564.666	12761.56
565.028	12799.75
565.39	12696.93
565.753	12785.06
566.115	12844.49
566.477	12748.45
566.839	12797.26
567.201	12826.87
567.563	12804.27
567.925	12862.57
568.287	12933.76
568.648	12910.71
569.01	12914.1
569.372	12924.72
569.734	12860.31
570.095	12987.09
570.457	12985.05
570.819	12889.24
571.18	12996.58
571.542	13073.87
571.903	12970.37
572.265	12980.99
572.626	12968.11
572.987	13081.55
573.349	13002.91
573.71	13063.7
574.071	13098.05
574.432	13119.74
574.794	13127.42
575.155	13058.27
575.516	13057.59
575.877	13045.84
576.238	13143.02
576.599	13097.82
576.96	13108.44
577.32	13072.28
577.681	13111.38
578.042	13193.64
578.403	13100.98
578.763	13032.06
579.124	13181.66
579.485	13129.91
579.845	13164.26
580.206	13129.46
580.566	13124.26
580.927	13114.32
581.287	13133.98
581.648	13121.77
582.008	13126.75
582.368	13105.5
582.728	13119.29
583.089	13112.51
583.449	13075.22
583.809	13108.21
584.169	13139.4
584.529	13072.74
584.889	13068.44
585.249	13069.8
585.609	13022.57
585.969	13084.26
586.329	13013.75
586.688	12992.96
587.048	12962.68
587.408	12900.08
587.768	12924.26
588.127	12925.62
588.487	12973.08
588.846	13076.58
589.206	12937.15
589.565	13012.4
589.925	12993.42
590.284	12912.74
590.643	12961.78
591.003	12973.53
591.362	12933.08
591.721	12913.87
592.08	12906.19
592.44	12967.65
592.799	12881.1
593.158	12862.12
593.517	12806.08
593.876	12835.45
594.235	12884.72
594.593	12916.58
594.952	12831.39
595.311	12712.74
595.67	12763.59
596.029	12881.1
596.387	12848.79
596.746	12819.63
597.104	12823.93
597.463	12848.56
597.822	12785.29
598.18	12787.55
598.538	12743.7
598.897	12883.81
599.255	12622.13
599.613	12921.78
599.972	12865.28
600.33	12832.97
600.688	12753.87
601.046	12864.15
601.404	12880.42
601.762	12736.47
602.12	12888.33
602.478	12804.04
602.836	12830.48
603.194	12752.97
603.552	12764.72
603.91	12783.93
604.268	12813.31
604.625	12755.46
604.983	12825.74
605.341	12798.62
605.698	12859.86
606.056	12725.4
606.413	12782.57
606.771	12836.81
607.128	12868.9
607.485	12800.65
607.843	12786.19
608.2	12871.84
608.557	12838.39
608.914	12798.62
609.272	12863.02
609.629	12869.12
609.986	12993.42
610.343	12824.15
610.7	13011.72
611.057	13006.97
611.414	12952.06
611.771	12898.28
612.127	13049.91
612.484	12948.22
612.841	13051.27
613.198	12930.14
613.554	12900.99
613.911	12985.96
614.267	13009.69
614.624	12962.46
614.98	12940.99
615.337	12993.64
615.693	13003.13
616.05	13058.05
616.406	13072.96
616.762	12973.53
617.118	12958.16
617.475	13020.76
617.831	13058.27
618.187	13067.76
618.543	12994.77
618.899	13129.68
619.255	13142.79
619.611	13098.05
619.967	13224.6
620.323	13103.7
620.678	13072.51
621.034	13023.92
621.39	13047.2
621.746	13098.72
622.101	13197.48
622.457	13071.38
622.812	13128.1
623.168	13176.46
623.523	13115.22
623.879	13268.89
624.234	13104.15
624.589	13132.62
624.945	13164.03
625.3	13177.37
625.655	13199.51
626.01	13180.98
626.365	13139.85
626.72	13140.53
627.075	13067.31
627.43	13121.77
627.785	13026.18
628.14	13178.27
628.495	13169.68
628.85	13159.51
629.205	13017.6
629.559	13053.75
629.914	13019.4
630.269	13027.76
630.623	13018.95
630.978	13013.75
631.332	13081.32
631.687	12929.69
632.041	12979.18
632.396	13054.43
632.75	12993.64
633.104	12976.47
633.459	12883.81
633.813	12876.81
634.167	12945.73
634.521	12950.93
634.875	12959.52
635.229	12899.18
635.583	12838.17
635.937	12821.22
636.291	12832.74
636.645	12755.46
636.999	12805.85
637.352	12830.26
637.706	12721.11
638.06	12774.66
638.413	12730.15
638.767	12736.7
639.121	12714.55
639.474	12644.95
639.828	12592.52
640.181	12631.39
640.534	12670.26
640.888	12592.75
641.241	12465.97
641.594	12634.55
641.947	12545.74
642.301	12572.18
642.654	12575.57
643.007	12570.15
643.36	12547.78
643.713	12442.24
644.066	12489.25
644.419	12502.35
644.771	12382.58
645.124	12378.74
645.477	12247.45
645.83	12284.51
646.182	12086.32
646.535	12115.25
646.888	12099.2
647.24	12085.42
647.593	12181.01
647.945	12119.99
648.298	12057.17
648.65	12068.69
649.002	12044.97
649.355	12084.29
649.707	12021.01
650.059	12137.62
650.411	12290.61
650.763	12272.76
651.115	12383.94
651.467	12351.85
651.819	12383.49
652.171	12318.63
652.523	12325.18
652.875	12360.66
653.227	12302.13
653.578	12403.37
653.93	12352.75
654.282	12266.2
654.633	12269.59
654.985	12305.3
655.337	12336.26
655.688	12374.9
656.039	12461.45
656.391	12329.93
656.742	12374
657.094	12333.32
657.445	12395.92
657.796	12368.57
658.147	12371.06
658.498	12280.44
658.849	12434.11
659.2	12374.67
659.551	12367.67
659.902	12382.36
660.253	12343.71
660.604	12330.83
660.955	12294.22
661.306	12398.85
661.656	12410.83
662.007	12394.11
662.358	12457.16
662.708	12401.57
663.059	12399.76
663.409	12287.67
663.76	12467.78
664.11	12352.3
664.461	12432.75
664.811	12374.22
665.161	12341
665.511	12386.2
665.862	12479.08
666.212	12526.08
666.562	12468.91
666.912	12421
667.262	12418.29
667.612	12499.42
667.962	12447.44
668.312	12441.11
668.662	12478.85
669.011	12508.68
669.361	12398.85
669.711	12441.34
670.06	12432.75
670.41	12373.32
670.76	12337.61
671.109	12344.62
671.459	12366.09
671.808	12352.75
672.157	12323.83
672.507	12315.69
672.856	12315.24
673.205	12245.19
673.554	12300.78
673.904	12239.99
674.253	12322.92
674.602	12305.07
674.951	12174.91
675.3	12023.5
675.649	12228.24
675.998	12277.95
676.346	12202.02
676.695	12209.71
677.044	12217.84
677.393	12187.33
677.741	12218.97
678.09	12192.08
678.438	12099.43
678.787	12164.74
679.135	12126.32
679.484	12059.2
679.832	12093.78
680.181	12078.19
680.529	12067.56
680.877	11947.79
681.225	11992.54
681.573	11983.27
681.922	11961.8
682.27	11976.04
682.618	11880
682.966	11939.43
683.314	11850.17
683.661	11835.25
684.009	11765.65
684.357	11767.01
684.705	11725.88
685.053	11829.15
685.4	11730.62
685.748	11649.04
686.095	11553.91
686.443	11590.74
686.79	11590.97
687.138	11637.74
687.485	11606.56
687.832	11555.26
688.18	11526.79
688.527	11461.48
688.874	11501.03
689.221	11476.62
689.568	11378.77
689.915	11416.51
690.262	11366.34
690.609	11342.84
690.956	11327.47
691.303	11265.33
691.65	11218.09
691.997	11173.58
692.344	11132.9
692.69	11163.86
693.037	11079.34
693.383	11005.45
693.73	11018.55
694.077	10953.7
694.423	10960.93
694.769	10866.92
695.116	10870.31
695.462	10851.32
695.808	10772.91
696.155	10834.15
696.501	10785.34
696.847	10741.95
697.193	10708.5
697.539	10666.02
697.885	10569.75
698.231	10538.34
698.577	10493.82
698.923	10474.61
699.269	10416.08
699.614	10352.13
699.96	10339.7
700.306	10312.13
700.651	10264
700.997	10203.66
701.342	10228.74
701.688	10203.66
702.033	10118.46
702.379	10110.78
702.724	10118.46
703.069	10114.85
703.415	9978.58
703.76	9973.61
704.105	9953.27
704.45	9933.16
704.795	9836.66
705.14	9798.7
705.485	9759.38
705.83	9735.65
706.175	9808.64
706.52	9713.5
706.865	9690.45
707.209	9687.74
707.554	9647.97
707.899	9688.87
708.243	9615.65
708.588	9579.95
708.932	9573.84
709.277	9470.8
709.621	9497.91
709.966	9417.69
710.31	9524.13
710.654	9349.9
710.998	9395.77
711.342	9388.99
711.687	9319.84
712.031	9350.12
712.375	9274.42
712.719	9312.38
713.063	9208.66
713.407	9272.84
713.75	9231.48
714.094	9235.32
714.438	9166.4
714.782	9207.3
715.125	9109
715.469	9154.87
715.812	9110.58
716.156	9119.17
716.499	9031.49
716.843	9068.09
717.186	9043.24
717.53	9043.69
717.873	9066.96
718.216	9051.82
718.559	9022.45
718.902	8936.35
719.246	8959.17
719.589	8911.49
719.932	8943.8
720.275	8844.82
720.617	8885.27
720.96	8855.67
721.303	8901.55
721.646	8868.55
721.989	8816.8
722.331	8827.65
722.674	8811.83
723.016	8852.96
723.359	8810.7
723.701	8777.48
724.044	8737.03
724.386	8760.08
724.729	8754.66
725.071	8794.43
725.413	8769.35
725.755	8775
726.097	8718.05
726.439	8673.3
726.782	8664.72
727.124	8740.42
727.465	8607.99
727.807	8674.21
728.149	8611.38
728.491	8607.32
728.833	8702.45
729.175	8699.97
729.516	8599.18
729.858	8655.9
730.199	8594.89
730.541	8610.93
730.882	8673.08
731.224	8656.58
731.565	8580.42
731.906	8660.65
732.248	8587.2
732.589	8579.29
732.93	8578.62
733.271	8549.92
733.612	8610.93
733.953	8555.11
734.294	8574.32
734.635	8585.85
734.976	8598.05
735.317	8564.38
735.658	8550.59
735.999	8614.32
736.339	8604.38
736.68	8591.05
737.021	8560.31
737.361	8568.9
737.702	8625.17
738.042	8602.8
738.383	8604.6
738.723	8616.13
739.063	8618.39
739.404	8678.95
739.744	8585.4
740.084	8632.85
740.424	8723.7
740.764	8739.06
741.104	8731.61
741.444	8706.3
741.784	8746.52
742.124	8810.02
742.464	8727.99
742.804	8759.63
743.143	8753.75
743.483	8842.79
743.823	8786.07
744.162	8829.46
744.502	8876.01
744.841	8869.23
745.181	8941.54
745.52	8956.23
745.86	8936.35
746.199	9049.34
746.538	9107.42
746.877	9112.39
747.216	9133.86
747.556	9211.14
747.895	9286.62
748.234	9288.43
748.573	9315.32
748.911	9396.22
749.25	9473.96
749.589	9474.86
749.928	9548.76
750.267	9686.61
750.605	9769.55
750.944	9759.83
751.283	9872.14
751.621	9983.78
751.96	10060.61
752.298	10097.9
752.636	10191.46
752.975	10274.84
753.313	10386.48
753.651	10516.64
753.989	10610.65
754.327	10665.34
754.666	10783.98
755.004	10972.23
755.342	11103.3
755.679	11231.43
756.017	11377.64
756.355	11512.78
756.693	11520.46
757.031	11769.72
757.368	11855.37
757.706	12026.21
