Data from hue_290_FLMS001491_00072.txt Node
Date: Tue Feb 07 15:53:12 GMT 2017
User: dcchb
Spectrometer: FLMS00149
Trigger mode: 0
Integration Time (sec): 2.000000E-2
Scans to average: 10
Electric dark correction enabled: true
Nonlinearity correction enabled: false
Boxcar width: 0
XAxis mode: Wavelengths
Number of Pixels in Spectrum: 2048
>>>>>Begin Spectral Data<<<<<
341.393	-18.25
341.776	-18.25
342.16	-18.25
342.543	-76.1
342.927	-77.23
343.31	-70.45
343.693	-54.63
344.077	-73.39
344.46	-46.27
344.843	-55.08
345.226	-40.85
345.61	-23.67
345.993	-0.85
346.376	-13.73
346.759	3.22
347.142	20.17
347.525	38.7
347.908	59.72
348.291	72.37
348.674	63.11
349.057	121.64
349.44	115.76
349.823	157.11
350.206	148.3
350.588	183.1
350.971	206.38
351.354	218.58
351.737	232.37
352.119	243.21
352.502	270.33
352.884	266.72
353.267	280.5
353.65	271.46
354.032	272.37
354.414	285.92
354.797	307.17
355.179	316.88
355.562	317.79
355.944	315.75
356.326	325.25
356.709	317.79
357.091	314.85
357.473	330.22
357.855	347.84
358.238	336.54
358.62	343.78
359.002	313.95
359.384	337.9
359.766	334.06
360.148	334.74
360.53	336.77
360.912	339.48
361.294	330.22
361.676	327.73
362.057	339.48
362.439	324.12
362.821	313.04
363.203	297.68
363.584	311.91
363.966	311.46
364.348	308.07
364.729	321.4
365.111	307.62
365.493	289.54
365.874	315.75
366.256	321.86
366.637	318.92
367.019	304
367.4	298.58
367.781	296.77
368.163	321.4
368.544	318.47
368.925	314.17
369.306	310.33
369.688	299.94
370.069	302.65
370.45	328.41
370.831	319.14
371.212	294.74
371.593	317.34
371.974	315.3
372.355	308.3
372.736	317.56
373.117	319.82
373.498	294.29
373.879	290.44
374.26	306.04
374.641	300.16
375.021	320.27
375.402	313.04
375.783	330.44
376.163	314.4
376.544	302.42
376.925	318.47
377.305	293.38
377.686	327.73
378.066	330.22
378.447	313.27
378.827	312.59
379.208	311.46
379.588	340.84
379.968	320.5
380.349	343.55
380.729	318.92
381.109	335.87
381.489	333.38
381.87	325.7
382.25	345.13
382.63	338.58
383.01	329.31
383.39	327.51
383.77	327.73
384.15	343.78
384.53	332.93
384.91	344.91
385.29	352.14
385.67	348.97
386.049	336.09
386.429	343.32
386.809	338.8
387.189	350.78
387.568	344.45
387.948	343.78
388.328	362.98
388.707	354.17
389.087	347.17
389.466	350.1
389.846	377.45
390.225	370.44
390.605	379.71
390.984	372.48
391.363	376.77
391.743	372.25
392.122	374.51
392.501	360.5
392.881	366.83
393.26	368.63
393.639	356.21
394.018	370.22
394.397	376.54
394.776	377.9
395.155	382.87
395.534	398.24
395.913	381.06
396.292	419.25
396.671	375.87
397.05	396.88
397.429	381.52
397.808	390.1
398.186	394.17
398.565	382.87
398.944	410.89
399.323	416.09
399.701	407.5
400.08	412.7
400.458	406.37
400.837	428.29
401.215	423.77
401.594	436.43
401.972	434.85
402.351	434.4
402.729	405.47
403.107	431.46
403.486	429.65
403.864	443.21
404.242	431.46
404.62	457.9
404.999	427.62
405.377	458.12
405.755	431.68
406.133	447.95
406.511	456.77
406.889	454.06
407.267	515.52
407.645	468.29
408.023	481.4
408.401	492.47
408.779	504.9
409.156	517.78
409.534	519.82
409.912	515.3
410.29	504
410.667	535.18
411.045	523.43
411.422	535.18
411.8	526.14
412.178	543.77
412.555	566.6
412.933	544.67
413.31	569.99
413.687	564.79
414.065	567.95
414.442	576.09
414.819	614.5
415.197	584
415.574	620.61
415.951	602.53
416.328	624.67
416.705	628.97
417.082	632.58
417.46	652.24
417.837	635.52
418.214	647.05
418.591	643.2
418.967	677.33
419.344	705.35
419.721	677.33
420.098	705.35
420.475	708.51
420.852	724.11
421.228	724.78
421.605	718
421.982	729.75
422.358	730.43
422.735	772.47
423.111	773.6
423.488	804.1
423.864	761.17
424.241	771.56
424.617	807.04
424.994	787.38
425.37	801.84
425.746	814.72
426.123	826.25
426.499	844.1
426.875	861.73
427.251	849.75
427.627	871.67
428.003	879.13
428.379	875.74
428.756	906.47
429.132	931.11
429.507	912.35
429.883	929.07
430.259	918.45
430.635	947.83
431.011	973.59
431.387	1005.91
431.763	1003.19
432.138	999.13
432.514	1016.07
432.89	1040.93
433.265	1050.2
433.641	1046.13
434.016	1080.03
434.392	1090.42
434.767	1106.47
435.143	1111.21
435.518	1113.47
435.894	1117.99
436.269	1124.55
436.644	1182.85
437.02	1197.54
437.395	1174.04
437.77	1213.36
438.145	1212.91
438.52	1205.22
438.895	1238.89
439.271	1238.89
439.646	1257.88
440.021	1269.63
440.395	1261.94
440.77	1275.5
441.145	1322.06
441.52	1318.21
441.895	1345.56
442.27	1315.28
442.645	1311.43
443.019	1331.09
443.394	1337.2
443.769	1345.78
444.143	1360.47
444.518	1364.99
444.892	1366.35
445.267	1365.67
445.641	1373.58
446.016	1387.59
446.39	1386.01
446.764	1400.02
447.139	1421.04
447.513	1448.15
447.887	1421.04
448.262	1433.01
448.636	1444.76
449.01	1470.07
449.384	1429.85
449.758	1450.87
450.132	1468.27
450.506	1475.5
450.88	1478.21
451.254	1495.84
451.628	1521.82
452.002	1501.71
452.376	1521.15
452.75	1534.48
453.123	1528.15
453.497	1574.7
453.871	1572.67
454.244	1577.19
454.618	1616.06
454.992	1600.92
455.365	1621.93
455.739	1620.8
456.112	1658.32
456.486	1646.57
456.859	1664.65
457.232	1705.77
457.606	1683.85
457.979	1692.22
458.352	1730.41
458.725	1764.76
459.099	1750.52
459.472	1767.47
459.845	1821.48
460.218	1802.27
460.591	1788.71
460.964	1805.88
461.337	1847.69
461.71	1875.71
462.083	1889.27
462.456	1900.12
462.829	1888.82
463.201	1910.51
463.574	1908.48
463.947	1939.89
464.32	1976.73
464.692	1975.15
465.065	2003.39
465.438	2060.34
465.81	2042.49
466.183	2043.62
466.555	2104.86
466.928	2108.7
467.3	2098.31
467.672	2112.32
468.045	2172.2
468.417	2158.64
468.789	2162.94
469.161	2201.58
469.534	2192.09
469.906	2242.71
470.278	2265.76
470.65	2294.91
471.022	2312.54
471.394	2362.71
471.766	2339.88
472.138	2384.85
472.51	2430.28
472.882	2470.5
473.253	2499.88
473.625	2481.57
473.997	2544.85
474.369	2548.01
474.74	2553.66
475.112	2601.12
475.484	2654.22
475.855	2674.79
476.227	2646.31
476.598	2705.07
476.97	2724.73
477.341	2775.35
477.713	2820.1
478.084	2827.1
478.455	2875.69
478.827	2872.75
479.198	2981.22
479.569	2908.91
479.94	2992.07
480.311	3023.03
480.682	3081.56
481.053	3145.96
481.424	3192.29
481.795	3181.89
482.166	3233.87
482.537	3254.66
482.908	3298.95
483.279	3352.74
483.65	3348.44
484.021	3423.92
484.391	3467.31
484.762	3459.85
485.133	3507.76
485.503	3534.43
485.874	3575.1
486.244	3617.59
486.615	3645.38
486.985	3699.85
487.356	3755.21
487.726	3761.31
488.097	3811.71
488.467	3780.75
488.837	3855.1
489.207	3907.75
489.578	3928.99
489.948	3936.9
490.318	3967.41
490.688	4025.49
491.058	4088.76
491.428	4144.81
491.798	4124.69
492.168	4230.91
492.538	4162.66
492.908	4274.29
493.278	4256.67
493.648	4349.32
494.017	4350
494.387	4375.31
494.757	4403.1
495.126	4431.8
495.496	4440.62
495.866	4489.43
496.235	4539.6
496.605	4554.96
496.974	4541.41
497.344	4577.56
497.713	4594.51
498.082	4602.65
498.452	4690.33
498.821	4682.87
499.19	4687.62
499.559	4756.54
499.928	4715.86
500.298	4761.06
500.667	4759.25
501.036	4771.68
501.405	4783.89
501.774	4846.26
502.143	4832.47
502.512	4893.94
502.88	4907.27
503.249	4906.37
503.618	4875.41
503.987	4913.15
504.356	4993.82
504.724	4943.88
505.093	4949.3
505.462	4987.72
505.83	5060.71
506.199	5026.37
506.567	5103.2
506.936	5062.07
507.304	5119.7
507.672	5147.94
508.041	5144.55
508.409	5184.1
508.777	5187.49
509.145	5232.91
509.514	5207.6
509.882	5274.95
510.25	5248.28
510.618	5253.25
510.986	5309.52
511.354	5296.64
511.722	5327.15
512.09	5322.63
512.458	5366.24
512.826	5418.67
513.193	5402.63
513.561	5445.34
513.929	5496.86
514.297	5504.54
514.664	5460.7
515.032	5480.82
515.4	5557.42
515.767	5541.38
516.135	5531.66
516.502	5495.96
516.869	5589.97
517.237	5626.12
517.604	5607.37
517.972	5639.23
518.339	5662.51
518.706	5666.57
519.073	5631.09
519.44	5692.79
519.808	5737.31
520.175	5756.06
520.542	5766.01
520.909	5800.13
521.276	5755.61
521.643	5808.94
522.009	5799
522.376	5891.43
522.743	5891.2
523.11	5902.73
523.477	6001.93
523.843	5989.05
524.21	6003.97
524.577	6060.24
524.943	6077.18
525.31	6029.95
525.676	6106.11
526.043	6141.59
526.409	6144.98
526.776	6189.5
527.142	6166.9
527.508	6212.1
527.874	6276.5
528.241	6296.84
528.607	6343.17
528.973	6342.71
529.339	6279.89
529.705	6359.89
530.071	6440.11
530.437	6442.37
530.803	6484.18
531.169	6544.52
531.535	6492.09
531.901	6488.47
532.267	6492.77
532.632	6609.83
532.998	6589.94
533.364	6655.25
533.73	6602.37
534.095	6694.12
534.461	6652.08
534.826	6698.64
535.192	6716.04
535.557	6736.15
535.923	6802.59
536.288	6761.46
536.653	6791.06
537.019	6813.44
537.384	6835.13
537.749	6807.79
538.114	6803.04
538.479	6886.66
538.845	6884.17
539.21	6930.27
539.575	6932.08
539.94	6993.77
540.305	6991.06
540.67	6919.65
541.034	7020.44
541.399	7085.07
541.764	7025.86
542.129	7049.36
542.494	7058.63
542.858	7061.34
543.223	7135.24
543.587	7226.31
543.952	7169.81
544.316	7198.06
544.681	7216.59
545.045	7223.6
545.41	7268.34
545.774	7247.55
546.138	7268.79
546.503	7284.61
546.867	7291.84
547.231	7382.91
547.595	7330.94
547.959	7378.85
548.324	7442.57
548.688	7393.76
549.052	7453.65
549.416	7446.41
549.779	7426.98
550.143	7493.42
550.507	7523.02
550.871	7507.2
551.235	7471.72
551.599	7615
551.962	7535
552.326	7589.69
552.689	7700.19
553.053	7554.89
553.417	7623.81
553.78	7664.49
554.143	7617.26
554.507	7771.83
554.87	7755.56
555.234	7776.58
555.597	7768.44
555.96	7754.88
556.323	7815.22
556.686	7813.86
557.05	7798.27
557.413	7823.13
557.776	7892.28
558.139	7915.55
558.502	7847.53
558.865	7833.52
559.228	7971.6
559.59	8010.69
559.953	7964.14
560.316	8040.3
560.679	7991.71
561.041	8101.76
561.404	8099.73
561.767	8126.62
562.129	8161.88
562.492	8160.75
562.854	8174.76
563.217	8160.75
563.579	8196.9
563.941	8225.38
564.304	8212.72
564.666	8312.61
565.028	8389.67
565.39	8282.32
565.753	8295.43
566.115	8405.71
566.477	8358.93
566.839	8436.67
567.201	8467.86
567.563	8479.61
567.925	8515.76
568.287	8532.04
568.648	8545.14
569.01	8634.41
569.372	8705.36
569.734	8662.43
570.095	8682.54
570.457	8802.76
570.819	8723.89
571.18	8817
571.542	8823.1
571.903	8823.1
572.265	8800.96
572.626	8929.77
572.987	8920.5
573.349	8948.75
573.71	8996.2
574.071	9042.53
574.432	9122.08
574.794	9189.87
575.155	9171.79
575.516	9148.52
575.877	9234.84
576.238	9305.35
576.599	9342.41
576.96	9406.36
577.32	9408.62
577.681	9470.99
578.042	9576.3
578.403	9567.71
578.763	9660.59
579.124	9711.89
579.485	9804.77
579.845	9950.08
580.206	9943.75
580.566	10009.51
580.927	10107.81
581.287	10123.41
581.648	10229.62
582.008	10406.79
582.368	10315.72
582.728	10495.15
583.089	10545.99
583.449	10649.27
583.809	10695.37
584.169	10809.26
584.529	10959.54
584.889	11089.93
585.249	11119.76
585.609	11220.1
585.969	11330.15
586.329	11468
586.688	11576.7
587.048	11608.56
587.408	11821.21
587.768	11958.16
588.127	11985.96
588.487	12167.65
588.846	12396.79
589.206	12345.04
589.565	12606.05
589.925	12727.86
590.284	12851.24
590.643	12927.17
591.003	13114.97
591.362	13262.31
591.721	13369.42
592.08	13474.5
592.44	13772.35
592.799	13806.47
593.158	13887.83
593.517	13985.68
593.876	14233.81
594.235	14329.17
594.593	14501.14
594.952	14602.38
595.311	14659.56
595.67	14852.77
596.029	15011.41
596.387	15223.16
596.746	15361.01
597.104	15361.01
597.463	15456.6
597.822	15683.26
598.18	15729.13
598.538	15881.67
598.897	16060.2
599.255	15959.41
599.613	16397.82
599.972	16343.13
600.33	16553.29
600.688	16578.83
601.046	16699.73
601.404	16862.21
601.762	16963.68
602.12	17133.62
602.478	17205.48
602.836	17430.11
603.194	17380.16
603.552	17514.4
603.91	17485.47
604.268	17707.84
604.625	17760.04
604.983	17878
605.341	17918.23
605.698	18136.3
606.056	18180.82
606.413	18162.74
606.771	18311.21
607.128	18534.71
607.485	18451.32
607.843	18518.21
608.2	18727.47
608.557	18837.08
608.914	18834.14
609.272	18977.18
609.629	19106.45
609.986	19240
610.343	19176.95
610.7	19394.57
611.057	19370.85
611.414	19402.03
611.771	19440.45
612.127	19677.96
612.484	19602.25
612.841	19811.06
613.198	19711.63
613.554	19902.36
613.911	19986.65
614.267	19991.17
614.624	20048.57
614.98	20110.49
615.337	20304.61
615.693	20315.23
616.05	20316.36
616.406	20300.09
616.762	20354.55
617.118	20471.38
617.475	20373.53
617.831	20609.01
618.187	20581.89
618.543	20668.44
618.899	20778.27
619.255	20771.71
619.611	20761.54
619.967	20818.04
620.323	20949.79
620.678	20973.74
621.034	21008.77
621.39	21048.32
621.746	20964.93
622.101	21284.02
622.457	21182.78
622.812	21175.77
623.168	21179.16
623.523	21251.25
623.879	21315.65
624.234	21122.44
624.589	21323.11
624.945	21367.4
625.3	21415.99
625.655	21399.95
626.01	21361.75
626.365	21381.19
626.72	21357.69
627.075	21309.1
627.43	21345.71
627.785	21436.55
628.14	21469.1
628.495	21564.69
628.85	21378.7
629.205	21449.66
629.559	21442.2
629.914	21505.71
630.269	21476.55
630.623	21407.4
630.978	21384.58
631.332	21545.7
631.687	21512.71
632.041	21378.48
632.396	21545.03
632.75	21382.09
633.104	21533.5
633.459	21459.61
633.813	21460.74
634.167	21390
634.521	21241.08
634.875	21449.44
635.229	21382.09
635.583	21294.41
635.937	21334.86
636.291	21267.75
636.645	21355.65
636.999	21297.8
637.352	21298.71
637.706	21239.95
638.06	21204.47
638.413	21265.71
638.767	21266.16
639.121	21267.52
639.474	21081.76
639.828	21182.32
640.181	21187.3
640.534	21217.8
640.888	21146.85
641.241	21020.29
641.594	21139.61
641.947	21115.43
642.301	21051.71
642.654	21109.33
643.007	21095.1
643.36	21139.61
643.713	20958.15
644.066	21106.62
644.419	21044.47
644.771	20898.72
645.124	20814.88
645.477	20722.9
645.83	20601.55
646.182	20464.83
646.535	20455.34
646.888	20597.48
647.24	20402.01
647.593	20556.35
647.945	20468.22
648.298	20379.86
648.65	20310.93
649.002	20391.38
649.355	20353.19
649.707	20429.8
650.059	20557.26
650.411	20745.95
650.763	20782.11
651.115	21067.53
651.467	20899.39
651.819	21037.24
652.171	20844.71
652.523	20897.13
652.875	20763.35
653.227	20808.1
653.578	20994.76
653.93	20973.97
654.282	20863.91
654.633	20866.63
654.985	20918.15
655.337	20860.07
655.688	20883.35
656.039	21001.76
656.391	20764.03
656.742	20778.49
657.094	20871.6
657.445	20985.04
657.796	20872.5
658.147	20877.93
658.498	20913.86
658.849	20984.59
659.2	20956.79
659.551	20833.86
659.902	21021.65
660.253	20931.71
660.604	20884.71
660.955	20823.69
661.306	20856.23
661.656	20938.94
662.007	20907.53
662.358	21011.03
662.708	20992.05
663.059	21011.48
663.409	20878.38
663.76	21093.06
664.11	20922.44
664.461	21065.49
664.811	21086.28
665.161	20979.17
665.511	21039.28
665.862	20950.24
666.212	21024.14
666.562	21029.79
666.912	21066.17
667.262	21014.42
667.612	20931.71
667.962	21021.88
668.312	20931.94
668.662	21043.8
669.011	20951.6
669.361	20909.56
669.711	20996.11
670.06	20996.11
670.41	20872.73
670.76	20905.04
671.109	20854.2
671.459	20923.8
671.808	20797.93
672.157	20930.35
672.507	20792.5
672.856	20733.97
673.205	20933.97
673.554	20923.12
673.904	20847.87
674.253	20902.33
674.602	20832.05
674.951	20575.79
675.3	20418.28
675.649	20749.57
675.998	20758.83
676.346	20753.64
676.695	20753.86
677.044	20698.27
677.393	20738.49
677.741	20837.02
678.09	20540.53
678.438	20592.06
678.787	20654.2
679.135	20656.01
679.484	20514.55
679.832	20571.72
680.181	20436.58
680.529	20615.11
680.877	20462.57
681.225	20421.44
681.573	20505.96
681.922	20357.26
682.27	20362.91
682.618	20298.05
682.966	20257.38
683.314	20243.59
683.661	20136.7
684.009	20059.42
684.357	20069.59
684.705	19913.88
685.053	20047.44
685.4	19991.17
685.748	19920.66
686.095	19959.98
686.443	19701.23
686.79	19839.99
687.138	19765.86
687.485	19760.44
687.832	19741.01
688.18	19704.4
688.527	19612.65
688.874	19515.93
689.221	19616.26
689.568	19538.3
689.915	19378.08
690.262	19328.14
690.609	19387.8
690.956	19204.3
691.303	19230.51
691.65	19153.23
691.997	19186.67
692.344	19058.31
692.69	19010.18
693.037	18998.43
693.383	18860.8
693.73	19003.85
694.077	18797.3
694.423	18805.89
694.769	18634.14
695.116	18545.33
695.462	18572.9
695.808	18548.5
696.155	18646.57
696.501	18478.44
696.847	18448.16
697.193	18235.06
697.539	18398.89
697.885	18159.58
698.231	18167.04
698.577	18113.03
698.923	18134.49
699.269	17918
699.614	17871.45
699.96	17872.81
700.306	17875.29
700.651	17765.01
700.997	17731.34
701.342	17616.54
701.688	17614.73
702.033	17557.56
702.379	17489.54
702.724	17405.25
703.069	17492.93
703.415	17208.64
703.76	17197.57
704.105	17212.94
704.45	17153.28
704.795	17040.51
705.14	16969.78
705.485	16933.85
705.83	16878.71
706.175	16936.11
706.52	16909.89
706.865	16865.38
707.209	16725.94
707.554	16743.8
707.899	16747.64
708.243	16661.31
708.588	16569.34
708.932	16507.19
709.277	16550.58
709.621	16558.27
709.966	16358.72
710.31	16367.99
710.654	16300.42
710.998	16272.17
711.342	16217.48
711.687	16205.73
712.031	16185.85
712.375	16001.9
712.719	16048.67
713.063	16118.95
713.407	16083.93
713.75	15920.99
714.094	15951.95
714.438	15933.65
714.782	15917.15
715.125	15845.52
715.469	15874.44
715.812	15712.86
716.156	15613.88
716.499	15722.81
716.843	15736.37
717.186	15595.13
717.53	15737.95
717.873	15636.93
718.216	15617.72
718.559	15561.23
718.902	15509.48
719.246	15500.21
719.589	15462.93
719.932	15459.31
720.275	15353.33
720.617	15306.55
720.96	15378.64
721.303	15393.1
721.646	15326.66
721.989	15281.01
722.331	15300.9
722.674	15323.5
723.016	15298.86
723.359	15180
723.701	15265.64
724.044	15176.61
724.386	15249.6
724.729	15238.53
725.071	15130.51
725.413	15151.97
725.755	15115.82
726.097	15106.78
726.439	15024.52
726.782	15003.73
727.124	15139.55
727.465	15014.58
727.807	14986.56
728.149	14954.92
728.491	15002.6
728.833	15089.15
729.175	14966.44
729.516	15005.99
729.858	14934.13
730.199	14952.21
730.541	14878.31
730.882	14829.05
731.224	14869.04
731.565	14862.04
731.906	14870.4
732.248	14825.66
732.589	14759.22
732.93	14788.59
733.271	14844.41
733.612	14868.37
733.953	14765.54
734.294	14756.96
734.635	14850.29
734.976	14851.42
735.317	14717.64
735.658	14798.76
735.999	14776.17
736.339	14767.35
736.68	14830.85
737.021	14799.67
737.361	14717.18
737.702	14801.93
738.042	14814.13
738.383	14761.25
738.723	14826.56
739.063	14744.75
739.404	14799.67
739.744	14854.58
740.084	14750.4
740.424	14788.14
740.764	14838.08
741.104	14853.45
741.444	14851.87
741.784	14820.46
742.124	14949.04
742.464	14875.82
742.804	14830.63
743.143	14894.81
743.483	14882.38
743.823	14908.37
744.162	14915.14
744.502	14989.27
744.841	15003.28
745.181	15051.64
745.52	15109.94
745.86	15161.24
746.199	15127.79
746.538	15188.81
746.877	15204.4
747.216	15232.88
747.556	15277.85
747.895	15298.19
748.234	15368.69
748.573	15434
748.911	15442.14
749.25	15572.75
749.589	15509.71
749.928	15635.13
750.267	15732.52
750.605	15733.65
750.944	15802.13
751.283	15912.18
751.621	15975
751.96	15882.12
752.298	16030.14
752.636	16234.43
752.975	16147.65
753.313	16244.15
753.651	16442.56
753.989	16493.63
754.327	16510.36
754.666	16592.61
755.004	16752.38
755.342	16835.32
755.679	16974.07
756.017	16991.25
756.355	17065.82
756.693	17192.37
757.031	17378.58
757.368	17334.06
757.706	17493.38
758.044	17625.81
758.381	17753.71
758.719	17821.96
759.056	17945.12
759.394	18002.97
759.731	18158.9
760.068	18030.09
