Data from hue_320_FLMS001491_29.txt Node
Date: Mon Feb 06 15:46:59 GMT 2017
User: dcchb
Spectrometer: FLMS00149
Trigger mode: 0
Integration Time (sec): 2.000000E-2
Scans to average: 10
Electric dark correction enabled: true
Nonlinearity correction enabled: false
Boxcar width: 0
XAxis mode: Wavelengths
Number of Pixels in Spectrum: 2048
>>>>>Begin Spectral Data<<<<<
341.393	-26.96
341.776	-26.96
342.16	-26.96
342.543	-67.19
342.927	-69
343.31	-67.41
343.693	-71.48
344.077	-69.67
344.46	-50.92
344.843	-61.76
345.226	-36
345.61	-63.12
345.993	-14.53
346.376	-16.12
346.759	20.49
347.142	11.91
347.525	38.35
347.908	62.53
348.291	92.13
348.674	104.56
349.057	121.06
349.44	124.9
349.823	143.88
350.206	163.99
350.588	206.7
350.971	190.66
351.354	214.39
351.737	221.39
352.119	238.34
352.502	253.71
352.884	265.01
353.267	276.76
353.65	284.89
354.032	280.6
354.414	308.85
354.797	299.13
355.179	317.21
355.562	331.9
355.944	338.23
356.326	341.62
356.709	321.05
357.091	340.94
357.473	344.55
357.855	334.61
358.238	337.55
358.62	362.86
359.002	335.74
359.384	332.8
359.766	337.77
360.148	318.34
360.53	329.64
360.912	328.51
361.294	335.97
361.676	333.48
362.057	317.66
362.439	327.38
362.821	354.72
363.203	324.21
363.584	310.43
363.966	321.28
364.348	322.41
364.729	313.14
365.111	304.55
365.493	314.95
365.874	298
366.256	315.85
366.637	273.59
367.019	304.78
367.4	294.84
367.781	304.78
368.163	276.76
368.544	298
368.925	318.57
369.306	306.59
369.688	304.1
370.069	297.1
370.45	290.54
370.831	306.81
371.212	292.8
371.593	327.83
371.974	301.62
372.355	305.91
372.736	309.07
373.117	307.27
373.498	301.39
373.879	313.37
374.26	329.64
374.641	319.02
375.021	312.46
375.402	325.8
375.783	290.77
376.163	308.17
376.544	295.51
376.925	306.81
377.305	328.73
377.686	325.34
378.066	301.16
378.447	307.49
378.827	319.69
379.208	342.52
379.588	326.93
379.968	308.85
380.349	354.95
380.729	328.06
381.109	340.03
381.489	301.62
381.87	318.57
382.25	336.87
382.63	322.41
383.01	334.84
383.39	329.86
383.77	353.14
384.15	349.07
384.53	337.32
384.91	329.41
385.29	329.64
385.67	339.13
386.049	347.04
386.429	340.94
386.809	343.42
387.189	336.87
387.568	328.28
387.948	341.16
388.328	332.58
388.707	324.21
389.087	337.77
389.466	356.98
389.846	364.21
390.225	355.17
390.605	358.79
390.984	338.9
391.363	342.97
391.743	370.77
392.122	353.82
392.501	364.44
392.881	354.04
393.26	338.68
393.639	361.5
394.018	370.54
394.397	352.46
394.776	353.37
395.155	349.07
395.534	361.28
395.913	394.04
396.292	377.77
396.671	385.23
397.05	363.31
397.429	362.63
397.808	370.99
398.186	372.12
398.565	387.04
398.944	373.7
399.323	395.85
399.701	401.27
400.08	405.12
400.458	389.07
400.837	384.33
401.215	389.98
401.594	392.01
401.972	407.83
402.351	406.47
402.729	404.66
403.107	399.92
403.486	406.92
403.864	411.9
404.242	426.58
404.62	401.05
404.999	415.29
405.377	415.74
405.755	406.47
406.133	406.02
406.511	414.61
406.889	441.05
407.267	445.57
407.645	426.36
408.023	427.71
408.401	429.52
408.779	441.05
409.156	426.81
409.534	462.06
409.912	434.95
410.29	475.4
410.667	483.31
411.045	472.69
411.422	488.73
411.8	479.46
412.178	492.12
412.555	491.67
412.933	493.48
413.31	505.45
413.687	512.01
414.065	516.07
414.442	523.98
414.819	500.48
415.197	572.34
415.574	556.07
415.951	542.29
416.328	551.55
416.705	533.93
417.082	553.81
417.46	569.41
417.837	563.53
418.214	575.06
418.591	571.89
418.967	563.53
419.344	590.87
419.721	585.9
420.098	603.53
420.475	615.96
420.852	618.9
421.228	620.03
421.605	622.96
421.982	621.83
422.358	632.23
422.735	651.66
423.111	636.97
423.488	657.31
423.864	658.9
424.241	667.26
424.617	673.81
424.994	690.08
425.37	684.43
425.746	684.88
426.123	681.72
426.499	705.45
426.875	723.75
427.251	724.88
427.627	722.62
428.003	742.06
428.379	728.72
428.756	750.42
429.132	755.62
429.507	754.49
429.883	782.51
430.259	771.66
430.635	770.53
431.011	791.55
431.387	811.89
431.763	808.72
432.138	820.25
432.514	807.14
432.89	842.17
433.265	838.78
433.641	843.75
434.016	874.26
434.392	874.71
434.767	910.41
435.143	880.81
435.518	916.74
435.894	909.28
436.269	920.81
436.644	932.11
437.02	921.71
437.395	912
437.77	948.15
438.145	954.93
438.52	972.79
438.895	970.07
439.271	985.67
439.646	994.71
440.021	1000.36
440.395	996.74
440.77	987.7
441.145	1010.98
441.52	1019.11
441.895	1020.02
442.27	1014.14
442.645	1060.92
443.019	1034.25
443.394	1047.81
443.769	1048.49
444.143	1023.41
444.518	1063.18
444.892	1053.01
445.267	1054.14
445.641	1057.3
446.016	1061.82
446.39	1056.4
446.764	1053.69
447.139	1077.64
447.513	1091.88
447.887	1080.35
448.262	1087.36
448.636	1094.36
449.01	1115.15
449.384	1103.86
449.758	1102.05
450.132	1124.19
450.506	1092.78
450.88	1109.73
451.254	1107.47
451.628	1149.05
452.002	1146.79
452.376	1155.61
452.75	1168.71
453.123	1166
453.497	1203.97
453.871	1150.63
454.244	1182.05
454.618	1188.6
454.992	1200.8
455.365	1201.25
455.739	1222.72
456.112	1217.98
456.486	1224.08
456.859	1261.59
457.232	1255.49
457.606	1280.57
457.979	1272.21
458.352	1278.09
458.725	1305.43
459.099	1270.86
459.472	1311.08
459.845	1317.63
460.218	1320.57
460.591	1379.55
460.964	1314.92
461.337	1340.69
461.71	1375.26
462.083	1382.94
462.456	1389.95
462.829	1377.07
463.201	1418.2
463.574	1411.64
463.947	1430.17
464.32	1433.11
464.692	1452.77
465.065	1451.19
465.438	1443.96
465.81	1517.63
466.183	1512.43
466.555	1525.31
466.928	1523.05
467.3	1509.04
467.672	1516.73
468.045	1553.33
468.417	1572.32
468.789	1574.35
469.161	1584.07
469.534	1619.1
469.906	1620.45
470.278	1629.49
470.65	1666.33
471.022	1671.75
471.394	1686.66
471.766	1697.06
472.138	1700
472.51	1753.56
472.882	1740.9
473.253	1746.1
473.625	1789.71
473.997	1799.43
474.369	1806.21
474.74	1807.34
475.112	1862.03
475.484	1837.4
475.855	1869.71
476.227	1899.09
476.598	1945.19
476.97	1901.57
477.341	1973.66
477.713	2011.4
478.084	2022.93
478.455	2019.09
478.827	2066.54
479.198	2125.3
479.569	2090.95
479.94	2145.86
480.311	2165.97
480.682	2201.91
481.053	2246.2
481.424	2265.18
481.795	2281.45
482.166	2277.61
482.537	2323.48
482.908	2342.01
483.279	2352.64
483.65	2380.43
484.021	2433.76
484.391	2430.15
484.762	2486.42
485.133	2479.19
485.503	2528.22
485.874	2550.14
486.244	2561.44
486.615	2582.69
486.985	2620.43
487.356	2635.11
487.726	2640.76
488.097	2666.3
488.467	2737.03
488.837	2747.65
489.207	2787.2
489.578	2794.21
489.948	2811.15
490.318	2819.97
490.688	2844.15
491.058	2905.62
491.428	2901.1
491.798	2929.12
492.168	2949.91
492.538	2964.15
492.908	3000.75
493.278	3064.48
493.648	3059.74
494.017	3087.76
494.387	3095.44
494.757	3102.9
495.126	3144.48
495.496	3117.59
495.866	3160.3
496.235	3211.82
496.605	3222.22
496.974	3224.48
497.344	3226.29
497.713	3257.92
498.082	3299.96
498.452	3285.49
498.821	3304.48
499.19	3324.59
499.559	3338.37
499.928	3370.24
500.298	3388.77
500.667	3420.63
501.036	3382.21
501.405	3404.36
501.774	3398.03
502.143	3406.17
502.512	3443.68
502.88	3478.48
503.249	3501.53
503.618	3529.33
503.987	3500.85
504.356	3524.81
504.724	3530.46
505.093	3582.21
505.462	3567.75
505.83	3561.42
506.199	3600.74
506.567	3624.69
506.936	3624.24
507.304	3599.61
507.672	3665.37
508.041	3645.71
508.409	3681.19
508.777	3676.22
509.145	3714.41
509.514	3727.06
509.882	3714.63
510.25	3664.47
510.618	3731.81
510.986	3764.35
511.354	3753.05
511.722	3797.12
512.09	3779.49
512.458	3769.55
512.826	3802.54
513.193	3878.7
513.561	3829.89
513.929	3855.87
514.297	3882.31
514.664	3848.42
515.032	3847.96
515.4	3898.81
515.767	3911.24
516.135	3920.96
516.502	3860.84
516.869	3941.97
517.237	3928.41
517.604	3893.84
517.972	3961.41
518.339	3935.87
518.706	3995.53
519.073	3963.22
519.44	4027.39
519.808	4012.71
520.175	3991.46
520.542	4053.83
520.909	4040.05
521.276	4057.45
521.643	4053.38
522.009	4046.38
522.376	4111.46
522.743	4122.31
523.11	4103.55
523.477	4132.02
523.843	4132.25
524.21	4189.88
524.577	4205.92
524.943	4249.31
525.31	4224.68
525.676	4224.9
526.043	4343.32
526.409	4325.01
526.776	4346.93
527.142	4340.15
527.508	4395.07
527.874	4390.77
528.241	4394.16
528.607	4460.15
528.973	4469.19
529.339	4396.2
529.705	4480.26
530.071	4517.32
530.437	4589.41
530.803	4533.37
531.169	4557.32
531.535	4554.61
531.901	4606.36
532.267	4633.03
532.632	4609.3
532.998	4663.31
533.364	4652.91
533.73	4682.29
534.095	4755.96
534.461	4764.55
534.826	4759.13
535.192	4777.2
535.557	4829.63
535.923	4815.17
536.288	4828.95
536.653	4866.24
537.019	4819.46
537.384	4875.06
537.749	4889.07
538.114	4866.92
538.479	4924.77
538.845	4942.4
539.21	4934.26
539.575	4991.89
539.94	4953.7
540.305	5011.1
540.67	5010.87
541.034	5074.15
541.399	5078.21
541.764	5101.49
542.129	5090.87
542.494	5119.79
542.858	5117.53
543.223	5163.18
543.587	5154.14
543.952	5202.96
544.316	5207.25
544.681	5253.12
545.045	5271.43
545.41	5322.28
545.774	5312.11
546.138	5293.8
546.503	5355.72
546.867	5346.23
547.231	5358.88
547.595	5415.15
547.959	5442.95
548.324	5456.06
548.688	5436.17
549.052	5496.96
549.416	5501.48
549.779	5506.9
550.143	5513.91
550.507	5557.75
550.871	5550.74
551.235	5562.27
551.599	5623.74
551.962	5640.01
552.326	5686.33
552.689	5691.98
553.053	5677.29
553.417	5697.63
553.78	5726.11
554.143	5705.77
554.507	5735.82
554.87	5738.76
555.234	5793.68
555.597	5802.04
555.96	5805.88
556.323	5812.66
556.686	5876.61
557.05	5875.71
557.413	5876.61
557.776	5896.05
558.139	5952.99
558.502	5957.96
558.865	5947.8
559.228	5958.64
559.59	6003.39
559.953	5986.44
560.316	6065.08
560.679	6083.39
561.041	6070.5
561.404	6118.64
561.767	6099.43
562.129	6111.86
562.492	6145.98
562.854	6123.61
563.217	6187.11
563.579	6205.19
563.941	6236.38
564.304	6220.78
564.666	6277.28
565.028	6306.43
565.39	6327.67
565.753	6346.88
566.115	6350.5
566.477	6348.69
566.839	6420.33
567.201	6444.28
567.563	6437.95
567.925	6501.23
568.287	6478.63
568.648	6551.62
569.01	6562.02
569.372	6584.39
569.734	6551.85
570.095	6564.5
570.457	6630.94
570.819	6651.28
571.18	6670.26
571.542	6701.67
571.903	6715.01
572.265	6762.01
572.626	6738.96
572.987	6855.34
573.349	6840.2
573.71	6888.79
574.071	6976.24
574.432	7015.56
574.794	7097.82
575.155	7176.01
575.516	7115.9
575.877	7216.01
576.238	7216.01
576.599	7370.81
576.96	7406.51
577.32	7442.9
577.681	7526.74
578.042	7627.53
578.403	7653.51
578.763	7759.73
579.124	7844.69
579.485	7918.59
579.845	8047.18
580.206	8119.49
580.566	8225.02
580.927	8299.15
581.287	8416.88
581.648	8560.83
582.008	8705.46
582.368	8841.28
582.728	8918.34
583.089	9120.14
583.449	9121.05
583.809	9321.94
584.169	9497.31
584.529	9642.16
584.889	9942.49
585.249	10062.94
585.609	10310.17
585.969	10483.27
586.329	10621.12
586.688	10813.43
587.048	11001.9
587.408	11219.3
587.768	11423.36
588.127	11655.67
588.487	11911.48
588.846	12222.66
589.206	12357.57
589.565	12602.99
589.925	12836.2
590.284	13096.53
590.643	13299.01
591.003	13662.17
591.362	13943.07
591.721	14209.73
592.08	14367.24
592.44	14731.29
592.799	14980.33
593.158	15220.55
593.517	15533.98
593.876	15831.6
594.235	16148.21
594.593	16392.49
594.952	16693.05
595.311	16905.47
595.67	17230.44
596.029	17662.06
596.387	17984.77
596.746	18287.58
597.104	18389.5
597.463	18737.97
597.822	19168.01
598.18	19431.73
598.538	19633.31
598.897	20014.54
599.255	20133.19
599.613	20643
599.972	20848.65
600.33	21239.6
600.688	21334.51
601.046	21720.49
601.404	22115.96
601.762	22291.09
602.12	22602.95
602.478	22957.74
602.836	23250.84
603.194	23246.1
603.552	23637.27
603.91	23786.87
604.268	24133.98
604.625	24271.38
604.983	24718.15
605.341	24764.25
605.698	25161.75
606.056	25440.16
606.413	25674.28
606.771	26099.58
607.128	26230.2
607.485	26418.67
607.843	26713.13
608.2	27091.19
608.557	27311.3
608.914	27443.28
609.272	27643.04
609.629	27940.66
609.986	28230.37
610.343	28404.38
610.7	28779.96
611.057	28945.61
611.414	28901.54
611.771	29229.44
612.127	29546.05
612.484	29557.12
612.841	29894.51
613.198	29904.45
613.554	30216.54
613.911	30368.62
614.267	30643.42
614.624	30716.41
614.98	30822.62
615.337	31256.96
615.693	31236.85
616.05	31356.39
616.406	31860.33
616.762	31627.8
617.118	31766.33
617.475	32021.46
617.831	32324.28
618.187	32373.09
618.543	32441.56
618.899	32791.61
619.255	32788.22
619.611	32837.71
619.967	33113.86
620.323	33463.68
620.678	33319.96
621.034	33293.07
621.39	33571.02
621.746	33615.32
622.101	33967.4
622.457	33898.25
622.812	34044.91
623.168	34202.65
623.523	34264.57
623.879	34389.08
624.234	34267.95
624.589	34563.99
624.945	34662.97
625.3	34749.52
625.655	34730.32
626.01	34904.1
626.365	34753.59
626.72	34861.84
627.075	35034.71
627.43	35122.4
627.785	35142.06
628.14	35165.33
628.495	35349.96
628.85	35422.95
629.205	35238.1
629.559	35564.87
629.914	35391.99
630.269	35531.2
630.623	35545.44
630.978	35557.64
631.332	35719.89
631.687	35891.19
632.041	35751.08
632.396	35889.38
632.75	35760.8
633.104	35776.39
633.459	35671.76
633.813	35829.72
634.167	35790.63
634.521	35793.34
634.875	35792.89
635.229	35774.36
635.583	35640.12
635.937	35769.38
636.291	35708.59
636.645	35795.82
636.999	35808.25
637.352	35818.42
637.706	35700.46
638.06	35979.32
638.413	35759.89
638.767	35765.54
639.121	35918.31
639.474	35771.64
639.828	35914.92
640.181	35823.62
640.534	35912.43
640.888	35743.17
641.241	35679.22
641.594	35654.81
641.947	35900.23
642.301	35739.55
642.654	35775.03
643.007	35839.44
643.36	35739.1
643.713	35683.51
644.066	35825.65
644.419	35689.61
644.771	35482.39
645.124	35135.73
645.477	35128.5
645.83	35024.77
646.182	34750.88
646.535	34723.08
646.888	34769.64
647.24	34588.85
647.593	34867.49
647.945	34682.63
648.298	34604.44
648.65	34605.57
649.002	34467.5
649.355	34688.28
649.707	34610.77
650.059	34845.79
650.411	35195.39
650.763	35127.82
651.115	35567.36
651.467	35410.3
651.819	35557.19
652.171	35322.62
652.523	35362.16
652.875	35201.49
653.227	35163.07
653.578	35461.37
653.93	35438.77
654.282	35330.07
654.633	35244.43
654.985	35319.45
655.337	35226.8
655.688	35218.66
656.039	35430.64
656.391	35064.09
656.742	35138.44
657.094	35256.18
657.445	35418.43
657.796	35216.18
658.147	35203.07
658.498	35201.72
658.849	35237.65
659.2	35126.92
659.551	35103.19
659.902	35177.54
660.253	35243.97
660.604	35220.7
660.955	35067.48
661.306	35141.38
661.656	35056.63
662.007	35113.81
662.358	35125.33
662.708	34987.94
663.059	35000.37
663.409	34923.76
663.76	35158.78
664.11	35032.68
664.461	35220.47
664.811	35049.86
665.161	34973.93
665.511	34966.69
665.862	35149.51
666.212	35089.85
666.562	35153.58
666.912	35037.43
667.262	34939.58
667.612	34985.68
667.962	35128.5
668.312	35019.12
668.662	35119.23
669.011	35050.31
669.361	34962.63
669.711	35003.53
670.06	34849.86
670.41	34959.01
670.76	34740.26
671.109	34978.44
671.459	34774.16
671.808	34832.69
672.157	34974.6
672.507	34859.58
672.856	34868.62
673.205	34883.76
673.554	34846.7
673.904	34796.53
674.253	34961.5
674.602	34756.53
674.951	34368.07
675.3	34257.79
675.649	34698
675.998	34722.18
676.346	34682.63
676.695	34832.46
677.044	34430.66
677.393	34631.79
677.741	34638.79
678.09	34494.39
678.438	34611.67
678.787	34485.12
679.135	34544.11
679.484	34285.36
679.832	34406.48
680.181	34332.59
680.529	34420.04
680.877	34202.87
681.225	34146.15
681.573	34417.33
681.922	34144.57
682.27	34082.88
682.618	34016.66
682.966	34007.17
683.314	34140.27
683.661	33943.67
684.009	33787.06
684.357	33762.88
684.705	33784.8
685.053	33929.21
685.4	33762.43
685.748	33498.26
686.095	33630.46
686.443	33429.11
686.79	33478.82
687.138	33504.13
687.485	33547.52
687.832	33382.55
688.18	33448.99
688.527	33256.68
688.874	33205.16
689.221	33162.45
689.568	32934.2
689.915	32938.72
690.262	33008.55
690.609	32769.69
690.956	32771.5
691.303	32730.59
691.65	32562.69
691.997	32683.82
692.344	32387.55
692.69	32365.41
693.037	32415.35
693.383	32141.46
693.73	32201.57
694.077	32024.62
694.423	32023.49
694.769	32075.24
695.116	31999.99
695.462	31919.99
695.808	31799.32
696.155	31755.25
696.501	31459.22
696.847	31497.41
697.193	31275.27
697.539	31469.16
697.885	31197.98
698.231	31150.75
698.577	31272.78
698.923	30994.82
699.269	30969.06
699.614	30822.17
699.96	30781.94
700.306	30774.94
700.651	30626.92
700.997	30640.71
701.342	30526.81
701.688	30491.11
702.033	30385.12
702.379	30395.74
702.724	30338.79
703.069	30244.11
703.415	30031
703.76	30143.09
704.105	30054.96
704.45	30028.52
704.795	29831.46
705.14	29667.85
705.485	29619.72
705.83	29517.12
706.175	29571.81
706.52	29497.68
706.865	29412.04
707.209	29388.54
707.554	29320.29
707.899	29390.57
708.243	29208.2
708.588	29156.9
708.932	28923.01
709.277	29040.75
709.621	29014.08
709.966	28934.76
710.31	28874.2
710.654	28715.11
710.998	28663.13
711.342	28658.16
711.687	28567.09
712.031	28461.33
712.375	28292.29
712.719	28384.49
713.063	28272.41
713.407	28417.94
713.75	28307.21
714.094	28246.42
714.438	28050.49
714.782	28011.62
715.125	28045.52
715.469	27979.08
715.812	27848.24
716.156	27728.69
716.499	27772.53
716.843	27724.62
717.186	27524.63
717.53	27712.2
717.873	27643.27
718.216	27606.66
718.559	27540.45
718.902	27338.87
719.246	27405.08
719.589	27360.34
719.932	27157.86
720.275	27281.47
720.617	27212.77
720.96	26986.79
721.303	27086.67
721.646	27135.71
721.989	26909.96
722.331	27169.38
722.674	26970.29
723.016	26919.9
723.359	26929.62
723.701	26891.88
724.044	26762.62
724.386	26718.55
724.729	26713.58
725.071	26674.26
725.413	26663.18
725.755	26592.9
726.097	26415.05
726.439	26351.1
726.782	26395.62
727.124	26566.24
727.465	26353.81
727.807	26347.94
728.149	26311.78
728.491	26211.9
728.833	26198.11
729.175	26162.18
729.516	26042.18
729.858	26058.91
730.199	26165.57
730.541	25895.75
730.882	25932.58
731.224	25980.94
731.565	25852.36
731.906	25855.52
732.248	25799.7
732.589	25702.53
732.93	25745.47
733.271	25602.87
733.612	25587.73
733.953	25620.27
734.294	25539.82
734.635	25540.73
734.976	25507.06
735.317	25483.78
735.658	25327.17
735.999	25428.87
736.339	25401.52
736.68	25453.27
737.021	25257.34
737.361	25255.76
737.702	25294.41
738.042	25155.88
738.383	25238.81
738.723	25240.62
739.063	25183.9
739.404	25135.31
739.744	25019.38
740.084	25032.72
740.424	25021.87
740.764	24946.84
741.104	25068.65
741.444	24921.76
741.784	24861.42
742.124	24803.8
742.464	24759.73
742.804	24845.38
743.143	24725.38
743.483	24700.3
743.823	24502.79
744.162	24619.4
744.502	24622.33
744.841	24560.87
745.181	24494.43
745.52	24465.05
745.86	24480.42
746.199	24408.33
746.538	24336.46
746.877	24357.71
747.216	24419.85
747.556	24217.82
747.895	24262.79
748.234	24062.35
748.573	24183.93
748.911	24093.99
749.25	24091.5
749.589	23927.44
749.928	23891.96
750.267	24039.3
750.605	23902.8
750.944	23935.8
751.283	23820.32
751.621	23866.65
751.96	23673.21
752.298	23658.29
752.636	23755.01
752.975	23523.38
753.313	23367.45
753.651	23561.12
753.989	23426.88
754.327	23334.68
754.666	23292.2
755.004	23350.5
755.342	23357.06
755.679	23312.76
756.017	23149.15
756.355	23198.64
756.693	23058.53
757.031	23204.97
757.368	23019.89
757.706	22904.86
758.044	22782.83
758.381	22804.3
758.719	22817.63
759.056	22733.79
759.394	22699.9
759.731	22475.5
760.068	22549.39
