Data from hue_110_FLMS001491_00014.txt Node
Date: Tue Feb 07 17:00:57 GMT 2017
User: dcchb
Spectrometer: FLMS00149
Trigger mode: 0
Integration Time (sec): 2.000000E-2
Scans to average: 10
Electric dark correction enabled: true
Nonlinearity correction enabled: false
Boxcar width: 0
XAxis mode: Wavelengths
Number of Pixels in Spectrum: 2048
>>>>>Begin Spectral Data<<<<<
341.393	0.28
341.776	0.28
342.16	0.28
342.543	-50.56
342.927	-58.25
343.31	-75.65
343.693	-70.68
344.077	-68.87
344.46	-49.43
344.843	-35.2
345.226	-54.18
345.61	-34.07
345.993	-19.15
346.376	-14.86
346.759	12.94
347.142	14.75
347.525	36.44
347.908	55.2
348.291	76.66
348.674	114.18
349.057	111.92
349.44	131.13
349.823	128.19
350.206	172.93
350.588	202.76
350.971	205.7
351.354	239.6
351.737	228.3
352.119	260.39
352.502	255.42
352.884	282.76
353.267	276.66
353.65	285.7
354.032	313.95
354.414	316.43
354.797	330.67
355.179	322.53
355.562	308.07
355.944	328.64
356.326	337.22
356.709	337.9
357.091	337
357.473	357.11
357.855	355.3
358.238	348.75
358.62	334.74
359.002	350.78
359.384	349.43
359.766	322.76
360.148	352.14
360.53	311.23
360.912	366.83
361.294	359.82
361.676	327.96
362.057	327.51
362.439	355.08
362.821	325.25
363.203	335.87
363.584	347.39
363.966	323.21
364.348	317.79
364.729	338.13
365.111	337
365.493	329.54
365.874	318.01
366.256	344
366.637	344.23
367.019	316.43
367.4	321.63
367.781	307.39
368.163	318.24
368.544	317.11
368.925	311.91
369.306	324.57
369.688	320.73
370.069	322.08
370.45	319.37
370.831	320.95
371.212	340.61
371.593	316.88
371.974	320.73
372.355	302.42
372.736	326.15
373.117	329.54
373.498	320.95
373.879	308.97
374.26	321.4
374.641	322.76
375.021	320.95
375.402	322.76
375.783	333.61
376.163	323.66
376.544	328.41
376.925	322.99
377.305	312.14
377.686	338.35
378.066	332.48
378.447	343.55
378.827	347.62
379.208	330.44
379.588	356.43
379.968	352.59
380.349	346.26
380.729	342.65
381.109	348.97
381.489	337.22
381.87	327.51
382.25	352.36
382.63	339.71
383.01	325.25
383.39	362.98
383.77	360.05
384.15	351.46
384.53	357.34
384.91	362.08
385.29	372.93
385.67	344
386.049	362.76
386.429	359.14
386.809	370.67
387.189	354.85
387.568	346.71
387.948	363.44
388.328	374.96
388.707	351.01
389.087	362.08
389.466	365.02
389.846	362.31
390.225	360.27
390.605	377.9
390.984	391.01
391.363	371.8
391.743	383.78
392.122	379.93
392.501	381.74
392.881	374.28
393.26	376.54
393.639	405.92
394.018	387.39
394.397	387.84
394.776	379.26
395.155	385.36
395.534	386.49
395.913	395.07
396.292	393.49
396.671	400.95
397.05	382.42
397.429	385.81
397.808	397.11
398.186	393.94
398.565	392.59
398.944	384.23
399.323	389.2
399.701	422.19
400.08	387.16
400.458	395.98
400.837	412.48
401.215	381.74
401.594	409.99
401.972	405.47
402.351	412.93
402.729	411.57
403.107	428.75
403.486	411.8
403.864	413.83
404.242	425.58
404.62	444.11
404.999	414.28
405.377	439.59
405.755	411.12
406.133	447.95
406.511	433.49
406.889	413.83
407.267	428.97
407.645	430.78
408.023	451.12
408.401	425.36
408.779	464
409.156	450.67
409.534	467.16
409.912	454.51
410.29	445.69
410.667	462.64
411.045	466.03
411.422	474.17
411.8	458.8
412.178	450.89
412.555	477.11
412.933	476.88
413.31	505.13
413.687	480.72
414.065	479.37
414.442	469.65
414.819	480.5
415.197	518.69
415.574	495.64
415.951	489.76
416.328	503.09
416.705	501.96
417.082	508.07
417.46	506.03
417.837	506.26
418.214	523.66
418.591	515.07
418.967	530.89
419.344	526.14
419.721	516.43
420.098	526.6
420.475	532.02
420.852	559.59
421.228	524.11
421.605	523.21
421.982	530.89
422.358	527.5
422.735	535.18
423.111	555.07
423.488	583.77
423.864	585.35
424.241	574.05
424.617	568.18
424.994	557.1
425.37	587.61
425.746	562.3
426.123	598.46
426.499	578.57
426.875	603.2
427.251	601.62
427.627	594.84
428.003	603.66
428.379	636.88
428.756	603.2
429.132	612.47
429.507	649.53
429.883	622.86
430.259	646.82
430.635	651.34
431.011	620.61
431.387	631
431.763	647.72
432.138	658.8
432.514	659.25
432.89	642.3
433.265	664.9
433.641	677.33
434.016	680.94
434.392	660.83
434.767	717.1
435.143	700.6
435.518	722.07
435.894	699.93
436.269	720.26
436.644	712.58
437.02	729.53
437.395	707.83
437.77	761.39
438.145	757.1
438.52	737.44
438.895	761.84
439.271	768.17
439.646	797.55
440.021	781.28
440.395	782.41
440.77	788.74
441.145	763.65
441.52	805.91
441.895	789.87
442.27	791.9
442.645	781.73
443.019	832.35
443.394	811.33
443.769	843.88
444.143	840.03
444.518	832.13
444.892	824.22
445.267	834.38
445.641	825.35
446.016	851.79
446.39	856.31
446.764	864.21
447.139	863.54
447.513	862.41
447.887	846.36
448.262	874.38
448.636	889.98
449.01	893.59
449.384	887.49
449.758	929.52
450.132	913.93
450.506	930.65
450.88	922.07
451.254	927.26
451.628	943.99
452.002	945.57
452.376	940.82
452.75	976.53
453.123	968.17
453.497	986.25
453.871	976.98
454.244	1009.52
454.618	1019.69
454.992	1038.9
455.365	1046.13
455.739	1048.16
456.112	1055.4
456.486	1054.27
456.859	1073.7
457.232	1123.19
457.606	1071.89
457.979	1097.88
458.352	1113.47
458.725	1121.83
459.099	1141.72
459.472	1188.73
459.845	1167.94
460.218	1188.5
460.591	1204.32
460.964	1210.19
461.337	1217.88
461.71	1261.49
462.083	1273.92
462.456	1281.38
462.829	1284.32
463.201	1298.33
463.574	1287.93
463.947	1331.32
464.32	1363.64
464.692	1368.38
465.065	1394.37
465.438	1407.7
465.81	1418.1
466.183	1435.5
466.555	1461.26
466.928	1477.98
467.3	1489.96
467.672	1492.9
468.045	1557.3
468.417	1562.05
468.789	1600.01
469.161	1614.48
469.534	1625.1
469.906	1692.67
470.278	1671.2
470.65	1727.92
471.022	1749.62
471.394	1803.62
471.766	1811.99
472.138	1832.55
472.51	1910.97
472.882	1941.02
473.253	1988.7
473.625	2021.25
473.997	2051.75
474.369	2084.75
474.74	2109.38
475.112	2170.39
475.484	2232.77
475.855	2281.8
476.227	2311.41
476.598	2399.54
476.97	2429.15
477.341	2514.79
477.713	2576.26
478.084	2620.33
478.455	2735.8
478.827	2716.37
479.198	2836.82
479.569	2864.84
479.94	3020.32
480.311	3039.98
480.682	3173.31
481.053	3242.01
481.424	3348.67
481.795	3407.2
482.166	3512.51
482.537	3567.42
482.908	3699.17
483.279	3783.46
483.65	3909.11
484.021	3993.62
484.391	4119.5
484.762	4190.45
485.133	4301.19
485.503	4372.14
485.874	4528.98
486.244	4596.32
486.615	4758.58
486.985	4847.16
487.356	5006.25
487.726	5118.11
488.097	5289.86
488.467	5345.9
488.837	5537.09
489.207	5614.37
489.578	5777.31
489.948	5913.12
490.318	6075.83
490.688	6136.17
491.058	6271.3
491.428	6463.16
491.798	6551.97
492.168	6725.76
492.538	6863.15
492.908	7013.66
493.278	7125.74
493.648	7226.31
494.017	7358.28
494.387	7561.67
494.757	7619.52
495.126	7774.99
495.496	7878.04
495.866	8024.25
496.235	8162.55
496.605	8310.8
496.974	8395.99
497.344	8563.22
497.713	8626.27
498.082	8819.03
498.452	8945.58
498.821	9106.03
499.19	9056.99
499.559	9223.54
499.928	9296.76
500.298	9442.07
500.667	9551.67
501.036	9598
501.405	9697.65
501.774	9737.2
502.143	9881.38
502.512	10019.68
502.88	10118.89
503.249	10188.49
503.618	10273.91
503.987	10312.55
504.356	10414.7
504.724	10521.36
505.093	10593.22
505.462	10633.9
505.83	10794.57
506.199	10855.14
506.567	11058.07
506.936	10930.84
507.304	11102.59
507.672	11202.7
508.041	11299.42
508.409	11350.94
508.777	11508.68
509.145	11527.44
509.514	11507.55
509.882	11673.42
510.25	11588.23
510.618	11693.76
510.986	11753.87
511.354	11935.56
511.722	11946.86
512.09	11946.41
512.458	12017.82
512.826	12149.79
513.193	12132.39
513.561	12190.7
513.929	12267.3
514.297	12392.95
514.664	12482.44
515.032	12406.96
515.4	12504.59
515.767	12587.07
516.135	12541.2
516.502	12499.61
516.869	12775.09
517.237	12736.44
517.604	12674.53
517.972	12792.49
518.339	12908.64
518.706	12857.8
519.073	12804.92
519.44	12889.21
519.808	13114.51
520.175	13020.05
520.542	13145.25
520.909	13095.98
521.276	13152.71
521.643	13196.09
522.009	13247.84
522.376	13352.93
522.743	13310.44
523.11	13395.18
523.477	13418.69
523.843	13438.8
524.21	13542.07
524.577	13577.33
524.943	13633.37
525.31	13636.53
525.676	13781.62
526.043	13783.65
526.409	13773.93
526.776	13845.57
527.142	13860.48
527.508	13863.42
527.874	13947.49
528.241	13857.09
528.607	13912.46
528.973	14070.42
529.339	13926.47
529.705	13979.35
530.071	14081.27
530.437	14113.36
530.803	13994.04
531.169	14075.84
531.535	14048.5
531.901	14064.09
532.267	14004.89
532.632	14038.33
532.998	14116.3
533.364	14110.65
533.73	14069.07
534.095	14134.83
534.461	14050.08
534.826	14095.51
535.192	14053.25
535.557	14145.45
535.923	14009.18
536.288	14061.16
536.653	14095.51
537.019	13982.74
537.384	13963.53
537.749	14013.02
538.114	13950.2
538.479	13848.73
538.845	13911.56
539.21	13832.24
539.575	13878.56
539.94	13857.55
540.305	13896.87
540.67	13763.76
541.034	13762.86
541.399	13825.91
541.764	13726.02
542.129	13726.02
542.494	13669.08
542.858	13716.31
543.223	13693.26
543.587	13778
543.952	13595.86
544.316	13578.46
544.681	13533.26
545.045	13529.19
545.41	13591.34
545.774	13490.32
546.138	13448.52
546.503	13454.39
546.867	13331.23
547.231	13420.49
547.595	13442.64
547.959	13462.75
548.324	13396.54
548.688	13279.93
549.052	13278.35
549.416	13309.31
549.779	13238.58
550.143	13203.33
550.507	13180.05
550.871	13157.22
551.235	13169.88
551.599	13142.99
551.962	13087.17
552.326	13039.49
552.689	13086.72
553.053	13012.14
553.417	13071.35
553.78	13155.19
554.143	13004.01
554.507	13036.78
554.87	13015.53
555.234	13047.17
555.597	12905.25
555.96	12935.99
556.323	12955.87
556.686	12905.25
557.05	12943.22
557.413	12990.68
557.776	12961.98
558.139	12870.45
558.502	12894.86
558.865	12873.62
559.228	12879.04
559.59	12908.87
559.953	12970.34
560.316	13020.73
560.679	12938.47
561.041	12973.5
561.404	12991.35
561.767	13015.76
562.129	12940.96
562.492	13021.64
562.854	12971.24
563.217	12975.08
563.579	12987.96
563.941	13009.21
564.304	13002.43
564.666	13055.76
565.028	13102.76
565.39	13066.61
565.753	13073.61
566.115	13125.81
566.477	13124.01
566.839	13099.83
567.201	13129.43
567.563	13171.01
567.925	13201.74
568.287	13252.59
568.648	13150.45
569.01	13340.95
569.372	13257.34
569.734	13158.81
570.095	13261.4
570.457	13227.96
570.819	13244
571.18	13213.72
571.542	13292.81
571.903	13262.76
572.265	13305.47
572.626	13367.61
572.987	13401.96
573.349	13362.19
573.71	13429.76
574.071	13457.56
574.432	13333.27
574.794	13497.78
575.155	13477.89
575.516	13439.48
575.877	13427.5
576.238	13433.38
576.599	13461.85
576.96	13489.65
577.32	13444.67
577.681	13518.8
578.042	13545.69
578.403	13463.43
578.763	13513.37
579.124	13617.78
579.485	13628.17
579.845	13617.78
580.206	13496.88
580.566	13587.04
580.927	13415.97
581.287	13585.69
581.648	13456.43
582.008	13569.19
582.368	13549.3
582.728	13530.55
583.089	13562.41
583.449	13464.34
583.809	13462.3
584.169	13624.11
584.529	13488.97
584.889	13592.92
585.249	13459.36
585.609	13335.98
585.969	13495.52
586.329	13469.53
586.688	13406.94
587.048	13478.57
587.408	13328.97
587.768	13429.99
588.127	13377.78
588.487	13398.35
588.846	13390.44
589.206	13393.6
589.565	13356.32
589.925	13426.82
590.284	13349.76
590.643	13361.29
591.003	13371.23
591.362	13364.9
591.721	13333.72
592.08	13318.58
592.44	13396.77
592.799	13424.11
593.158	13229.09
593.517	13385.02
593.876	13271.57
594.235	13252.14
594.593	13254.62
594.952	13243.55
595.311	13253.27
595.67	13262.76
596.029	13358.58
596.387	13266.6
596.746	13345.24
597.104	13243.32
597.463	13224.79
597.822	13318.12
598.18	13281.29
598.538	13251.01
598.897	13279.93
599.255	13114.29
599.613	13311.12
599.972	13209.65
600.33	13276.54
600.688	13210.33
601.046	13188.64
601.404	13288.97
601.762	13218.24
602.12	13273.61
602.478	13304.57
602.836	13362.19
603.194	13244
603.552	13249.2
603.91	13174.4
604.268	13233.15
604.625	13197
604.983	13320.16
605.341	13225.02
605.698	13309.76
606.056	13279.93
606.413	13242.87
606.771	13328.52
607.128	13341.63
607.485	13240.16
607.843	13251.69
608.2	13327.39
608.557	13326.94
608.914	13350.21
609.272	13394.96
609.629	13401.74
609.986	13378.91
610.343	13319.48
610.7	13511.57
611.057	13401.29
611.414	13368.74
611.771	13416.65
612.127	13421.85
612.484	13441.96
612.841	13526.03
613.198	13417.33
613.554	13414.85
613.911	13436.31
614.267	13516.09
614.624	13573.03
614.98	13462.3
615.337	13555.18
615.693	13579.59
616.05	13591.11
616.406	13572.35
616.762	13556.54
617.118	13531
617.475	13568.97
617.831	13623.2
618.187	13671.34
618.543	13638.79
618.899	13655.74
619.255	13721.96
619.611	13645.12
619.967	13723.99
620.323	13721.5
620.678	13657.78
621.034	13563.32
621.39	13565.12
621.746	13542.3
622.101	13845.57
622.457	13621.17
622.812	13675.63
623.168	13659.81
623.523	13621.39
623.879	13740.94
624.234	13630.66
624.589	13703.88
624.945	13632.47
625.3	13687.83
625.655	13578
626.01	13619.59
626.365	13691.45
626.72	13632.01
627.075	13571.45
627.43	13605.8
627.785	13582.75
628.14	13641.51
628.495	13658.68
628.85	13710.88
629.205	13568.29
629.559	13596.54
629.914	13518.35
630.269	13507.72
630.623	13533.03
630.978	13524.9
631.332	13517.89
631.687	13587.04
632.041	13521.06
632.396	13534.62
632.75	13468.4
633.104	13441.96
633.459	13446.93
633.813	13495.29
634.167	13468.85
634.521	13409.87
634.875	13480.38
635.229	13445.13
635.583	13411.91
635.937	13332.36
636.291	13316.09
636.645	13379.59
636.999	13354.96
637.352	13368.74
637.706	13280.39
638.06	13260.05
638.413	13236.32
638.767	13182.08
639.121	13334.4
639.474	13233.61
639.828	13178.02
640.181	13240.61
640.534	13168.52
640.888	13104.12
641.241	13159.26
641.594	13108.86
641.947	13188.41
642.301	13153.38
642.654	13186.38
643.007	13168.07
643.36	13142.76
643.713	13093.05
644.066	13167.62
644.419	13050.56
644.771	13012.82
645.124	12843.56
645.477	12849.44
645.83	12747.07
646.182	12691.93
646.535	12705.26
646.888	12797.91
647.24	12620.06
647.593	12736.22
647.945	12625.26
648.298	12564.92
648.65	12588.65
649.002	12575.77
649.355	12616.9
649.707	12688.54
650.059	12634.98
650.411	12844.92
650.763	12864.58
651.115	13012.6
651.467	12981.41
651.819	12930.11
652.171	12932.82
652.523	12926.72
652.875	12955.87
653.227	12836.56
653.578	13045.36
653.93	12990.45
654.282	12845.59
654.633	12935.31
654.985	12869.1
655.337	12990.9
655.688	12895.31
656.039	12938.7
656.391	12938.47
656.742	12887.4
657.094	12925.59
657.445	12978.02
657.796	12984.8
658.147	12944.8
658.498	12951.58
658.849	12978.7
659.2	12931.92
659.551	12899.38
659.902	12867.51
660.253	12935.99
660.604	12952.26
660.955	12849.66
661.306	12940.73
661.656	12914.07
662.007	12956.78
662.358	12922.2
662.708	12993.61
663.059	12959.26
663.409	12864.35
663.76	12986.16
664.11	12985.7
664.461	12997.23
664.811	13006.95
665.161	12976.44
665.511	12937.12
665.862	12971.47
666.212	13047.4
666.562	13004.91
666.912	12945.25
667.262	12951.13
667.612	12980.73
667.962	12979.38
668.312	12982.99
668.662	13047.85
669.011	12990.9
669.361	12900.96
669.711	12950
670.06	12892.15
670.41	12985.7
670.76	12935.76
671.109	12959.04
671.459	12935.31
671.808	12921.3
672.157	12953.61
672.507	12814.41
672.856	12847.63
673.205	12865.48
673.554	12910.9
673.904	12788.65
674.253	12883.11
674.602	12755.65
674.951	12650.35
675.3	12603.57
675.649	12715.2
675.998	12827.74
676.346	12732.83
676.695	12852.15
677.044	12776.67
677.393	12774.86
677.741	12750
678.09	12718.82
678.438	12651.93
678.787	12681.53
679.135	12609.89
679.484	12642.21
679.832	12722.21
680.181	12610.35
680.529	12604.24
680.877	12553.17
681.225	12505.94
681.573	12625.26
681.922	12530.12
682.27	12508.65
682.618	12490.8
682.966	12394.31
683.314	12434.08
683.661	12419.62
684.009	12363.35
684.357	12260.75
684.705	12277.02
685.053	12283.35
685.4	12306.85
685.748	12129.68
686.095	12164.93
686.443	12123.13
686.79	12161.77
687.138	12197.7
687.485	12188.89
687.832	12046.07
688.18	12103.02
688.527	11997.71
688.874	11918.61
689.221	11973.08
689.568	11953.41
689.915	11917.26
690.262	11853.3
690.609	11890.37
690.956	11855.79
691.303	11814.89
691.65	11655.8
691.997	11690.14
692.344	11715
692.69	11563.82
693.037	11623.03
693.383	11601.79
693.73	11511.39
694.077	11447.44
694.423	11491.96
694.769	11450.15
695.116	11343.04
695.462	11379.87
695.808	11341.23
696.155	11345.52
696.501	11246.54
696.847	11220.55
697.193	11168.8
697.539	11226.65
697.885	11002.48
698.231	11023.04
698.577	11007
698.923	11003.83
699.269	10945.08
699.614	10816.5
699.96	10899.88
700.306	10896.49
700.651	10746.89
700.997	10778.08
701.342	10740.79
701.688	10614.01
702.033	10634.58
702.379	10662.83
702.724	10558.65
703.069	10627.8
703.415	10461.02
703.76	10461.7
704.105	10459.67
704.45	10423.51
704.795	10365.21
705.14	10298.32
705.485	10264.65
705.83	10227.13
706.175	10329.95
706.52	10179
706.865	10169.73
707.209	10148.94
707.554	10170.41
707.899	10084.76
708.243	10045.22
708.588	10022.84
708.932	9952.79
709.277	9992.34
709.621	9974.48
709.966	9918.44
710.31	9865.11
710.654	9771.78
710.998	9867.37
711.342	9870.08
711.687	9739.69
712.031	9798.89
712.375	9701.04
712.719	9733.81
713.063	9733.59
713.407	9714.15
713.75	9666.02
714.094	9605.68
714.438	9595.96
714.782	9694.72
715.125	9617.66
715.469	9610.88
715.812	9565
716.156	9488.17
716.499	9511.9
716.843	9520.48
717.186	9496.53
717.53	9558.9
717.873	9457.43
718.216	9458.34
718.559	9504.21
718.902	9320.72
719.246	9457.66
719.589	9376.53
719.932	9395.29
720.275	9369.98
720.617	9322.3
720.96	9364.1
721.303	9355.06
721.646	9260.15
721.989	9225.58
722.331	9309.64
722.674	9240.94
723.016	9287.72
723.359	9242.53
723.701	9296.08
724.044	9165.69
724.386	9183.09
724.729	9226.03
725.071	9164.79
725.413	9163.21
725.755	9194.84
726.097	9139.48
726.439	9156.88
726.782	9160.04
727.124	9183.09
727.465	9097.44
727.807	9120.04
728.149	9068.52
728.491	9105.58
728.833	9094.73
729.175	9145.13
729.516	9078.24
729.858	9074.17
730.199	9089.08
730.541	9078.24
730.882	9103.55
731.224	9122.75
731.565	9009.31
731.906	9096.77
732.248	9070.78
732.589	9002.98
732.93	9027.39
733.271	9030.55
733.612	9045.02
733.953	9039.14
734.294	9065.81
734.635	9062.87
734.976	9075.52
735.317	9037.11
735.658	9073.26
735.999	9099.25
736.339	9052.25
736.68	9097.67
737.021	9097.67
737.361	9048.86
737.702	9068.52
738.042	9043.66
738.383	9065.81
738.723	9103.09
739.063	9103.09
739.404	9095.64
739.744	9070.78
740.084	9038.69
740.424	9112.13
740.764	9121.4
741.104	9204.56
741.444	9144.9
741.784	9129.08
742.124	9227.84
742.464	9207.5
742.804	9172.24
743.143	9239.81
743.483	9246.37
743.823	9244.56
744.162	9251.11
744.502	9265.8
744.841	9305.57
745.181	9334.95
745.52	9359.36
745.86	9320.49
746.199	9457.89
746.538	9428.51
746.877	9555.74
747.216	9569.07
747.556	9596.19
747.895	9655.85
748.234	9661.95
748.573	9739.69
748.911	9802.28
749.25	9923.64
749.589	9891.32
749.928	9996.63
750.267	10134.48
750.605	10082.5
750.944	10204.76
751.283	10233.69
751.621	10324.98
751.96	10413.57
752.298	10467.35
752.636	10535.82
752.975	10654.47
753.313	10723.16
753.651	10875.48
753.989	10925.19
754.327	11009.03
754.666	11149.82
755.004	11288.12
755.342	11446.99
755.679	11510.26
756.017	11534.22
756.355	11728.34
756.693	11884.26
757.031	12032.73
757.368	12076.8
757.706	12315.66
758.044	12357.02
758.381	12505.94
758.719	12617.13
759.056	12820.96
759.394	12978.92
