Data from hue_220_FLMS001491_00084.txt Node
Date: Tue Feb 07 16:40:03 GMT 2017
User: dcchb
Spectrometer: FLMS00149
Trigger mode: 0
Integration Time (sec): 2.000000E-2
Scans to average: 10
Electric dark correction enabled: true
Nonlinearity correction enabled: false
Boxcar width: 0
XAxis mode: Wavelengths
Number of Pixels in Spectrum: 2048
>>>>>Begin Spectral Data<<<<<
341.393	-9.04
341.776	-9.04
342.16	-9.04
342.543	-51.52
342.927	-40
343.31	-91.3
343.693	-69.83
344.077	-65.76
344.46	-59.43
344.843	-39.32
345.226	-45.65
345.61	-17.85
345.993	-22.15
346.376	-8.81
346.759	19.66
347.142	30.73
347.525	48.81
347.908	45.65
348.291	76.83
348.674	94.01
349.057	104.4
349.44	119.09
349.823	148.47
350.206	167.23
350.588	197.51
350.971	209.03
351.354	224.63
351.737	239.99
352.119	240.45
352.502	261.01
352.884	277.05
353.267	273.89
353.65	285.19
354.032	303.95
354.414	309.37
354.797	304.62
355.179	317.96
355.562	310.27
355.944	330.39
356.326	342.59
356.709	329.26
357.091	311.63
357.473	327
357.855	334.45
358.238	343.04
358.62	338.3
359.002	338.97
359.384	319.77
359.766	341.01
360.148	336.49
360.53	305.08
360.912	334.45
361.294	327.45
361.676	338.75
362.057	323.61
362.439	321.35
362.821	327.22
363.203	324.29
363.584	317.51
363.966	323.38
364.348	318.86
364.729	316.83
365.111	316.6
365.493	318.18
365.874	319.54
366.256	324.06
366.637	324.06
367.019	312.99
367.4	307.11
367.781	301.46
368.163	300.33
368.544	310.05
368.925	309.14
369.306	329.48
369.688	310.73
370.069	310.5
370.45	308.47
370.831	316.83
371.212	315.92
371.593	318.18
371.974	320.9
372.355	316.38
372.736	317.51
373.117	304.62
373.498	309.37
373.879	320.44
374.26	301.69
374.641	301.91
375.021	329.26
375.402	315.92
375.783	334.91
376.163	322.48
376.544	315.7
376.925	303.72
377.305	329.71
377.686	329.03
378.066	347.11
378.447	331.97
378.827	327.22
379.208	330.84
379.588	328.35
379.968	344.4
380.349	366.32
380.729	361.8
381.109	315.92
381.489	312.53
381.87	331.74
382.25	321.8
382.63	320.44
383.01	327.22
383.39	322.7
383.77	348.47
384.15	325.64
384.53	325.64
384.91	343.04
385.29	348.69
385.67	345.98
386.049	345.75
386.429	333.32
386.809	376.26
387.189	347.34
387.568	338.75
387.948	345.53
388.328	336.04
388.707	345.3
389.087	335.58
389.466	363.15
389.846	368.58
390.225	360.67
390.605	345.08
390.984	347.56
391.363	356.37
391.743	370.39
392.122	375.36
392.501	353.89
392.881	354.79
393.26	373.1
393.639	382.59
394.018	358.18
394.397	389.37
394.776	371.29
395.155	388.92
395.534	396.83
395.913	386.66
396.292	376.71
396.671	383.94
397.05	391.85
397.429	389.37
397.808	391.18
398.186	390.05
398.565	391.85
398.944	393.44
399.323	410.38
399.701	401.35
400.08	415.58
400.458	423.94
400.837	414.9
401.215	424.4
401.594	411.97
401.972	418.97
402.351	414
402.729	413.32
403.107	432.76
403.486	447.67
403.864	411.74
404.242	444.06
404.62	442.7
404.999	441.57
405.377	451.97
405.755	463.94
406.133	453.1
406.511	466.2
406.889	456.94
407.267	468.01
407.645	486.99
408.023	487.44
408.401	482.47
408.779	484.28
409.156	474.79
409.534	490.83
409.912	517.05
410.29	546.2
410.667	519.99
411.045	527.22
411.422	536.94
411.8	547.78
412.178	550.49
412.555	534.9
412.933	573.32
413.31	587.78
413.687	573.54
414.065	598.63
414.442	609.25
414.819	611.96
415.197	603.83
415.574	622.58
415.951	630.72
416.328	641.79
416.705	636.59
417.082	664.62
417.46	665.52
417.837	675.69
418.214	658.06
418.591	708
418.967	658.97
419.344	695.12
419.721	688.34
420.098	692.86
420.475	720.89
420.852	711.39
421.228	747.1
421.605	757.95
421.982	771.05
422.358	776.25
422.735	784.16
423.111	802.92
423.488	799.08
423.864	806.76
424.241	834.78
424.617	838.17
424.994	868
425.37	879.75
425.746	880.88
426.123	891.73
426.499	895.34
426.875	930.82
427.251	943.03
427.627	931.27
428.003	947.32
428.379	986.41
428.756	980.09
429.132	1002.69
429.507	1003.14
429.883	1001.78
430.259	1048.33
430.635	1041.33
431.011	1048.33
431.387	1076.13
431.763	1088.78
432.138	1089.91
432.514	1151.61
432.89	1139.41
433.265	1139.41
433.641	1180.53
434.016	1198.16
434.392	1239.29
434.767	1235.22
435.143	1241.55
435.518	1283.58
435.894	1279.51
436.269	1326.07
436.644	1324.48
437.02	1346.63
437.395	1348.67
437.77	1390.02
438.145	1396.35
438.52	1437.02
438.895	1445.39
439.271	1485.38
439.646	1514.99
440.021	1526.97
440.395	1531.94
440.77	1546.85
441.145	1583.01
441.52	1589.56
441.895	1632.73
442.27	1620.97
442.645	1641.31
443.019	1634.08
443.394	1678.83
443.769	1710.92
444.143	1681.99
444.518	1719.5
444.892	1713.85
445.267	1734.19
445.641	1733.06
446.016	1770.57
446.39	1758.37
446.764	1768.54
447.139	1799.73
447.513	1817.13
447.887	1785.26
448.262	1819.16
448.636	1860.97
449.01	1879.72
449.384	1871.36
449.758	1911.36
450.132	1918.37
450.506	1942.77
450.88	1959.72
451.254	1923.79
451.628	1978.03
452.002	1993.39
452.376	2009.21
452.75	2012.83
453.123	2064.13
453.497	2041.53
453.871	2091.47
454.244	2127.4
454.618	2152.26
454.992	2152.71
455.365	2170.34
455.739	2204.91
456.112	2212.15
456.486	2239.72
456.859	2265.03
457.232	2284.91
457.606	2305.48
457.979	2330.33
458.352	2361.97
458.725	2392.03
459.099	2364.46
459.472	2440.84
459.845	2477.45
460.218	2502.99
460.591	2515.41
460.964	2515.41
461.337	2602.42
461.71	2596.54
462.083	2611.68
462.456	2633.83
462.829	2629.76
463.201	2721.74
463.574	2716.09
463.947	2769.19
464.32	2801.28
464.692	2820.72
465.065	2812.81
465.438	2853.48
465.81	2915.63
466.183	2935.06
466.555	2984.33
466.928	3010.54
467.3	3053.93
467.672	3052.58
468.045	3121.05
468.417	3138.45
468.789	3122.86
469.161	3165.34
469.534	3209.63
469.906	3275.39
470.278	3285.11
470.65	3331.89
471.022	3367.6
471.394	3445.33
471.766	3445.56
472.138	3510.42
472.51	3536.4
472.882	3595.39
473.253	3631.09
473.625	3694.37
473.997	3746.12
474.369	3744.53
474.74	3810.07
475.112	3850.97
475.484	3881.71
475.855	4010.06
476.227	4003.51
476.598	4115.37
476.97	4112.89
477.341	4220.68
477.713	4241.24
478.084	4254.8
478.455	4372.54
478.827	4399.43
479.198	4483.72
479.569	4493.89
479.94	4574.79
480.311	4636.49
480.682	4735.24
481.053	4803.94
481.424	4878.74
481.795	4917.84
482.166	4981.56
482.537	5014.33
482.908	5108.79
483.279	5178.85
483.65	5282.57
484.021	5338.16
484.391	5418.61
484.762	5441.89
485.133	5453.87
485.503	5519.85
485.874	5593.98
486.244	5643.02
486.615	5756.01
486.985	5774.54
487.356	5863.35
487.726	5893.63
488.097	6038.49
488.467	6033.51
488.837	6123
489.207	6203
489.578	6276.22
489.948	6348.99
490.318	6407.74
490.688	6384.69
491.058	6536.78
491.428	6534.07
491.798	6645.25
492.168	6690.45
492.538	6752.82
492.908	6794.85
493.278	6875.98
493.648	6871.91
494.017	6944.45
494.387	7015.41
494.757	7053.37
495.126	7077.33
495.496	7107.61
495.866	7099.93
496.235	7172.47
496.605	7268.51
496.974	7291.11
497.344	7322.07
497.713	7375.4
498.082	7343.31
498.452	7418.79
498.821	7434.61
499.19	7414.95
499.559	7517.54
499.928	7590.76
500.298	7571.1
500.667	7639.35
501.036	7621.27
501.405	7679.8
501.774	7675.28
502.143	7734.71
502.512	7763.86
502.88	7774.71
503.249	7780.36
503.618	7748.27
503.987	7867.14
504.356	7922.96
504.724	7914.14
505.093	7920.92
505.462	7931.77
505.83	8007.93
506.199	7971.77
506.567	8054.7
506.936	8054.7
507.304	8115.94
507.672	8155.72
508.041	8139.9
508.409	8210.41
508.777	8185.55
509.145	8227.13
509.514	8230.29
509.882	8214.02
510.25	8233.23
510.618	8231.42
510.986	8229.61
511.354	8325.43
511.722	8262.83
512.09	8401.14
512.458	8346
512.826	8398.2
513.193	8427.58
513.561	8415.6
513.929	8459.44
514.297	8426.45
514.664	8439.33
515.032	8505.09
515.4	8478.2
515.767	8590.06
516.135	8542.15
516.502	8500.34
516.869	8630.06
517.237	8516.16
517.604	8577.63
517.972	8586.21
518.339	8574.24
518.706	8557.97
519.073	8524.97
519.44	8608.81
519.808	8623.05
520.175	8571.53
520.542	8718.41
520.909	8699.88
521.276	8640.22
521.643	8690.17
522.009	8689.04
522.376	8721.58
522.743	8767.68
523.11	8776.04
523.477	8777.17
523.843	8810.62
524.21	8817.17
524.577	8842.03
524.943	8872.54
525.31	8824.63
525.676	8861.91
526.043	8951.4
526.409	8843.16
526.776	8883.83
527.142	8877.96
527.508	8883.38
527.874	8921.57
528.241	8943.72
528.607	8850.39
528.973	8955.02
529.339	8869.6
529.705	8914.12
530.071	8956.37
530.437	8982.59
530.803	8866.66
531.169	8946.21
531.535	8909.82
531.901	8863.72
532.267	8908.01
532.632	8963.38
532.998	8876.83
533.364	8912.76
533.73	8909.82
534.095	8937.62
534.461	8919.77
534.826	8904.17
535.192	8806.1
535.557	8856.04
535.923	8812.42
536.288	8840.45
536.653	8894
537.019	8763.39
537.384	8788.7
537.749	8752.99
538.114	8815.36
538.479	8729.49
538.845	8747.11
539.21	8676.38
539.575	8668.92
539.94	8645.65
540.305	8616.72
540.67	8663.73
541.034	8583.5
541.399	8606.33
541.764	8572.43
542.129	8609.49
542.494	8534.92
542.858	8541.24
543.223	8552.77
543.587	8525.65
543.952	8493.56
544.316	8449.72
544.681	8402.72
545.045	8427.35
545.41	8370.4
545.774	8419.44
546.138	8334.92
546.503	8304.19
546.867	8315.04
547.231	8388.03
547.595	8263.06
547.959	8297.63
548.324	8263.06
548.688	8261.93
549.052	8294.02
549.416	8216.51
549.779	8228.26
550.143	8082.05
550.507	8131.54
550.871	8136.96
551.235	8065.78
551.599	8110.97
551.962	8044.53
552.326	8020.81
552.689	8017.19
553.053	7968.6
553.417	7955.5
553.78	8018.09
554.143	8001.15
554.507	7936.97
554.87	7962.5
555.234	7954.14
555.597	7884.76
555.96	7927.93
556.323	7923.41
556.686	7903.97
557.05	7862.62
557.413	7895.61
557.776	7887.7
558.139	7899.68
558.502	7863.52
558.865	7853.58
559.228	7915.95
559.59	7884.54
559.953	7874.6
560.316	7909.4
560.679	7884.99
561.041	7923.63
561.404	7872.79
561.767	7887.48
562.129	7798.44
562.492	7928.15
562.854	7896.06
563.217	7906.46
563.579	7913.01
563.941	7948.72
564.304	7924.54
564.666	7933.35
565.028	7929.74
565.39	7964.99
565.753	7957.98
566.115	7924.09
566.477	7954.37
566.839	7975.38
567.201	8023.52
567.563	8028.72
567.925	8040.92
568.287	7982.16
568.648	8028.94
569.01	8087.47
569.372	8122.95
569.734	8079.34
570.095	8110.75
570.457	8091.09
570.819	8121.14
571.18	8100.8
571.542	8136.28
571.903	8061.71
572.265	8149.16
572.626	8158.66
572.987	8175.83
573.349	8115.94
573.71	8141.71
574.071	8178.77
574.432	8212.21
574.794	8302.61
575.155	8311.42
575.516	8242.95
575.877	8228.26
576.238	8258.31
576.599	8281.82
576.96	8324.53
577.32	8344.64
577.681	8315.26
578.042	8367.69
578.403	8419.21
578.763	8375.82
579.124	8407.69
579.485	8452.43
579.845	8468.48
580.206	8472.77
580.566	8515.93
580.927	8489.27
581.287	8524.07
581.648	8549.83
582.008	8571.98
582.368	8575.37
582.728	8557.74
583.089	8529.49
583.449	8557.29
583.809	8621.24
584.169	8638.87
584.529	8601.58
584.889	8628.25
585.249	8597.06
585.609	8630.96
585.969	8648.36
586.329	8630.51
586.688	8668.92
587.048	8670.96
587.408	8688.13
587.768	8691.52
588.127	8708.25
588.487	8777.17
588.846	8795.47
589.206	8794.35
589.565	8755.25
589.925	8758.87
590.284	8825.98
590.643	8837.73
591.003	8854.23
591.362	8855.13
591.721	8900.56
592.08	8852.42
592.44	8879.09
592.799	8881.57
593.158	8887.45
593.517	8915.25
593.876	8913.66
594.235	8919.31
594.593	8937.84
594.952	8938.3
595.311	8883.83
595.67	8954.11
596.029	8980.55
596.387	8989.37
596.746	9075.24
597.104	8969.26
597.463	8953.89
597.822	9006.54
598.18	8961.35
598.538	8938.52
598.897	9025.98
599.255	8973.78
599.613	9080.67
599.972	8960.89
600.33	9040.44
600.688	9008.35
601.046	9084.05
601.404	9089.7
601.762	9079.76
602.12	9089.48
602.478	9175.58
602.836	9138.29
603.194	9089.93
603.552	9144.84
603.91	9154.56
604.268	9117.5
604.625	9049.93
604.983	9159.31
605.341	9077.28
605.698	9117.27
606.056	9117.05
606.413	9140.78
606.771	9128.57
607.128	9174.9
607.485	9176.26
607.843	9110.49
608.2	9210.61
608.557	9202.7
608.914	9162.24
609.272	9120.44
609.629	9216.71
609.986	9274.56
610.343	9231.17
610.7	9330.38
611.057	9290.38
611.414	9239.76
611.771	9249.7
612.127	9278.63
612.484	9311.62
612.841	9320.43
613.198	9268.68
613.554	9246.54
613.911	9369.25
614.267	9293.77
614.624	9308.46
614.98	9363.6
615.337	9394.1
615.693	9382.58
616.05	9342.81
616.406	9453.76
616.762	9410.37
617.118	9385.97
617.475	9385.74
617.831	9411.73
618.187	9404.27
618.543	9414.44
618.899	9444.95
619.255	9424.16
619.611	9402.24
619.967	9476.59
620.323	9431.39
620.678	9452.86
621.034	9416.48
621.39	9476.59
621.746	9407.44
622.101	9527.89
622.457	9487.89
622.812	9416.7
623.168	9485.63
623.523	9410.6
623.879	9449.02
624.234	9414.22
624.589	9477.26
624.945	9440.2
625.3	9466.87
625.655	9463.93
626.01	9455.12
626.365	9472.75
626.72	9464.16
627.075	9421.45
627.43	9392.97
627.785	9416.48
628.14	9404.72
628.495	9461.22
628.85	9435.91
629.205	9419.64
629.559	9457.38
629.914	9416.7
630.269	9365.4
630.623	9403.14
630.978	9326.76
631.332	9373.99
631.687	9426.64
632.041	9345.52
632.396	9358.4
632.75	9320.43
633.104	9290.6
633.459	9239.53
633.813	9270.49
634.167	9300.77
634.521	9253.09
634.875	9290.15
635.229	9279.3
635.583	9280.21
635.937	9213.09
636.291	9287.21
636.645	9173.77
636.999	9195.01
637.352	9250.38
637.706	9156.37
638.06	9171.96
638.413	9232.98
638.767	9185.07
639.121	9230.72
639.474	9106.43
639.828	9158.63
640.181	9184.84
640.534	9157.95
640.888	9108.91
641.241	8979.88
641.594	9040.21
641.947	9157.27
642.301	9105.07
642.654	9106.65
643.007	9055.13
643.36	9113.21
643.713	9019.42
644.066	9020.78
644.419	9089.03
644.771	9014.68
645.124	8880.22
645.477	8872.99
645.83	8808.13
646.182	8817.4
646.535	8699.43
646.888	8767.45
647.24	8720.9
647.593	8785.76
647.945	8751.41
648.298	8737.17
648.65	8684.74
649.002	8731.52
649.355	8684.97
649.707	8752.09
650.059	8752.54
650.411	8860.11
650.763	8885.42
651.115	8952.76
651.467	8907.11
651.819	8932.42
652.171	8877.96
652.523	8915.02
652.875	8870.95
653.227	8877.28
653.578	8907.56
653.93	8919.77
654.282	8911.18
654.633	8879.54
654.985	8892.42
655.337	8883.16
655.688	8901.91
656.039	8862.82
656.391	8860.78
656.742	8887.68
657.094	8934.45
657.445	8927
657.796	8872.54
658.147	8915.02
658.498	8872.76
658.849	8916.6
659.2	8955.02
659.551	8956.83
659.902	8931.74
660.253	8992.76
660.604	9065.75
660.955	8899.2
661.306	9039.31
661.656	8964.06
662.007	8994.79
662.358	8953.21
662.708	8999.09
663.059	8977.17
663.409	8946.21
663.76	9024.4
664.11	9018.07
664.461	8996.83
664.811	8967.9
665.161	8976.94
665.511	9040.67
665.862	9024.62
666.212	8965.41
666.562	9008.12
666.912	9038.86
667.262	9001.57
667.612	9013.1
667.962	8981.01
668.312	8983.49
668.662	8999.76
669.011	9049.48
669.361	8981.23
669.711	8897.39
670.06	8936.71
670.41	8984.17
670.76	8962.7
671.109	8940.33
671.459	8894.91
671.808	8880.67
672.157	9000.22
672.507	8894
672.856	8915.7
673.205	8927.45
673.554	8929.03
673.904	8880.22
674.253	8933.32
674.602	8844.97
674.951	8749.83
675.3	8763.84
675.649	8842.48
675.998	8906.21
676.346	8862.14
676.695	8851.74
677.044	8789.15
677.393	8875.7
677.741	8788.47
678.09	8786.21
678.438	8786.21
678.787	8764.74
679.135	8788.47
679.484	8732.43
679.832	8729.26
680.181	8683.84
680.529	8703.5
680.877	8766.55
681.225	8709.83
681.573	8688.13
681.922	8686.1
682.27	8586.67
682.618	8668.7
682.966	8575.37
683.314	8641.58
683.661	8614.69
684.009	8567.46
684.357	8493.34
684.705	8457.4
685.053	8510.28
685.4	8462.83
685.748	8420.12
686.095	8430.74
686.443	8400.23
686.79	8436.16
687.138	8389.16
687.485	8383.06
687.832	8442.26
688.18	8389.16
688.527	8298.99
688.874	8306.67
689.221	8324.07
689.568	8276.17
689.915	8189.62
690.262	8179.9
690.609	8190.29
690.956	8214.47
691.303	8156.17
691.65	8082.05
691.997	8139.67
692.344	8109.84
692.69	8035.04
693.037	8028.26
693.383	7934.25
693.73	7960.69
694.077	7908.49
694.423	7942.39
694.769	7868.04
695.116	7884.76
695.462	7906.68
695.808	7867.59
696.155	7750.98
696.501	7752.79
696.847	7725.22
697.193	7673.47
697.539	7647.03
697.885	7617.65
698.231	7580.14
698.577	7581.95
698.923	7588.95
699.269	7509.41
699.614	7506.24
699.96	7466.47
700.306	7500.14
700.651	7405.45
700.997	7420.37
701.342	7408.17
701.688	7377.21
702.033	7266.93
702.379	7266.02
702.724	7283.88
703.069	7267.83
703.415	7150.32
703.76	7210.88
704.105	7136.54
704.45	7125.01
704.795	7069.64
705.14	7098.34
705.485	7100.15
705.83	7083.2
706.175	7040.04
706.52	6939.93
706.865	6978.35
707.209	6998.23
707.554	6960.04
707.899	6943.55
708.243	6861.97
708.588	6903.1
708.932	6865.81
709.277	6784
709.621	6837.33
709.966	6793.49
710.31	6784.91
710.654	6744.46
710.998	6725.47
711.342	6693.16
711.687	6780.84
712.031	6708.3
712.375	6641.18
712.719	6667.85
713.063	6631.01
713.407	6679.37
713.75	6601.18
714.094	6583.33
714.438	6633.72
714.782	6594.63
715.125	6600.96
715.469	6580.84
715.812	6539.04
716.156	6549.66
716.499	6564.12
716.843	6492.94
717.186	6477.57
717.53	6538.36
717.873	6494.07
718.216	6483.9
718.559	6453.62
718.902	6475.99
719.246	6491.58
719.589	6442.99
719.932	6397.35
720.275	6405.48
720.617	6381.98
720.96	6430.57
721.303	6384.46
721.646	6408.87
721.989	6333.62
722.331	6374.52
722.674	6335.88
723.016	6369.32
723.359	6324.58
723.701	6351.02
724.044	6335.88
724.386	6271.25
724.729	6319.38
725.071	6306.95
725.413	6364.58
725.755	6301.53
726.097	6305.82
726.439	6245.94
726.782	6217.01
727.124	6284.13
727.465	6277.58
727.807	6230.34
728.149	6285.71
728.491	6280.51
728.833	6272.38
729.175	6257.46
729.516	6191.48
729.858	6271.7
730.199	6285.03
730.541	6256.33
730.882	6241.19
731.224	6233.06
731.565	6207.97
731.906	6209.78
732.248	6250.01
732.589	6160.52
732.93	6198.26
733.271	6207.75
733.612	6236.67
733.953	6214.07
734.294	6229.67
734.635	6188.99
734.976	6242.32
735.317	6176.11
735.658	6226.73
735.999	6203.68
736.339	6225.6
736.68	6243.9
737.021	6263.11
737.361	6267.86
737.702	6287.97
738.042	6264.69
738.383	6310.79
738.723	6266.73
739.063	6284.35
739.404	6289.1
739.744	6327.97
740.084	6281.19
740.424	6379.49
740.764	6348.76
741.104	6357.35
741.444	6381.98
741.784	6351.02
742.124	6381.3
742.464	6421.07
742.804	6379.95
743.143	6428.76
743.483	6512.82
743.823	6441.86
744.162	6474.18
744.502	6570.22
744.841	6542.65
745.181	6635.76
745.52	6563.9
745.86	6648.19
746.199	6656.77
746.538	6695.87
746.877	6738.58
747.216	6805.24
747.556	6882.3
747.895	6858.8
748.234	6887.28
748.573	6967.5
748.911	7049.31
749.25	7091.11
749.589	7082.53
749.928	7209.75
750.267	7194.16
750.605	7279.58
750.944	7360.94
751.283	7375.4
751.621	7511.67
751.96	7550.31
752.298	7750.53
752.636	7727.25
752.975	7839.12
753.313	7866.91
753.651	8051.77
753.989	8050.18
754.327	8202.04
754.666	8264.19
755.004	8386.22
755.342	8540.11
755.679	8677.74
756.017	8729.26
756.355	8939.43
756.693	9029.14
757.031	9263.94
757.368	9330.6
757.706	9427.32
758.044	9526.3
758.381	9742.57
758.719	9800.19
759.056	10029.11
759.394	10130.58
759.731	10244.02
760.068	10431.14
760.405	10664.35
760.743	10693.5
761.08	11009.65
761.417	11047.17
761.754	11351.11
762.091	11437.67
762.428	11569.87
762.765	11741.84
763.102	11951.1
763.438	12055.05
763.775	12206.68
764.112	12398.77
764.449	12660.68
764.785	12696.62
765.122	12825.65
765.458	13064.97
765.795	13207.79
766.131	13359.87
766.467	13546.76
766.804	13678.28
767.14	13762.12
767.476	13973.42
767.812	14131.38
768.148	14233.3
768.485	14323.01
768.821	14453.63
