Data from hue_310_FLMS001491_16.txt Node
Date: Mon Feb 06 15:48:54 GMT 2017
User: dcchb
Spectrometer: FLMS00149
Trigger mode: 0
Integration Time (sec): 2.000000E-2
Scans to average: 10
Electric dark correction enabled: true
Nonlinearity correction enabled: false
Boxcar width: 0
XAxis mode: Wavelengths
Number of Pixels in Spectrum: 2048
>>>>>Begin Spectral Data<<<<<
341.393	-10.75
341.776	-10.75
342.16	-10.75
342.543	-61.82
342.927	-68.15
343.31	-67.7
343.693	-81.93
344.077	-64.98
344.46	-60.69
344.843	-66.79
345.226	-45.32
345.61	-23.63
345.993	-20.24
346.376	-17.08
346.759	17.95
347.142	26.99
347.525	26.99
347.908	72.64
348.291	81.45
348.674	105.41
349.057	116.93
349.44	111.06
349.823	145.18
350.206	168.23
350.588	204.16
350.971	204.84
351.354	225.4
351.737	225.18
352.119	250.26
352.502	245.06
352.884	258.4
353.267	266.08
353.65	270.15
354.032	289.81
354.414	316.47
354.797	328
355.179	303.37
355.562	331.62
355.944	313.99
356.326	318.73
356.709	325.74
357.091	324.84
357.473	348.11
357.855	329.81
358.238	331.39
358.62	341.11
359.002	327.77
359.384	318.73
359.766	344.27
360.148	328
360.53	334.78
360.912	321.67
361.294	345.63
361.676	334.55
362.057	318.51
362.439	329.81
362.821	323.93
363.203	314.21
363.584	307.44
363.966	320.77
364.348	310.15
364.729	307.44
365.111	324.61
365.493	302.46
365.874	325.51
366.256	308.34
366.637	300.43
367.019	312.18
367.4	303.14
367.781	327.32
368.163	317.38
368.544	313.99
368.925	289.13
369.306	310.6
369.688	321.45
370.069	302.69
370.45	309.7
370.831	296.59
371.212	312.63
371.593	294.1
371.974	327.1
372.355	305.18
372.736	324.61
373.117	308.79
373.498	299.07
373.879	317.83
374.26	299.3
374.641	297.94
375.021	323.93
375.402	310.83
375.783	313.54
376.163	320.77
376.544	293.2
376.925	323.25
377.305	329.36
377.686	324.61
378.066	309.47
378.447	321.45
378.827	325.51
379.208	319.64
379.588	331.84
379.968	332.97
380.349	322.12
380.729	333.88
381.109	341.11
381.489	336.14
381.87	322.58
382.25	340.88
382.63	359.41
383.01	368.68
383.39	333.88
383.77	318.96
384.15	322.58
384.53	335.91
384.91	330.49
385.29	336.14
385.67	328.23
386.049	343.37
386.429	367.32
386.809	347.43
387.189	335.46
387.568	334.78
387.948	332.29
388.328	355.57
388.707	335.23
389.087	364.16
389.466	335.01
389.846	360.32
390.225	358.06
390.605	350.6
390.984	367.32
391.363	357.15
391.743	351.95
392.122	375.91
392.501	364.84
392.881	377.72
393.26	365.06
393.639	377.49
394.018	382.46
394.397	387.66
394.776	363.48
395.155	369.13
395.534	376.81
395.913	362.12
396.292	376.36
396.671	379.07
397.05	382.46
397.429	374.55
397.808	389.47
398.186	393.08
398.565	383.14
398.944	377.72
399.323	385.85
399.701	382.46
400.08	404.16
400.458	387.43
400.837	377.49
401.215	412.74
401.594	392.86
401.972	404.16
402.351	400.77
402.729	386.53
403.107	407.77
403.486	413.87
403.864	429.01
404.242	415.91
404.62	410.94
404.999	425.4
405.377	430.82
405.755	422.23
406.133	436.25
406.511	424.27
406.889	413.2
407.267	448.45
407.645	459.3
408.023	448.67
408.401	464.49
408.779	472.18
409.156	452.06
409.534	464.27
409.912	488.22
410.29	490.03
410.667	469.92
411.045	486.41
411.422	476.47
411.8	506.75
412.178	517.15
412.555	519.86
412.933	521.89
413.31	532.06
413.687	548.33
414.065	560.08
414.442	558.28
414.819	573.42
415.197	580.87
415.574	565.51
415.951	591.04
416.328	569.8
416.705	596.47
417.082	598.73
417.46	628.1
417.837	618.16
418.214	627.65
418.591	614.32
418.967	617.26
419.344	625.17
419.721	636.92
420.098	663.36
420.475	638.27
420.852	658.61
421.228	688.67
421.605	699.29
421.982	695.22
422.358	709.01
422.735	718.72
423.111	713.53
423.488	719.63
423.864	716.01
424.241	742.23
424.617	739.74
424.994	745.62
425.37	746.75
425.746	767.08
426.123	745.39
426.499	774.77
426.875	803.47
427.251	788.33
427.627	817.48
428.003	812.73
428.379	843.47
428.756	826.29
429.132	857.93
429.507	876.01
429.883	855.22
430.259	862.9
430.635	885.05
431.011	874.65
431.387	884.82
431.763	919.62
432.138	924.82
432.514	935.89
432.89	927.76
433.265	961.66
433.641	963.69
434.016	979.73
434.392	1007.76
434.767	1008.43
435.143	999.62
435.518	1010.24
435.894	1030.35
436.269	1037.13
436.644	1047.75
437.02	1033.97
437.395	1072.16
437.77	1081.65
438.145	1058.15
438.52	1109.22
438.895	1115.55
439.271	1101.54
439.646	1113.06
440.021	1111.71
440.395	1153.97
440.77	1121.43
441.145	1120.97
441.52	1146.51
441.895	1173.18
442.27	1171.59
442.645	1142.22
443.019	1158.49
443.394	1176.11
443.769	1176.34
444.143	1162.78
444.518	1197.36
444.892	1187.86
445.267	1217.24
445.641	1186.73
446.016	1219.05
446.39	1225.6
446.764	1221.76
447.139	1231.25
447.513	1252.5
447.887	1234.64
448.262	1250.01
448.636	1222.21
449.01	1250.91
449.384	1267.18
449.758	1259.05
450.132	1284.36
450.506	1278.71
450.88	1285.26
451.254	1275.77
451.628	1285.94
452.002	1285.26
452.376	1312.83
452.75	1329.78
453.123	1308.31
453.497	1355.77
453.871	1334.08
454.244	1337.92
454.618	1379.27
454.992	1348.09
455.365	1386.28
455.739	1385.6
456.112	1386.05
456.486	1416.78
456.859	1403
457.232	1429.21
457.606	1435.99
457.979	1440.74
458.352	1452.72
458.725	1463.34
459.099	1464.02
459.472	1484.81
459.845	1515.09
460.218	1488.87
460.591	1522.32
460.964	1504.24
461.337	1532.71
461.71	1559.83
462.083	1580.85
462.456	1557.8
462.829	1568.87
463.201	1599.15
463.574	1623.56
463.947	1614.07
464.32	1676.44
464.692	1660.39
465.065	1664.01
465.438	1664.01
465.81	1686.16
466.183	1683.9
466.555	1718.02
466.928	1715.99
467.3	1702.43
467.672	1746.04
468.045	1788.75
468.417	1750.11
468.789	1777.68
469.161	1804.35
469.534	1805.25
469.906	1801.18
470.278	1852.93
470.65	1824.01
471.022	1886.6
471.394	1903.55
471.766	1946.49
472.138	1913.27
472.51	1952.14
472.882	1976.77
473.253	1968.18
473.625	1998.92
473.997	2031.68
474.369	2059.25
474.74	2039.59
475.112	2105.81
475.484	2125.24
475.855	2117.56
476.227	2141.51
476.598	2177.89
476.97	2191.23
477.341	2223.54
477.713	2224.67
478.084	2263.54
478.455	2294.5
478.827	2323.88
479.198	2372.92
479.569	2346.25
479.94	2375.18
480.311	2442.52
480.682	2418.34
481.053	2477.32
481.424	2498.34
481.795	2529.52
482.166	2547.6
482.537	2557.55
482.908	2618.34
483.279	2599.8
483.65	2639.58
484.021	2704.89
484.391	2713.25
484.762	2736.52
485.133	2744.43
485.503	2773.59
485.874	2827.37
486.244	2826.69
486.615	2877.76
486.985	2914.6
487.356	2944.2
487.726	2943.52
488.097	2955.73
488.467	3016.97
488.837	3051.54
489.207	3053.58
489.578	3104.42
489.948	3129.06
490.318	3142.84
490.688	3114.59
491.058	3148.26
491.428	3202.5
491.798	3242.27
492.168	3320.92
492.538	3296.28
492.908	3343.97
493.278	3343.06
493.648	3347.13
494.017	3409.27
494.387	3425.09
494.757	3459.67
495.126	3456.73
495.496	3461.25
495.866	3472.78
496.235	3532.66
496.605	3514.13
496.974	3567.46
497.344	3590.29
497.713	3599.33
498.082	3606.11
498.452	3618.76
498.821	3630.96
499.19	3650.85
499.559	3661.47
499.928	3698.76
500.298	3701.24
500.667	3729.49
501.036	3764.07
501.405	3707.12
501.774	3768.81
502.143	3765.65
502.512	3824.86
502.88	3825.08
503.249	3795.25
503.618	3828.25
503.987	3826.89
504.356	3854.01
504.724	3890.17
505.093	3850.62
505.462	3869.6
505.83	3863.73
506.199	3940.11
506.567	3964.29
506.936	3952.99
507.304	3996.83
507.672	3969.94
508.041	4025.3
508.409	3997.51
508.777	4043.16
509.145	4082.93
509.514	4059.2
509.882	4061.01
510.25	4071.18
510.618	4091.06
510.986	4104.62
511.354	4066.66
511.722	4135.81
512.09	4210.61
512.458	4141.01
512.826	4178.97
513.193	4160.67
513.561	4181.46
513.929	4210.84
514.297	4228.24
514.664	4228.46
515.032	4254.22
515.4	4285.41
515.767	4268.24
516.135	4245.41
516.502	4223.04
516.869	4278.4
517.237	4338.29
517.604	4315.69
517.972	4338.29
518.339	4373.32
518.706	4347.33
519.073	4347.33
519.44	4373.32
519.808	4421.68
520.175	4355.92
520.542	4453.54
520.909	4491.05
521.276	4424.62
521.643	4462.58
522.009	4478.85
522.376	4500.09
522.743	4524.27
523.11	4567.21
523.477	4566.53
523.843	4614.21
524.21	4591.84
524.577	4655.8
524.943	4645.17
525.31	4685.85
525.676	4674.33
526.043	4731.5
526.409	4735.57
526.776	4764.72
527.142	4814.44
527.508	4820.76
527.874	4833.64
528.241	4846.07
528.607	4874.32
528.973	4937.14
529.339	4870.48
529.705	4950.03
530.071	4969.91
530.437	5008.33
530.803	4990.02
531.169	4988.67
531.535	5014.2
531.901	5020.08
532.267	5084.03
532.632	5060.53
532.998	5148.66
533.364	5171.49
533.73	5144.82
534.095	5176.01
534.461	5207.65
534.826	5237.93
535.192	5268.43
535.557	5268.43
535.923	5254.88
536.288	5284.93
536.653	5337.59
537.019	5311.15
537.384	5362.22
537.749	5392.73
538.114	5414.87
538.479	5379.39
538.845	5438.83
539.21	5439.73
539.575	5496.45
539.94	5427.98
540.305	5537.58
540.67	5500.75
541.034	5528.32
541.399	5597.92
541.764	5615.54
542.129	5619.61
542.494	5651.02
542.858	5662.77
543.223	5659.39
543.587	5717.24
543.952	5755.65
544.316	5780.51
544.681	5765.82
545.045	5780.06
545.41	5821.87
545.774	5836.33
546.138	5821.19
546.503	5877.46
546.867	5906.84
547.231	5994.07
547.595	5967.85
547.959	5985.48
548.324	5971.24
548.688	6003.78
549.052	6022.54
549.416	6051.24
549.779	6083.55
550.143	6022.99
550.507	6143.44
550.871	6127.62
551.235	6189.31
551.599	6215.3
551.962	6188.64
552.326	6241.29
552.689	6277.67
553.053	6206.94
553.417	6240.61
553.78	6347.05
554.143	6316.77
554.507	6290.55
554.87	6400.83
555.234	6348.63
555.597	6382.3
555.96	6386.37
556.323	6398.35
556.686	6415.52
557.05	6455.52
557.413	6477.22
557.776	6542.53
558.139	6481.28
558.502	6535.97
558.865	6559.25
559.228	6600.6
559.59	6604.22
559.953	6606.93
560.316	6710.88
560.679	6610.55
561.041	6698.45
561.404	6785.23
561.767	6780.26
562.129	6732.58
562.492	6806.93
562.854	6793.14
563.217	6788.39
563.579	6801.28
563.941	6806.7
564.304	6926.47
564.666	6945.68
565.028	6937.77
565.39	6968.73
565.753	6925.57
566.115	6976.64
566.477	7039.01
566.839	7042.17
567.201	7072.46
567.563	7115.84
567.925	7140.02
568.287	7129.85
568.648	7163.3
569.01	7156.29
569.372	7260.7
569.734	7240.81
570.095	7286.01
570.457	7335.05
570.819	7358.78
571.18	7351.54
571.542	7398.1
571.903	7438.1
572.265	7452.33
572.626	7552.22
572.987	7594.93
573.349	7566.68
573.71	7630.86
574.071	7711.99
574.432	7770.97
574.794	7806
575.155	7862.94
575.516	7855.26
575.877	7978.42
576.238	8012.54
576.599	8131.41
576.96	8161.24
577.32	8132.99
577.681	8341.8
578.042	8317.62
578.403	8382.93
578.763	8560.78
579.124	8634.9
579.485	8692.98
579.845	8841.67
580.206	8902.01
580.566	9044.38
580.927	9101.33
581.287	9239.63
581.648	9387.42
582.008	9559.62
582.368	9597.13
582.728	9788.54
583.089	9915.32
583.449	10077.8
583.809	10189.89
584.169	10393.95
584.529	10553.49
584.889	10849.31
585.249	10893.6
585.609	11149.86
585.969	11379.69
586.329	11538.78
586.688	11773.57
587.048	11938.77
587.408	12181.47
587.768	12402.26
588.127	12588.24
588.487	12799.99
588.846	13136.7
589.206	13273.42
589.565	13496.24
589.925	13803.13
590.284	14048.09
590.643	14431.13
591.003	14672.26
591.362	14959.93
591.721	15243.09
592.08	15497.54
592.44	15765.33
592.799	16117.19
593.158	16288.71
593.517	16696.83
593.876	17004.62
594.235	17180.44
594.593	17417.49
594.952	17827.88
595.311	18039.4
595.67	18470.12
596.029	18781.98
596.387	19059.26
596.746	19356.88
597.104	19596.87
597.463	19915.28
597.822	20167.93
598.18	20491.76
598.538	20709.84
598.897	21149.37
599.255	21221.91
599.613	21949.58
599.972	22026.64
600.33	22410.81
600.688	22481.32
601.046	22875.2
601.404	23258.24
601.762	23503.89
602.12	23839.02
602.478	24022.74
602.836	24417.76
603.194	24529.4
603.552	25019.1
603.91	25042.15
604.268	25381.35
604.625	25541.57
604.983	25939.76
605.341	26030.6
605.698	26381.55
606.056	26815.66
606.413	27035.32
606.771	27310.79
607.128	27544.01
607.485	27663.1
607.843	27896.31
608.2	28224.22
608.557	28508.5
608.914	28650.87
609.272	28914.59
609.629	29061.71
609.986	29403.85
610.343	29517.74
610.7	29955.02
611.057	30062.81
611.414	30319.08
611.771	30505.29
612.127	30619.86
612.484	30930.81
612.841	31114.76
613.198	31167.41
613.554	31285.38
613.911	31701.86
614.267	31774.63
614.624	31962.65
614.98	32093.49
615.337	32431.34
615.693	32446.03
616.05	32608.96
616.406	32836.07
616.762	33113.58
617.118	33196.29
617.475	33224.99
617.831	33345.21
618.187	33554.24
618.543	33730.96
618.899	34032.2
619.255	34059.77
619.611	34202.82
619.967	34411.17
620.323	34497.04
620.678	34582.47
621.034	34516.03
621.39	34709.47
621.746	34752.18
622.101	35282.56
622.457	35046.63
622.812	35231.49
623.168	35357.36
623.523	35465.61
623.879	35694.3
624.234	35539.73
624.589	35667.86
624.945	35867.4
625.3	35943.79
625.655	35949.21
626.01	35884.35
626.365	36165.25
626.72	36145.59
627.075	36212.71
627.43	36333.61
627.785	36315.75
628.14	36271.01
628.495	36466.94
628.85	36529.31
629.205	36501.74
629.559	36650.66
629.914	36635.97
630.269	36742.18
630.623	36658.8
630.978	36618.57
631.332	36739.02
631.687	36890.43
632.041	36703.99
632.396	36790.77
632.75	36842.52
633.104	36919.81
633.459	36736.08
633.813	36762.3
634.167	36913.03
634.521	37011.33
634.875	37042.97
635.229	36951.67
635.583	36859.02
635.937	36917.55
636.291	36953.7
636.645	37057.88
636.999	36881.16
637.352	37085.45
637.706	36792.8
638.06	36999.35
638.413	36891.78
638.767	36902.41
639.121	36998.45
639.474	36713.94
639.828	36874.16
640.181	36913.7
640.534	36886.81
640.888	36780.83
641.241	36759.36
641.594	37006.36
641.947	36904.44
642.301	36870.09
642.654	36863.76
643.007	36904.21
643.36	36914.38
643.713	36798.91
644.066	36887.04
644.419	36654.5
644.771	36493.38
645.124	36084.8
645.477	36043.67
645.83	35993.5
646.182	35706.96
646.535	35805.03
646.888	35766.39
647.24	35574.08
647.593	35886.84
647.945	35612.5
648.298	35737.69
648.65	35640.07
649.002	35488.21
649.355	35722.32
649.707	35623.79
650.059	35722.1
650.411	36174.74
650.763	36310.78
651.115	36536.09
651.467	36409.76
651.819	36494.96
652.171	36477.78
652.523	36425.36
652.875	36419.03
653.227	36171.58
653.578	36548.29
653.93	36353.49
654.282	36218.81
654.633	36167.06
654.985	36231.91
655.337	36337.22
655.688	36213.61
656.039	36425.81
656.391	36109.88
656.742	36135.65
657.094	36226.94
657.445	36217.45
657.796	36152.14
658.147	36188.98
658.498	36054.74
658.849	36212.93
659.2	36269.43
659.551	35986.72
659.902	36170
660.253	36103.33
660.604	36253.16
660.955	36036.89
661.306	36049.32
661.656	35990.11
662.007	35999.83
662.358	35971.36
662.708	36015.42
663.059	36045.25
663.409	35812.49
663.76	36002.77
664.11	36024.91
664.461	35939.72
664.811	36051.58
665.161	36064.69
665.511	35958.7
665.862	36004.58
666.212	36026.72
666.562	36201.86
666.912	36061.98
667.262	35839.83
667.612	35915.09
667.962	35959.61
668.312	35948.31
668.662	36166.61
669.011	35891.81
669.361	36031.69
669.711	35761.87
670.06	35887.74
670.41	35666.05
670.76	35785.15
671.109	35944.69
671.459	35875.31
671.808	35881.19
672.157	36095.19
672.507	35645.26
672.856	35583.8
673.205	35745.6
673.554	35756.9
673.904	35704.47
674.253	35851.81
674.602	35761.87
674.951	35386.51
675.3	34994.21
675.649	35471.48
675.998	35570.24
676.346	35570.46
676.695	35704.92
677.044	35297.48
677.393	35474.65
677.741	35491.6
678.09	35548.09
678.438	35543.8
678.787	35503.35
679.135	35557.58
679.484	35323.69
679.832	35516.45
680.181	35384.93
680.529	35364.14
680.877	35221.55
681.225	35163.02
681.573	35344.25
681.922	35177.03
682.27	35029.23
682.618	35173.19
682.966	35048.89
683.314	35110.36
683.661	34950.82
684.009	34738.17
684.357	34686.87
684.705	34674.22
685.053	34603.93
685.4	34614.78
685.748	34550.38
686.095	34517.61
686.443	34375.24
686.79	34219.76
687.138	34408.23
687.485	34404.17
687.832	34180.44
688.18	34341.12
688.527	34064.51
688.874	34085.08
689.221	33922.82
689.568	33966.44
689.915	33798.53
690.262	33841.24
690.609	33710.17
690.956	33603.06
691.303	33601.93
691.65	33486
691.997	33400.8
692.344	33286.91
692.69	33195.61
693.037	33168.72
693.383	33047.82
693.73	33059.12
694.077	32839.01
694.423	32994.71
694.769	32765.34
695.116	32774.83
695.462	32670.88
695.808	32571.22
696.155	32587.04
696.501	32430.88
696.847	32515.63
697.193	32206.26
697.539	32326.03
697.885	32049.65
698.231	31923.33
698.577	31984.12
698.923	32032.02
699.269	31732.6
699.614	31613.5
699.96	31603.34
700.306	31634.3
700.651	31550.68
700.997	31451.02
701.342	31334.87
701.688	31274.98
702.033	31141.2
702.379	31164.03
702.724	31084.93
703.069	31171.03
703.415	30759.29
703.76	30736.24
704.105	30860.76
704.45	30702.12
704.795	30566.3
705.14	30436.36
705.485	30408.79
705.83	30401.56
706.175	30358.4
706.52	30331.96
706.865	30246.08
707.209	30090.61
707.554	30129.25
707.899	30056.94
708.243	29905.3
708.588	29869.14
708.932	29639.32
709.277	29676.61
709.621	29650.62
709.966	29534.24
710.31	29562.03
710.654	29279.78
710.998	29368.14
711.342	29327.92
711.687	29230.29
712.031	29267.8
712.375	29083.18
712.719	29170.86
713.063	29090.41
713.407	29124.53
713.75	28992.56
714.094	28987.36
714.438	28770.42
714.782	28819
715.125	28689.74
715.469	28755.73
715.812	28470.31
716.156	28390.99
716.499	28435.96
716.843	28506.02
717.186	28311.9
717.53	28449.75
717.873	28323.65
718.216	28296.53
718.559	28171.34
718.902	28014.28
719.246	28145.57
719.589	28014.73
719.932	27882.53
720.275	27862.19
720.617	27912.36
720.96	27852.25
721.303	27791.23
721.646	27778.35
721.989	27685.02
722.331	27795.98
722.674	27667.85
723.016	27661.97
723.359	27624.91
723.701	27593.05
724.044	27511.01
724.386	27272.6
724.729	27481.41
725.071	27227.63
725.413	27447.29
725.755	27278.93
726.097	27253.17
726.439	27088.43
726.782	26956.23
727.124	27138.14
727.465	26969.56
727.807	27059.27
728.149	26899.96
728.491	26937.24
728.833	26913.74
729.175	26790.13
729.516	26796.23
729.858	26687.08
730.199	26720.98
730.541	26660.19
730.882	26622
731.224	26605.28
731.565	26514.66
731.906	26497.71
732.248	26397.6
732.589	26314.89
732.93	26301.55
733.271	26264.27
733.612	26272.63
733.953	26295.9
734.294	26165.74
734.635	26210.71
734.976	26176.59
735.317	26038.28
735.658	25995.35
735.999	25976.59
736.339	26001.68
736.68	26066.76
737.021	26045.06
737.361	25749.25
737.702	25874.67
738.042	25775.69
738.383	25728.69
738.723	25885.97
739.063	25605.75
739.404	25735.92
739.744	25637.16
740.084	25548.81
740.424	25633.32
740.764	25592.19
741.104	25647.56
741.444	25470.84
741.784	25387.45
742.124	25456.6
742.464	25300.68
742.804	25373.89
743.143	25307.68
743.483	25360.11
743.823	25175.03
744.162	25142.94
744.502	25226.78
744.841	25020.68
745.181	25077.41
745.52	25008.71
745.86	24973.23
746.199	24947.24
746.538	25017.75
746.877	24954.92
747.216	24958.31
747.556	24821.59
747.895	24866.34
748.234	24776.62
748.573	24743.18
748.911	24622.05
749.25	24697.3
749.589	24514.48
749.928	24538.89
750.267	24681.94
750.605	24540.7
750.944	24523.07
751.283	24255.73
751.621	24421.83
751.96	24259.35
752.298	24280.82
752.636	24290.99
752.975	24180.03
753.313	24073.14
753.651	24213.7
753.989	24031.56
754.327	24010.09
754.666	23935.51
755.004	23852.58
755.342	23966.02
755.679	23801.96
756.017	23771
756.355	23761.96
756.693	23509.76
757.031	23687.16
757.368	23524
757.706	23525.36
758.044	23382.08
758.381	23439.93
758.719	23316.1
759.056	23381.18
759.394	23275.65
