Data from hue_90_FLMS001491_15.txt Node
Date: Mon Feb 06 15:24:45 GMT 2017
User: dcchb
Spectrometer: FLMS00149
Trigger mode: 0
Integration Time (sec): 2.000000E-2
Scans to average: 10
Electric dark correction enabled: true
Nonlinearity correction enabled: false
Boxcar width: 0
XAxis mode: Wavelengths
Number of Pixels in Spectrum: 2048
>>>>>Begin Spectral Data<<<<<
341.393	-8.09
341.776	-8.09
342.16	-8.09
342.543	-49
342.927	-58.26
343.31	-56.91
343.693	-91.25
344.077	-66.4
344.46	-44.7
344.843	-71.59
345.226	-35.89
345.61	-27.53
345.993	-29.11
346.376	-1.09
346.759	-8.54
347.142	30.1
347.525	45.46
347.908	72.36
348.291	82.3
348.674	87.72
349.057	115.07
349.44	92.24
349.823	153.03
350.206	164.33
350.588	196.42
350.971	197.33
351.354	214.27
351.737	242.3
352.119	257.44
352.502	258.57
352.884	272.13
353.267	285.01
353.65	279.13
354.032	300.15
354.414	292.01
354.797	309.64
355.179	326.81
355.562	308.28
355.944	325.91
356.326	338.11
356.709	333.82
357.091	335.63
357.473	323.88
357.855	348.96
358.238	332.91
358.62	358
359.002	322.52
359.384	319.13
359.766	350.54
360.148	344.67
360.53	334.04
360.912	338.11
361.294	339.47
361.676	304.67
362.057	310.77
362.439	335.4
362.821	322.97
363.203	337.43
363.584	332.24
363.966	325.01
364.348	332.69
364.729	310.09
365.111	333.82
365.493	329.75
365.874	300.37
366.256	310.32
366.637	312.35
367.019	327.94
367.4	332.01
367.781	322.07
368.163	316.64
368.544	301.5
368.925	301.5
369.306	306.7
369.688	317.1
370.069	309.64
370.45	313.48
370.831	294.27
371.212	316.64
371.593	304.67
371.974	325.91
372.355	300.83
372.736	308.51
373.117	314.61
373.498	298.57
373.879	310.32
374.26	317.55
374.641	296.98
375.021	306.7
375.402	310.09
375.783	326.81
376.163	327.94
376.544	320.49
376.925	318.45
377.305	326.14
377.686	310.54
378.066	306.25
378.447	343.54
378.827	311.45
379.208	337.43
379.588	330.2
379.968	320.26
380.349	314.16
380.729	314.16
381.109	332.01
381.489	319.58
381.87	329.53
382.25	343.99
382.63	329.3
383.01	331.56
383.39	337.21
383.77	338.34
384.15	336.76
384.53	344.89
384.91	344.89
385.29	335.63
385.67	323.65
386.049	349.41
386.429	344.89
386.809	359.13
387.189	359.35
387.568	347.15
387.948	342.41
388.328	349.19
388.707	341.95
389.087	362.29
389.466	349.86
389.846	353.48
390.225	346.25
390.605	343.31
390.984	374.04
391.363	374.95
391.743	360.26
392.122	367.04
392.501	360.94
392.881	375.63
393.26	349.19
393.639	381.28
394.018	376.08
394.397	367.94
394.776	382.63
395.155	371.33
395.534	378.79
395.913	388.28
396.292	380.6
396.671	375.85
397.05	385.34
397.429	382.41
397.808	385.34
398.186	388.96
398.565	381.73
398.944	401.61
399.323	417.43
399.701	381.28
400.08	389.86
400.458	398.9
400.837	396.42
401.215	406.36
401.594	406.59
401.972	382.86
402.351	392.8
402.729	406.13
403.107	395.06
403.486	403.87
403.864	400.94
404.242	413.36
404.62	421.95
404.999	401.61
405.377	417.43
405.755	403.65
406.133	423.53
406.511	414.49
406.889	392.57
407.267	432.57
407.645	432.57
408.023	433.93
408.401	430.77
408.779	447.04
409.156	464.44
409.534	435.06
409.912	445.23
410.29	451.56
410.667	457.88
411.045	454.72
411.422	436.19
411.8	460.37
412.178	439.58
412.555	430.09
412.933	461.5
413.31	467.6
413.687	454.27
414.065	470.31
414.442	483.87
414.819	471.67
415.197	464.44
415.574	470.54
415.951	488.62
416.328	497.43
416.705	498.56
417.082	503.53
417.46	487.49
417.837	488.84
418.214	508.05
418.591	495.62
418.967	493.36
419.344	512.12
419.721	519.8
420.098	537.2
420.475	530.42
420.852	537.66
421.228	507.83
421.605	512.57
421.982	520.03
422.358	508.73
422.735	526.58
423.111	532.68
423.488	556.86
423.864	556.64
424.241	523.64
424.617	559.58
424.994	574.94
425.37	559.12
425.746	557.77
426.123	553.93
426.499	566.36
426.875	578.11
427.251	574.94
427.627	582.17
428.003	579.69
428.379	568.16
428.756	587.82
429.132	594.15
429.507	596.18
429.883	590.08
430.259	597.99
430.635	608.84
431.011	621.04
431.387	623.3
431.763	604.55
432.138	647.03
432.514	652.23
432.89	657.65
433.265	661.49
433.641	624.88
434.016	656.3
434.392	668.27
434.767	686.13
435.143	679.8
435.518	691.32
435.894	677.99
436.269	694.04
436.644	697.43
437.02	675.5
437.395	693.36
437.77	695.17
438.145	710.08
438.52	701.27
438.895	708.27
439.271	747.82
439.646	757.54
440.021	729.29
440.395	737.88
440.77	718.22
441.145	764.54
441.52	744.43
441.895	751.89
442.27	779.68
442.645	763.41
443.019	784.43
443.394	774.71
443.769	790.53
444.143	773.81
444.518	797.54
444.892	770.42
445.267	830.53
445.641	806.57
446.016	809.96
446.39	796.63
446.764	812.45
447.139	809.96
447.513	838.66
447.887	859
448.262	834.6
448.636	848.38
449.01	863.3
449.384	835.73
449.758	864.43
450.132	877.08
450.506	873.01
450.88	879.12
451.254	873.24
451.628	887.25
452.002	891.77
452.376	899.68
452.75	927.25
453.123	899.68
453.497	947.14
453.871	937.87
454.244	953.01
454.618	978.1
454.992	981.26
455.365	962.73
455.739	963.63
456.112	996.17
456.486	997.76
456.859	1002.28
457.232	1036.63
457.606	1026.23
457.979	1051.09
458.352	1075.49
458.725	1084.08
459.099	1088.6
459.472	1084.08
459.845	1113.01
460.218	1091.54
460.591	1136.51
460.964	1123.85
461.337	1130.18
461.71	1175.6
462.083	1178.99
462.456	1204.08
462.829	1185.32
463.201	1202.27
463.574	1232.78
463.947	1253.34
464.32	1255.6
464.692	1274.36
465.065	1287.47
465.438	1294.7
465.81	1320.69
466.183	1333.34
466.555	1367.69
466.928	1402.49
467.3	1375.37
467.672	1402.94
468.045	1476.61
468.417	1458.31
468.789	1506.44
469.161	1516.84
469.534	1512.09
469.906	1548.7
470.278	1598.19
470.65	1607.46
471.022	1649.04
471.394	1686.55
471.766	1718.19
472.138	1704.63
472.51	1788.47
472.882	1809.26
473.253	1853.33
473.625	1849.71
473.997	1909.37
474.369	1927.45
474.74	1941.46
475.112	2015.36
475.484	2066.43
475.855	2125.18
476.227	2130.16
476.598	2236.14
476.97	2277.95
477.341	2318.63
477.713	2357.04
478.084	2439.53
478.455	2478.62
478.827	2557.72
479.198	2619.18
479.569	2624.83
479.94	2734.89
480.311	2813.08
480.682	2872.06
481.053	2983.69
481.424	3026.4
481.795	3117.02
482.166	3220.97
482.537	3293.52
482.908	3401.08
483.279	3416.22
483.65	3588.87
484.021	3639.49
484.391	3700.74
484.762	3815.76
485.133	3873.84
485.503	3953.38
485.874	4136.66
486.244	4203.55
486.615	4376.42
486.985	4455.07
487.356	4582.75
487.726	4644.67
488.097	4792.23
488.467	4866.81
488.837	5033.58
489.207	5124.65
489.578	5261.37
489.948	5354.93
490.318	5481.03
490.688	5612.55
491.058	5676.5
491.428	5805.99
491.798	5980.22
492.168	6094.57
492.538	6147.9
492.908	6284.17
493.278	6466.99
493.648	6522.36
494.017	6668.79
494.387	6775.68
494.757	6896.58
495.126	7017.48
495.496	7119.4
495.866	7200.98
496.235	7346.74
496.605	7417.02
496.974	7606.85
497.344	7605.04
497.713	7786.05
498.082	7841.64
498.452	7998.25
498.821	8025.14
499.19	8152.82
499.559	8315.76
499.928	8342.65
500.298	8376.32
500.667	8560.5
501.036	8594.39
501.405	8681.85
501.774	8795.52
502.143	8836.42
502.512	8980.6
502.88	9009.52
503.249	9094.27
503.618	9181.95
503.987	9256.52
504.356	9366.35
504.724	9421.49
505.093	9524.76
505.462	9567.02
505.83	9624.42
506.199	9649.28
506.567	9847.02
506.936	9881.82
507.304	9983.73
507.672	9982.38
508.041	10014.92
508.409	10152.77
508.777	10180.34
509.145	10311.18
509.514	10292.65
509.882	10356.38
510.25	10362.93
510.618	10457.62
510.986	10522.48
511.354	10564.51
511.722	10632.31
512.09	10822.58
512.458	10771.74
512.826	10810.15
513.193	10824.39
513.561	10905.97
513.929	10953.88
514.297	11054.89
514.664	10981.67
515.032	11110.94
515.4	11228.67
515.767	11234.32
516.135	11262.35
516.502	11168.11
516.869	11322.68
517.237	11375.79
517.604	11292.63
517.972	11491.94
518.339	11492.85
518.706	11473.64
519.073	11521.77
519.44	11524.26
519.808	11619.4
520.175	11683.8
520.542	11701.66
520.909	11717.47
521.276	11650.81
521.643	11760.19
522.009	11762.9
522.376	11854.19
522.743	11855.78
523.11	11893.74
523.477	12015.77
523.843	12049.9
524.21	12163.34
524.577	12168.31
524.943	12230.46
525.31	12161.08
525.676	12300.96
526.043	12230.91
526.409	12270.45
526.776	12298.7
527.142	12384.35
527.508	12386.84
527.874	12378.7
528.241	12392.26
528.607	12381.41
528.973	12531.69
529.339	12453.5
529.705	12442.43
530.071	12533.27
530.437	12471.58
530.803	12523.78
531.169	12563.1
531.535	12451.47
531.901	12493.95
532.267	12516.55
532.632	12510.22
532.998	12493.95
533.364	12509.09
533.73	12531.01
534.095	12556.1
534.461	12514.06
534.826	12585.93
535.192	12488.53
535.557	12655.75
535.923	12589.99
536.288	12444.69
536.653	12536.21
537.019	12409.43
537.384	12465.48
537.749	12471.13
538.114	12469.09
538.479	12401.07
538.845	12377.12
539.21	12326.5
539.575	12344.35
539.94	12319.27
540.305	12368.08
540.67	12235.2
541.034	12277.23
541.399	12230.46
541.764	12247.4
542.129	12211.02
542.494	12226.16
542.858	12200.63
543.223	12165.37
543.587	12187.07
543.952	12088.31
544.316	12135.32
544.681	12040.63
545.045	11967.41
545.41	12072.04
545.774	12020.97
546.138	11999.27
546.503	11981.87
546.867	11945.49
547.231	11988.65
547.595	11951.59
547.959	11884.93
548.324	11830.24
548.688	11834.99
549.052	11823.91
549.416	11749.11
549.779	11744.82
550.143	11755.89
550.507	11736
550.871	11716.57
551.235	11634.09
551.599	11670.47
551.962	11634.31
552.326	11615.78
552.689	11696.01
553.053	11564.26
553.417	11585.73
553.78	11652.84
554.143	11569.23
554.507	11571.04
554.87	11521.55
555.234	11630.25
555.597	11494.43
555.96	11498.95
556.323	11508.21
556.686	11544.15
557.05	11524.71
557.413	11469.35
557.776	11488.78
558.139	11517.25
558.502	11549.57
558.865	11506.86
559.228	11513.19
559.59	11499.4
559.953	11449.68
560.316	11549.8
560.679	11582.34
561.041	11563.58
561.404	11517.25
561.767	11576.01
562.129	11518.38
562.492	11560.64
562.854	11560.64
563.217	11569.46
563.579	11598.61
563.941	11582.11
564.304	11610.13
564.666	11632.28
565.028	11641.32
565.39	11558.61
565.753	11715.67
566.115	11628.44
566.477	11727.42
566.839	11682.9
567.201	11719.51
567.563	11664.37
567.925	11740.52
568.287	11780.52
568.648	11721.99
569.01	11822.1
569.372	11804.93
569.734	11691.94
570.095	11756.12
570.457	11889.45
570.819	11778.26
571.18	11762.44
571.542	11865.49
571.903	11886.51
572.265	11834.31
572.626	11938.94
572.987	11841.09
573.349	11904.36
573.71	11889.67
574.071	11951.14
574.432	11928.09
574.794	11992.27
575.155	11959.73
575.516	11983.23
575.877	11967.41
576.238	11986.62
576.599	11973.74
576.96	12049.67
577.32	12091.48
577.681	12069.56
578.042	12033.62
578.403	11991.59
578.763	12145.26
579.124	12025.94
579.485	12102.77
579.845	12037.01
580.206	12034.53
580.566	11992.72
580.927	12041.99
581.287	12122.21
581.648	11934.19
582.008	12061.42
582.368	12062.78
582.728	12107.75
583.089	12086.96
583.449	12052.61
583.809	12020.07
584.169	12109.33
584.529	11981.2
584.889	12098.26
585.249	11973.06
585.609	11965.38
585.969	12017.58
586.329	11930.58
586.688	11998.6
587.048	11928.77
587.408	11947.3
587.768	11904.14
588.127	11921.99
588.487	11828.66
588.846	11948.2
589.206	11884.02
589.565	11893.29
589.925	11946.39
590.284	11886.96
590.643	11932.38
591.003	11905.49
591.362	11942.1
591.721	11840.18
592.08	11889.22
592.44	11912.05
592.799	11864.59
593.158	11884.7
593.517	11851.93
593.876	11874.31
594.235	11807.64
594.593	11823.23
594.952	11822.33
595.311	11813.97
595.67	11843.35
596.029	11841.09
596.387	11912.27
596.746	11867.53
597.104	11783.24
597.463	11798.15
597.822	11915.66
598.18	11796.57
598.538	11746.85
598.897	11875.21
599.255	11846.96
599.613	11910.24
599.972	11829.34
600.33	11817.81
600.688	11823.46
601.046	11780.98
601.404	11904.36
601.762	11756.34
602.12	11931.71
602.478	11905.49
602.836	11805.83
603.194	11837.02
603.552	11844.02
603.91	11800.18
604.268	11823.23
604.625	11834.08
604.983	11845.15
605.341	11809.22
605.698	11839.96
606.056	11874.31
606.413	11858.04
606.771	11848.54
607.128	11901.88
607.485	11828.21
607.843	11803.8
608.2	11820.52
608.557	11926.51
608.914	11852.39
609.272	11936.23
609.629	11902.33
609.986	11999.05
610.343	11849.9
610.7	11974.19
611.057	11982.78
611.414	11985.72
611.771	12025.71
612.127	11901.88
612.484	12018.71
612.841	12075.88
613.198	11941.88
613.554	11984.81
613.911	12117.01
614.267	12068.43
614.624	12077.01
614.98	11952.27
615.337	12081.53
615.693	12041.31
616.05	12075.21
616.406	12093.06
616.762	12096.67
617.118	12085.15
617.475	12133.73
617.831	12088.09
618.187	12055.32
618.543	12101.42
618.899	12137.58
619.255	12215.09
619.611	12182.32
619.967	12236.56
620.323	12159.27
620.678	12136.22
621.034	12105.26
621.39	12176.9
621.746	12090.57
622.101	12279.49
622.457	12159.72
622.812	12180.74
623.168	12248.76
623.523	12258.25
623.879	12243.34
624.234	12196.11
624.589	12226.39
624.945	12185.48
625.3	12199.04
625.655	12268.65
626.01	12233.39
626.365	12273.84
626.72	12173.06
627.075	12217.8
627.43	12138.93
627.785	12157.01
628.14	12140.06
628.495	12166.95
628.85	12139.61
629.205	12127.63
629.559	12170.12
629.914	12096.67
630.269	12133.06
630.623	12090.8
630.978	12049.44
631.332	12085.6
631.687	12094.41
632.041	12040.63
632.396	12139.16
632.75	12026.84
633.104	12026.62
633.459	12033.4
633.813	12037.24
634.167	11949.78
634.521	11979.16
634.875	12018.03
635.229	12006.73
635.583	11829.11
635.937	11903.46
636.291	11899.84
636.645	11919.95
636.999	11857.58
637.352	11834.76
637.706	11785.04
638.06	11810.81
638.413	11852.61
638.767	11815.1
639.121	11895.32
639.474	11768.77
639.828	11760.86
640.181	11782.56
640.534	11822.78
640.888	11686.06
641.241	11681.09
641.594	11717.25
641.947	11695.55
642.301	11648.1
642.654	11701.66
643.007	11726.29
643.36	11673.86
643.713	11580.53
644.066	11709.79
644.419	11620.98
644.771	11511.83
645.124	11431.15
645.477	11437.26
645.83	11323.36
646.182	11332.4
646.535	11263.25
646.888	11301.44
647.24	11202.69
647.593	11368.33
647.945	11287.66
648.298	11213.98
648.65	11305.73
649.002	11164.72
649.355	11244.72
649.707	11188
650.059	11290.14
650.411	11423.24
650.763	11389.57
651.115	11567.2
651.467	11460.08
651.819	11503.24
652.171	11562.22
652.523	11473.64
652.875	11566.97
653.227	11457.14
653.578	11495.33
653.93	11543.02
654.282	11455.56
654.633	11371.72
654.985	11519.29
655.337	11504.6
655.688	11449.01
656.039	11522
656.391	11390.7
656.742	11450.14
657.094	11403.13
657.445	11436.35
657.796	11387.99
658.147	11416.24
658.498	11477.25
658.849	11481.32
659.2	11419.18
659.551	11425.05
659.902	11481.77
660.253	11404.49
660.604	11491.27
660.955	11467.54
661.306	11611.04
661.656	11508.44
662.007	11471.61
662.358	11493.3
662.708	11511.83
663.059	11467.99
663.409	11469.12
663.76	11520.19
664.11	11533.75
664.461	11467.09
664.811	11533.3
665.161	11473.19
665.511	11444.49
665.862	11507.08
666.212	11574.65
666.562	11533.52
666.912	11482.9
667.262	11454.43
667.612	11519.74
667.962	11486.07
668.312	11529
668.662	11580.53
669.011	11503.47
669.361	11539.63
669.711	11458.72
670.06	11518.61
670.41	11461.66
670.76	11403.58
671.109	11437.26
671.459	11518.16
671.808	11462.11
672.157	11495.11
672.507	11413.98
672.856	11327.2
673.205	11435.67
673.554	11439.74
673.904	11438.61
674.253	11450.59
674.602	11431.38
674.951	11227.77
675.3	11152.97
675.649	11393.64
675.998	11302.8
676.346	11318.84
676.695	11372.62
677.044	11246.07
677.393	11298.05
677.741	11320.65
678.09	11326.98
678.438	11293.76
678.787	11286.98
679.135	11298.73
679.484	11115
679.832	11277.49
680.181	11173.76
680.529	11168.34
680.877	11143.03
681.225	11128.79
681.573	11227.54
681.922	11161.33
682.27	11079.75
682.618	11104.16
682.966	11095.57
683.314	11087.43
683.661	11041.56
684.009	11019.41
684.357	10971.28
684.705	10941.45
685.053	10890.15
685.4	10966.53
685.748	10853.54
686.095	10861.45
686.443	10826.65
686.79	10854.67
687.138	10786.88
687.485	10807.44
687.832	10680.21
688.18	10778.97
688.527	10620.55
688.874	10571.29
689.221	10669.14
689.568	10660.33
689.915	10592.98
690.262	10581.91
690.609	10504.4
690.956	10473.89
691.303	10348.92
691.65	10365.65
691.997	10409.26
692.344	10317.74
692.69	10256.5
693.037	10357.06
693.383	10198.87
693.73	10214.24
694.077	10165.42
694.423	10151.41
694.769	10156.61
695.116	10074.13
695.462	10073.9
695.808	10023.06
696.155	10094.92
696.501	9990.74
696.847	9919.78
697.193	9913
697.539	9870.07
697.885	9801.82
698.231	9776.96
698.577	9800.69
698.923	9773.57
699.269	9646.34
699.614	9647.7
699.96	9583.07
700.306	9611.32
700.651	9530.41
700.997	9540.58
701.342	9527.25
701.688	9450.19
702.033	9446.12
702.379	9436.86
702.724	9435.73
703.069	9434.6
703.415	9301.27
703.76	9334.94
704.105	9306.01
704.45	9309.4
704.795	9228.95
705.14	9161.84
705.485	9135.62
705.83	9099.01
706.175	9107.37
706.52	9074.38
706.865	9075.96
707.209	9072.12
707.554	9005.23
707.899	9018.34
708.243	8897.66
708.588	8950.77
708.932	8858.11
709.277	8823.54
709.621	8865.35
709.966	8787.16
710.31	8807.95
710.654	8746.71
710.998	8729.76
711.342	8728.4
711.687	8698.8
712.031	8657.89
712.375	8635.97
712.719	8652.92
713.063	8664.9
713.407	8664.45
713.75	8620.61
714.094	8588.07
714.438	8532.7
714.782	8535.86
715.125	8524.56
715.469	8521.17
715.812	8490.67
716.156	8505.36
716.499	8464.68
716.843	8460.38
717.186	8402.53
717.53	8523.21
717.873	8480.5
718.216	8468.75
718.559	8318.47
718.902	8356.88
719.246	8422.42
719.589	8355.08
719.932	8307.39
720.275	8349.43
720.617	8341.74
720.96	8334.74
721.303	8297.9
721.646	8255.64
721.989	8274.85
722.331	8300.16
722.674	8210.22
723.016	8280.73
723.359	8203.22
723.701	8214.74
724.044	8215.42
724.386	8149.43
724.729	8172.71
725.071	8127.51
725.413	8143.78
725.755	8134.29
726.097	8111.02
726.439	8117.57
726.782	8142.43
727.124	8158.47
727.465	8119.83
727.807	8051.13
728.149	8087.29
728.491	8081.86
728.833	8137.68
729.175	8083.22
729.516	8078.7
729.858	8045.93
730.199	8038.93
730.541	8036.89
730.882	8065.14
731.224	8048.19
731.565	8071.47
731.906	8003
732.248	8048.19
732.589	8028.53
732.93	8009.1
733.271	8071.24
733.612	8066.95
733.953	8060.4
734.294	7993.5
734.635	8017.46
734.976	8024.69
735.317	8026.05
735.658	8052.49
735.999	7939.72
736.339	8006.39
736.68	8101.98
737.021	8050.45
737.361	8003
737.702	8062.2
738.042	8078.7
738.383	8042.09
738.723	8080.96
739.063	8066.5
739.404	8093.61
739.744	8075.31
740.084	8070.34
740.424	8107.63
740.764	8118.7
741.104	8094.74
741.444	8066.95
741.784	8070.79
742.124	8140.17
742.464	8174.74
742.804	8131.35
743.143	8193.5
743.483	8220.39
743.823	8152.82
744.162	8235.08
744.502	8237.57
744.841	8273.5
745.181	8297.23
745.52	8285.25
745.86	8321.86
746.199	8362.53
746.538	8412.48
746.877	8371.35
747.216	8450.67
747.556	8440.27
747.895	8552.59
748.234	8594.17
748.573	8624
748.911	8681.4
749.25	8703.09
749.589	8759.81
749.928	8833.03
750.267	8897.44
750.605	8932.69
750.944	8990.99
751.283	9040.93
751.621	9065.11
751.96	9152.34
752.298	9205.22
752.636	9278.22
752.975	9354.6
753.313	9470.98
753.651	9567.93
753.989	9582.84
754.327	9759.11
754.666	9768.37
755.004	9898.77
755.342	10011.98
755.679	10132.43
756.017	10180.79
756.355	10334.23
756.693	10414.23
757.031	10600.67
757.368	10621.46
757.706	10815.58
758.044	10889.93
758.381	11067.1
758.719	11149.35
759.056	11317.26
759.394	11472.74
759.731	11492.85
760.068	11640.19
760.405	11772.16
