Data from hue_140_FLMS001491_00066.txt Node
Date: Tue Feb 07 16:56:15 GMT 2017
User: dcchb
Spectrometer: FLMS00149
Trigger mode: 0
Integration Time (sec): 2.000000E-2
Scans to average: 10
Electric dark correction enabled: true
Nonlinearity correction enabled: false
Boxcar width: 0
XAxis mode: Wavelengths
Number of Pixels in Spectrum: 2048
>>>>>Begin Spectral Data<<<<<
341.393	-21.34
341.776	-21.34
342.16	-21.34
342.543	-54.79
342.927	-59.08
343.31	-72.64
343.693	-76.93
344.077	-59.31
344.46	-66.76
344.843	-57.5
345.226	-56.59
345.61	-29.02
345.993	-12.75
346.376	2.39
346.759	-6.2
347.142	45.32
347.525	59.11
347.908	46.68
348.291	81.03
348.674	101.82
349.057	101.37
349.44	125.32
349.823	145.43
350.206	176.17
350.588	184.08
350.971	219.78
351.354	220.46
351.737	239.44
352.119	240.12
352.502	250.29
352.884	277.18
353.267	290.29
353.65	269.95
354.032	315.37
354.414	303.4
354.797	335.71
355.179	317.18
355.562	314.92
355.944	334.36
356.326	336.39
356.709	324.19
357.091	318.54
357.473	349.5
357.855	351.76
358.238	336.16
358.62	328.93
359.002	340.91
359.384	348.37
359.766	352.66
360.148	321.25
360.53	344.98
360.912	331.87
361.294	326.22
361.676	325.54
362.057	312.66
362.439	325.32
362.821	324.19
363.203	323.96
363.584	333.68
363.966	308.59
364.348	310.18
364.729	339.33
365.111	318.08
365.493	320.12
365.874	340.91
366.256	331.87
366.637	341.81
367.019	314.02
367.4	311.53
367.781	314.24
368.163	310.85
368.544	316.73
368.925	297.29
369.306	324.19
369.688	315.15
370.069	324.19
370.45	321.7
370.831	324.19
371.212	316.5
371.593	312.89
371.974	304.07
372.355	323.96
372.736	341.59
373.117	319.44
373.498	312.44
373.879	314.7
374.26	310.4
374.641	298.2
375.021	327.35
375.402	330.74
375.783	319.21
376.163	320.57
376.544	339.55
376.925	338.42
377.305	322.15
377.686	320.34
378.066	306.79
378.447	322.15
378.827	338.88
379.208	338.65
379.588	332.32
379.968	352.43
380.349	333.9
380.729	345.2
381.109	349.27
381.489	330.97
381.87	350.17
382.25	347.91
382.63	328.71
383.01	340.68
383.39	342.27
383.77	351.76
384.15	338.42
384.53	373.9
384.91	365.54
385.29	360.12
385.67	346.56
386.049	351.98
386.429	355.37
386.809	342.72
387.189	364.86
387.568	359.21
387.948	338.42
388.328	360.8
388.707	353.79
389.087	368.25
389.466	359.89
389.846	360.12
390.225	359.89
390.605	362.6
390.984	384.3
391.363	377.07
391.743	379.55
392.122	378.42
392.501	368.93
392.881	369.83
393.26	367.8
393.639	369.38
394.018	372.77
394.397	367.12
394.776	367.8
395.155	376.84
395.534	375.48
395.913	389.95
396.292	412.55
396.671	381.59
397.05	399.21
397.429	396.05
397.808	391.53
398.186	391.53
398.565	396.27
398.944	378.87
399.323	409.38
399.701	391.08
400.08	398.99
400.458	401.47
400.837	390.63
401.215	396.73
401.594	411.64
401.972	407.35
402.351	422.94
402.729	407.12
403.107	409.83
403.486	420
403.864	420.23
404.242	404.18
404.62	429.95
404.999	406.67
405.377	422.94
405.755	418.42
406.133	417.29
406.511	426.78
406.889	417.52
407.267	438.08
407.645	458.19
408.023	445.54
408.401	434.24
408.779	450.96
409.156	435.82
409.534	439.44
409.912	455.48
410.29	468.82
410.667	443.51
411.045	446.67
411.422	475.82
411.8	459.1
412.178	467.46
412.555	462.26
412.933	485.99
413.31	471.98
413.687	481.24
414.065	481.24
414.442	481.24
414.819	478.98
415.197	495.93
415.574	494.58
415.951	497.06
416.328	476.05
416.705	511.07
417.082	518.53
417.46	519.21
417.837	510.62
418.214	520.79
418.591	547.01
418.967	516.27
419.344	510.17
419.721	541.36
420.098	517.85
420.475	516.27
420.852	552.88
421.228	529.15
421.605	533.9
421.982	535.25
422.358	553.11
422.735	545.42
423.111	560.56
423.488	549.94
423.864	577.06
424.241	570.96
424.617	580
424.994	565.76
425.37	564.86
425.746	577.06
426.123	583.61
426.499	568.7
426.875	575.25
427.251	585.65
427.627	600.11
428.003	588.81
428.379	628.59
428.756	601.92
429.132	612.77
429.507	621.13
429.883	623.39
430.259	620.68
430.635	624.74
431.011	638.08
431.387	631.07
431.763	645.08
432.138	664.97
432.514	666.78
432.89	664.74
433.265	666.78
433.641	666.55
434.016	674.69
434.392	691.41
434.767	690.96
435.143	704.74
435.518	703.16
435.894	714.91
436.269	725.98
436.644	716.94
437.02	707.45
437.395	733.22
437.77	749.71
438.145	732.54
438.52	754.68
438.895	751.29
439.271	765.98
439.646	768.92
440.021	772.54
440.395	783.61
440.77	778.86
441.145	773.67
441.52	798.3
441.895	776.38
442.27	815.47
442.645	806.21
443.019	791.52
443.394	802.59
443.769	838.52
444.143	808.24
444.518	815.92
444.892	829.71
445.267	845.08
445.641	841.23
446.016	858.18
446.39	869.48
446.764	866.32
447.139	845.53
447.513	862.93
447.887	874.45
448.262	870.61
448.636	863.38
449.01	886.88
449.384	897.96
449.758	879.43
450.132	903.83
450.506	926.88
450.88	920.55
451.254	922.36
451.628	933.21
452.002	948.58
452.376	937.96
452.75	982.02
453.123	966.66
453.497	983.38
453.871	980.44
454.244	1007.11
454.618	1029.7
454.992	1023.15
455.365	1023.83
455.739	1055.69
456.112	1048.69
456.486	1064.73
456.859	1067.22
457.232	1081
457.606	1114
457.979	1086.88
458.352	1117.61
458.725	1133.66
459.099	1149.93
459.472	1169.81
459.845	1152.64
460.218	1184.28
460.591	1184.5
460.964	1195.58
461.337	1248
461.71	1263.6
462.083	1244.16
462.456	1255.46
462.829	1285.74
463.201	1292.52
463.574	1291.84
463.947	1307.89
464.32	1333.2
464.692	1358.51
465.065	1398.28
465.438	1402.8
465.81	1425.63
466.183	1431.28
466.555	1462.24
466.928	1466.53
467.3	1481.44
467.672	1498.17
468.045	1535.45
468.417	1546.75
468.789	1585.4
469.161	1620.42
469.534	1638.05
469.906	1666.52
470.278	1711.95
470.65	1741.32
471.022	1740.65
471.394	1805.28
471.766	1815.9
472.138	1841.43
472.51	1929.12
472.882	1912.17
473.253	1965.27
473.625	1996.91
473.997	2058.6
474.369	2094.54
474.74	2121.43
475.112	2165.27
475.484	2241.42
475.855	2299.05
476.227	2326.62
476.598	2390.35
476.97	2412.72
477.341	2477.8
477.713	2532.49
478.084	2616.33
478.455	2704.46
478.827	2729.77
479.198	2829.43
479.569	2897.9
479.94	2978.13
480.311	3039.6
480.682	3120.05
481.053	3229.42
481.424	3289.53
481.795	3387.16
482.166	3486.14
482.537	3558
482.908	3670.77
483.279	3774.49
483.65	3848.61
484.021	3932.23
484.391	4047.93
484.762	4096.52
485.133	4204.08
485.503	4308.94
485.874	4491.08
486.244	4580.57
486.615	4682.72
486.985	4807.46
487.356	4948.47
487.726	4976.27
488.097	5208.35
488.467	5241.12
488.837	5423.04
489.207	5542.13
489.578	5694.44
489.948	5870.26
490.318	5923.14
490.688	6013.53
491.058	6158.84
491.428	6313.18
491.798	6448.32
492.168	6576
492.538	6712.27
492.908	6778.03
493.278	6947.97
493.648	7037
494.017	7238.81
494.387	7364.45
494.757	7441.74
495.126	7596.31
495.496	7662.75
495.866	7799.92
496.235	7961.95
496.605	8049.41
496.974	8157.88
497.344	8315.16
497.713	8368.27
498.082	8424.99
498.452	8627.7
498.821	8672.89
499.19	8787.92
499.559	8970.74
499.928	9028.59
500.298	9132.09
500.667	9236.49
501.036	9332.09
501.405	9417.28
501.774	9434.68
502.143	9549.48
502.512	9634.9
502.88	9782.69
503.249	9824.95
503.618	9887.32
503.987	9958.06
504.356	10077.15
504.724	10126.19
505.093	10171.61
505.462	10320.08
505.83	10348.56
506.199	10403.47
506.567	10502.22
506.936	10572.96
507.304	10689.11
507.672	10745.61
508.041	10868.54
508.409	10872.38
508.777	10944.02
509.145	11078.48
509.514	11043.45
509.882	11139.95
510.25	11169.1
510.618	11213.17
510.986	11278.02
511.354	11412.48
511.722	11403.9
512.09	11575.87
512.458	11497.23
512.826	11648.86
513.193	11668.29
513.561	11671.46
513.929	11776.99
514.297	11824.9
514.664	11869.19
515.032	11830.1
515.4	11940.6
515.767	12021.73
516.135	12013.82
516.502	11954.39
516.869	12100.6
517.237	12164.1
517.604	12070.54
517.972	12149.19
518.339	12313.25
518.706	12198.45
519.073	12268.05
519.44	12329.07
519.808	12279.13
520.175	12299.92
520.542	12496.75
520.909	12521.83
521.276	12455.17
521.643	12588.04
522.009	12623.3
522.376	12677.53
522.743	12623.3
523.11	12656.29
523.477	12857.19
523.843	12825.33
524.21	12905.32
524.577	12795.5
524.943	12838.89
525.31	12940.58
525.676	12924.08
526.043	13012.44
526.409	13029.84
526.776	13109.84
527.142	13086.79
527.508	13119.78
527.874	13092.44
528.241	13085.21
528.607	13128.37
528.973	13214.69
529.339	13107.35
529.705	13243.17
530.071	13243.39
530.437	13221.47
530.803	13246.33
531.169	13212.89
531.535	13115.94
531.901	13179.44
532.267	13210.63
532.632	13132.66
532.998	13193.45
533.364	13240.91
533.73	13177.86
534.095	13182.61
534.461	13149.39
534.826	13134.7
535.192	13152.55
535.557	13273
535.923	13049.5
536.288	13211.76
536.653	13140.57
537.019	13002.5
537.384	13075.49
537.749	13075.94
538.114	13094.25
538.479	13017.86
538.845	12958.88
539.21	12953.23
539.575	12873.23
539.94	12835.95
540.305	12909.62
540.67	12872.11
541.034	12752.79
541.399	12741.49
541.764	12779.9
542.129	12757.76
542.494	12708.27
542.858	12748.94
543.223	12581.72
543.587	12615.61
543.952	12574.03
544.316	12618.55
544.681	12468.95
545.045	12506.92
545.41	12478.22
545.774	12483.41
546.138	12456.3
546.503	12409.52
546.867	12358.22
547.231	12383.08
547.595	12402.51
547.959	12408.39
548.324	12281.16
548.688	12291.56
549.052	12265.57
549.416	12227.15
549.779	12256.08
550.143	12132.69
550.507	12196.64
550.871	12146.93
551.235	12183.08
551.599	12113.71
551.962	12000.26
552.326	12132.01
552.689	12045.23
553.053	12030.77
553.417	12005.01
553.78	12073.93
554.143	11981.28
554.507	12026.48
554.87	11923.88
555.234	11991.22
555.597	11835.97
555.96	11866.93
556.323	11925.01
556.686	11817.44
557.05	11847.95
557.413	11908.74
557.776	11837.33
558.139	11904.45
558.502	11835.97
558.865	11778.57
559.228	11860.83
559.59	11810.21
559.953	11760.04
560.316	11904.9
560.679	11827.84
561.041	11878.01
561.404	11849.31
561.767	11918.23
562.129	11854.5
562.492	11981.51
562.854	11834.84
563.217	11823.55
563.579	11937.67
563.941	11939.25
564.304	11933.15
564.666	11978.12
565.028	11937.89
565.39	11935.63
565.753	12033.71
566.115	11987.61
566.477	12075.29
566.839	12074.84
567.201	12037.1
567.563	12073.93
567.925	12054.95
568.287	12093.59
568.648	12042.3
569.01	12172.46
569.372	12190.99
569.734	12082.52
570.095	12195.06
570.457	12217.43
570.819	12132.46
571.18	12160.49
571.542	12244.78
571.903	12180.15
572.265	12230.09
572.626	12224.66
572.987	12239.81
573.349	12268.51
573.71	12330.2
574.071	12320.26
574.432	12323.87
574.794	12401.61
575.155	12299.24
575.516	12354.15
575.877	12329.29
576.238	12337.43
576.599	12364.1
576.96	12386.69
577.32	12315.96
577.681	12368.62
578.042	12416.07
578.403	12348.95
578.763	12380.59
579.124	12393.25
579.485	12379.24
579.845	12446.58
580.206	12417.88
580.566	12434.83
580.927	12343.31
581.287	12419.24
581.648	12377.88
582.008	12413.36
582.368	12414.49
582.728	12355.96
583.089	12370.2
583.449	12394.38
583.809	12320.26
584.169	12328.16
584.529	12247.94
584.889	12416.52
585.249	12336.3
585.609	12313.93
585.969	12412
586.329	12315.28
586.688	12324.55
587.048	12315.51
587.408	12257.88
587.768	12233.93
588.127	12304.21
588.487	12137.21
588.846	12346.7
589.206	12136.31
589.565	12186.02
589.925	12305.34
590.284	12228.28
590.643	12164.1
591.003	12340.82
591.362	12312.35
591.721	12274.61
592.08	12182.86
592.44	12253.36
592.799	12209.07
593.158	12190.99
593.517	12174.72
593.876	12146.7
594.235	12169.07
594.593	12122.52
594.952	12193.93
595.311	12091.56
595.67	12044.78
596.029	12190.09
596.387	12261.95
596.746	12196.64
597.104	12125.23
597.463	12119.58
597.822	12141.05
598.18	12085.91
598.538	12080.94
598.897	12115.74
599.255	12080.26
599.613	12196.19
599.972	12048.4
600.33	12191.22
600.688	12075.74
601.046	12099.24
601.404	12206.81
601.762	12150.32
602.12	12189.86
602.478	12136.98
602.836	12171.78
603.194	12174.04
603.552	12198.68
603.91	12079.13
604.268	12172.91
604.625	12157.1
604.983	12128.85
605.341	12151.67
605.698	12139.92
606.056	12169.3
606.413	12111.67
606.771	12299.01
607.128	12156.87
607.485	12085.23
607.843	12210.88
608.2	12268.05
608.557	12291.56
608.914	12256.3
609.272	12271.67
609.629	12266.02
609.986	12310.99
610.343	12174.95
610.7	12433.47
611.057	12314.38
611.414	12269.86
611.771	12254.27
612.127	12332.68
612.484	12273.25
612.841	12384.43
613.198	12340.59
613.554	12360.93
613.911	12386.47
614.267	12402.29
614.624	12298.11
614.98	12344.89
615.337	12443.42
615.693	12324.77
616.05	12396.64
616.406	12455.17
616.762	12349.86
617.118	12377.65
617.475	12443.42
617.831	12461.27
618.187	12452.23
618.543	12516.18
618.899	12594.37
619.255	12453.58
619.611	12585.78
619.967	12542.85
620.323	12672.56
620.678	12556.18
621.034	12493.58
621.39	12547.14
621.746	12484.09
622.101	12588.04
622.457	12503.3
622.812	12548.5
623.168	12566.58
623.523	12574.26
623.879	12590.3
624.234	12554.83
624.589	12560.02
624.945	12636.63
625.3	12610.87
625.655	12561.83
626.01	12562.51
626.365	12561.15
626.72	12527.48
627.075	12559.8
627.43	12494.26
627.785	12496.07
628.14	12547.82
628.495	12518.44
628.85	12524.54
629.205	12486.35
629.559	12565.45
629.914	12469.86
630.269	12491.1
630.623	12446.13
630.978	12403.19
631.332	12453.58
631.687	12478.67
632.041	12397.54
632.396	12471.44
632.75	12416.3
633.104	12437.77
633.459	12302.63
633.813	12317.09
634.167	12335.62
634.521	12401.16
634.875	12353.25
635.229	12339.24
635.583	12218.34
635.937	12236.87
636.291	12244.1
636.645	12119.58
636.999	12271.89
637.352	12270.09
637.706	12182.41
638.06	12149.19
638.413	12082.07
638.767	12212.91
639.121	12153.03
639.474	12075.29
639.828	12014.5
640.181	12096.76
640.534	12069.41
640.888	12059.47
641.241	12018.57
641.594	12067.83
641.947	12125.46
642.301	12072.13
642.654	12090.2
643.007	12070.77
643.36	12024.44
643.713	12037.1
644.066	12081.84
644.419	11941.73
644.771	11931.79
645.124	11860.38
645.477	11768.86
645.83	11761.4
646.182	11680.72
646.535	11624
646.888	11720.27
647.24	11623.32
647.593	11748.97
647.945	11638.47
648.298	11596.66
648.65	11581.97
649.002	11544.23
649.355	11579.26
649.707	11622.87
650.059	11602.76
650.411	11782.64
650.763	11790.55
651.115	11851.79
651.467	11906.48
651.819	11906.93
652.171	11877.33
652.523	11834.39
652.875	11835.3
653.227	11763.66
653.578	11937.89
653.93	11868.97
654.282	11879.81
654.633	11824.9
654.985	11828.06
655.337	11882.98
655.688	11777.9
656.039	11862.87
656.391	11767.73
656.742	11824.22
657.094	11815.18
657.445	11840.95
657.796	11854.96
658.147	11776.54
658.498	11760.72
658.849	11833.04
659.2	11879.14
659.551	11821.06
659.902	11893.37
660.253	11848.63
660.604	11868.52
660.955	11900.15
661.306	11885.01
661.656	11851.79
662.007	11917.1
662.358	11870.1
662.708	11863.54
663.059	11860.15
663.409	11776.99
663.76	11881.4
664.11	11890.89
664.461	11864
664.811	11941.73
665.161	11907.61
665.511	11842.53
665.862	11883.43
666.212	11932.69
666.562	11861.28
666.912	11785.58
667.262	11857.67
667.612	11890.66
667.962	11860.83
668.312	11822.64
668.662	11908.06
669.011	11887.05
669.361	11781.06
669.711	11822.87
670.06	11857.89
670.41	11748.52
670.76	11783.77
671.109	11786.94
671.459	11851.34
671.808	11759.82
672.157	11806.6
672.507	11696.32
672.856	11725.02
673.205	11781.29
673.554	11825.8
673.904	11822.42
674.253	11755.98
674.602	11751
674.951	11626.04
675.3	11574.96
675.649	11713.94
675.998	11748.29
676.346	11718.46
676.695	11719.59
677.044	11586.72
677.393	11721.63
677.741	11628.52
678.09	11558.24
678.438	11619.03
678.787	11600.27
679.135	11581.97
679.484	11563.66
679.832	11580.61
680.181	11494.51
680.529	11499.49
680.877	11498.13
681.225	11444.57
681.573	11531.8
681.922	11500.84
682.27	11423.78
682.618	11477.11
682.966	11441.86
683.314	11460.16
683.661	11331.58
684.009	11366.83
684.357	11287.29
684.705	11267.85
685.053	11378.81
685.4	11395.31
685.748	11278.93
686.095	11176.78
686.443	11171.58
686.79	11191.47
687.138	11155.77
687.485	11163.9
687.832	11121.87
688.18	11154.18
688.527	11050.01
688.874	11028.31
689.221	10959.61
689.568	10965.26
689.915	10927.3
690.262	10895.21
690.609	10893.63
690.956	10878.71
691.303	10827.41
691.65	10806.17
691.997	10762.56
692.344	10728.88
692.69	10606.63
693.037	10649.34
693.383	10633.29
693.73	10652.05
694.077	10544.03
694.423	10557.82
694.769	10422.68
695.116	10470.36
695.462	10357.37
695.808	10418.16
696.155	10372.28
696.501	10295
696.847	10352.62
697.193	10224.27
697.539	10320.53
697.885	10172.74
698.231	10149.69
698.577	10151.95
698.923	10162.12
699.269	10003.25
699.614	10047.32
699.96	10010.71
700.306	9942.69
700.651	9914.67
700.997	9780.43
701.342	9817.95
701.688	9767.1
702.033	9733.2
702.379	9736.59
702.724	9693.43
703.069	9722.13
703.415	9561.91
703.76	9685.3
704.105	9587.67
704.45	9571.85
704.795	9519.65
705.14	9475.36
705.485	9530.72
705.83	9433.55
706.175	9504.51
706.52	9360.11
706.865	9428.13
707.209	9373.21
707.554	9346.32
707.899	9345.87
708.243	9303.16
708.588	9236.27
708.932	9236.49
709.277	9154.46
709.621	9178.87
709.966	9168.25
710.31	9145.2
710.654	9050.51
710.998	9033.79
711.342	9044.86
711.687	9044.64
712.031	9010.51
712.375	8954.69
712.719	9003.51
713.063	8927.35
713.407	8904.98
713.75	8892.77
714.094	8923.06
714.438	8900.68
714.782	8892.32
715.125	8853.91
715.469	8872.66
715.812	8835.15
716.156	8756.73
716.499	8751.54
716.843	8758.77
717.186	8668.83
717.53	8765.09
717.873	8762.16
718.216	8729.39
718.559	8649.62
718.902	8565.78
719.246	8601.48
719.589	8680.8
719.932	8576.4
720.275	8615.49
720.617	8640.8
720.96	8577.08
721.303	8568.04
721.646	8606.23
721.989	8551.54
722.331	8497.53
722.674	8514.25
723.016	8585.21
723.359	8511.77
723.701	8540.47
724.044	8509.73
724.386	8442.84
724.729	8487.81
725.071	8475.38
725.413	8464.76
725.755	8439.23
726.097	8476.51
726.439	8376.63
726.782	8420.7
727.124	8431.09
727.465	8379.79
727.807	8396.74
728.149	8392
728.491	8369.4
728.833	8363.3
729.175	8339.12
729.516	8354.03
729.858	8346.12
730.199	8396.52
730.541	8322.85
730.882	8346.35
731.224	8389.51
731.565	8352.9
731.906	8306.12
732.248	8348.16
732.589	8288.27
732.93	8242.4
733.271	8325.56
733.612	8330.53
733.953	8346.12
734.294	8317.2
734.635	8337.76
734.976	8332.11
735.317	8273.36
735.658	8259.57
735.999	8267.48
736.339	8342.51
736.68	8335.73
737.021	8327.59
737.361	8281.94
737.702	8359.23
738.042	8368.27
738.383	8296.63
738.723	8342.28
739.063	8307.03
739.404	8352
739.744	8333.69
740.084	8318.1
740.424	8354.26
740.764	8420.7
741.104	8425.89
741.444	8417.31
741.784	8418.21
742.124	8399
742.464	8409.4
742.804	8393.58
743.143	8491.66
743.483	8533.69
743.823	8514.25
744.162	8507.25
744.502	8549.96
744.841	8536.4
745.181	8621.37
745.52	8606.45
745.86	8645.55
746.199	8730.52
746.538	8728.26
746.877	8773.46
747.216	8815.71
747.556	8863.85
747.895	8906.11
748.234	8924.41
748.573	8982.26
748.911	9002.6
749.25	9065.88
749.589	9052.77
749.928	9212.77
750.267	9232.65
750.605	9299.32
750.944	9418.64
751.283	9461.12
751.621	9487.11
751.96	9624.73
752.298	9667.67
752.636	9768.68
752.975	9843.03
753.313	9948.57
753.651	10021.78
753.989	10101.33
754.327	10213.64
754.666	10306.07
755.004	10452.28
755.342	10421.77
755.679	10654.08
756.017	10664.25
756.355	10920.29
756.693	10925.49
757.031	11123
757.368	11184.01
757.706	11340.85
758.044	11458.13
758.381	11664.68
758.719	11756.43
759.056	11867.16
759.394	12028.29
759.731	12158.9
760.068	12273.7
