Data from hue_28_FLMS001491_00081.txt Node
Date: Tue Feb 07 17:17:55 GMT 2017
User: dcchb
Spectrometer: FLMS00149
Trigger mode: 0
Integration Time (sec): 2.000000E-2
Scans to average: 10
Electric dark correction enabled: true
Nonlinearity correction enabled: false
Boxcar width: 0
XAxis mode: Wavelengths
Number of Pixels in Spectrum: 2048
>>>>>Begin Spectral Data<<<<<
341.393	-5.14
341.776	-5.14
342.16	-5.14
342.543	-74.07
342.927	-54.41
343.31	-67.06
343.693	-76.33
344.077	-83.11
344.46	-64.8
344.843	-54.63
345.226	-30.45
345.61	-36.78
345.993	-10.34
346.376	2.54
346.759	21.98
347.142	11.81
347.525	52.26
347.908	54.29
348.291	52.71
348.674	104.01
349.057	123.9
349.44	130.67
349.823	167.28
350.206	168.19
350.588	207.51
350.971	210.67
351.354	219.94
351.737	232.14
352.119	267.39
352.502	255.42
352.884	284.12
353.267	318.01
353.65	297.9
354.032	295.42
354.414	306.72
354.797	316.66
355.179	319.82
355.562	331.57
355.944	354.62
356.326	344.91
356.709	317.79
357.091	334.96
357.473	348.75
357.855	334.96
358.238	351.91
358.62	331.57
359.002	334.74
359.384	335.64
359.766	336.77
360.148	351.69
360.53	343.55
360.912	333.16
361.294	328.41
361.676	332.48
362.057	350.1
362.439	324.34
362.821	332.48
363.203	318.24
363.584	333.83
363.966	327.05
364.348	345.58
364.729	318.24
365.111	325.92
365.493	312.82
365.874	322.76
366.256	320.73
366.637	319.14
367.019	325.7
367.4	318.69
367.781	319.82
368.163	327.28
368.544	321.4
368.925	307.85
369.306	335.19
369.688	308.75
370.069	319.6
370.45	320.5
370.831	324.34
371.212	296.77
371.593	305.59
371.974	335.19
372.355	340.16
372.736	339.03
373.117	315.53
373.498	330.9
373.879	317.79
374.26	306.72
374.641	327.28
375.021	320.27
375.402	312.36
375.783	315.53
376.163	306.49
376.544	320.5
376.925	332.03
377.305	326.38
377.686	334.51
378.066	323.89
378.447	328.86
378.827	345.81
379.208	324.57
379.588	330.44
379.968	332.93
380.349	329.77
380.729	343.78
381.109	365.02
381.489	348.97
381.87	342.19
382.25	339.26
382.63	337.22
383.01	366.83
383.39	362.08
383.77	340.39
384.15	360.05
384.53	348.07
384.91	346.94
385.29	359.37
385.67	360.95
386.049	379.03
386.429	366.83
386.809	345.81
387.189	364.11
387.568	364.34
387.948	340.39
388.328	366.15
388.707	370.67
389.087	377
389.466	369.99
389.846	383.32
390.225	364.34
390.605	369.54
390.984	376.32
391.363	381.52
391.743	379.26
392.122	350.56
392.501	384.45
392.881	368.63
393.26	380.16
393.639	366.6
394.018	385.58
394.397	393.49
394.776	394.62
395.155	372.02
395.534	391.23
395.913	382.87
396.292	367.28
396.671	362.98
397.05	404.79
397.429	390.78
397.808	393.27
398.186	377.67
398.565	404.79
398.944	398.01
399.323	409.54
399.701	385.36
400.08	378.35
400.458	392.14
400.837	392.36
401.215	419.48
401.594	416.77
401.972	409.09
402.351	405.92
402.729	406.83
403.107	409.31
403.486	402.98
403.864	406.15
404.242	415.19
404.62	412.7
404.999	426.71
405.377	416.32
405.755	420.16
406.133	419.25
406.511	409.31
406.889	429.2
407.267	441.63
407.645	431.23
408.023	423.32
408.401	433.49
408.779	436.2
409.156	446.6
409.534	439.59
409.912	442.08
410.29	449.99
410.667	449.08
411.045	458.58
411.422	477.78
411.8	493.6
412.178	473.26
412.555	462.64
412.933	466.48
413.31	471
413.687	454.28
414.065	490.44
414.442	482.3
414.819	491.79
415.197	485.24
415.574	494.96
415.951	489.08
416.328	500.61
416.705	508.74
417.082	497.44
417.46	494.51
417.837	490.89
418.214	507.39
418.591	500.38
418.967	509.2
419.344	522.53
419.721	525.24
420.098	520.27
420.475	535.64
420.852	530.21
421.228	544.9
421.605	538.12
421.982	544.22
422.358	534.96
422.735	558.01
423.111	550.78
423.488	531.57
423.864	547.61
424.241	564.34
424.617	562.08
424.994	577.22
425.37	569.53
425.746	566.82
426.123	580.38
426.499	557.1
426.875	577.89
427.251	573.6
427.627	596.2
428.003	592.36
428.379	600.27
428.756	594.62
429.132	618.57
429.507	624.22
429.883	622.86
430.259	620.38
430.635	629.42
431.011	627.61
431.387	644.56
431.763	664.45
432.138	682.75
432.514	622.64
432.89	642.3
433.265	652.24
433.641	658.57
434.016	669.42
434.392	689.98
434.767	678.91
435.143	694.73
435.518	678.23
435.894	709.19
436.269	702.18
436.644	696.76
437.02	713.26
437.395	705.8
437.77	716.2
438.145	751.22
438.52	735.18
438.895	748.96
439.271	729.53
439.646	779.7
440.021	753.48
440.395	747.83
440.77	770.66
441.145	754.61
441.52	771.56
441.895	769.75
442.27	762.75
442.645	795.52
443.019	805.23
443.394	753.71
443.769	784.44
444.143	792.58
444.518	789.19
444.892	804.33
445.267	831.9
445.641	802.97
446.016	833.71
446.39	813.37
446.764	839.13
447.139	843.88
447.513	841.39
447.887	814.95
448.262	834.61
448.636	841.16
449.01	853.14
449.384	860.15
449.758	861.05
450.132	869.86
450.506	876.64
450.88	898.34
451.254	891.33
451.628	886.59
452.002	897.21
452.376	918.22
452.75	928.39
453.123	929.07
453.497	922.74
453.871	932.46
454.244	947.15
454.618	967.49
454.992	943.53
455.365	981.73
455.739	968.84
456.112	994.83
456.486	1023.31
456.859	993.93
457.232	1038.67
457.606	990.76
457.979	1037.09
458.352	1052.01
458.725	1060.37
459.099	1053.14
459.472	1092.01
459.845	1084.1
460.218	1101.04
460.591	1106.02
460.964	1106.92
461.337	1111.44
461.71	1155.96
462.083	1164.55
462.456	1174.49
462.829	1151.89
463.201	1187.37
463.574	1183.75
463.947	1196.18
464.32	1226.24
464.692	1216.52
465.065	1243.41
465.438	1247.26
465.81	1290.19
466.183	1288.61
466.555	1312.11
466.928	1326.8
467.3	1332
467.672	1362.28
468.045	1378.1
468.417	1337.2
468.789	1404.54
469.161	1392.11
469.534	1411.32
469.906	1457.65
470.278	1455.39
470.65	1471.66
471.022	1494.93
471.394	1543.07
471.766	1558.43
472.138	1577.64
472.51	1595.72
472.882	1648.83
473.253	1658.32
473.625	1636.17
473.997	1687.47
474.369	1714.14
474.74	1735.6
475.112	1771.54
475.484	1794.13
475.855	1820.35
476.227	1873
476.598	1878.43
476.97	1921.81
477.341	1972.66
477.713	1977.63
478.084	1993.68
478.455	2049.04
478.827	2114.8
479.198	2160
479.569	2169.26
479.94	2231.18
480.311	2255.14
480.682	2320.45
481.053	2370.84
481.424	2383.72
481.795	2457.84
482.166	2507.11
482.537	2523.38
482.908	2557.5
483.279	2615.35
483.65	2665.98
484.021	2742.58
484.391	2758.85
484.762	2820.32
485.133	2817.16
485.503	2927.89
485.874	2970.83
486.244	2995.46
486.615	3087.66
486.985	3156.13
487.356	3224.15
487.726	3222.34
488.097	3311.16
488.467	3343.25
488.837	3416.01
489.207	3444.71
489.578	3501.89
489.948	3548.66
490.318	3617.59
490.688	3657.14
491.058	3715.21
491.428	3801.54
491.798	3812.39
492.168	3908.65
492.538	3917.69
492.908	3966.96
493.278	4081.08
493.648	4053.96
494.017	4115.43
494.387	4180.29
494.757	4211.92
495.126	4274.97
495.496	4317.91
495.866	4350
496.235	4428.19
496.605	4463.67
496.974	4502.54
497.344	4480.84
497.713	4547.96
498.082	4600.61
498.452	4654.4
498.821	4654.85
499.19	4732.14
499.559	4702.08
499.928	4756.99
500.298	4795.18
500.667	4857.56
501.036	4877.44
501.405	4913.37
501.774	4973.03
502.143	4987.95
502.512	5010.09
502.88	5084.67
503.249	5113.37
503.618	5156.53
503.987	5138.45
504.356	5208.28
504.724	5217.09
505.093	5279.47
505.462	5274.49
505.83	5321.05
506.199	5326.24
506.567	5413.93
506.936	5438.56
507.304	5470.87
507.672	5452.57
508.041	5493.92
508.409	5534.83
508.777	5621.38
509.145	5589.06
509.514	5635.61
509.882	5730.98
510.25	5692.11
510.618	5718.1
510.986	5690.08
511.354	5787.47
511.722	5779.57
512.09	5873.12
512.458	5824.31
512.826	5867.25
513.193	5964.87
513.561	5952.44
513.929	6024.08
514.297	6002.61
514.664	6038.77
515.032	6008.26
515.4	6099.11
515.767	6110.18
516.135	6119.22
516.502	6146.79
516.869	6156.73
517.237	6253
517.604	6222.94
517.972	6299.55
518.339	6272.66
518.706	6317.18
519.073	6318.99
519.44	6373.45
519.808	6432.66
520.175	6457.06
520.542	6526.44
520.909	6523.95
521.276	6503.61
521.643	6575.7
522.009	6612.54
522.376	6664.74
522.743	6634.23
523.11	6726.43
523.477	6819.31
523.843	6803.27
524.21	6918.29
524.577	6913.32
524.943	6885.53
525.31	6928.01
525.676	6989.25
526.043	6994.45
526.409	7074.67
526.776	7093.2
527.142	7078.97
527.508	7177.49
527.874	7155.57
528.241	7259.53
528.607	7280.32
528.973	7321.22
529.339	7350.6
529.705	7390.37
530.071	7464.04
530.437	7500.88
530.803	7538.84
531.169	7529.12
531.535	7516.47
531.901	7571.61
532.267	7694.32
532.632	7685.05
532.998	7699.06
533.364	7744.03
533.73	7761.43
534.095	7776.8
534.461	7854.31
534.826	7947.19
535.192	7964.82
535.557	7995.78
535.923	7943.58
536.288	7995.78
536.653	8094.31
537.019	7998.94
537.384	8118.71
537.749	8138.6
538.114	8164.59
538.479	8210.91
538.845	8191.03
539.21	8230.12
539.575	8268.77
539.94	8328.88
540.305	8355.99
540.67	8348.09
541.034	8413.62
541.399	8445.26
541.764	8503.56
542.129	8495.88
542.494	8541.07
542.858	8612.94
543.223	8584.46
543.587	8659.04
543.952	8612.94
544.316	8689.09
544.681	8755.31
545.045	8804.8
545.41	8804.57
545.774	8859.71
546.138	8880.73
546.503	8868.75
546.867	8889.54
547.231	9002.98
547.595	8922.99
547.959	9058.58
548.324	9008.18
548.688	9122.53
549.052	9098.12
549.416	9064.68
549.779	9134.96
550.143	9164.79
550.507	9238.46
550.871	9300.83
551.235	9258.8
551.599	9368.62
551.962	9296.31
552.326	9360.26
552.689	9443.2
553.053	9384.67
553.417	9487.72
553.78	9606.36
554.143	9528.17
554.507	9628.96
554.87	9619.46
555.234	9677.99
555.597	9587.83
555.96	9656.98
556.323	9743.98
556.686	9692.91
557.05	9785.11
557.413	9807.48
557.776	9854.26
558.139	9909.4
558.502	9898.1
558.865	9931.32
559.228	9996.86
559.59	9979.68
559.953	10028.95
560.316	10173.8
560.679	10174.93
561.041	10151.65
561.404	10180.81
561.767	10266.23
562.129	10261.48
562.492	10379.44
562.854	10343.51
563.217	10325.21
563.579	10410.4
563.941	10485.43
564.304	10456.5
564.666	10596.84
565.028	10525.88
565.39	10580.12
565.753	10649.04
566.115	10722.71
566.477	10776.27
566.839	10738.76
567.201	10886.1
567.563	10901.46
567.925	10916.61
568.287	10853.56
568.648	10931.52
569.01	11089.03
569.372	11054.68
569.734	11074.34
570.095	11159.31
570.457	11173.1
570.819	11198.18
571.18	11312.08
571.542	11328.12
571.903	11419.64
572.265	11429.36
572.626	11438.85
572.987	11512.97
573.349	11645.4
573.71	11629.13
574.071	11705.96
574.432	11750.93
574.794	11894.88
575.155	11905.73
575.516	11861.21
575.877	11963.13
576.238	12068.67
576.599	12166.06
576.96	12236.57
577.32	12211.94
577.681	12460.52
578.042	12456.23
578.403	12611.93
578.763	12723.11
579.124	12776.9
579.485	12962.65
579.845	13020.96
580.206	13126.04
580.566	13187.28
580.927	13325.36
581.287	13554.73
581.648	13581.85
582.008	13868.84
582.368	13955.4
582.728	14032.46
583.089	14262.05
583.449	14406.23
583.809	14589.28
584.169	14792.89
584.529	14922.15
584.889	15123.95
585.249	15265.42
585.609	15427.9
585.969	15737.27
586.329	15932.97
586.688	16103.81
587.048	16343.13
587.408	16469.45
587.768	16932.72
588.127	17009.78
588.487	17200.28
588.846	17577
589.206	17745.13
589.565	18054.95
589.925	18328.16
590.284	18527.03
590.643	18886.57
591.003	19058.76
591.362	19437.29
591.721	19696.94
592.08	19984.62
592.44	20200.2
592.799	20470.25
593.158	20719.51
593.517	21084.47
593.876	21447.85
594.235	21698.69
594.593	22040.15
594.952	22370.99
595.311	22575.96
595.67	22832.68
596.029	23317.64
596.387	23573
596.746	23859.77
597.104	24127.11
597.463	24344.5
597.822	24805.51
598.18	25018.83
598.538	25272.84
598.897	25709.66
599.255	25746.95
599.613	26442.53
599.972	26565.69
600.33	26828.05
600.688	27076.18
601.046	27435.95
601.404	27797.29
601.762	27932.66
602.12	28454.9
602.478	28826.87
602.836	28933.98
603.194	29065.28
603.552	29436.12
603.91	29423.92
604.268	30032.04
604.625	30030.91
604.983	30432.48
605.341	30623.66
605.698	31026.13
606.056	31279.91
606.413	31459.34
606.771	31830.63
607.128	32080.34
607.485	32036.05
607.843	32382.26
608.2	32834.22
608.557	33085.51
608.914	33166.64
609.272	33594.2
609.629	33796.46
609.986	33993.74
610.343	33962.78
610.7	34425.37
611.057	34623.33
611.414	34810.21
611.771	35034.39
612.127	35306.47
612.484	35423.08
612.841	35727.48
613.198	35882.73
613.554	35999.34
613.911	36331.98
614.267	36522.71
614.624	36595.48
614.98	36802.93
615.337	37029.82
615.693	37156.14
616.05	37333.99
616.406	37674.77
616.762	37618.05
617.118	37777.14
617.475	37742.57
617.831	38239.28
618.187	38266.62
618.543	38399.05
618.899	38662.32
619.255	38714.74
619.611	38906.15
619.967	39009.65
620.323	39292.36
620.678	39091.01
621.034	39200.61
621.39	39418
621.746	39360.38
622.101	39820.25
622.457	39655.74
622.812	39809.41
623.168	40046.24
623.523	40110.19
623.879	40178.21
624.234	40068.38
624.589	40312.89
624.945	40349.73
625.3	40525.32
625.655	40556.28
626.01	40613.9
626.365	40728.48
626.72	40815.03
627.075	40837.85
627.43	40862.48
627.785	40769.61
628.14	41168.01
628.495	41120.11
628.85	41081.91
629.205	40986.78
629.559	41346.99
629.914	41078.52
630.269	41372.3
630.623	41274
630.978	41203.27
631.332	41394.67
631.687	41559.87
632.041	41417.95
632.396	41568.23
632.75	41296.6
633.104	41590.6
633.459	41382.47
633.813	41454.79
634.167	41444.84
634.521	41539.3
634.875	41634.22
635.229	41595.35
635.583	41452.07
635.937	41384.28
636.291	41397.16
636.645	41396.71
636.999	41485.75
637.352	41599.19
637.706	41298.41
638.06	41640.32
638.413	41528
638.767	41423.37
639.121	41534.78
639.474	41248.24
639.828	41290.95
640.181	41499.76
640.534	41500.89
640.888	41282.81
641.241	41321.68
641.594	41232.19
641.947	41426.76
642.301	41345.18
642.654	41343.83
643.007	41290.04
643.36	41339.31
643.713	41252.98
644.066	41368.46
644.419	41050.73
644.771	40903.39
645.124	40542.04
645.477	40681.92
645.83	40382.05
646.182	40186.12
646.535	40234.48
646.888	40206.91
647.24	40046.24
647.593	40324.65
647.945	40182.5
648.298	40053.01
648.65	40000.59
649.002	39981.6
649.355	40008.95
649.707	40052.79
650.059	40217.98
650.411	40737.29
650.763	40718.99
651.115	40919.43
651.467	40925.76
651.819	41055.25
652.171	40806.67
652.523	40912.88
652.875	40737.06
653.227	40695.26
653.578	40978.41
653.93	40939.09
654.282	40757.18
654.633	40709.04
654.985	40668.37
655.337	40703.62
655.688	40667.69
656.039	40819.1
656.391	40490.07
656.742	40587.01
657.094	40645.32
657.445	40661.13
657.796	40679.89
658.147	40566.67
658.498	40503.17
658.849	40673.56
659.2	40643.28
659.551	40491.87
659.902	40643.96
660.253	40682.38
660.604	40705.2
660.955	40359.22
661.306	40658.65
661.656	40590.85
662.007	40569.16
662.358	40524.87
662.708	40573.68
663.059	40650.29
663.409	40365.1
663.76	40737.06
664.11	40702.72
664.461	40607.8
664.811	40551.76
665.161	40473.12
665.511	40400.8
665.862	40598.09
666.212	40657.07
666.562	40585.88
666.912	40455.49
667.262	40420.46
667.612	40513.34
667.962	40473.57
668.312	40402.38
668.662	40622.49
669.011	40566.22
669.361	40442.61
669.711	40413.46
670.06	40373.46
670.41	40361.26
670.76	40177.53
671.109	40437.86
671.459	40417.98
671.808	40276.29
672.157	40308.83
672.507	40076.06
672.856	40267.7
673.205	40257.76
673.554	40196.06
673.904	40132.56
674.253	40356.51
674.602	40164.42
674.951	39521.28
675.3	39407.83
675.649	40214.82
675.998	40133.92
676.346	40158.1
676.695	40169.62
677.044	39866.35
677.393	40067.25
677.741	40272.44
678.09	40012.79
678.438	39776.41
678.787	39851.66
679.135	39848.05
679.484	39763.53
679.832	39894.15
680.181	39611.22
680.529	39639.47
680.877	39650.31
681.225	39679.01
681.573	39818.44
681.922	39556.53
682.27	39337.55
682.618	39561.95
682.966	39297.78
683.314	39487.83
683.661	39521.28
684.009	39058.69
684.357	39125.58
684.705	39016.66
685.053	39162.64
685.4	39046.71
685.748	38736.44
686.095	38883.1
686.443	38773.05
686.79	38676.55
687.138	38767.4
687.485	38708.42
687.832	38480.17
688.18	38532.83
688.527	38322.66
688.874	38421.87
689.221	38269.11
689.568	38232.72
689.915	37925.84
690.262	38159.96
690.609	38056.01
690.956	37816.01
691.303	37757.93
691.65	37688.33
691.997	37718.84
692.344	37435.46
692.69	37407.66
693.037	37405.63
693.383	37220.55
693.73	37267.78
694.077	37075.24
694.423	37234.78
694.769	36962.93
695.116	36848.58
695.462	36871.86
695.808	36791.18
696.155	36752.99
696.501	36469.38
696.847	36365.2
697.193	36230.74
697.539	36446.56
697.885	36263.51
698.231	36087.47
698.577	36089.28
698.923	36003.63
699.269	35761.38
699.614	35683.86
699.96	35535.85
700.306	35676.63
700.651	35348.96
700.997	35400.71
701.342	35403.87
701.688	35236.87
702.033	35168.85
702.379	35076.65
702.724	34960.95
703.069	35059.25
703.415	34669.65
703.76	34736.32
704.105	34794.17
704.45	34726.83
704.795	34447.06
705.14	34410.9
705.485	34296.33
705.83	34143.57
706.175	34174.98
706.52	34186.05
706.865	33995.09
707.209	33818.6
707.554	33862.44
707.899	34035.32
708.243	33713.29
708.588	33700.19
708.932	33530.93
709.277	33417.71
709.621	33522.11
709.966	33331.84
710.31	33204.61
710.654	32984.05
710.998	33153.54
711.342	33138.85
711.687	33072.63
712.031	32947.44
712.375	32762.81
712.719	32810.27
713.063	32747.67
713.407	32759.42
713.75	32554.91
714.094	32515.13
714.438	32386.55
714.782	32516.72
715.125	32238.53
715.469	32405.76
715.812	32247.57
716.156	32144.52
716.499	32022.94
716.843	32165.31
717.186	31948.82
717.53	32118.53
717.873	32053.45
718.216	32025.88
718.559	31726.23
718.902	31639
719.246	31751.31
719.589	31657.76
719.932	31494.6
720.275	31487.14
720.617	31417.76
720.96	31393.13
721.303	31360.36
721.646	31330.31
721.989	31126.7
722.331	31289.18
722.674	31177.32
723.016	31179.35
723.359	31152.23
723.701	31096.41
724.044	30893.03
724.386	30879.92
724.729	31016.42
725.071	30978.23
725.413	30830.43
725.755	30883.31
726.097	30694.62
726.439	30575.75
726.782	30699.81
727.124	30644.67
727.465	30482.87
727.807	30473.38
728.149	30507.5
728.491	30283.55
728.833	30450.33
729.175	30187.74
729.516	30187.29
729.858	30294.4
730.199	30273.61
730.541	30192.71
730.882	30043.79
731.224	30199.26
731.565	30044.92
731.906	29921.53
732.248	30032.04
732.589	29846.96
732.93	29732.61
733.271	29752.04
733.612	29771.48
733.953	29848.76
734.294	29764.92
734.635	29561.31
734.976	29620.07
735.317	29568.32
735.658	29515.66
735.999	29515.44
736.339	29471.6
736.68	29580.75
737.021	29322
737.361	29239.74
737.702	29308.89
738.042	29408.32
738.383	29296.01
738.723	29307.31
739.063	29142.12
739.404	29074.09
739.744	28990.25
740.084	28978.96
740.424	29089.69
740.764	28938.96
741.104	29033.19
741.444	28917.49
741.784	28761.33
742.124	28832.07
742.464	28850.6
742.804	28710.04
743.143	28710.49
743.483	28684.5
743.823	28556.82
744.162	28543.71
744.502	28581.23
744.841	28457.84
745.181	28518.18
745.52	28432.98
745.86	28449.93
746.199	28380.78
746.538	28346.66
746.877	28300.56
747.216	28435.92
747.556	28339.88
747.895	28167.45
748.234	28107.79
748.573	28126.55
748.911	28144.18
749.25	28082.71
749.589	27961.13
749.928	28061.47
750.267	28092.43
750.605	27999.09
750.944	27792.77
751.283	27869.38
751.621	27964.29
751.96	27663.06
752.298	27613.57
752.636	27682.49
752.975	27573.79
753.313	27414.02
753.651	27643.85
753.989	27500.58
754.327	27397.3
754.666	27376.74
755.004	27350.07
755.342	27371.09
755.679	27273.24
756.017	27282.73
756.355	27234.59
756.693	27129.29
757.031	27164.77
757.368	27021.94
757.706	26934.49
758.044	26867.82
758.381	26943.98
758.719	26808.39
759.056	26813.59
759.394	26709.18
