Data from hue_32_FLMS001491_00100.txt Node
Date: Tue Feb 07 17:24:17 GMT 2017
User: dcchb
Spectrometer: FLMS00149
Trigger mode: 0
Integration Time (sec): 2.000000E-2
Scans to average: 10
Electric dark correction enabled: true
Nonlinearity correction enabled: false
Boxcar width: 0
XAxis mode: Wavelengths
Number of Pixels in Spectrum: 2048
>>>>>Begin Spectral Data<<<<<
341.393	-16.6
341.776	-16.6
342.16	-16.6
342.543	-60.89
342.927	-51.17
343.31	-63.15
343.693	-50.27
344.077	-64.96
344.46	-62.92
344.843	-56.82
345.226	-29.93
345.61	-37.84
345.993	-31.51
346.376	-8.91
346.759	6.68
347.142	17.53
347.525	31.09
347.908	76.96
348.291	63.18
348.674	83.51
349.057	127.36
349.44	123.06
349.823	145.89
350.206	182.04
350.588	227.01
350.971	231.31
351.354	241.48
351.737	250.74
352.119	256.39
352.502	252.78
352.884	278.54
353.267	273.11
353.65	318.76
354.032	301.14
354.414	301.81
354.797	310.63
355.179	330.51
355.562	327.35
355.944	343.17
356.326	364.86
356.709	329.84
357.091	347.91
357.473	360.34
357.855	374.35
358.238	342.49
358.62	351.08
359.002	342.49
359.384	362.38
359.766	350.85
360.148	356.28
360.53	356.73
360.912	333.45
361.294	348.59
361.676	337.07
362.057	337.52
362.439	322.6
362.821	335.94
363.203	357.86
363.584	306.79
363.966	321.02
364.348	332.1
364.729	331.19
365.111	319.67
365.493	329.16
365.874	324.41
366.256	316.95
366.637	308.59
367.019	308.82
367.4	315.15
367.781	327.58
368.163	305.2
368.544	328.25
368.925	340.01
369.306	328.71
369.688	338.88
370.069	341.36
370.45	313.57
370.831	312.89
371.212	344.98
371.593	309.05
371.974	307.24
372.355	321.25
372.736	330.29
373.117	301.81
373.498	324.86
373.879	307.46
374.26	323.06
374.641	318.54
375.021	327.8
375.402	330.97
375.783	328.03
376.163	344.3
376.544	326.22
376.925	318.08
377.305	330.06
377.686	340.23
378.066	331.42
378.447	332.55
378.827	350.85
379.208	340.46
379.588	329.84
379.968	333.45
380.349	343.17
380.729	347.69
381.109	337.52
381.489	330.29
381.87	343.85
382.25	355.37
382.63	347.91
383.01	351.08
383.39	356.05
383.77	349.95
384.15	359.67
384.53	358.08
384.91	349.95
385.29	370.06
385.67	337.29
386.049	363.73
386.429	370.29
386.809	365.77
387.189	353.11
387.568	355.6
387.948	369.16
388.328	360.34
388.707	370.06
389.087	364.41
389.466	354.24
389.846	366.22
390.225	373.9
390.605	368.03
390.984	369.16
391.363	367.35
391.743	391.08
392.122	385.65
392.501	372.77
392.881	395.6
393.26	379.55
393.639	402.6
394.018	399.89
394.397	382.04
394.776	384.3
395.155	390.85
395.534	389.72
395.913	380.68
396.292	404.64
396.671	401.7
397.05	413.45
397.429	393.34
397.808	404.18
398.186	392.89
398.565	382.72
398.944	424.07
399.323	415.94
399.701	398.31
400.08	415.71
400.458	400.57
400.837	424.75
401.215	420.68
401.594	408.7
401.972	419.33
402.351	420.91
402.729	411.87
403.107	428.59
403.486	402.6
403.864	418.87
404.242	424.3
404.62	424.07
404.999	425.88
405.377	422.71
405.755	437.4
406.133	457.97
406.511	436.73
406.889	468.82
407.267	449.61
407.645	437.86
408.023	467.91
408.401	448.02
408.779	474.92
409.156	448.48
409.534	458.65
409.912	475.37
410.29	457.29
410.667	471.98
411.045	465.43
411.422	491.87
411.8	456.16
412.178	492.77
412.555	474.24
412.933	481.47
413.31	488.7
413.687	476.5
414.065	490.96
414.442	491.19
414.819	498.87
415.197	501.81
415.574	509.04
415.951	515.37
416.328	494.8
416.705	494.58
417.082	503.84
417.46	500.23
417.837	523.5
418.214	526.89
418.591	531.64
418.967	518.53
419.344	550.4
419.721	521.7
420.098	566.21
420.475	508.14
420.852	533.22
421.228	541.36
421.605	524.18
421.982	540
422.358	551.3
422.735	562.37
423.111	537.06
423.488	570.28
423.864	549.27
424.241	570.51
424.617	575.93
424.994	578.42
425.37	600.34
425.746	591.52
426.123	596.04
426.499	570.28
426.875	575.93
427.251	611.86
427.627	605.53
428.003	595.59
428.379	587.68
428.756	637.4
429.132	618.42
429.507	591.52
429.883	647.79
430.259	655.25
430.635	648.47
431.011	647.79
431.387	641.47
431.763	656.61
432.138	666.1
432.514	659.77
432.89	647.34
433.265	699.77
433.641	670.62
434.016	672.2
434.392	692.76
434.767	681.69
435.143	693.89
435.518	714.46
435.894	689.15
436.269	709.71
436.644	704.74
437.02	713.78
437.395	703.84
437.77	739.09
438.145	762.37
438.52	745.42
438.895	732.99
439.271	761.46
439.646	779.77
440.021	760.11
440.395	808.24
440.77	763.04
441.145	781.12
441.52	784.29
441.895	787.68
442.27	822.48
442.645	798.3
443.019	809.15
443.394	794.91
443.769	832.42
444.143	813.21
444.518	816.6
444.892	808.24
445.267	821.8
445.641	833.78
446.016	827
446.39	850.73
446.764	832.87
447.139	854.34
447.513	890.73
447.887	878.07
448.262	878.07
448.636	859.77
449.01	878.52
449.384	876.04
449.758	878.97
450.132	899.54
450.506	890.5
450.88	912.42
451.254	909.93
451.628	911.97
452.002	916.71
452.376	949.48
452.75	944.96
453.123	944.28
453.497	967.11
453.871	950.84
454.244	989.93
454.618	961.68
454.992	998.74
455.365	1008.91
455.739	1018.86
456.112	1018.18
456.486	1037.39
456.859	1013.43
457.232	1048.01
457.606	1067.67
457.979	1080.78
458.352	1082.13
458.725	1072.87
459.099	1070.61
459.472	1120.78
459.845	1118.74
460.218	1149.48
460.591	1145.86
460.964	1158.74
461.337	1152.41
461.71	1167.78
462.083	1178.18
462.456	1204.39
462.829	1193.54
463.201	1251.39
463.574	1225.63
463.947	1239.87
464.32	1267.66
464.692	1267.21
465.065	1295.23
465.438	1309.25
465.81	1319.64
466.183	1346.31
466.555	1372.75
466.928	1400.32
467.3	1371.84
467.672	1399.41
468.045	1421.56
468.417	1424.72
468.789	1451.39
469.161	1487.09
469.534	1496.13
469.906	1519.64
470.278	1541.56
470.65	1570.03
471.022	1604.38
471.394	1593.98
471.766	1645.51
472.138	1692.29
472.51	1648.22
472.882	1727.77
473.253	1736.58
473.625	1787.42
473.997	1824.94
474.369	1828.1
474.74	1858.16
475.112	1934.09
475.484	1940.87
475.855	1993.97
476.227	1974.54
476.598	2084.37
476.97	2061.32
477.341	2099.28
477.713	2161.65
478.084	2208.2
478.455	2263.12
478.827	2283.91
479.198	2352.16
479.569	2395.32
479.94	2458.14
480.311	2499.5
480.682	2595.09
481.053	2621.75
481.424	2689.55
481.795	2736.55
482.166	2811.13
482.537	2842.99
482.908	2921.63
483.279	3016.09
483.65	3139.93
484.021	3120.95
484.391	3147.16
484.762	3230.78
485.133	3301.06
485.503	3380.6
485.874	3479.58
486.244	3528.4
486.615	3645.23
486.985	3661.5
487.356	3786.24
487.726	3863.08
488.097	3962.96
488.467	3985.33
488.837	4082.51
489.207	4162.05
489.578	4256.74
489.948	4292.67
490.318	4402.95
490.688	4424.42
491.058	4515.71
491.428	4651.3
491.798	4714.35
492.168	4829.6
492.538	4848.14
492.908	4975.59
493.278	5079.32
493.648	5107.34
494.017	5167.9
494.387	5288.8
494.757	5354.11
495.126	5422.36
495.496	5440.44
495.866	5506.65
496.235	5631.84
496.605	5690.82
496.974	5726.08
497.344	5835
497.713	5917.26
498.082	6035.9
498.452	6072.06
498.821	6111.83
499.19	6181.21
499.559	6290.58
499.928	6299.17
500.298	6345.27
500.667	6428.43
501.036	6480.18
501.405	6505.27
501.774	6617.81
502.143	6690.57
502.512	6724.47
502.88	6792.94
503.249	6798.37
503.618	6869.55
503.987	6914.3
504.356	6982.99
504.724	6998.14
505.093	7101.41
505.462	7161.52
505.83	7187.96
506.199	7227.96
506.567	7387.05
506.936	7330.56
507.304	7476.99
507.672	7532.13
508.041	7562.41
508.409	7636.31
508.777	7649.42
509.145	7715.63
509.514	7780.04
509.882	7848.73
510.25	7895.96
510.618	7900.26
510.986	7915.4
511.354	7994.95
511.722	8034.04
512.09	8175.73
512.458	8089.86
512.826	8153.13
513.193	8312.9
513.561	8262.73
513.929	8388.38
514.297	8407.36
514.664	8459.34
515.032	8449.62
515.4	8595.83
515.767	8585.44
516.135	8678.09
516.502	8621.37
516.869	8773.23
517.237	8762.61
517.604	8691.65
517.972	8884.64
518.339	8914.02
518.706	8898.2
519.073	8946.33
519.44	9028.36
519.808	9080.34
520.175	9133.67
520.542	9215.48
520.909	9249.6
521.276	9272.65
521.643	9340.45
522.009	9401.91
522.376	9447.34
522.743	9510.16
523.11	9539.31
523.477	9713.09
523.843	9674.22
524.21	9730.49
524.577	9813.65
524.943	9889.13
525.31	9907.44
525.676	10031.5
526.043	10092.97
526.409	10066.98
526.776	10191.27
527.142	10214.1
527.508	10292.96
527.874	10362.11
528.241	10365.05
528.607	10436.24
528.973	10502.9
529.339	10516.01
529.705	10596.91
530.071	10660.41
530.437	10726.62
530.803	10814.31
531.169	10904.47
531.535	10882.33
531.901	10881.87
532.267	11013.85
532.632	11053.4
532.998	11056.56
533.364	11123.45
533.73	11162.09
534.095	11304.46
534.461	11247.51
534.826	11337.68
535.192	11430.56
535.557	11598.69
535.923	11427.4
536.288	11548.52
536.653	11612.25
537.019	11546.49
537.384	11538.13
537.749	11728.63
538.114	11713.27
538.479	11690.44
538.845	11787.16
539.21	11810.21
539.575	11823.09
539.94	11893.6
540.305	12061.5
540.67	12031.9
541.034	12045.91
541.399	12035.06
541.764	12261.95
542.129	12209.52
542.494	12261.05
542.858	12327.03
543.223	12328.62
543.587	12366.58
543.952	12336.98
544.316	12363.87
544.681	12464.66
545.045	12623.52
545.41	12707.36
545.774	12670.98
546.138	12686.12
546.503	12734.93
546.867	12816.97
547.231	12891.99
547.595	12866.23
547.959	12906.91
548.324	12987.13
548.688	13038.2
549.052	13127.69
549.416	13114.36
549.779	13114.58
550.143	13166.11
550.507	13341.47
550.871	13324.3
551.235	13288.37
551.599	13341.25
551.962	13442.71
552.326	13414.24
552.689	13543.5
553.053	13535.82
553.417	13572.88
553.78	13751.63
554.143	13655.36
554.507	13794.34
554.87	13848.58
555.234	13941
555.597	13803.15
555.96	13865.3
556.323	14058.51
556.686	13986.2
557.05	14075.24
557.413	14158.4
557.776	14197.95
558.139	14240.43
558.502	14260.09
558.865	14305.51
559.228	14378.51
559.59	14347.32
559.953	14485.4
560.316	14519.97
560.679	14505.51
561.041	14611.49
561.404	14750.25
561.767	14769.46
562.129	14796.57
562.492	14869.57
562.854	14924.93
563.217	14891.71
563.579	14996.34
563.941	15086.96
564.304	15111.82
564.666	15226.62
565.028	15197.02
565.39	15209.44
565.753	15365.15
566.115	15325.37
566.477	15378.48
566.839	15477.01
567.201	15610.11
567.563	15575.08
567.925	15694.86
568.287	15760.39
568.648	15730.56
569.01	15808.75
569.372	15845.59
569.734	15833.61
570.095	15996.99
570.457	16070.89
570.819	16133.26
571.18	16149.76
571.542	16232.47
571.903	16314.27
572.265	16398.57
572.626	16507.26
572.987	16579.58
573.349	16622.74
573.71	16730.99
574.071	16714.49
574.432	16939.57
574.794	16950.19
575.155	17065.22
575.516	17103.18
575.877	17220.69
576.238	17290.07
576.599	17431.76
576.96	17509.95
577.32	17609.16
577.681	17743.62
578.042	17897.51
578.403	17951.75
578.763	18094.34
579.124	18150.84
579.485	18370.27
579.845	18508.12
580.206	18588.56
580.566	18739.3
580.927	18906.52
581.287	19234.65
581.648	19139.74
582.008	19507.86
582.368	19569.56
582.728	19782.88
583.089	19870.11
583.449	20077.57
583.809	20188.07
584.169	20445.24
584.529	20586.93
584.889	21019.01
585.249	21091.78
585.609	21227.37
585.969	21528.6
586.329	21810.85
586.688	22032.32
587.048	22216.94
587.408	22419.2
587.768	22733.99
588.127	22866.87
588.487	23059.41
588.846	23433.18
589.206	23480.19
589.565	23746.62
589.925	24130.11
590.284	24289.88
590.643	24668.18
591.003	24948.62
591.362	25185.68
591.721	25357.2
592.08	25716.97
592.44	26032.66
592.799	26276.5
593.158	26489.37
593.517	26823.15
593.876	27100.88
594.235	27296.81
594.593	27565.73
594.952	27792.16
595.311	28131.14
595.67	28424.69
596.029	28716.43
596.387	29057.89
596.746	29370.88
597.104	29384.89
597.463	29686.13
597.822	30075.49
598.18	30100.58
598.538	30513.45
598.897	30856.49
599.255	30941.91
599.613	31539.18
599.972	31493.76
600.33	31971.49
600.688	31910.47
601.046	32287.87
601.404	32547.29
601.762	32799.49
602.12	33152.25
602.478	33373.49
602.836	33575.74
603.194	33822.29
603.552	33858.22
603.91	33914.49
604.268	34307.93
604.625	34406
604.983	34662.49
605.341	34837.86
605.698	35081.92
606.056	35422.02
606.413	35540.44
606.771	35825.85
607.128	35981.55
607.485	35966.64
607.843	36235.33
608.2	36616.34
608.557	36897.24
608.914	36814.3
609.272	37184.01
609.629	37391.46
609.986	37696.31
610.343	37623.77
610.7	38017.66
611.057	38179.01
611.414	38367.48
611.771	38320.93
612.127	38715.04
612.484	38682.27
612.841	39017.63
613.198	39025.99
613.554	39166.1
613.911	39462.59
614.267	39538.07
614.624	39707.78
614.98	39672.08
615.337	40047.21
615.693	40120.88
616.05	40199.75
616.406	40444.94
616.762	40390.25
617.118	40637.02
617.475	40658.04
617.831	40773.29
618.187	40966.51
618.543	40903.91
618.899	41238.14
619.255	41360.85
619.611	41316.33
619.967	41551.35
620.323	41759.93
620.678	41673.16
621.034	41703.21
621.39	41790.21
621.746	41831.8
622.101	42314.27
622.457	42002.64
622.812	42169.41
623.168	42380.93
623.523	42449.86
623.879	42525.56
624.234	42386.13
624.589	42653.69
624.945	42588.39
625.3	42706.8
625.655	42726.24
626.01	42915.83
626.365	42937.98
626.72	42902.95
627.075	42896.17
627.43	42965.33
627.785	42859.79
628.14	42997.64
628.495	43206.67
628.85	43030.63
629.205	43041.48
629.559	43335.26
629.914	43198.77
630.269	43340.23
630.623	43222.27
630.978	43172.78
631.332	43352.21
631.687	43368.7
632.041	43285.32
632.396	43393.11
632.75	43302.27
633.104	43192.66
633.459	43230.63
633.813	43243.74
634.167	43296.62
634.521	43262.49
634.875	43341.81
635.229	43309.27
635.583	43304.75
635.937	43224.3
636.291	43147.69
636.645	43215.94
636.999	43214.58
637.352	43377.07
637.706	43140.01
638.06	43244.41
638.413	43069.96
638.767	43191.31
639.121	43213.45
639.474	43023.85
639.828	43101.14
640.181	43111.76
640.534	43119.67
640.888	43083.97
641.241	42928.26
641.594	42983.4
641.947	43028.37
642.301	42914.7
642.654	43101.14
643.007	43061.37
643.36	43019.11
643.713	42892.78
644.066	43123.06
644.419	42899.79
644.771	42578.44
645.124	42397.2
645.477	42281.28
645.83	41942.3
646.182	41946.14
646.535	41693.49
646.888	41850.33
647.24	41687.39
647.593	41939.82
647.945	41742.08
648.298	41705.92
648.65	41532.82
649.002	41505.7
649.355	41670.9
649.707	41513.84
650.059	41755.19
650.411	42239.02
650.763	42268.62
651.115	42677.65
651.467	42530.31
651.819	42559.91
652.171	42374.83
652.523	42454.6
652.875	42316.53
653.227	42200.6
653.578	42476.75
653.93	42392.46
654.282	42240.37
654.633	42244.44
654.985	42268.39
655.337	42302.07
655.688	42351.1
656.039	42385.23
656.391	42228.17
656.742	42157.89
657.094	42185.68
657.445	42429.07
657.796	42179.13
658.147	42065.69
658.498	42102.75
658.849	42121.28
659.2	42132.8
659.551	42098.46
659.902	42175.97
660.253	42074.95
660.604	42154.95
660.955	41841.29
661.306	42189.07
661.656	42064.78
662.007	42110.43
662.358	42073.82
662.708	42126.48
663.059	42004.45
663.409	41869.08
663.76	42105.23
664.11	42101.62
664.461	42147.27
664.811	42055.52
665.161	42140.04
665.511	42021.85
665.862	42027.5
666.212	41973.94
666.562	41945.92
666.912	41882.42
667.262	41824.56
667.612	41908.86
667.962	41864.56
668.312	41728.52
668.662	41978.68
669.011	41834.51
669.361	41859.37
669.711	41928.52
670.06	41851.91
670.41	41986.37
670.76	41685.36
671.109	41919.7
671.459	41785.02
671.808	41691.01
672.157	41828.18
672.507	41644.91
672.856	41688.3
673.205	41683.1
673.554	41970.77
673.904	41537.57
674.253	41879.03
674.602	41595.19
674.951	41061.65
675.3	40965.15
675.649	41683.1
675.998	41557
676.346	41620.73
676.695	41697.11
677.044	41351.36
677.393	41559.03
677.741	41522.65
678.09	41471.35
678.438	41341.64
678.787	41489.88
679.135	41348.64
679.484	41221.19
679.832	41257.35
680.181	41239.04
680.529	41252.6
680.877	41128.31
681.225	41090.8
681.573	41166.95
681.922	40892.61
682.27	40903.23
682.618	40875.21
682.966	40900.07
683.314	40846.96
683.661	40654.2
684.009	40591.6
684.357	40428.22
684.705	40502.79
685.053	40594.77
685.4	40468.89
685.748	40218.73
686.095	40287.66
686.443	40149.58
686.79	40116.59
687.138	40150.48
687.485	40045.18
687.832	39936.25
688.18	40039.3
688.527	39873.88
688.874	39804.05
689.221	39706.65
689.568	39620.78
689.915	39553.21
690.262	39578.75
690.609	39376.72
690.956	39280.45
691.303	39346.66
691.65	39094.24
691.997	39077.07
692.344	38766.34
692.69	38925.88
693.037	38859.9
693.383	38490.87
693.73	38589.85
694.077	38523.86
694.423	38484.76
694.769	38320.48
695.116	38138.11
695.462	38266.47
695.808	38136.3
696.155	38045.45
696.501	37860.83
696.847	37941.5
697.193	37648.63
697.539	37961.39
697.885	37493.6
698.231	37486.83
698.577	37499.71
698.923	37419.26
699.269	37140.62
699.614	37093.16
699.96	36950.79
700.306	37135.87
700.651	36848.88
700.997	36810.91
701.342	36609.79
701.688	36785.6
702.033	36457.47
702.379	36515.55
702.724	36390.58
703.069	36515.1
703.415	36080.53
703.76	36069.91
704.105	36187.65
704.45	36005.28
704.795	35901.78
705.14	35677.38
705.485	35760.77
705.83	35586.31
706.175	35612.75
706.52	35504.28
706.865	35367.56
707.209	35394
707.554	35283.27
707.899	35304.96
708.243	35136.83
708.588	35116.94
708.932	34714.92
709.277	34793.11
709.621	34867.23
709.966	34647.8
710.31	34696.84
710.654	34381.6
710.998	34456.17
711.342	34282.16
711.687	34500.01
712.031	34170.53
712.375	34142.28
712.719	34142.28
713.063	34004.88
713.407	34178.44
713.75	34068.16
714.094	34004.2
714.438	33778.45
714.782	33842.63
715.125	33720.6
715.469	33756.98
715.812	33533.93
716.156	33442.64
716.499	33371
716.843	33488.06
717.186	33242.64
717.53	33403.54
717.873	33328.29
718.216	33301.85
718.559	32910.22
718.902	32912.71
719.246	32907.96
719.589	32813.05
719.932	32837.68
720.275	32735.99
720.617	32717.46
720.96	32652.15
721.303	32710
721.646	32751.36
721.989	32451.93
722.331	32544.13
722.674	32396.11
723.016	32525.83
723.359	32399.05
723.701	32384.59
724.044	32291.48
724.386	31898.5
724.729	32265.95
725.071	32038.83
725.413	32152.05
725.755	32107.98
726.097	31878.61
726.439	31720.87
726.782	31711.84
727.124	31844.04
727.465	31690.82
727.807	31640.88
728.149	31591.16
728.491	31496.7
728.833	31564.95
729.175	31488.34
729.516	31410.6
729.858	31362.69
730.199	31426.42
730.541	31336.7
730.882	31260.1
731.224	31297.38
731.565	30985.98
731.906	31097.16
732.248	31201.11
732.589	30962.25
732.93	30843.38
733.271	30863.95
733.612	30909.6
733.953	30922.93
734.294	30863.04
734.635	30640.68
734.976	30867.56
735.317	30661.24
735.658	30620.34
735.999	30634.35
736.339	30535.14
736.68	30609.94
737.021	30493.34
737.361	30430.97
737.702	30591.64
738.042	30393.9
738.383	30371.98
738.723	30218.09
739.063	30281.59
739.404	30272.33
739.744	30216.51
740.084	30109.17
740.424	30121.37
740.764	30046.57
741.104	29944.65
741.444	29887.93
741.784	29843.18
742.124	29920.92
742.464	29831.66
742.804	29877.31
743.143	29769.97
743.483	29828.27
743.823	29615.85
744.162	29495.17
744.502	29688.61
744.841	29547.82
745.181	29640.93
745.52	29477.09
745.86	29535.62
746.199	29473.25
746.538	29383.76
746.877	29329.53
747.216	29428.51
747.556	29241.39
747.895	29187.83
748.234	29196.42
748.573	29041.85
748.911	29009.08
749.25	29099.25
749.589	28917.33
749.928	28974.73
750.267	28999.59
750.605	28907.16
750.944	28845.92
751.283	28645.25
751.621	28723.21
751.96	28592.14
752.298	28663.78
752.636	28702.2
752.975	28496.78
753.313	28373.84
753.651	28412.26
753.989	28249.78
754.327	28323.22
754.666	28259.05
755.004	28202.55
755.342	28181.53
755.679	28100.18
756.017	28007.98
756.355	27948.32
756.693	27962.1
757.031	27843.46
757.368	27751.49
757.706	27739.96
