Data from hue_20_FLMS001491_17.txt Node
Date: Mon Feb 06 15:33:41 GMT 2017
User: dcchb
Spectrometer: FLMS00149
Trigger mode: 0
Integration Time (sec): 2.000000E-2
Scans to average: 10
Electric dark correction enabled: true
Nonlinearity correction enabled: false
Boxcar width: 0
XAxis mode: Wavelengths
Number of Pixels in Spectrum: 2048
>>>>>Begin Spectral Data<<<<<
341.393	-8.09
341.776	-8.09
342.16	-8.09
342.543	-71.14
342.927	-77.24
343.31	-59.62
343.693	-68.2
344.077	-50.8
344.46	-74.76
344.843	-56.23
345.226	-27.08
345.61	-30.01
345.993	-30.92
346.376	2.08
346.759	0.04
347.142	25.58
347.525	41.62
347.908	69.19
348.291	65.58
348.674	94.05
349.057	99.47
349.44	125.91
349.823	143.77
350.206	167.5
350.588	177.44
350.971	210.66
351.354	224.67
351.737	251.56
352.119	259.02
352.502	278
352.884	269.41
353.267	254.5
353.65	277.55
354.032	301.73
354.414	310.32
354.797	312.35
355.179	321.39
355.562	325.23
355.944	320.49
356.326	349.19
356.709	337.21
357.091	325.68
357.473	329.3
357.855	343.54
358.238	349.19
358.62	317.32
359.002	325.68
359.384	326.59
359.766	344.89
360.148	338.79
360.53	351.9
360.912	355.97
361.294	332.24
361.676	329.3
362.057	332.91
362.439	321.84
362.821	326.36
363.203	329.3
363.584	317.77
363.966	318
364.348	317.1
364.729	287.94
365.111	306.47
365.493	311.45
365.874	304.89
366.256	313.93
366.637	299.92
367.019	298.34
367.4	304.22
367.781	305.35
368.163	308.96
368.544	321.62
368.925	317.55
369.306	329.07
369.688	307.83
370.069	314.38
370.45	310.32
370.831	313.93
371.212	311.9
371.593	309.86
371.974	299.47
372.355	297.89
372.736	314.84
373.117	307.15
373.498	301.96
373.879	307.38
374.26	309.64
374.641	306.02
375.021	313.71
375.402	298.79
375.783	320.94
376.163	322.97
376.544	312.8
376.925	336.76
377.305	312.58
377.686	343.99
378.066	339.92
378.447	341.95
378.827	340.37
379.208	328.62
379.588	315.97
379.968	314.38
380.349	317.55
380.729	341.05
381.109	336.98
381.489	314.84
381.87	318.45
382.25	337.66
382.63	325.91
383.01	334.27
383.39	326.59
383.77	341.05
384.15	331.11
384.53	339.02
384.91	318.9
385.29	345.57
385.67	354.16
386.049	341.95
386.429	340.6
386.809	350.99
387.189	347.83
387.568	336.08
387.948	338.56
388.328	346.7
388.707	347.6
389.087	354.84
389.466	350.09
389.846	375.85
390.225	363.2
390.605	375.17
390.984	352.12
391.363	366.81
391.743	358.45
392.122	362.97
392.501	364.55
392.881	358.45
393.26	368.62
393.639	366.81
394.018	384.67
394.397	374.5
394.776	382.63
395.155	372.24
395.534	351.45
395.913	358.68
396.292	379.69
396.671	370.65
397.05	378.79
397.429	378.56
397.808	388.28
398.186	375.17
398.565	376.08
398.944	391.9
399.323	396.42
399.701	382.63
400.08	381.73
400.458	393.48
400.837	407.49
401.215	399.35
401.594	372.46
401.972	401.61
402.351	409.3
402.729	384.89
403.107	388.96
403.486	414.95
403.864	381.28
404.242	388.05
404.62	404.1
404.999	400.48
405.377	404.1
405.755	399.13
406.133	416.53
406.511	412.91
406.889	427.6
407.267	413.82
407.645	408.39
408.023	413.14
408.401	413.59
408.779	419.47
409.156	418.34
409.534	413.82
409.912	439.35
410.29	440.93
410.667	449.52
411.045	435.29
411.422	430.09
411.8	442.97
412.178	448.62
412.555	441.39
412.933	445.45
413.31	447.04
413.687	438.9
414.065	434.16
414.442	449.3
414.819	461.95
415.197	460.82
415.574	463.98
415.951	461.73
416.328	458.11
416.705	468.73
417.082	462.4
417.46	491.33
417.837	476.87
418.214	470.76
418.591	485.68
418.967	468.05
419.344	488.39
419.721	490.65
420.098	507.15
420.475	498.11
420.852	459.47
421.228	501.27
421.605	486.81
421.982	514.83
422.358	509.63
422.735	510.99
423.111	514.15
423.488	514.15
423.864	518.9
424.241	528.84
424.617	535.4
424.994	523.87
425.37	505.79
425.746	529.75
426.123	539.01
426.499	530.2
426.875	533.36
427.251	540.14
427.627	542.63
428.003	539.46
428.379	566.36
428.756	544.66
429.132	569.74
429.507	562.06
429.883	569.74
430.259	552.8
430.635	573.59
431.011	580.37
431.387	593.02
431.763	592.34
432.138	580.82
432.514	593.02
432.89	599.57
433.265	619.91
433.641	619.01
434.016	612.46
434.392	634.15
434.767	616.3
435.143	617.65
435.518	626.47
435.894	641.83
436.269	659.01
436.644	610.42
437.02	638.22
437.395	658.78
437.77	667.6
438.145	679.35
438.52	653.13
438.895	676.63
439.271	668.95
439.646	683.64
440.021	678.89
440.395	684.54
440.77	674.6
441.145	694.04
441.52	697.88
441.895	700.14
442.27	715.05
442.645	706.46
443.019	724.32
443.394	724.54
443.769	695.39
444.143	696.97
444.518	734.03
444.892	709.63
445.267	712.11
445.641	723.19
446.016	731.77
446.39	736.97
446.764	765.67
447.139	750.98
447.513	764.09
447.887	747.59
448.262	732.9
448.636	747.14
449.01	756.41
449.384	748.05
449.758	740.81
450.132	759.34
450.506	792.34
450.88	781.26
451.254	800.02
451.628	815.61
452.002	803.64
452.376	787.37
452.75	784.43
453.123	816.29
453.497	819.91
453.871	827.82
454.244	854.48
454.618	850.87
454.992	845.9
455.365	855.16
455.739	875.27
456.112	883.86
456.486	873.47
456.859	884.09
457.232	907.14
457.606	895.84
457.979	900.58
458.352	908.04
458.725	941.26
459.099	925.67
459.472	930.41
459.845	950.53
460.218	964.99
460.591	996.4
460.964	985.1
461.337	966.12
461.71	1009.51
462.083	1026.23
462.456	1035.95
462.829	1012.45
463.201	1034.82
463.574	1035.5
463.947	1067.81
464.32	1078.66
464.692	1120.46
465.065	1091.09
465.438	1083.4
465.81	1090.18
466.183	1145.32
466.555	1158.2
466.928	1143.52
467.3	1183.74
467.672	1176.51
468.045	1224.42
468.417	1216.51
468.789	1206.56
469.161	1228.94
469.534	1217.19
469.906	1257.64
470.278	1256.28
470.65	1268.26
471.022	1310.29
471.394	1302.83
471.766	1351.65
472.138	1360.01
472.51	1389.16
472.882	1416.73
473.253	1407.91
473.625	1456.28
473.997	1448.37
474.369	1472.32
474.74	1501.47
475.112	1502.6
475.484	1556.84
475.855	1574.24
476.227	1582.6
476.598	1646.1
476.97	1645.2
477.341	1671.64
477.713	1712.09
478.084	1715.93
478.455	1776.72
478.827	1779.2
479.198	1843.16
479.569	1832.08
479.94	1911.4
480.311	1926.09
480.682	1929.71
481.053	2006.54
481.424	2038.63
481.795	2016.26
482.166	2077.5
482.537	2117.95
482.908	2197.72
483.279	2195.92
483.65	2207.67
484.021	2259.64
484.391	2322.92
484.762	2334.9
485.133	2385.74
485.503	2416.02
485.874	2449.02
486.244	2504.38
486.615	2552.74
486.985	2578.96
487.356	2625.06
487.726	2652.18
488.097	2698.73
488.467	2711.38
488.837	2788.44
489.207	2807.2
489.578	2870.7
489.948	2889.01
490.318	2918.61
490.688	2969.91
491.058	3039.96
491.428	3062.79
491.798	3076.57
492.168	3158.6
492.538	3159.06
492.908	3237.47
493.278	3261.65
493.648	3281.09
494.017	3328.77
494.387	3349.11
494.757	3369.9
495.126	3421.42
495.496	3440.63
495.866	3482.21
496.235	3537.35
496.605	3561.3
496.974	3568.76
497.344	3609.21
497.713	3616.22
498.082	3654.64
498.452	3712.94
498.821	3725.14
499.19	3693.73
499.559	3751.58
499.928	3808.08
500.298	3815.54
500.667	3839.72
501.036	3842.88
501.405	3851.92
501.774	3890.79
502.143	3990.67
502.512	3924.46
502.88	4006.72
503.249	4020.05
503.618	4027.06
503.987	4086.71
504.356	4074.51
504.724	4095.08
505.093	4076.32
505.462	4094.62
505.83	4189.31
506.199	4174.62
506.567	4194.73
506.936	4194.51
507.304	4266.14
507.672	4285.13
508.041	4300.49
508.409	4317.22
508.777	4359.93
509.145	4362.64
509.514	4356.09
509.882	4376.65
510.25	4406.03
510.618	4415.75
510.986	4427.95
511.354	4475.18
511.722	4493.71
512.09	4544.33
512.458	4519.25
512.826	4571.67
513.193	4560.15
513.561	4593.37
513.929	4599.7
514.297	4642.18
514.664	4698.68
515.032	4648.51
515.4	4741.61
515.767	4740.03
516.135	4706.36
516.502	4706.13
516.869	4778.22
517.237	4772.8
517.604	4785.23
517.972	4801.5
518.339	4841.72
518.706	4881.5
519.073	4858.67
519.44	4861.61
519.808	4908.84
520.175	4921.04
520.542	4962.62
520.909	5018.22
521.276	5027.48
521.643	5051.43
522.009	5048.27
522.376	5069.74
522.743	5108.38
523.11	5144.99
523.477	5171.21
523.843	5208.94
524.21	5242.16
524.577	5271.32
524.943	5262.73
525.31	5296.4
525.676	5342.95
526.043	5374.36
526.409	5375.27
526.776	5445.1
527.142	5452.55
527.508	5475.38
527.874	5521.71
528.241	5557.18
528.607	5517.19
528.973	5570.74
529.339	5589.5
529.705	5647.8
530.071	5732.32
530.437	5720.57
530.803	5719.89
531.169	5817.52
531.535	5742.72
531.901	5848.48
532.267	5773.68
532.632	5823.17
532.998	5871.75
533.364	5902.49
533.73	5950.62
534.095	5966.21
534.461	5982.26
534.826	6038.53
535.192	6038.08
535.557	6050.5
535.923	6121.46
536.288	6102.93
536.653	6149.49
537.019	6103.38
537.384	6144.97
537.749	6174.12
538.114	6205.53
538.479	6219.31
538.845	6292.31
539.21	6230.84
539.575	6276.26
539.94	6271.06
540.305	6318.75
540.67	6342.25
541.034	6395.35
541.399	6382.93
541.764	6398.29
542.129	6491.85
542.494	6410.72
542.858	6473.09
543.223	6500.89
543.587	6532.07
543.952	6546.31
544.316	6551.28
544.681	6561
545.045	6622.02
545.41	6675.35
545.774	6656.14
546.138	6669.47
546.503	6761.9
546.867	6758.73
547.231	6822.69
547.595	6804.61
547.959	6815.91
548.324	6873.08
548.688	6924.38
549.052	6939.75
549.416	6938.84
549.779	6968.67
550.143	6940.42
550.507	7042.12
550.871	7055.22
551.235	7058.16
551.599	7080.53
551.962	7066.75
552.326	7126.63
552.689	7148.1
553.053	7147.88
553.417	7172.74
553.78	7226.07
554.143	7223.58
554.507	7268.55
554.87	7271.04
555.234	7347.87
555.597	7346.74
555.96	7284.37
556.323	7363.46
556.686	7398.94
557.05	7465.38
557.413	7447.08
557.776	7440.52
558.139	7494.53
558.502	7516.23
558.865	7537.02
559.228	7600.75
559.59	7649.78
559.953	7619.28
560.316	7706.51
560.679	7612.95
561.041	7740.4
561.404	7736.11
561.767	7779.72
562.129	7791.93
562.492	7878.93
562.854	7838.48
563.217	7899.27
563.579	7916.9
563.941	7940.17
564.304	8011.13
564.666	8030.11
565.028	8009.78
565.39	8040.28
565.753	8077.8
566.115	8120.05
566.477	8073.28
566.839	8173.84
567.201	8259.03
567.563	8249.32
567.925	8298.81
568.287	8297.45
568.648	8308.07
569.01	8320.95
569.372	8409.76
569.734	8400.05
570.095	8441.18
570.457	8549.65
570.819	8546.03
571.18	8569.31
571.542	8619.7
571.903	8619.25
572.265	8636.65
572.626	8714.84
572.987	8738.57
573.349	8832.35
573.71	8831.45
574.071	8908.06
574.432	8894.05
574.794	8982.86
575.155	9014.49
575.516	9004.55
575.877	9113.93
576.238	9193.25
576.599	9296.75
576.96	9313.47
577.32	9382.39
577.681	9463.75
578.042	9556.63
578.403	9627.36
578.763	9717.53
579.124	9738.09
579.485	9875.71
579.845	9944.41
580.206	10024.41
580.566	10132.66
580.927	10201.58
581.287	10312.31
581.648	10442.48
582.008	10612.87
582.368	10720.66
582.728	10775.13
583.089	10992.3
583.449	11132.41
583.809	11256.92
584.169	11386.86
584.529	11579.85
584.889	11868.2
585.249	11908.43
585.609	12038.6
585.969	12248.53
586.329	12416.21
586.688	12627.96
587.048	12815.52
587.408	13014.84
587.768	13238.79
588.127	13425.68
588.487	13670.19
588.846	14031.09
589.206	14129.61
589.565	14325.99
589.925	14622.71
590.284	14865.64
590.643	15104.96
591.003	15380.43
591.362	15677.6
591.721	15922.11
592.08	16145.83
592.44	16445.49
592.799	16708.3
593.158	17049.31
593.517	17338.12
593.876	17632.12
594.235	17760.03
594.593	18122.73
594.952	18548.26
595.311	18739.44
595.67	19009.26
596.029	19384.17
596.387	19692.41
596.746	20043.13
597.104	20212.84
597.463	20523.57
597.822	20790.23
598.18	21137.57
598.538	21329.65
598.897	21830.88
599.255	21903.65
599.613	22526.68
599.972	22570.3
600.33	22903.17
600.688	23039.89
601.046	23507.45
601.404	23882.58
601.762	24137.49
602.12	24507.42
602.478	24744.93
602.836	24941.99
603.194	25183.34
603.552	25497.68
603.91	25754.39
604.268	26138.56
604.625	26313.47
604.983	26661.04
605.341	26889.96
605.698	27214.02
606.056	27567.45
606.413	27724.51
606.771	28025.97
607.128	28370.14
607.485	28476.13
607.843	28649.01
608.2	29081.31
608.557	29301.42
608.914	29492.6
609.272	29809.65
609.629	30050.33
609.986	30303.43
610.343	30313.14
610.7	30791.32
611.057	30848.04
611.414	31055.05
611.771	31372.32
612.127	31596.05
612.484	31859.32
612.841	32097.96
613.198	32065.19
613.554	32403.26
613.911	32686.19
614.267	32879.18
614.624	33022.9
614.98	33189.45
615.337	33441.65
615.693	33532.72
616.05	33734.3
616.406	34002.99
616.762	34056.1
617.118	34163.66
617.475	34414.73
617.831	34586.48
618.187	34765.46
618.543	34816.75
618.899	35167.71
619.255	35239.79
619.611	35354.59
619.967	35408.6
620.323	35754.13
620.678	35610.86
621.034	35836.61
621.39	35890.17
621.746	36016.27
622.101	36423.27
622.457	36272.31
622.812	36492.64
623.168	36557.73
623.523	36684.95
623.879	36965.4
624.234	36731.05
624.589	36974.66
624.945	37058.28
625.3	37300.53
625.655	37324.26
626.01	37364.94
626.365	37381.66
626.72	37587.08
627.075	37453.07
627.43	37627.75
627.785	37665.27
628.14	37698.26
628.495	37870.01
628.85	37854.64
629.205	37781.87
629.559	38235.2
629.914	37964.92
630.269	37983.22
630.623	38077.91
630.978	38105.71
631.332	38244.69
631.687	38318.81
632.041	38196.1
632.396	38279.94
632.75	38262.09
633.104	38236.1
633.459	38211.47
633.813	38050.12
634.167	38310
634.521	38214.63
634.875	38418.69
635.229	38245.82
635.583	38148.87
635.937	38180.28
636.291	38273.16
636.645	38142.99
636.999	38287.17
637.352	38349.09
637.706	38225.7
638.06	38362.88
638.413	38357.68
638.767	38422.99
639.121	38355.64
639.474	38068.87
639.828	38315.19
640.181	38254.63
640.534	38252.6
640.888	38198.81
641.241	38064.13
641.594	38161.07
641.947	38307.28
642.301	38288.53
642.654	38278.81
643.007	38304.35
643.36	38262.09
643.713	38186.16
644.066	38365.59
644.419	38093.73
644.771	37929.89
645.124	37581.2
645.477	37465.05
645.83	37252.85
646.182	37172.62
646.535	37073.42
646.888	37188.44
647.24	36985.06
647.593	37301.66
647.945	37271.38
648.298	37030.93
648.65	36945.96
649.002	36944.61
649.355	37079.29
649.707	36956.13
650.059	37146.18
650.411	37695.77
650.763	37535.78
651.115	38027.52
651.467	37896.22
651.819	37906.84
652.171	37918.59
652.523	37770.12
652.875	37842.66
653.227	37753.85
653.578	37816.68
653.93	37908.88
654.282	37798.82
654.633	37708.43
654.985	37778.26
655.337	37670.24
655.688	37684.48
656.039	37851.25
656.391	37560.41
656.742	37662.1
657.094	37725.38
657.445	37906.39
657.796	37670.69
658.147	37631.37
658.498	37531.26
658.849	37764.25
659.2	37637.47
659.551	37658.04
659.902	37731.25
660.253	37615.1
660.604	37752.5
660.955	37521.77
661.306	37589.79
661.656	37570.58
662.007	37611.71
662.358	37604.03
662.708	37597.92
663.059	37680.86
663.409	37398.16
663.76	37672.27
664.11	37699.62
664.461	37727.86
664.811	37612.16
665.161	37748.65
665.511	37521.54
665.862	37663.91
666.212	37813.51
666.562	37639.96
666.912	37575.55
667.262	37426.85
667.612	37762.89
667.962	37561.99
668.312	37619.62
668.662	37749.11
669.011	37556.34
669.361	37487.42
669.711	37447.42
670.06	37520.41
670.41	37438.15
670.76	37474.99
671.109	37701.65
671.459	37536.23
671.808	37393.86
672.157	37528.1
672.507	37299.17
672.856	37330.59
673.205	37426.85
673.554	37651.03
673.904	37283.13
674.253	37667.53
674.602	37464.82
674.951	36940.99
675.3	36814.22
675.649	37376.91
675.998	37388.44
676.346	37327.42
676.695	37420.08
677.044	37212.62
677.393	37367.2
677.741	37429.57
678.09	37285.62
678.438	37232.74
678.787	37354.77
679.135	37274.77
679.484	36962.69
679.832	37256.69
680.181	36986.19
680.529	37137.37
680.877	37095.79
681.225	36965.85
681.573	37185.73
681.922	36917.94
682.27	36742.35
682.618	36964.72
682.966	36792.52
683.314	36802.24
683.661	36692.64
684.009	36544.17
684.357	36525.18
684.705	36444.06
685.053	36410.61
685.4	36373.1
685.748	36189.83
686.095	36277.51
686.443	36212.42
686.79	36189.15
687.138	36130.17
687.485	36296.26
687.832	36117.06
688.18	36082.71
688.527	35882.26
688.874	35958.19
689.221	35854.69
689.568	35802.49
689.915	35658.31
690.262	35605.21
690.609	35622.16
690.956	35582.38
691.303	35440.24
691.65	35429.62
691.997	35296.97
692.344	35047.48
692.69	35008.84
693.037	35052.68
693.383	34793.7
693.73	35067.59
694.077	34759.81
694.423	34743.08
694.769	34646.59
695.116	34586.7
695.462	34521.62
695.808	34452.7
696.155	34526.37
696.501	34323.21
696.847	34322.3
697.193	33902.43
697.539	34175.87
697.885	33869.66
698.231	33932.48
698.577	33791.92
698.923	33770.68
699.269	33523.91
699.614	33337.02
699.96	33355.78
700.306	33346.28
700.651	33273.74
700.997	33057.7
701.342	33142.9
701.688	33128.44
702.033	32950.36
702.379	32956.92
702.724	32778.16
703.069	32840.53
703.415	32711.27
703.76	32731.39
704.105	32654.78
704.45	32537.94
704.795	32270.38
705.14	32285.97
705.485	32192.19
705.83	32225.64
706.175	32221.57
706.52	32127.79
706.865	32006.66
707.209	31901.58
707.554	31829.94
707.899	31979.09
708.243	31702.03
708.588	31700.45
708.932	31464.3
709.277	31507.91
709.621	31466.79
709.966	31295.49
710.31	31403.74
710.654	30970.3
710.998	31230.86
711.342	31093.91
711.687	31058.43
712.031	30953.8
712.375	30736.18
712.719	30834.26
713.063	30733.47
713.407	30868.16
713.75	30598.56
714.094	30651.44
714.438	30542.06
714.782	30596.53
715.125	30415.29
715.469	30518.34
715.812	30281.28
716.156	30169.64
716.499	30286.48
716.843	30244.22
717.186	30019.82
717.53	30206.71
717.873	30259.59
718.216	29979.82
718.559	29872.93
718.902	29629.55
719.246	29806.04
719.589	29666.38
719.932	29551.36
720.275	29643.33
720.617	29496.22
720.96	29557.91
721.303	29588.87
721.646	29497.57
721.989	29397.24
722.331	29332.15
722.674	29334.86
723.016	29392.72
723.359	29107.53
723.701	29289.22
724.044	29114.08
724.386	28918.83
724.729	29070.01
725.071	28959.73
725.413	28967.19
725.755	28978.26
726.097	28918.6
726.439	28765.16
726.782	28651.94
727.124	28880.41
727.465	28734.88
727.807	28556.81
728.149	28684.03
728.491	28564.26
728.833	28517.26
729.175	28409.92
729.516	28348.68
729.858	28416.24
730.199	28338.51
730.541	28322.69
730.882	28267.55
731.224	28393.19
731.565	28024.16
731.906	28225.74
732.248	28256.25
732.589	27903.94
732.93	27887.44
733.271	27884.73
733.612	28038.4
733.953	27945.3
734.294	27934.9
734.635	27791.4
734.976	27802.93
735.317	27770.16
735.658	27646.32
735.999	27667.11
736.339	27622.37
736.68	27719.09
737.021	27615.36
737.361	27375.59
737.702	27607.23
738.042	27469.15
738.383	27391.19
738.723	27402.94
739.063	27285.2
739.404	27351.19
739.744	27276.39
740.084	27178.31
740.424	27130.63
740.764	27171.53
741.104	27210.17
741.444	27088.82
741.784	26978.99
742.124	27027.58
742.464	26935.15
742.804	26989.16
743.143	26902.61
743.483	26905.1
743.823	26819.45
744.162	26704.65
744.502	26906.45
744.841	26640.47
745.181	26752.33
745.52	26657.42
745.86	26748.72
746.199	26637.76
746.538	26548.27
746.877	26724.76
747.216	26545.11
747.556	26496.52
747.895	26625.11
748.234	26420.36
748.573	26352.8
748.911	26343.76
749.25	26328.16
749.589	26148.73
749.928	26117.1
750.267	26200.48
750.605	26055.4
750.944	26108.28
751.283	25934.28
751.621	26040.26
751.96	25948.96
752.298	25872.58
752.636	25812.7
752.975	25708.97
753.313	25688.41
753.651	25819.93
753.989	25678.01
754.327	25632.14
754.666	25509.65
755.004	25594.4
755.342	25485.47
755.679	25532.25
756.017	25310.79
756.355	25364.8
756.693	25358.7
757.031	25245.93
757.368	25084.13
757.706	25201.19
758.044	25061.53
758.381	25154.64
758.719	25021.98
759.056	24996.9
759.394	24900.63
759.731	24721.65
760.068	24671.03
760.405	24542.45
760.743	24605.5
