Data from hue_270_FLMS001491_00056.txt Node
Date: Tue Feb 07 15:57:23 GMT 2017
User: dcchb
Spectrometer: FLMS00149
Trigger mode: 0
Integration Time (sec): 2.000000E-2
Scans to average: 10
Electric dark correction enabled: true
Nonlinearity correction enabled: false
Boxcar width: 0
XAxis mode: Wavelengths
Number of Pixels in Spectrum: 2048
>>>>>Begin Spectral Data<<<<<
341.393	-3.9
341.776	-3.9
342.16	-3.9
342.543	-56.55
342.927	-77.12
343.31	-74.63
343.693	-55.2
344.077	-70.11
344.46	-61.3
344.843	-35.76
345.226	-32.82
345.61	-30.79
345.993	-28.76
346.376	-26.27
346.759	20.06
347.142	33.84
347.525	51.92
347.908	45.14
348.291	64.57
348.674	80.39
349.057	119.71
349.44	114.52
349.823	141.86
350.206	165.14
350.588	177.11
350.971	201.97
351.354	225.7
351.737	251.24
352.119	230.67
352.502	252.14
352.884	289.65
353.267	259.6
353.65	298.69
354.032	308.64
354.414	310.44
354.797	311.35
355.179	325.81
355.562	311.8
355.944	323.32
356.326	300.95
356.709	315.19
357.091	324.23
357.473	317.9
357.855	323.1
358.238	330.1
358.62	331.23
359.002	349.31
359.384	337.79
359.766	335.08
360.148	324.68
360.53	333.95
360.912	328.07
361.294	319.26
361.676	333.72
362.057	326.04
362.439	322.87
362.821	342.99
363.203	307.96
363.584	329.2
363.966	329.2
364.348	318.58
364.729	301.63
365.111	328.07
365.493	300.73
365.874	311.35
366.256	298.69
366.637	315.64
367.019	311.8
367.4	320.16
367.781	331.01
368.163	294.17
368.544	308.64
368.925	321.29
369.306	320.39
369.688	292.14
370.069	286.49
370.45	328.97
370.831	292.14
371.212	322.19
371.593	331.01
371.974	294.85
372.355	309.54
372.736	306.38
373.117	303.44
373.498	298.24
373.879	319.48
374.26	310.9
374.641	312.48
375.021	317.9
375.402	310.22
375.783	298.24
376.163	313.83
376.544	329.65
376.925	322.65
377.305	314.96
377.686	333.27
378.066	312.25
378.447	338.24
378.827	334.17
379.208	327.84
379.588	330.56
379.968	325.36
380.349	317
380.729	321.07
381.109	342.99
381.489	320.61
381.87	343.66
382.25	322.42
382.63	342.53
383.01	326.71
383.39	346.6
383.77	331.69
384.15	314.06
384.53	321.07
384.91	361.74
385.29	357.67
385.67	381.4
386.049	355.41
386.429	357.67
386.809	339.37
387.189	352.7
387.568	334.85
387.948	373.49
388.328	363.78
388.707	355.41
389.087	361.74
389.466	364.45
389.846	359.93
390.225	370.78
390.605	384.11
390.984	373.27
391.363	357
391.743	379.14
392.122	386.6
392.501	373.49
392.881	385.02
393.26	366.49
393.639	389.09
394.018	378.69
394.397	364.91
394.776	390.22
395.155	409.2
395.534	388.86
395.913	381.4
396.292	398.13
396.671	402.64
397.05	382.31
397.429	378.01
397.808	383.21
398.186	418.24
398.565	409.65
398.944	413.49
399.323	391.35
399.701	402.19
400.08	415.07
400.458	395.87
400.837	432.47
401.215	427.28
401.594	436.54
401.972	429.76
402.351	437.67
402.729	455.98
403.107	432.47
403.486	435.19
403.864	438.58
404.242	434.73
404.62	446.49
404.999	444.23
405.377	469.76
405.755	455.98
406.133	455.3
406.511	454.62
406.889	473.83
407.267	479.7
407.645	479.93
408.023	474.51
408.401	497.11
408.779	489.65
409.156	498.24
409.534	499.14
409.912	492.81
410.29	509.99
410.667	545.24
411.045	516.77
411.422	524
411.8	536.88
412.178	547.27
412.555	568.29
412.933	555.64
413.31	563.54
413.687	568.97
414.065	566.48
414.442	577.1
414.819	580.27
415.197	595.63
415.574	607.16
415.951	603.09
416.328	613.26
416.705	613.71
417.082	624.11
417.46	625.92
417.837	648.97
418.214	622.98
418.591	674.05
418.967	652.36
419.344	671.79
419.721	674.5
420.098	686.03
420.475	704.11
420.852	698.91
421.228	718.57
421.605	716.08
421.982	735.74
422.358	753.14
422.735	762.64
423.111	740.04
423.488	756.53
423.864	785.91
424.241	803.09
424.617	809.64
424.994	799.92
425.37	822.52
425.746	818.23
426.123	844.44
426.499	848.28
426.875	855.51
427.251	853.71
427.627	905.46
428.003	911.33
428.379	911.56
428.756	912.46
429.132	931.22
429.507	948.39
429.883	951.78
430.259	962.63
430.635	977.09
431.011	1003.08
431.387	993.82
431.763	1005.57
432.138	1016.41
432.514	1041.27
432.89	1048.5
433.265	1058.22
433.641	1109.74
434.016	1136.41
434.392	1100.03
434.767	1150.87
435.143	1122.63
435.518	1175.51
435.894	1164.66
436.269	1194.49
436.644	1217.31
437.02	1212.12
437.395	1230.87
437.77	1258.67
438.145	1270.64
438.52	1285.79
438.895	1311.1
439.271	1302.51
439.646	1328.5
440.021	1348.83
440.395	1356.74
440.77	1345.67
441.145	1384.99
441.52	1385.22
441.895	1389.29
442.27	1419.12
442.645	1443.97
443.019	1497.08
443.394	1448.49
443.769	1475.84
444.143	1476.97
444.518	1499.79
444.892	1504.99
445.267	1511.09
445.641	1506.34
446.016	1540.69
446.39	1560.13
446.764	1584.99
447.139	1576.63
447.513	1565.1
447.887	1571.88
448.262	1561.03
448.636	1611.43
449.01	1614.59
449.384	1615.04
449.758	1636.74
450.132	1651.88
450.506	1666.34
450.88	1646.23
451.254	1664.08
451.628	1702.72
452.002	1726
452.376	1741.82
452.75	1747.24
453.123	1765.32
453.497	1787.02
453.871	1752.21
454.244	1837.41
454.618	1815.94
454.992	1855.04
455.365	1823.62
455.739	1884.41
456.112	1897.07
456.486	1932.1
456.859	1911.76
457.232	1956.05
457.606	1931.19
457.979	1959.89
458.352	2013.45
458.725	2036.05
459.099	2032.21
459.472	2086.89
459.845	2078.53
460.218	2105.65
460.591	2126.67
460.964	2128.25
461.337	2157.85
461.71	2187.68
462.083	2260.9
462.456	2228.59
462.829	2229.26
463.201	2239.43
463.574	2258.87
463.947	2283.73
464.32	2363.05
464.692	2344.06
465.065	2352.42
465.438	2401.69
465.81	2431.74
466.183	2446.88
466.555	2452.99
466.928	2498.18
467.3	2523.04
467.672	2544.96
468.045	2594.45
468.417	2590.61
468.789	2595.36
469.161	2623.38
469.534	2702.25
469.906	2710.15
470.278	2758.74
470.65	2749.25
471.022	2786.08
471.394	2876.7
471.766	2855.69
472.138	2917.38
472.51	2936.36
472.882	3000.99
473.253	2981.33
473.625	3048.45
473.997	3066.3
474.369	3087.55
474.74	3137.49
475.112	3179.29
475.484	3275.79
475.855	3283.92
476.227	3254.32
476.598	3358.95
476.97	3400.98
477.341	3445.05
477.713	3479.4
478.084	3480.76
478.455	3551.94
478.827	3582.9
479.198	3677.81
479.569	3690.02
479.94	3750.35
480.311	3816.79
480.682	3883.01
481.053	3937.47
481.424	3971.36
481.795	3993.28
482.166	4025.6
482.537	4098.14
482.908	4158.25
483.279	4209.32
483.65	4238.02
484.021	4279.38
484.391	4338.59
484.762	4392.37
485.133	4441.63
485.503	4498.58
485.874	4493.38
486.244	4568.41
486.615	4667.84
486.985	4674.85
487.356	4776.09
487.726	4780.83
488.097	4856.76
488.467	4860.83
488.837	4982.19
489.207	4955.07
489.578	4990.32
489.948	5071.22
490.318	5165.23
490.688	5123.42
491.058	5192.8
491.428	5276.19
491.798	5340.37
492.168	5385.34
492.538	5450.87
492.908	5497.65
493.278	5533.13
493.648	5530.87
494.017	5555.96
494.387	5593.47
494.757	5687.03
495.126	5729.51
495.496	5663.52
495.866	5731.09
496.235	5750.3
496.605	5856.96
496.974	5875.5
497.344	5901.71
497.713	5944.65
498.082	5946.23
498.452	5969.73
498.821	5985.32
499.19	6033.91
499.559	6124.53
499.928	6160.91
500.298	6163.62
500.667	6137.18
501.036	6122.49
501.405	6207.46
501.774	6211.08
502.143	6230.97
502.512	6248.37
502.88	6289.5
503.249	6255.82
503.618	6361.58
503.987	6366.33
504.356	6361.13
504.724	6432.09
505.093	6424.18
505.462	6473.67
505.83	6477.29
506.199	6545.31
506.567	6540.79
506.936	6524.29
507.304	6595.25
507.672	6618.98
508.041	6600
508.409	6670.28
508.777	6676.15
509.145	6705.98
509.514	6706.89
509.882	6688.58
510.25	6733.55
510.618	6710.73
510.986	6785.75
511.354	6863.27
511.722	6907.33
512.09	6897.62
512.458	6834.34
512.826	6898.97
513.193	6931.96
513.561	6986.2
513.929	7024.62
514.297	7054.45
514.664	7074.56
515.032	7028.23
515.4	7071.4
515.767	7086.99
516.135	7152.75
516.502	7041.79
516.869	7192.97
517.237	7148.68
517.604	7139.42
517.972	7221.9
518.339	7204.05
518.706	7232.3
519.073	7163.37
519.44	7191.39
519.808	7256.93
520.175	7282.92
520.542	7352.74
520.909	7376.92
521.276	7325.63
521.643	7400.65
522.009	7383.03
522.376	7510.93
522.743	7422.12
523.11	7544.83
523.477	7492.18
523.843	7592.96
524.21	7641.32
524.577	7645.39
524.943	7682.45
525.31	7724.71
525.676	7750.93
526.043	7786.63
526.409	7699.63
526.776	7819.4
527.142	7827.53
527.508	7810.59
527.874	7837.48
528.241	7879.51
528.607	7882.9
528.973	7904.82
529.339	7939.17
529.705	7970.58
530.071	8055.32
530.437	8027.98
530.803	8033.18
531.169	8063.23
531.535	8078.38
531.901	8047.42
532.267	8096.45
532.632	8157.24
532.998	8182.1
533.364	8160.18
533.73	8139.84
534.095	8273.17
534.461	8148.88
534.826	8226.62
535.192	8254.64
535.557	8295.77
535.923	8234.08
536.288	8224.13
536.653	8293.74
537.019	8263
537.384	8378.25
537.749	8375.09
538.114	8359.72
538.479	8295.77
538.845	8349.55
539.21	8336
539.575	8303.91
539.94	8338.71
540.305	8428.2
540.67	8392.04
541.034	8405.37
541.399	8447.41
541.764	8373.51
542.129	8516.33
542.494	8423
542.858	8425.26
543.223	8518.36
543.587	8507.97
543.952	8560.62
544.316	8514.07
544.681	8500.06
545.045	8567.18
545.41	8525.6
545.774	8490.34
546.138	8498.93
546.503	8544.8
546.867	8570.57
547.231	8622.09
547.595	8649.43
547.959	8648.53
548.324	8564.01
548.688	8644.46
549.052	8613.5
549.416	8667.74
549.779	8603.33
550.143	8698.92
550.507	8630.9
550.871	8718.36
551.235	8655.08
551.599	8727.17
551.962	8784.35
552.326	8791.58
552.689	8802.88
553.053	8736.89
553.417	8717.91
553.78	8815.53
554.143	8773.72
554.507	8904.57
554.87	8901.86
555.234	8971.46
555.597	8861.18
555.96	8856.66
556.323	8894.62
556.686	8899.82
557.05	8995.87
557.413	8935.3
557.776	8967.62
558.139	9012.36
558.502	9058.69
558.865	9022.08
559.228	9076.09
559.59	9091.91
559.953	9127.16
560.316	9152.02
560.679	9154.96
561.041	9204.45
561.404	9235.63
561.767	9277.67
562.129	9262.98
562.492	9381.17
562.854	9324.67
563.217	9324.9
563.579	9340.94
563.941	9402.41
564.304	9436.31
564.666	9446.02
565.028	9421.84
565.39	9474.27
565.753	9540.26
566.115	9548.17
566.477	9587.71
566.839	9595.17
567.201	9680.82
567.563	9652.12
567.925	9728.05
568.287	9815.96
568.648	9759.69
569.01	9754.94
569.372	9805.56
569.734	9798.56
570.095	9949.06
570.457	9915.84
570.819	9941.15
571.18	9951.55
571.542	10035.16
571.903	9993.58
572.265	10071.54
572.626	10156.51
572.987	10040.13
573.349	10206.45
573.71	10186.79
574.071	10246
574.432	10301.82
574.794	10295.72
575.155	10326
575.516	10300.69
575.877	10377.3
576.238	10375.94
576.599	10483.51
576.96	10403.29
577.32	10478.99
577.681	10449.16
578.042	10477.41
578.403	10528.25
578.763	10610.29
579.124	10614.81
579.485	10646.67
579.845	10714.46
580.206	10729.6
580.566	10714.69
580.927	10703.62
581.287	10864.74
581.648	10804.41
582.008	10923.95
582.368	10881.69
582.728	10861.8
583.089	11007.34
583.449	11012.99
583.809	11003.5
584.169	11054.12
584.529	11031.07
584.889	11151.74
585.249	11191.74
585.609	11038.07
585.969	11179.08
586.329	11149.71
586.688	11265.64
587.048	11226.54
587.408	11252.3
587.768	11179.31
588.127	11295.69
588.487	11272.42
588.846	11420.43
589.206	11306.54
589.565	11341.11
589.925	11422.92
590.284	11470.83
590.643	11520.32
591.003	11587.89
591.362	11564.84
591.721	11550.83
592.08	11555.8
592.44	11608.9
592.799	11582.69
593.158	11585.63
593.517	11657.04
593.876	11741.56
594.235	11670.82
594.593	11734.78
594.952	11844.38
595.311	11669.92
595.67	11827.2
596.029	11860.65
596.387	11897.94
596.746	11889.35
597.104	11892.74
597.463	11960.98
597.822	11953.53
598.18	11927.77
598.538	11955.79
598.897	12009.35
599.255	11918.05
599.613	12127.99
599.972	12022.9
600.33	12118.49
600.688	12052.06
601.046	12103.35
601.404	12124.37
601.762	12093.64
602.12	12110.36
602.478	12129.12
602.836	12197.14
603.194	12122.79
603.552	12128.89
603.91	12134.09
604.268	12209.79
604.625	12184.03
604.983	12229.9
605.341	12203.92
605.698	12266.51
606.056	12291.15
606.413	12300.64
606.771	12359.84
607.128	12391.03
607.485	12304.93
607.843	12277.36
608.2	12408.2
608.557	12470.35
608.914	12382.22
609.272	12418.37
609.629	12463.12
609.986	12476.45
610.343	12489.56
610.7	12483.46
611.057	12538.82
611.414	12499.95
611.771	12528.88
612.127	12560.52
612.484	12600.06
612.841	12621.76
613.198	12551.7
613.554	12650.01
613.911	12644.13
614.267	12657.01
614.624	12604.81
614.98	12660.18
615.337	12612.04
615.693	12659.95
616.05	12666.5
616.406	12785.82
616.762	12723
617.118	12712.83
617.475	12667.41
617.831	12699.27
618.187	12779.27
618.543	12678.71
618.899	12876.22
619.255	12812.49
619.611	12780.62
619.967	12880.73
620.323	12857.46
620.678	12800.06
621.034	12742.66
621.39	12744.47
621.746	12755.77
622.101	12838.7
622.457	12747.86
622.812	12838.48
623.168	12970.9
623.523	12894.29
623.879	12867.63
624.234	12869.66
624.589	12903.11
624.945	12916.67
625.3	12839.15
625.655	12880.06
626.01	12946.27
626.365	12939.49
626.72	12882.77
627.075	12819.49
627.43	12957.79
627.785	12862.2
628.14	12919.38
628.495	12844.58
628.85	12823.11
629.205	12804.8
629.559	12860.85
629.914	12824.47
630.269	12828.08
630.623	12807.97
630.978	12716.9
631.332	12795.77
631.687	12755.77
632.041	12756.9
632.396	12714.64
632.75	12735.43
633.104	12635.09
633.459	12642.1
633.813	12647.29
634.167	12618.59
634.521	12648.42
634.875	12731.81
635.229	12560.07
635.583	12494.53
635.937	12598.26
636.291	12609.33
636.645	12599.84
636.999	12594.87
637.352	12600.52
637.706	12502.89
638.06	12577.69
638.413	12483.01
638.767	12498.37
639.121	12446.62
639.474	12441.65
639.828	12406.85
640.181	12449.79
640.534	12386.28
640.888	12394.19
641.241	12291.15
641.594	12330.24
641.947	12436.68
642.301	12351.48
642.654	12342.9
643.007	12398.26
643.36	12386.51
643.713	12284.37
644.066	12424.25
644.419	12290.02
644.771	12309.68
645.124	12115.33
645.477	12127.99
645.83	12005.28
646.182	11952.85
646.535	11981.32
646.888	11923.92
647.24	11880.76
647.593	11920.53
647.945	11868.78
648.298	11826.07
648.65	11865.62
649.002	11788.33
649.355	11895.45
649.707	11869.24
650.059	11843.7
650.411	12008.89
650.763	12121.43
651.115	12159.17
651.467	12087.31
651.819	12173.18
652.171	12092.28
652.523	12101.09
652.875	12090.02
653.227	12106.74
653.578	12203.46
653.93	12111.72
654.282	12051.15
654.633	12075.33
654.985	12129.79
655.337	12053.86
655.688	12024.71
656.039	12127.76
656.391	11966.18
656.742	12033.75
657.094	12020.87
657.445	12050.93
657.796	12095.9
658.147	12086.63
658.498	12076.24
658.849	12075.33
659.2	12100.42
659.551	12107.2
659.902	12152.62
660.253	12063.36
660.604	12161.21
660.955	12022.45
661.306	12012.28
661.656	12095.22
662.007	12073.52
662.358	12068.78
662.708	12094.77
663.059	12097.03
663.409	12002.57
663.76	12107.2
664.11	12103.81
664.461	12152.17
664.811	12128.44
665.161	12074.65
665.511	12078.72
665.862	12055.67
666.212	12110.13
666.562	12137.48
666.912	12076.91
667.262	12111.26
667.612	12096.12
667.962	12089.34
668.312	12064.71
668.662	12145.39
669.011	12098.38
669.361	12059.51
669.711	12007.99
670.06	12059.51
670.41	12051.83
670.76	11946.52
671.109	12037.59
671.459	12038.05
671.808	12025.16
672.157	12026.52
672.507	11915.79
672.856	12005.5
673.205	11991.94
673.554	12040.53
673.904	11944.49
674.253	11960.08
674.602	12039.17
674.951	11799.86
675.3	11683.25
675.649	11957.6
675.998	11932.06
676.346	11931.61
676.695	11997.14
677.044	11868.11
677.393	11872.85
677.741	11878.73
678.09	11796.02
678.438	11782.01
678.787	11833.3
679.135	11745.62
679.484	11667.21
679.832	11710.82
680.181	11635.34
680.529	11758.73
680.877	11687.77
681.225	11647.77
681.573	11694.33
681.922	11629.47
682.27	11592.63
682.618	11486.87
682.966	11588.34
683.314	11580.66
683.661	11530.49
684.009	11526.42
684.357	11490.71
684.705	11476.25
685.053	11416.82
685.4	11411.39
685.748	11336.14
686.095	11372.07
686.443	11354.67
686.79	11224.06
687.138	11325.52
687.485	11327.33
687.832	11241.91
688.18	11248.01
688.527	11187.22
688.874	11173.44
689.221	11196.94
689.568	11159.2
689.915	11125.75
690.262	11095.47
690.609	11052.99
690.956	11019.77
691.303	11043.72
691.65	10956.72
691.997	10882.6
692.344	10867.68
692.69	10860.22
693.037	10804.63
693.383	10750.62
693.73	10783.16
694.077	10765.31
694.423	10674.24
694.769	10669.72
695.116	10621.13
695.462	10649.61
695.808	10537.97
696.155	10577.97
696.501	10490.06
696.847	10481.25
697.193	10391.76
697.539	10442.61
697.885	10349.5
698.231	10281.48
698.577	10285.77
698.923	10254.14
699.269	10233.57
699.614	10153.35
699.96	10152.44
700.306	10187.25
700.651	10134.37
700.997	10144.08
701.342	10015.5
701.688	10027.93
702.033	9943.86
702.379	9882.85
702.724	9890.08
703.069	9835.17
703.415	9794.94
703.76	9822.51
704.105	9846.69
704.45	9782.29
704.795	9694.83
705.14	9712.91
705.485	9659.35
705.83	9622.06
706.175	9521.73
706.52	9628.39
706.865	9552.01
707.209	9535.29
707.554	9436.76
707.899	9503.42
708.243	9439.47
708.588	9413.03
708.932	9352.24
709.277	9326.7
709.621	9411.9
709.966	9342.97
710.31	9286.25
710.654	9330.77
710.998	9255.29
711.342	9276.54
711.687	9241.28
712.031	9170.1
712.375	9114.73
712.719	9149.76
713.063	9122.19
713.407	9128.52
713.75	9062.53
714.094	9119.7
714.438	9060.27
714.782	9094.17
715.125	9036.77
715.469	9017.56
715.812	9001.97
716.156	8974.62
716.499	8976.88
716.843	8923.1
717.186	8947.96
717.53	8963.78
717.873	8927.17
718.216	8923.55
718.559	8914.74
718.902	8771.24
719.246	8852.82
719.589	8746.83
719.932	8783.67
720.275	8780.73
720.617	8802.2
720.96	8743.22
721.303	8762.42
721.646	8736.44
721.989	8752.48
722.331	8686.95
722.674	8688.98
723.016	8719.26
723.359	8728.98
723.701	8625.71
724.044	8620.96
724.386	8651.47
724.729	8670.68
725.071	8613.73
725.413	8648.98
725.755	8573.96
726.097	8569.66
726.439	8481.3
726.782	8546.61
727.124	8575.09
727.465	8482.43
727.807	8510
728.149	8472.49
728.491	8494.64
728.833	8530.34
729.175	8512.26
729.516	8537.57
729.858	8483.56
730.199	8450.12
730.541	8464.35
730.882	8425.26
731.224	8551.36
731.565	8397.01
731.906	8437.69
732.248	8510
732.589	8390.46
732.93	8418.25
733.271	8425.26
733.612	8466.16
733.953	8506.16
734.294	8395.2
734.635	8394.98
734.976	8383.45
735.317	8378.25
735.658	8423
735.999	8398.59
736.339	8411.25
736.68	8468.65
737.021	8496.67
737.361	8395.2
737.702	8453.96
738.042	8475.43
738.383	8484.01
738.723	8420.74
739.063	8447.86
739.404	8430.91
739.744	8499.61
740.084	8522.66
740.424	8520.17
740.764	8489.21
741.104	8554.29
741.444	8456.67
741.784	8506.39
742.124	8520.85
742.464	8493.28
742.804	8524.92
743.143	8514.3
743.483	8505.93
743.823	8494.86
744.162	8553.62
744.502	8569.44
744.841	8594.97
745.181	8630.68
745.52	8631.81
745.86	8675.87
746.199	8698.02
746.538	8738.47
746.877	8786.15
747.216	8840.39
747.556	8808.3
747.895	8894.17
748.234	8912.48
748.573	8974.85
748.911	9026.15
749.25	9042.19
749.589	9048.07
749.928	9136.2
750.267	9197.67
750.605	9208.74
750.944	9313.37
751.283	9340.26
751.621	9469.3
751.96	9507.04
752.298	9495.29
752.636	9663.87
752.975	9700.71
753.313	9748.16
753.651	9835.84
753.989	9930.3
754.327	10005.78
754.666	10040.13
755.004	10239.67
755.342	10354.7
755.679	10478.31
756.017	10525.77
756.355	10618.65
756.693	10761.92
757.031	10959.43
757.368	11039.65
757.706	11071.06
758.044	11266.09
758.381	11359.42
758.719	11451.39
759.056	11732.06
759.394	11809.8
759.731	11873.76
760.068	11989.23
760.405	12184.48
760.743	12277.13
761.08	12558.26
761.417	12580.18
761.754	12736.56
762.091	12959.83
