Data from hue_10_FLMS001491_14.txt Node
Date: Mon Feb 06 15:31:29 GMT 2017
User: dcchb
Spectrometer: FLMS00149
Trigger mode: 0
Integration Time (sec): 2.000000E-2
Scans to average: 10
Electric dark correction enabled: true
Nonlinearity correction enabled: false
Boxcar width: 0
XAxis mode: Wavelengths
Number of Pixels in Spectrum: 2048
>>>>>Begin Spectral Data<<<<<
341.393	-11.61
341.776	-11.61
342.16	-11.61
342.543	-54.77
342.927	-70.59
343.31	-79.63
343.693	-66.52
344.077	-46.64
344.46	-53.64
344.843	-57.03
345.226	-55.9
345.61	-41.89
345.993	-24.49
346.376	-17.94
346.759	4.21
347.142	22.74
347.525	66.58
347.908	87.37
348.291	59.8
348.674	95.51
349.057	107.48
349.44	121.95
349.823	121.04
350.206	157.88
350.588	210.08
350.971	212.34
351.354	222.51
351.737	249.4
352.119	264.99
352.502	255.05
352.884	260.7
353.267	283.52
353.65	300.47
354.032	284.88
354.414	315.61
354.797	291.66
355.179	328.72
355.562	303.64
355.944	301.6
356.326	333.24
356.709	313.81
357.091	324.65
357.473	331.21
357.855	342.51
358.238	356.52
358.62	338.44
359.002	340.92
359.384	341.38
359.766	344.54
360.148	332.79
360.53	336.63
360.912	332.79
361.294	320.58
361.676	323.3
362.057	317.65
362.439	312.22
362.821	320.58
363.203	342.05
363.584	312
363.966	312.22
364.348	315.61
364.729	309.29
365.111	309.96
365.493	307.03
365.874	302.73
366.256	289.17
366.637	311.32
367.019	297.99
367.4	311.77
367.781	287.37
368.163	315.39
368.544	298.44
368.925	317.2
369.306	327.36
369.688	321.04
370.069	327.14
370.45	302.73
370.831	287.37
371.212	319.23
371.593	315.61
371.974	324.88
372.355	290.53
372.736	312.22
373.117	298.89
373.498	321.04
373.879	303.86
374.26	317.65
374.641	317.87
375.021	326.23
375.402	318.1
375.783	320.13
376.163	306.57
376.544	323.07
376.925	323.52
377.305	332.79
377.686	311.32
378.066	310.64
378.447	299.34
378.827	333.92
379.208	318.55
379.588	325.33
379.968	330.75
380.349	328.27
380.729	319.91
381.109	325.78
381.489	298.21
381.87	312.22
382.25	347.02
382.63	352
383.01	334.6
383.39	329.4
383.77	347.7
384.15	347.25
384.53	331.66
384.91	343.64
385.29	333.01
385.67	328.72
386.049	325.1
386.429	320.81
386.809	332.79
387.189	343.18
387.568	347.02
387.948	340.25
388.328	359.45
388.707	345.67
389.087	372.11
389.466	368.49
389.846	362.84
390.225	339.12
390.605	349.96
390.984	353.58
391.363	367.82
391.743	358.55
392.122	357.42
392.501	342.73
392.881	368.95
393.26	369.4
393.639	369.17
394.018	349.28
394.397	351.77
394.776	357.65
395.155	347.25
395.534	358.55
395.913	376.63
396.292	368.27
396.671	382.96
397.05	379.34
397.429	362.84
397.808	388.38
398.186	365.33
398.565	365.33
398.944	373.92
399.323	378.21
399.701	383.18
400.08	378.89
400.458	399.45
400.837	394.48
401.215	375.27
401.594	386.8
401.972	387.7
402.351	393.58
402.729	383.41
403.107	396.29
403.486	389.96
403.864	401.94
404.242	408.27
404.62	393.58
404.999	398.77
405.377	401.49
405.755	397.87
406.133	377.53
406.511	395.16
406.889	405.78
407.267	410.53
407.645	415.27
408.023	413.92
408.401	405.1
408.779	416.4
409.156	412.33
409.534	408.27
409.912	410.53
410.29	424.54
410.667	405.78
411.045	442.39
411.422	445.33
411.8	433.12
412.178	421.37
412.555	423.41
412.933	443.52
413.31	453.91
413.687	443.97
414.065	427.02
414.442	448.49
414.819	443.52
415.197	425.21
415.574	448.94
415.951	465.44
416.328	460.69
416.705	462.05
417.082	436.06
417.46	466.34
417.837	452.11
418.214	484.65
418.591	487.36
418.967	455.04
419.344	478.55
419.721	466.12
420.098	479.9
420.475	490.75
420.852	449.62
421.228	474.25
421.605	465.21
421.982	485.78
422.358	482.61
422.735	491.43
423.111	495.5
423.488	494.59
423.864	515.83
424.241	517.87
424.617	508.83
424.994	494.59
425.37	507.25
425.746	501.15
426.123	515.83
426.499	500.24
426.875	515.61
427.251	522.39
427.627	515.16
428.003	547.02
428.379	541.6
428.756	537.53
429.132	542.73
429.507	578.88
429.883	546.79
430.259	556.51
430.635	535.95
431.011	581.82
431.387	566.23
431.763	580.24
432.138	561.03
432.514	581.59
432.89	581.59
433.265	597.19
433.641	605.1
434.016	596.74
434.392	583.18
434.767	587.47
435.143	597.19
435.518	613.68
435.894	635.15
436.269	618.2
436.644	619.56
437.02	614.59
437.395	615.94
437.77	640.8
438.145	637.64
438.52	641.25
438.895	632.89
439.271	666.11
439.646	624.98
440.021	648.26
440.395	660.91
440.77	674.93
441.145	668.15
441.52	681.25
441.895	672.21
442.27	691.42
442.645	662.27
443.019	689.39
443.394	688.03
443.769	681.03
444.143	695.94
444.518	671.08
444.892	709.73
445.267	699.11
445.641	693
446.016	711.08
446.39	714.25
446.764	718.77
447.139	700.46
447.513	697.52
447.887	705.21
448.262	709.73
448.636	728.03
449.01	728.03
449.384	745.88
449.758	748.14
450.132	737.3
450.506	738.88
450.88	753.57
451.254	751.76
451.628	764.19
452.002	766
452.376	783.62
452.75	765.09
453.123	774.58
453.497	772.55
453.871	783.62
454.244	777.07
454.618	802.61
454.992	798.76
455.365	806.22
455.739	819.55
456.112	836.73
456.486	846.45
456.859	833.34
457.232	850.97
457.606	866.11
457.979	892.55
458.352	862.72
458.725	889.38
459.099	889.16
459.472	894.58
459.845	907.24
460.218	901.13
460.591	912.43
460.964	915.37
461.337	936.61
461.71	931.87
462.083	969.16
462.456	951.75
462.829	974.8
463.201	969.83
463.574	991.53
463.947	989.72
464.32	1010.74
464.692	1003.96
465.065	1009.15
465.438	1031.75
465.81	1041.24
466.183	1052.77
466.555	1091.19
466.928	1059.77
467.3	1104.07
467.672	1091.86
468.045	1115.37
468.417	1137.96
468.789	1109.49
469.161	1131.41
469.534	1165.08
469.906	1188.36
470.278	1157.62
470.65	1203.95
471.022	1204.63
471.394	1226.1
471.766	1247.11
472.138	1248.02
472.51	1272.65
472.882	1308.81
473.253	1333.89
473.625	1317.39
473.997	1372.53
474.369	1357.62
474.74	1385.19
475.112	1396.71
475.484	1436.71
475.855	1459.76
476.227	1451.4
476.598	1519.65
476.97	1541.8
477.341	1552.42
477.713	1597.39
478.084	1601.23
478.455	1643.94
478.827	1659.76
479.198	1677.84
479.569	1713.77
479.94	1738.63
480.311	1756.48
480.682	1826.99
481.053	1870.6
481.424	1916.48
481.795	1920.09
482.166	1982.46
482.537	1994.44
482.908	2001.9
483.279	2012.97
483.65	2087.32
484.021	2110.82
484.391	2175.45
484.762	2191.5
485.133	2217.71
485.503	2256.58
485.874	2295.67
486.244	2324.37
486.615	2385.84
486.985	2398.27
487.356	2453.64
487.726	2449.12
488.097	2553.07
488.467	2537.93
488.837	2633.52
489.207	2661.77
489.578	2700.18
489.948	2707.41
490.318	2744.7
490.688	2795.77
491.058	2801.88
491.428	2883.46
491.798	2893.4
492.168	2954.64
492.538	3000.51
492.908	3022.66
493.278	3038.93
493.648	3051.13
494.017	3109.44
494.387	3154.41
494.757	3152.6
495.126	3241.19
495.496	3228.08
495.866	3251.13
496.235	3310.56
496.605	3347.62
496.974	3354.63
497.344	3407.28
497.713	3409.32
498.082	3437.11
498.452	3473.27
498.821	3504
499.19	3505.13
499.559	3570.22
499.928	3569.76
500.298	3590.56
500.667	3652.93
501.036	3604.57
501.405	3648.18
501.774	3651.12
502.143	3691.34
502.512	3722.3
502.88	3787.84
503.249	3784.67
503.618	3765.92
503.987	3781.74
504.356	3804.56
504.724	3804.56
505.093	3857.67
505.462	3919.13
505.83	3913.94
506.199	3928.85
506.567	3990.09
506.936	3969.08
507.304	4030.09
507.672	4007.49
508.041	4073.48
508.409	4062.41
508.777	4054.27
509.145	4144.21
509.514	4106.02
509.882	4106.25
510.25	4152.8
510.618	4137.89
510.986	4198.67
511.354	4216.3
511.722	4229.86
512.09	4267.37
512.458	4307.82
512.826	4268.73
513.193	4310.99
513.561	4313.47
513.929	4351.67
514.297	4368.16
514.664	4369.29
515.032	4386.47
515.4	4424.88
515.767	4419.23
516.135	4428.95
516.502	4445
516.869	4438.67
517.237	4468.95
517.604	4471.66
517.972	4575.39
518.339	4517.08
518.706	4541.26
519.073	4555.73
519.44	4520.47
519.808	4577.42
520.175	4601.6
520.542	4654.71
520.909	4619.68
521.276	4643.86
521.643	4651.09
522.009	4691.32
522.376	4688.15
522.743	4682.73
523.11	4811.77
523.477	4823.29
523.843	4814.7
524.21	4854.25
524.577	4863.97
524.943	4900.35
525.31	4905.1
525.676	4970.41
526.043	4992.78
526.409	4976.96
526.776	5058.99
527.142	5023.96
527.508	5013.12
527.874	5134.02
528.241	5081.82
528.607	5099.67
528.973	5185.77
529.339	5155.94
529.705	5198.65
530.071	5263.96
530.437	5205.43
530.803	5315.71
531.169	5342.15
531.535	5294.47
531.901	5355.03
532.267	5361.81
532.632	5369.94
532.998	5436.16
533.364	5423.95
533.73	5488.13
534.095	5464.18
534.461	5520
534.826	5521.35
535.192	5581.01
535.557	5536.27
535.923	5560.22
536.288	5625.76
536.653	5637.28
537.019	5621.46
537.384	5676.83
537.749	5625.76
538.114	5659.2
538.479	5736.71
538.845	5760.89
539.21	5762.7
539.575	5775.81
539.94	5824.62
540.305	5837.95
540.67	5828.69
541.034	5904.39
541.399	5899.87
541.764	5986.2
542.129	5989.59
542.494	5974
542.858	5979.42
543.223	6044.95
543.587	6068.68
543.952	6059.64
544.316	6066.42
544.681	6058.51
545.045	6176.48
545.41	6143.26
545.774	6173.76
546.138	6233.88
546.503	6238.85
546.867	6226.87
547.231	6301.9
547.595	6325.17
547.959	6318.62
548.324	6335.57
548.688	6331.73
549.052	6394.32
549.416	6433.87
549.779	6470.25
550.143	6421.44
550.507	6551.38
550.871	6510.7
551.235	6479.74
551.599	6517.26
551.962	6599.97
552.326	6563.81
552.689	6570.59
553.053	6570.59
553.417	6651.27
553.78	6687.42
554.143	6648.1
554.507	6670.47
554.87	6684.03
555.234	6807.87
555.597	6729.91
555.96	6766.52
556.323	6863.46
556.686	6802.45
557.05	6811.04
557.413	6894.65
557.776	6865.72
558.139	6950.92
558.502	6881.77
558.865	6969.68
559.228	6984.82
559.59	6952.05
559.953	7015.78
560.316	7109.56
560.679	7048.54
561.041	7141.2
561.404	7135.09
561.767	7220.06
562.129	7179.39
562.492	7178.48
562.854	7208.31
563.217	7206.51
563.579	7293.28
563.941	7319.5
564.304	7301.19
564.666	7322.66
565.028	7384.13
565.39	7421.42
565.753	7486.05
566.115	7401.75
566.477	7474.07
566.839	7404.69
567.201	7543.9
567.563	7534.63
567.925	7586.83
568.287	7625.25
568.648	7637.23
569.01	7678.36
569.372	7726.72
569.734	7748.86
570.095	7762.42
570.457	7818.24
570.819	7846.26
571.18	7812.37
571.542	7909.09
571.903	7899.14
572.265	7976.65
572.626	7998.12
572.987	8032.47
573.349	8042.87
573.71	8150.66
574.071	8183.88
574.432	8252.81
574.794	8303.65
575.155	8305.23
575.516	8327.15
575.877	8435.17
576.238	8465.46
576.599	8565.34
576.96	8620.71
577.32	8636.07
577.681	8800.81
578.042	8807.59
578.403	8848.95
578.763	8959.23
579.124	9010.75
579.485	9150.18
579.845	9224.76
580.206	9378.65
580.566	9461.14
580.927	9475.6
581.287	9731.18
581.648	9776.38
582.008	9963.72
582.368	10011.86
582.728	10148.35
583.089	10280.77
583.449	10468.34
583.809	10568.9
584.169	10782.46
584.529	10933.19
584.889	11178.83
585.249	11347.87
585.609	11453.85
585.969	11670.57
586.329	11809.55
586.688	12132.48
587.048	12281.63
587.408	12446.14
587.768	12732.24
588.127	12826.02
588.487	13083.19
588.846	13361.15
589.206	13489.05
589.565	13755.94
589.925	14046.33
590.284	14215.36
590.643	14520.89
591.003	14809.47
591.362	15098.95
591.721	15318.38
592.08	15638.15
592.44	15925.37
592.799	16138.7
593.158	16383.89
593.517	16627.5
593.876	17001.28
594.235	17244.66
594.593	17563.3
594.952	17949.5
595.311	18068.14
595.67	18384.29
596.029	18877.61
596.387	19095.01
596.746	19475.11
597.104	19662.9
597.463	19827.19
597.822	20232.38
598.18	20524.35
598.538	20758.69
598.897	21166.82
599.255	21270.09
599.613	21833.01
599.972	21970.86
600.33	22322.04
600.688	22533.79
601.046	22914.79
601.404	23203.82
601.762	23530.14
602.12	23837.93
602.478	24132.61
602.836	24405.38
603.194	24507.52
603.552	24841.3
603.91	24985.02
604.268	25387.5
604.625	25539.58
604.983	25969.4
605.341	26050.98
605.698	26438.09
606.056	26800.79
606.413	26835.14
606.771	27326.2
607.128	27448.91
607.485	27649.58
607.843	27834.89
608.2	28246.4
608.557	28550.13
608.914	28626.96
609.272	28944.46
609.629	29130.45
609.986	29525.47
610.343	29536.54
610.7	29995.96
611.057	30059.24
611.414	30247.03
611.771	30550.52
612.127	30726.56
612.484	30975.6
612.841	31305.98
613.198	31246.78
613.554	31340.79
613.911	31829.13
614.267	31912.52
614.624	32145.28
614.98	32274.09
615.337	32615.78
615.693	32529.23
616.05	32729.45
616.406	33100.97
616.762	33143
617.118	33226.61
617.475	33431.58
617.831	33553.16
618.187	33892.13
618.543	33917.89
618.899	34291.67
619.255	34274.49
619.611	34323.31
619.967	34656.63
620.323	34768.49
620.678	34665.22
621.034	34782.05
621.39	34890.98
621.746	35142.04
622.101	35519.66
622.457	35294.13
622.812	35499.55
623.168	35721.24
623.523	35833.55
623.879	35883.72
624.234	35757.17
624.589	35883.49
624.945	36194.9
625.3	36270.6
625.655	36212.3
626.01	36323.48
626.365	36500.42
626.72	36479.63
627.075	36542.91
627.43	36600.31
627.785	36451.84
628.14	36552.4
628.495	36803.02
628.85	36846.4
629.205	36754.43
629.559	36836.69
629.914	36777.93
630.269	36862.9
630.623	36961.43
630.978	36805.95
631.332	37154.64
631.687	37226.73
632.041	37173.18
632.396	37324.58
632.75	37019.51
633.104	37248.43
633.459	37061.99
633.813	37144.25
634.167	37198.49
634.521	37310.57
634.875	37308.31
635.229	37250.24
635.583	37130.69
635.937	37147.64
636.291	37268.54
636.645	37281.42
636.999	37164.36
637.352	37319.61
637.706	37116.68
638.06	37453.62
638.413	37324.36
638.767	37249.33
639.121	37305.6
639.474	37146.74
639.828	37271.7
640.181	37409.33
640.534	37357.58
640.888	37271.7
641.241	37053.63
641.594	37288.65
641.947	37380.63
642.301	37131.82
642.654	37106.51
643.007	37314.19
643.36	37203.68
643.713	37135.21
644.066	37249.11
644.419	37073.74
644.771	36714.66
645.124	36583.13
645.477	36446.41
645.83	36243.26
646.182	36116.93
646.535	36179.3
646.888	36163.03
647.24	35918.29
647.593	36240.32
647.945	36158.51
648.298	35963.26
648.65	35981.12
649.002	35833.78
649.355	36037.84
649.707	35985.64
650.059	36234.22
650.411	36559.63
650.763	36523.93
651.115	36957.36
651.467	36814.77
651.819	36677.14
652.171	36688.67
652.523	36730.7
652.875	36770.02
653.227	36711.04
653.578	36839.4
653.93	36798.04
654.282	36643.25
654.633	36661.55
654.985	36661.1
655.337	36680.76
655.688	36645.05
656.039	36765.95
656.391	36273.76
656.742	36563.02
657.094	36565.96
657.445	36721.89
657.796	36491.84
658.147	36508.33
658.498	36533.87
658.849	36573.19
659.2	36570.71
659.551	36325.51
659.902	36563.02
660.253	36509.01
660.604	36589.69
660.955	36302.69
661.306	36473.98
661.656	36461.1
662.007	36471.95
662.358	36382.24
662.708	36493.19
663.059	36530.25
663.409	36194.22
663.76	36584.49
664.11	36393.53
664.461	36416.13
664.811	36468.56
665.161	36439.18
665.511	36414.78
665.862	36307.66
666.212	36499.52
666.562	36441.22
666.912	36498.62
667.262	36424.95
667.612	36429.69
667.962	36364.16
668.312	36247.55
668.662	36612.51
669.011	36352.41
669.361	36428.79
669.711	36239.87
670.06	36244.16
670.41	36179.98
670.76	36168.23
671.109	36299.3
671.459	36290.71
671.808	36174.33
672.157	36235.12
672.507	36102.92
672.856	36105.41
673.205	36109.47
673.554	36323.71
673.904	36125.52
674.253	36384.95
674.602	36185.63
674.951	35667
675.3	35563.27
675.649	36050.04
675.998	35987.67
676.346	36143.6
676.695	36208.91
677.044	35940.44
677.393	36030.61
677.741	36024.28
678.09	36050.49
678.438	35855.7
678.787	35972.98
679.135	35991.51
679.484	35631.97
679.832	35883.04
680.181	35832.19
680.529	35740.9
680.877	35661.12
681.225	35599.43
681.573	35839.42
681.922	35547.91
682.27	35457.97
682.618	35476.04
682.966	35287.35
683.314	35328.93
683.661	35272.66
684.009	35174.36
684.357	35104.98
684.705	34979.79
685.053	35180.23
685.4	35067.47
685.748	34913.35
686.095	34810.98
686.443	34850.52
686.79	34724.88
687.138	34818.21
687.485	34800.13
687.832	34676.07
688.18	34648.27
688.527	34458.9
688.874	34452.12
689.221	34617.54
689.568	34424.32
689.915	34231.11
690.262	34363.53
690.609	34182.52
690.956	34058.68
691.303	34149.3
691.65	33846.03
691.997	33883.32
692.344	33628.64
692.69	33727.62
693.037	33803.09
693.383	33454.18
693.73	33608.3
694.077	33330.34
694.423	33540.05
694.769	33305.93
695.116	33182.32
695.462	33036.56
695.808	32995.43
696.155	32997.24
696.501	32712.73
696.847	32624.37
697.193	32564.03
697.539	32553.86
697.885	32402
698.231	32368.1
698.577	32254.89
698.923	32268.22
699.269	32065.96
699.614	32029.58
699.96	31810.38
700.306	32077.04
700.651	31871.17
700.997	31688.35
701.342	31654.9
701.688	31588.01
702.033	31536.49
702.379	31361.58
702.724	31378.53
703.069	31609.71
703.415	31137.85
703.76	31163.39
704.105	31145.76
704.45	31066.89
704.795	30964.07
705.14	30955.49
705.485	30883.4
705.83	30715.49
706.175	30787.35
706.52	30608.6
706.865	30436.63
707.209	30511.66
707.554	30292.68
707.899	30458.78
708.243	30197.09
708.588	30310.3
708.932	30029.63
709.277	30034.38
709.621	30105.56
709.966	29868.73
710.31	29941.27
710.654	29698.8
710.998	29644.11
711.342	29648.63
711.687	29597.78
712.031	29451.12
712.375	29382.87
712.719	29427.62
713.063	29404.57
713.407	29424
713.75	29283.44
714.094	29183.1
714.438	29122.99
714.782	29187.17
715.125	29010.45
715.469	29054.74
715.812	28831.93
716.156	28770.91
716.499	28750.35
716.843	28886.61
717.186	28630.35
717.53	28734.3
717.873	28643
718.216	28664.25
718.559	28498.37
718.902	28293.41
719.246	28461.09
719.589	28417.02
719.932	28250.7
720.275	28263.58
720.617	28225.84
720.96	28126.41
721.303	28078.5
721.646	28082.11
721.989	27883.7
722.331	28056.35
722.674	27953.76
723.016	27924.83
723.359	27852.97
723.701	27806.42
724.044	27663.82
724.386	27531.17
724.729	27730.03
725.071	27622.24
725.413	27611.62
725.755	27492.3
726.097	27540.66
726.439	27398.52
726.782	27372.75
727.124	27527.1
727.465	27457.72
727.807	27285.3
728.149	27212.08
728.491	27203.95
728.833	27268.35
729.175	27126.66
729.516	27026.32
729.858	26964.86
730.199	27056.6
730.541	26935.48
730.882	26910.17
731.224	26881.69
731.565	26864.75
731.906	26802.6
732.248	26777.74
732.589	26734.81
732.93	26576.62
733.271	26667.46
733.612	26575.94
733.953	26551.99
734.294	26546.56
734.635	26395.38
734.976	26465.43
735.317	26303.86
735.658	26355.15
735.999	26330.97
736.339	26245.1
736.68	26273.8
737.021	26292.33
737.361	26099.57
737.702	26266.57
738.042	26182.5
738.383	26055.05
738.723	26140.92
739.063	26075.16
739.404	26168.94
739.744	26007.14
740.084	25931.89
740.424	25952
740.764	25850.76
741.104	26058.89
741.444	25847.37
741.784	25800.37
742.124	25772.34
742.464	25791.33
742.804	25707.49
743.143	25638.34
743.483	25639.47
743.823	25405.57
744.162	25562.86
744.502	25473.6
744.841	25475.63
745.181	25566.02
745.52	25482.41
745.86	25362.86
746.199	25469.3
746.538	25379.59
746.877	25338.68
747.216	25372.58
747.556	25285.35
747.895	25240.16
748.234	25149.76
748.573	25109.99
748.911	25092.14
749.25	25027.51
749.589	24876.32
749.928	25024.57
750.267	24983.21
750.605	24951.12
750.944	24854.63
751.283	24885.81
751.621	24881.75
751.96	24712.71
752.298	24671.13
752.636	24764.69
752.975	24534.86
753.313	24516.33
753.651	24588.87
753.989	24485.15
754.327	24436.33
754.666	24352.04
755.004	24384.81
755.342	24408.99
755.679	24347.52
756.017	24249
756.355	24159.73
756.693	24190.01
757.031	24328.99
757.368	23983.47
757.706	23933.52
758.044	23978.95
758.381	23878.84
758.719	23831.61
759.056	23836.58
759.394	23733.75
759.731	23578.28
760.068	23681.78
760.405	23602.91
760.743	23417.15
761.08	23499.18
761.417	23359.53
