Data from hue_30_FLMS001491_19.txt Node
Date: Mon Feb 06 15:04:50 GMT 2017
User: dcchb
Spectrometer: FLMS00149
Trigger mode: 0
Integration Time (sec): 2.000000E-2
Scans to average: 10
Electric dark correction enabled: true
Nonlinearity correction enabled: false
Boxcar width: 0
XAxis mode: Wavelengths
Number of Pixels in Spectrum: 2048
>>>>>Begin Spectral Data<<<<<
341.393	-7.68
341.776	-7.68
342.16	-7.68
342.543	-71.86
342.927	-68.92
343.31	-79.32
343.693	-62.15
344.077	-72.31
344.46	-66.44
344.843	-49.94
345.226	-55.82
345.61	-44.52
345.993	-18.08
346.376	8.14
346.759	32.54
347.142	35.03
347.525	55.37
347.908	54.46
348.291	72.77
348.674	91.3
349.057	98.98
349.44	126.78
349.823	132.2
350.206	152.09
350.588	193.44
350.971	218.3
351.354	229.37
351.737	239.32
352.119	241.12
352.502	274.12
352.884	270.05
353.267	287.9
353.65	283.61
354.032	283.16
354.414	298.98
354.797	299.88
355.179	320.67
355.562	315.7
355.944	302.59
356.326	323.83
356.709	337.84
357.091	337.39
357.473	337.84
357.855	320.22
358.238	327
358.62	338.75
359.002	323.83
359.384	331.06
359.766	350.73
360.148	372.19
360.53	319.77
360.912	331.74
361.294	328.58
361.676	333.78
362.057	331.74
362.439	342.59
362.821	338.75
363.203	324.51
363.584	343.04
363.966	336.26
364.348	315.02
364.729	339.43
365.111	334.45
365.493	338.07
365.874	330.84
366.256	311.86
366.637	315.92
367.019	307.34
367.4	311.4
367.781	307.79
368.163	315.7
368.544	321.8
368.925	316.83
369.306	315.47
369.688	318.41
370.069	313.66
370.45	299.65
370.831	332.19
371.212	308.24
371.593	310.05
371.974	315.02
372.355	316.6
372.736	302.82
373.117	314.12
373.498	340.33
373.879	321.8
374.26	323.16
374.641	335.81
375.021	313.66
375.402	324.51
375.783	308.69
376.163	321.35
376.544	338.75
376.925	319.09
377.305	338.07
377.686	305.75
378.066	320.22
378.447	311.4
378.827	326.77
379.208	340.1
379.588	324.96
379.968	346.66
380.349	360.22
380.729	325.64
381.109	339.88
381.489	338.52
381.87	349.14
382.25	334
382.63	340.78
383.01	346.66
383.39	334.91
383.77	328.13
384.15	348.01
384.53	343.49
384.91	349.6
385.29	352.99
385.67	320.44
386.049	343.49
386.429	376.71
386.809	335.81
387.189	360.44
387.568	352.08
387.948	366.09
388.328	356.15
388.707	341.01
389.087	335.58
389.466	355.7
389.846	358.86
390.225	357.05
390.605	352.53
390.984	367.45
391.363	352.31
391.743	359.31
392.122	378.75
392.501	383.72
392.881	388.24
393.26	367.67
393.639	350.27
394.018	348.01
394.397	363.15
394.776	385.75
395.155	362.02
395.534	355.02
395.913	383.49
396.292	379.65
396.671	382.14
397.05	370.84
397.429	373.1
397.808	392.76
398.186	386.2
398.565	398.86
398.944	391.85
399.323	374.23
399.701	401.12
400.08	388.69
400.458	393.21
400.837	411.97
401.215	374.23
401.594	389.37
401.972	369.26
402.351	401.35
402.729	408.58
403.107	410.61
403.486	401.35
403.864	404.96
404.242	399.99
404.62	392.31
404.999	399.54
405.377	414.45
405.755	416.94
406.133	427.79
406.511	413.55
406.889	398.63
407.267	430.72
407.645	437.28
408.023	419.42
408.401	412.64
408.779	417.16
409.156	446.54
409.534	432.08
409.912	411.51
410.29	447.67
410.667	454.23
411.045	431.4
411.422	423.72
411.8	452.87
412.178	448.8
412.555	474.34
412.933	457.84
413.31	460.1
413.687	438.86
414.065	431.4
414.442	472.98
414.819	482.25
415.197	480.67
415.574	463.94
415.951	466.65
416.328	454.23
416.705	479.08
417.082	484.28
417.46	515.24
417.837	484.96
418.214	492.87
418.591	508.69
418.967	493.55
419.344	495.81
419.721	514.34
420.098	488.57
420.475	511.4
420.852	514.34
421.228	506.2
421.605	530.16
421.982	517.73
422.358	524.51
422.735	518.63
423.111	516.6
423.488	512.08
423.864	528.8
424.241	550.27
424.617	530.83
424.994	557.5
425.37	570.83
425.746	548.69
426.123	549.59
426.499	549.14
426.875	552.98
427.251	567.67
427.627	556.14
428.003	607.22
428.379	567.67
428.756	580.1
429.132	582.58
429.507	580.32
429.883	580.55
430.259	596.82
430.635	614
431.011	579.65
431.387	599.08
431.763	613.09
432.138	643.37
432.514	625.29
432.89	599.53
433.265	627.55
433.641	636.59
434.016	651.51
434.392	677.72
434.767	661.68
435.143	656.48
435.518	669.36
435.894	652.41
436.269	666.2
436.644	695.12
437.02	680.66
437.395	692.19
437.77	701.9
438.145	711.39
438.52	700.32
438.895	719.3
439.271	725.4
439.646	726.31
440.021	731.73
440.395	731.73
440.77	761.56
441.145	748.91
441.52	735.35
441.895	741.68
442.27	717.27
442.645	740.77
443.019	754.56
443.394	761.11
443.769	744.61
444.143	774.89
444.518	788.45
444.892	770.6
445.267	774.89
445.641	778.96
446.016	794.56
446.39	792.75
446.764	784.16
447.139	791.17
447.513	790.49
447.887	817.38
448.262	821.9
448.636	822.58
449.01	806.31
449.384	841.11
449.758	856.47
450.132	842.01
450.506	842.01
450.88	861.45
451.254	847.21
451.628	851.05
452.002	867.1
452.376	890.37
452.75	906.87
453.123	905.51
453.497	888.56
453.871	910.71
454.244	895.34
454.618	905.06
454.992	904.16
455.365	910.94
455.739	924.72
456.112	956.59
456.486	955
456.859	960.43
457.232	973.31
457.606	999.07
457.979	992.06
458.352	983.93
458.725	1038.62
459.099	1002.01
459.472	1021.67
459.845	1034.55
460.218	1028.9
460.591	1036.58
460.964	1059.63
461.337	1096.02
461.71	1118.61
462.083	1123.36
462.456	1110.71
462.829	1130.59
463.201	1142.79
463.574	1170.36
463.947	1157.26
464.32	1177.82
464.692	1189.8
465.065	1189.12
465.438	1217.6
465.81	1220.98
466.183	1255.56
466.555	1260.31
466.928	1276.58
467.3	1285.84
467.672	1313.64
468.045	1329.23
468.417	1335.78
468.789	1342.34
469.161	1366.52
469.534	1387.31
469.906	1411.26
470.278	1431.83
470.65	1414.43
471.022	1446.52
471.394	1476.57
471.766	1487.42
472.138	1523.58
472.51	1569.9
472.882	1557.02
473.253	1598.38
473.625	1635.21
473.997	1621.65
474.369	1681.31
474.74	1678.83
475.112	1716.57
475.484	1744.59
475.855	1818.26
476.227	1821.65
476.598	1890.8
476.97	1903
477.341	1935.54
477.713	1984.13
478.084	1981.19
478.455	2082.88
478.827	2064.13
479.198	2133.28
479.569	2145.03
479.94	2228.87
480.311	2246.04
480.682	2292.6
481.053	2354.74
481.424	2410.56
481.795	2390.67
482.166	2492.59
482.537	2519.93
482.908	2622.53
483.279	2611
483.65	2691.45
484.021	2717.89
484.391	2770.77
484.762	2832.69
485.133	2845.35
485.503	2895.29
485.874	2996.31
486.244	3023.65
486.615	3103.2
486.985	3141.16
487.356	3185.23
487.726	3244.43
488.097	3331.66
488.467	3373.7
488.837	3415.28
489.207	3485.78
489.578	3581.37
489.948	3596.29
490.318	3705.67
490.688	3696.17
491.058	3759.9
491.428	3836.74
491.798	3915.15
492.168	3947.47
492.538	3981.59
492.908	4092.32
493.278	4089.84
493.648	4156.95
494.017	4207.35
494.387	4254.58
494.757	4348.81
495.126	4372.09
495.496	4414.57
495.866	4447.57
496.235	4496.38
496.605	4568.47
496.974	4567.56
497.344	4655.7
497.713	4646.88
498.082	4749.03
498.452	4785.18
498.821	4853.66
499.19	4839.19
499.559	4909.7
499.928	4937.95
500.298	5027.66
500.667	5041.9
501.036	5081.45
501.405	5099.07
501.774	5113.99
502.143	5177.94
502.512	5217.26
502.88	5205.06
503.249	5224.04
503.618	5284.83
503.987	5399.41
504.356	5373.42
504.724	5432.4
505.093	5480.76
505.462	5483.47
505.83	5508.33
506.199	5596.01
506.567	5672.85
506.936	5619.51
507.304	5761.43
507.672	5747.42
508.041	5757.36
508.409	5778.38
508.777	5850.02
509.145	5864.48
509.514	5852.95
509.882	5910.58
510.25	5971.14
510.618	6010.92
510.986	6017.24
511.354	6068.09
511.722	6126.62
512.09	6143.12
512.458	6124.36
512.826	6221.98
513.193	6253.39
513.561	6252.72
513.929	6329.33
514.297	6337.01
514.664	6345.6
515.032	6378.14
515.4	6430.57
515.767	6458.59
516.135	6495.65
516.502	6432.6
516.869	6613.61
517.237	6577.91
517.604	6551.69
517.972	6644.35
518.339	6639.83
518.706	6687.06
519.073	6708.98
519.44	6726.83
519.808	6794.85
520.175	6759.37
520.542	6843.89
520.909	6892.02
521.276	6861.29
521.643	6915.98
522.009	6933.83
522.376	7004.56
522.743	7077.55
523.11	7162.75
523.477	7136.99
523.843	7169.08
524.21	7232.35
524.577	7294.5
524.943	7305.12
525.31	7354.38
525.676	7360.48
526.043	7477.32
526.409	7475.96
526.776	7498.79
527.142	7552.34
527.508	7621.72
527.874	7557.99
528.241	7667.37
528.607	7692
528.973	7798.21
529.339	7771.77
529.705	7802.05
530.071	7916.4
530.437	7960.02
530.803	8021.71
531.169	8010.86
531.535	8032.33
531.901	8056.96
532.267	8111.88
532.632	8119.79
532.998	8156.62
533.364	8207.24
533.73	8277.3
534.095	8317.97
534.461	8316.62
534.826	8344.19
535.192	8421.93
535.557	8457.4
535.923	8439.55
536.288	8521.58
536.653	8543.73
537.019	8484.52
537.384	8556.61
537.749	8675.25
538.114	8633.22
538.479	8686.1
538.845	8680.45
539.21	8708.02
539.575	8799.32
539.94	8775.36
540.305	8860.56
540.67	8839.32
541.034	8919.77
541.399	8949.37
541.764	9012.42
542.129	8999.09
542.494	9046.09
542.858	9096.26
543.223	9058.74
543.587	9157.05
543.952	9171.74
544.316	9209.48
544.681	9244.05
545.045	9321.56
545.41	9331.05
545.774	9397.72
546.138	9360.66
546.503	9406.53
546.867	9390.71
547.231	9560.65
547.595	9504.16
547.959	9580.77
548.324	9588.22
548.688	9563.36
549.052	9674.1
549.416	9668.22
549.779	9754.32
550.143	9740.08
550.507	9752.96
550.871	9756.81
551.235	9780.53
551.599	9914.54
551.962	9845.62
552.326	9937.59
552.689	10009
553.053	9990.47
553.417	9931.94
553.78	10134.42
554.143	10051.49
554.507	10161.99
554.87	10062.33
555.234	10243.12
555.597	10206.74
555.96	10184.36
556.323	10226.17
556.686	10289
557.05	10381.87
557.413	10401.53
557.776	10479.95
558.139	10473.85
558.502	10428.88
558.865	10535.99
559.228	10568.54
559.59	10554.98
559.953	10628.2
560.316	10740.28
560.679	10658.25
561.041	10741.19
561.404	10843.78
561.767	10860.51
562.129	10815.99
562.492	10968.75
562.854	11003.33
563.217	10875.65
563.579	10968.75
563.941	11093.95
564.304	11122.65
564.666	11138.24
565.028	11121.06
565.39	11220.95
565.753	11238.35
566.115	11283.55
566.477	11343.2
566.839	11356.54
567.201	11452.13
567.563	11444.22
567.925	11495.29
568.287	11520.6
568.648	11529.41
569.01	11653.48
569.372	11634.95
569.734	11637.43
570.095	11758.56
570.457	11759.92
570.819	11800.37
571.18	11858.67
571.542	11916.52
571.903	11965.56
572.265	12079
572.626	12069.29
572.987	12144.77
573.349	12207.36
573.71	12257.98
574.071	12301.82
574.432	12418.88
574.794	12527.81
575.155	12598.54
575.516	12583.85
575.877	12639.22
576.238	12775.03
576.599	12889.38
576.96	12877.85
577.32	13012.09
577.681	13029.71
578.042	13247.34
578.403	13184.51
578.763	13351.74
579.124	13476.93
579.485	13533.43
579.845	13662.24
580.206	13784.72
580.566	13892.97
580.927	13942.46
581.287	14130.25
581.648	14312.17
582.008	14459.51
582.368	14676.68
582.728	14768.88
583.089	14910.12
583.449	15064.46
583.809	15194.85
584.169	15467.39
584.529	15585.58
584.889	15933.14
585.249	15964.55
585.609	16165.22
585.969	16339.68
586.329	16530.86
586.688	16775.83
587.048	16900.35
587.408	17117.74
587.768	17327.91
588.127	17502.82
588.487	17707.33
588.846	18090.82
589.206	18092.41
589.565	18440.42
589.925	18723.58
590.284	18879.5
590.643	19147.75
591.003	19471.13
591.362	19708.41
591.721	19973.03
592.08	20242.18
592.44	20418.9
592.799	20674.03
593.158	20924.2
593.517	21260.23
593.876	21439.21
594.235	21641.46
594.593	21885.07
594.952	22217.95
595.311	22416.36
595.67	22692.06
596.029	23034.42
596.387	23272.38
596.746	23688.42
597.104	23835.53
597.463	23960.05
597.822	24258.35
598.18	24488.17
598.538	24642.97
598.897	24995.05
599.255	25195.72
599.613	25699.21
599.972	25622.83
600.33	26017.85
600.688	26151.63
601.046	26508.68
601.404	26719.07
601.762	26748.68
602.12	27168.1
602.478	27292.62
602.836	27545.49
603.194	27667.3
603.552	27943.9
603.91	28025.25
604.268	28481.06
604.625	28433.38
604.983	28877.66
605.341	28857.32
605.698	29311.77
606.056	29494.82
606.413	29682.84
606.771	29996.5
607.128	30159.43
607.485	30255.93
607.843	30301.58
608.2	30655.47
608.557	31035.12
608.914	31014.78
609.272	31295.22
609.629	31469.46
609.986	31756.91
610.343	31634.42
610.7	32170.45
611.057	32195.09
611.414	32440.28
611.771	32493.38
612.127	32776.77
612.484	32953.71
612.841	33134.95
613.198	33095.4
613.554	33329.52
613.911	33579
614.267	33617.87
614.624	33857.64
614.98	33823.52
615.337	34192.1
615.693	34153.68
616.05	34173.79
616.406	34500.34
616.762	34566.77
617.118	34562.03
617.475	34741.23
617.831	34966.31
618.187	35070.94
618.543	35222.58
618.899	35413.98
619.255	35468.45
619.611	35560.42
619.967	35682.23
620.323	35880.19
620.678	35780.08
621.034	35764.03
621.39	35824.82
621.746	35978.94
622.101	36394.98
622.457	36124.02
622.812	36323.11
623.168	36539.83
623.523	36484.01
623.879	36676.55
624.234	36430.23
624.589	36655.76
624.945	36796.77
625.3	36841.97
625.655	36898.46
626.01	37037.22
626.365	37058.91
626.72	37100.72
627.075	37119.7
627.43	37068.63
627.785	37143.66
628.14	37143.43
628.495	37302.07
628.85	37269.53
629.205	37152.24
629.559	37364.44
629.914	37380.71
630.269	37457.09
630.623	37405.34
630.978	37307.72
631.332	37639.91
631.687	37579.58
632.041	37582.06
632.396	37611.21
632.75	37423.65
633.104	37645.11
633.459	37405.12
633.813	37535.74
634.167	37566.47
634.521	37555.4
634.875	37612.8
635.229	37333.93
635.583	37401.05
635.937	37413.03
636.291	37406.7
636.645	37506.58
636.999	37415.29
637.352	37540.71
637.706	37391.11
638.06	37479.47
638.413	37374.61
638.767	37394.5
639.121	37514.27
639.474	37307.72
639.828	37384.33
640.181	37432.91
640.534	37391.11
640.888	37380.03
641.241	37237.89
641.594	37307.04
641.947	37462.97
642.301	37390.43
642.654	37361.96
643.007	37228.63
643.36	37268.4
643.713	37182.3
644.066	37405.12
644.419	37142.75
644.771	36866.38
645.124	36663.67
645.477	36513.62
645.83	36354.3
646.182	36186.85
646.535	36227.52
646.888	36050.13
647.24	35837.7
647.593	36128.09
647.945	36083.57
648.298	35853.29
648.65	35915.67
649.002	35860.07
649.355	36113.85
649.707	36053.06
650.059	36079.28
650.411	36597.23
650.763	36590
651.115	36843.33
651.467	36840.84
651.819	36753.61
652.171	36761.07
652.523	36623.67
652.875	36735.98
653.227	36705.02
653.578	36860.5
653.93	36757
654.282	36624.12
654.633	36518.81
654.985	36501.87
655.337	36560.39
655.688	36675.65
656.039	36759.94
656.391	36370.12
656.742	36487.85
657.094	36542.54
657.445	36689.66
657.796	36522.43
658.147	36342.77
658.498	36520.17
658.849	36526.27
659.2	36441.08
659.551	36271.59
659.902	36527.85
660.253	36387.07
660.604	36560.39
660.955	36304.58
661.306	36395.43
661.656	36400.62
662.007	36482.2
662.358	36414.41
662.708	36350
663.059	36414.41
663.409	36194.75
663.76	36452.37
664.11	36319.95
664.461	36459.83
664.811	36465.48
665.161	36421.64
665.511	36276.33
665.862	36313.17
666.212	36405.37
666.562	36451.7
666.912	36385.71
667.262	36316.79
667.612	36310.68
667.962	36442.66
668.312	36187.52
668.662	36333.51
669.011	36295.32
669.361	36427.29
669.711	36182.1
670.06	36229.1
670.41	36034.76
670.76	36076.34
671.109	36198.37
671.459	36302.1
671.808	36141.87
672.157	36201.31
672.507	35934.87
672.856	36102.1
673.205	35924.48
673.554	36301.42
673.904	35972.84
674.253	36090.35
674.602	36042.22
674.951	35555.68
675.3	35452.18
675.649	35991.37
675.998	35972.39
676.346	36073.85
676.695	36056.91
677.044	35750.7
677.393	35930.81
677.741	35877.7
678.09	35734.88
678.438	35740.53
678.787	35865.72
679.135	35859.62
679.484	35661.44
679.832	35692.85
680.181	35500.76
680.529	35581.44
680.877	35422.57
681.225	35490.59
681.573	35646.07
681.922	35400.2
682.27	35247.21
682.618	35346.87
682.966	35383.02
683.314	35177.61
683.661	35289.02
684.009	35004.96
684.357	35045.86
684.705	34919.53
685.053	34984.16
685.4	34827.33
685.748	34732.65
686.095	34699.2
686.443	34601.8
686.79	34572.2
687.138	34669.82
687.485	34639.77
687.832	34488.13
688.18	34476.83
688.527	34257.63
688.874	34351.87
689.221	34255.82
689.568	34215.82
689.915	34072.55
690.262	34094.02
690.609	34016.28
690.956	33989.61
691.303	33946.23
691.65	33779.68
691.997	33660.81
692.344	33573.13
692.69	33564.32
693.037	33650.87
693.383	33370.2
693.73	33454.71
694.077	33152.57
694.423	33088.4
694.769	33112.35
695.116	32998
695.462	32890.43
695.808	32833.03
696.155	32945.35
696.501	32580.61
696.847	32757.56
697.193	32366.83
697.539	32459.71
697.885	32248.64
698.231	32209.55
698.577	32192.83
698.923	32231.02
699.269	32088.42
699.614	31945.15
699.96	31889.56
700.306	31794.64
700.651	31782.22
700.997	31505.16
701.342	31700.64
701.688	31545.61
702.033	31400.98
702.379	31449.79
702.724	31280.08
703.069	31356.92
703.415	31070.82
703.76	31016.81
704.105	31077.37
704.45	30944.27
704.795	30799.19
705.14	30764.61
705.485	30608.46
705.83	30476.03
706.175	30498.86
706.52	30424.06
706.865	30378.86
707.209	30398.3
707.554	30274.68
707.899	30294.34
708.243	30122.37
708.588	30140.45
708.932	29912.89
709.277	29930.74
709.621	30010.28
709.966	29659.79
710.31	29884.64
710.654	29540.24
710.998	29573.23
711.342	29539.34
711.687	29630.18
712.031	29318.1
712.375	29321.94
712.719	29264.32
713.063	29280.59
713.407	29407.59
713.75	29246.69
714.094	29103.42
714.438	29074.49
714.782	29079.69
715.125	28961.27
715.469	28996.3
715.812	28730.77
716.156	28616.65
716.499	28752.69
716.843	28729.64
717.186	28505.92
717.53	28682.64
717.873	28577.78
718.216	28569.64
718.559	28408.07
718.902	28193.16
719.246	28318.8
719.589	28152.71
719.932	28081.97
720.275	28088.08
720.617	28017.34
720.96	28018.02
721.303	28027.29
721.646	28050.34
721.989	27710.46
722.331	27913.16
722.674	27848.53
723.016	27838.36
723.359	27731.25
723.701	27867.97
724.044	27583.46
724.386	27532.16
724.729	27560.41
725.071	27424.82
725.413	27393.63
725.755	27366.96
726.097	27280.86
726.439	27270.7
726.782	27181.66
727.124	27375.55
727.465	27084.94
727.807	27086.52
728.149	27106.86
728.491	27017.37
728.833	27025.96
729.175	26965.17
729.516	26897.6
729.858	26798.62
730.199	26931.5
730.541	26814.21
730.882	26870.48
731.224	26771.27
731.565	26547.55
731.906	26708.22
732.248	26666.64
732.589	26625.74
732.93	26530.6
733.271	26531.73
733.612	26564.5
733.953	26540.32
734.294	26406.99
734.635	26410.38
734.976	26438.17
735.317	26205.64
735.658	26206.09
735.999	26273.43
736.339	26186.88
736.68	26311.85
737.021	26203.15
737.361	26060.33
737.702	26182.14
738.042	26010.84
738.383	25963.16
738.723	26055.59
739.063	25812.2
739.404	25796.84
739.744	25843.16
740.084	25618.76
740.424	25717.29
740.764	25633
741.104	25765.42
741.444	25618.99
741.784	25575.82
742.124	25644.07
742.464	25496.73
742.804	25563.85
743.143	25452.89
743.483	25506.45
743.823	25386.68
744.162	25320.92
744.502	25412.89
744.841	25351.2
745.181	25324.08
745.52	25174.25
745.86	25268.04
746.199	25220.58
746.538	25171.54
746.877	25247.25
747.216	25179.9
747.556	25156.4
747.895	25162.28
748.234	25005.9
748.573	24974.48
748.911	24914.37
749.25	24895.84
749.589	24745.34
749.928	24786.92
750.267	24845.22
750.605	24721.16
750.944	24626.47
751.283	24526.81
751.621	24593.25
751.96	24528.17
752.298	24484.55
752.636	24511.9
752.975	24403.88
753.313	24370.43
753.651	24468.96
753.989	24187.39
754.327	24262.86
754.666	24088.41
755.004	24167.73
755.342	24165.69
755.679	24136.77
756.017	24001.85
756.355	23918.24
756.693	23976.54
757.031	23934.74
757.368	23811.8
757.706	23805.93
758.044	23628.08
758.381	23810.45
758.719	23619.94
759.056	23736.78
759.394	23627.18
759.731	23506.95
