Data from hue_290_FLMS001491_00071.txt Node
Date: Tue Feb 07 15:53:12 GMT 2017
User: dcchb
Spectrometer: FLMS00149
Trigger mode: 0
Integration Time (sec): 2.000000E-2
Scans to average: 10
Electric dark correction enabled: true
Nonlinearity correction enabled: false
Boxcar width: 0
XAxis mode: Wavelengths
Number of Pixels in Spectrum: 2048
>>>>>Begin Spectral Data<<<<<
341.393	-8.73
341.776	-8.73
342.16	-8.73
342.543	-49.86
342.927	-61.61
343.31	-88.05
343.693	-64.77
344.077	-75.17
344.46	-52.34
344.843	-56.86
345.226	-44.66
345.61	-21.16
345.993	-35.62
346.376	1.89
346.759	12.74
347.142	18.62
347.525	49.57
347.908	58.84
348.291	77.6
348.674	107.65
349.057	111.72
349.44	139.97
349.823	131.61
350.206	171.61
350.588	183.58
350.971	214.99
351.354	217.71
351.737	227.2
352.119	238.5
352.502	249.34
352.884	251.15
353.267	278.04
353.65	275.78
354.032	294.09
354.414	288.21
354.797	303.13
355.179	308.55
355.562	326.63
355.944	333.64
356.326	332.96
356.709	331.83
357.091	335.44
357.473	320.75
357.855	330.25
358.238	319.85
358.62	324.14
359.002	342.67
359.384	342.67
359.766	362.79
360.148	317.82
360.53	323.47
360.912	337.93
361.294	316.69
361.676	329.12
362.057	319.62
362.439	324.37
362.821	336.35
363.203	324.6
363.584	335.22
363.966	345.61
364.348	318.72
364.729	317.14
365.111	288.44
365.493	297.7
365.874	322.11
366.256	318.72
366.637	290.25
367.019	326.4
367.4	310.13
367.781	306.07
368.163	318.72
368.544	296.35
368.925	299.29
369.306	337.48
369.688	291.6
370.069	318.72
370.45	312.39
370.831	322.56
371.212	311.26
371.593	299.51
371.974	320.75
372.355	311.94
372.736	307.65
373.117	313.97
373.498	303.35
373.879	332.73
374.26	332.05
374.641	313.07
375.021	273.98
375.402	320.53
375.783	324.37
376.163	323.92
376.544	305.39
376.925	329.12
377.305	330.7
377.686	334.99
378.066	320.53
378.447	341.09
378.827	353.52
379.208	320.53
379.588	332.73
379.968	334.54
380.349	326.18
380.729	336.35
381.109	332.51
381.489	327.53
381.87	332.96
382.25	339.96
382.63	323.47
383.01	343.58
383.39	333.86
383.77	330.47
384.15	322.56
384.53	329.57
384.91	342.22
385.29	357.14
385.67	347.42
386.049	337.7
386.429	360.53
386.809	346.97
387.189	363.24
387.568	338.83
387.948	335.44
388.328	355.56
388.707	346.29
389.087	368.66
389.466	367.98
389.846	362.79
390.225	371.6
390.605	360.3
390.984	364.14
391.363	376.12
391.743	364.82
392.122	390.13
392.501	370.24
392.881	386.06
393.26	382.67
393.639	381.54
394.018	378.83
394.397	382.22
394.776	368.89
395.155	392.16
395.534	385.61
395.913	389.91
396.292	396.91
396.671	368.66
397.05	399.62
397.429	400.07
397.808	414.54
398.186	414.54
398.565	393.75
398.944	410.24
399.323	402.56
399.701	428.32
400.08	393.97
400.458	430.81
400.837	405.72
401.215	418.38
401.594	406.85
401.972	419.73
402.351	446.85
402.729	412.05
403.107	403.92
403.486	425.38
403.864	425.84
404.242	433.52
404.62	431.26
404.999	448.89
405.377	455.21
405.755	446.4
406.133	455.21
406.511	464.93
406.889	465.38
407.267	451.15
407.645	461.54
408.023	474.2
408.401	493.41
408.779	473.74
409.156	505.16
409.534	507.87
409.912	503.35
410.29	517.81
410.667	527.75
411.045	523.91
411.422	536.79
411.8	523.91
412.178	553.74
412.555	556.91
412.933	565.27
413.31	594.65
413.687	558.04
414.065	570.92
414.442	605.49
414.819	589.45
415.197	602.78
415.574	633.97
415.951	619.28
416.328	649.11
416.705	630.12
417.082	640.75
417.46	644.59
417.837	648.88
418.214	663.12
418.591	653.85
418.967	678.26
419.344	674.87
419.721	679.16
420.098	678.94
420.475	719.39
420.852	727.75
421.228	725.49
421.605	759.39
421.982	748.09
422.358	763.91
422.735	754.19
423.111	747.64
423.488	780.63
423.864	804.81
424.241	785.83
424.617	780.63
424.994	807.75
425.37	829.44
425.746	824.24
426.123	807.75
426.499	824.47
426.875	836.67
427.251	878.93
427.627	878.03
428.003	870.34
428.379	904.02
428.756	916.22
429.132	915.31
429.507	924.13
429.883	944.69
430.259	946.27
430.635	961.19
431.011	938.37
431.387	969.78
431.763	986.95
432.138	990.12
432.514	997.57
432.89	1021.75
433.265	1030.57
433.641	1068.53
434.016	1055.42
434.392	1071.02
434.767	1102.65
435.143	1110.11
435.518	1118.7
435.894	1137.68
436.269	1143.56
436.644	1143.11
437.02	1173.39
437.395	1181.97
437.77	1200.51
438.145	1220.17
438.52	1258.36
438.895	1229.66
439.271	1234.18
439.646	1225.14
440.021	1254.06
440.395	1258.36
440.77	1286.38
441.145	1279.83
441.52	1310.78
441.895	1318.24
442.27	1329.77
442.645	1338.35
443.019	1319.82
443.394	1353.95
443.769	1345.13
444.143	1337.9
444.518	1385.59
444.892	1359.37
445.267	1378.81
445.641	1395.53
446.016	1409.54
446.39	1393.04
446.764	1412.25
447.139	1404.34
447.513	1433.49
447.887	1413.38
448.262	1437.11
448.636	1431.01
449.01	1459.93
449.384	1430.33
449.758	1465.13
450.132	1449.54
450.506	1491.12
450.88	1482.31
451.254	1480.27
451.628	1481.18
452.002	1507.16
452.376	1509.88
452.75	1531.12
453.123	1533.6
453.497	1534.06
453.871	1559.59
454.244	1618.8
454.618	1593.72
454.992	1592.59
455.365	1613.6
455.739	1644.79
456.112	1669.65
456.486	1630.32
456.859	1670.1
457.232	1696.09
457.606	1679.36
457.979	1672.81
458.352	1704.67
458.725	1725.24
459.099	1746.71
459.472	1775.63
459.845	1772.02
460.218	1791
460.591	1811.56
460.964	1795.74
461.337	1826.93
461.71	1874.84
462.083	1871.9
462.456	1849.08
462.829	1890.43
463.201	1913.48
463.574	1919.13
463.947	1955.51
464.32	1928.62
464.692	1998.45
465.065	2005.23
465.438	2032.57
465.81	2010.43
466.183	2028.28
466.555	2087.49
466.928	2048.39
467.3	2081.39
467.672	2131.33
468.045	2173.59
468.417	2138.11
468.789	2180.82
469.161	2181.27
469.534	2226.01
469.906	2266.01
470.278	2219.69
470.65	2283.64
471.022	2317.31
471.394	2348.72
471.766	2355.5
472.138	2352.34
472.51	2405.45
472.882	2420.36
473.253	2441.83
473.625	2466.69
473.997	2531.54
474.369	2521.37
474.74	2546.01
475.112	2558.89
475.484	2619.68
475.855	2620.35
476.227	2651.09
476.598	2722.73
476.97	2723.63
477.341	2789.39
477.713	2848.37
478.084	2797.3
478.455	2865.77
478.827	2856.51
479.198	3002.49
479.569	2964.98
479.94	3006.79
480.311	3046.33
480.682	3110.51
481.053	3148.93
481.424	3205.2
481.795	3190.51
482.166	3205.65
482.537	3255.37
482.908	3289.04
483.279	3270.06
483.65	3326.55
484.021	3405.19
484.391	3435.7
484.762	3474.57
485.133	3472.99
485.503	3536.94
485.874	3570.84
486.244	3564.96
486.615	3656.71
486.985	3713.21
487.356	3744.39
487.726	3772.64
488.097	3841.34
488.467	3795.01
488.837	3898.51
489.207	3910.04
489.578	3897.38
489.948	3968.57
490.318	4007.21
490.688	4022.8
491.058	4077.94
491.428	4146.42
491.798	4150.94
492.168	4237.04
492.538	4233.65
492.908	4249.92
493.278	4244.72
493.648	4289.92
494.017	4372.17
494.387	4346.64
494.757	4361.33
495.126	4444.04
495.496	4403.36
495.866	4426.64
496.235	4487.2
496.605	4500.08
496.974	4530.14
497.344	4548.44
497.713	4591.15
498.082	4601.77
498.452	4651.94
498.821	4652.17
499.19	4656.46
499.559	4689.9
499.928	4720.86
500.298	4741.43
500.667	4806.06
501.036	4771.26
501.405	4795.66
501.774	4775.1
502.143	4803.57
502.512	4835.66
502.88	4895.55
503.249	4826.4
503.618	4891.26
503.987	4912.95
504.356	4948.2
504.724	4936.68
505.093	4955.66
505.462	4993.85
505.83	5015.09
506.199	5071.14
506.567	5085.37
506.936	5055.09
507.304	5098.93
507.672	5143.23
508.041	5140.06
508.409	5140.97
508.777	5195.2
509.145	5198.59
509.514	5252.15
509.882	5246.95
510.25	5228.87
510.618	5195.43
510.986	5260.06
511.354	5313.84
511.722	5297.35
512.09	5350.9
512.458	5326.05
512.826	5386.16
513.193	5436.33
513.561	5447.85
513.929	5446.72
514.297	5485.59
514.664	5440.85
515.032	5460.28
515.4	5535.31
515.767	5510.22
516.135	5497.57
516.502	5519.71
516.869	5558.58
517.237	5539.37
517.604	5545.93
517.972	5599.49
518.339	5641.29
518.706	5644.23
519.073	5669.31
519.44	5665.25
519.808	5690.33
520.175	5711.35
520.542	5728.97
520.909	5767.62
521.276	5762.42
521.643	5803.77
522.009	5815.3
522.376	5802.64
522.743	5875.18
523.11	5894.85
523.477	5971.23
523.843	5944.79
524.21	6024.79
524.577	6012.13
524.943	6026.37
525.31	6072.24
525.676	6079.25
526.043	6093.48
526.409	6066.82
526.776	6189.75
527.142	6201.05
527.508	6177.78
527.874	6201.28
528.241	6249.19
528.607	6270.43
528.973	6316.08
529.339	6301.16
529.705	6392.69
530.071	6418.9
530.437	6439.92
530.803	6450.31
531.169	6483.3
531.535	6456.19
531.901	6466.13
532.267	6542.74
532.632	6536.86
532.998	6535.05
533.364	6537.54
533.73	6589.74
534.095	6653.47
534.461	6663.64
534.826	6654.83
535.192	6696.63
535.557	6700.47
535.923	6713.58
536.288	6767.82
536.653	6822.28
537.019	6740.47
537.384	6783.86
537.749	6793.58
538.114	6869.51
538.479	6903.18
538.845	6879.9
539.21	6880.36
539.575	6904.08
539.94	6912.22
540.305	7017.75
540.67	6965.33
541.034	7000.58
541.399	6996.06
541.764	7014.82
542.129	7027.92
542.494	7115.15
542.858	7145.43
543.223	7057.98
543.587	7179.56
543.952	7121.93
544.316	7176.39
544.681	7170.97
545.045	7184.53
545.41	7267.69
545.774	7239.22
546.138	7237.41
546.503	7274.24
546.867	7271.98
547.231	7337.07
547.595	7326.67
547.959	7405.09
548.324	7361.93
548.688	7335.49
549.052	7378.87
549.416	7398.08
549.779	7453.45
550.143	7438.53
550.507	7481.92
550.871	7513.79
551.235	7466.1
551.599	7491.41
551.962	7463.17
552.326	7582.48
552.689	7599.66
553.053	7534.8
553.417	7605.08
553.78	7662.93
554.143	7601.01
554.507	7649.6
554.87	7650.51
555.234	7721.01
555.597	7729.83
555.96	7723.27
556.323	7718.07
556.686	7759.43
557.05	7746.1
557.413	7799.88
557.776	7842.36
558.139	7857.28
558.502	7869.71
558.865	7859.31
559.228	7886.66
559.59	7877.17
559.953	7934.57
560.316	7975.47
560.679	7971.4
561.041	8031.51
561.404	8065.64
561.767	8121.23
562.129	8076.71
562.492	8076.71
562.854	8055.47
563.217	8080.32
563.579	8179.76
563.941	8198.97
564.304	8185.18
564.666	8236.7
565.028	8228.12
565.39	8280.77
565.753	8267.44
566.115	8328.68
566.477	8346.53
566.839	8361.45
567.201	8340.43
567.563	8431.05
567.925	8444.61
568.287	8565.74
568.648	8490.71
569.01	8562.57
569.372	8624.04
569.734	8598.28
570.095	8620.2
570.457	8696.81
570.819	8712.17
571.18	8733.19
571.542	8796.01
571.903	8777.71
572.265	8783.36
572.626	8876.01
572.987	8880.3
573.349	8962.56
573.71	8935.22
574.071	8983.35
574.432	9049.79
574.794	9053.18
575.155	9135.44
575.516	9126.85
575.877	9276.9
576.238	9235.1
576.599	9308.54
576.96	9336.56
577.32	9372.27
577.681	9483.9
578.042	9551.92
578.403	9459.95
578.763	9594.63
579.124	9595.99
579.485	9728.64
579.845	9779.04
580.206	9871.69
580.566	9942.2
580.927	9965.25
581.287	10069.88
581.648	10179.03
582.008	10288.4
582.368	10314.16
582.728	10415.4
583.089	10521.39
583.449	10538.56
583.809	10642.29
584.169	10769.52
584.529	10870.53
584.889	11101.04
585.249	11086.35
585.609	11111.43
585.969	11279.79
586.329	11352.33
586.688	11513.23
587.048	11611.53
587.408	11726.33
587.768	11831.86
588.127	12043.38
588.487	12093.78
588.846	12258.97
589.206	12346.43
589.565	12409.93
589.925	12696.02
590.284	12726.53
590.643	12893.08
591.003	13033.41
591.362	13180.76
591.721	13316.12
592.08	13432.27
592.44	13618.71
592.799	13739.16
593.158	13796.11
593.517	13988.64
593.876	14065.25
594.235	14147.06
594.593	14328.97
594.952	14630.89
595.311	14631.56
595.67	14855.51
596.029	15065.9
596.387	15065.68
596.746	15276.75
597.104	15218.22
597.463	15441.49
597.822	15627.47
598.18	15645.1
598.538	15787.92
598.897	16049.83
599.255	15951.08
599.613	16302.71
599.972	16207.57
600.33	16475.81
600.688	16530.5
601.046	16713.09
601.404	16833.99
601.762	16918.51
602.12	17159.86
602.478	17138.84
602.836	17284.15
603.194	17292.06
603.552	17402.79
603.91	17495.67
604.268	17626.74
604.625	17667.19
604.983	17780.18
605.341	17874.42
605.698	18046.39
606.056	18208.87
606.413	18210.68
606.771	18244.12
607.128	18391.69
607.485	18360.51
607.843	18471.69
608.2	18743.32
608.557	18735.19
608.914	18757.56
609.272	18942.41
609.629	19024.67
609.986	19143.99
610.343	19070.32
610.7	19339.46
611.057	19289.97
611.414	19271.22
611.771	19418.11
612.127	19559.8
612.484	19655.39
612.841	19767.7
613.198	19757.08
613.554	19722.73
613.911	19885.21
614.267	19986.68
614.624	20026.68
614.98	20049.73
615.337	20259.44
615.693	20108.03
616.05	20226.22
616.406	20250.17
616.762	20392.32
617.118	20376.05
617.475	20407.23
617.831	20442.26
618.187	20508.7
618.543	20590.73
618.899	20720.67
619.255	20727.22
619.611	20807.9
619.967	20892.42
620.323	20877.05
620.678	20819.88
621.034	20957.73
621.39	20919.08
621.746	20862.59
622.101	21114.78
622.457	21026.42
622.812	20998.18
623.168	21147.1
623.523	21144.16
623.879	21254.67
624.234	21041.79
624.589	21253.99
624.945	21276.81
625.3	21189.13
625.655	21180.54
626.01	21254.22
626.365	21301.9
626.72	21337.15
627.075	21401.56
627.43	21343.7
627.785	21340.77
628.14	21303.48
628.495	21415.11
628.85	21340.54
629.205	21312.29
629.559	21426.41
629.914	21322.01
630.269	21420.09
630.623	21390.48
630.978	21390.71
631.332	21439.07
631.687	21448.56
632.041	21295.12
632.396	21544.15
632.75	21325.4
633.104	21376.02
633.459	21335.12
633.813	21306.42
634.167	21341.44
634.521	21310.71
634.875	21360.65
635.229	21334.67
635.583	21155.91
635.937	21249.47
636.291	21192.07
636.645	21230.26
636.999	21186.87
637.352	21306.87
637.706	21112.07
638.06	21235.23
638.413	21083.37
638.767	21221.9
639.121	21115.24
639.474	21152.07
639.828	21050.38
640.181	21148.46
640.534	21170.6
640.888	21092.19
641.241	20959.53
641.594	21055.58
641.947	21108.23
642.301	21059.19
642.654	21142.35
643.007	20959.76
643.36	21096.48
643.713	21053.32
644.066	21081.56
644.419	20910.27
644.771	20814.9
645.124	20687.68
645.477	20607.45
645.83	20564.74
646.182	20367.91
646.535	20394.8
646.888	20470.51
647.24	20319.78
647.593	20352.54
647.945	20405.42
648.298	20388.48
648.65	20371.98
649.002	20232.1
649.355	20381.47
649.707	20361.58
650.059	20509.38
650.411	20632.08
650.763	20754.79
651.115	20896.26
651.467	20922.25
651.819	20805.41
652.171	20810.61
652.523	20858.75
652.875	20805.87
653.227	20796.15
653.578	20987.1
653.93	20912.98
654.282	20807.22
654.633	20699.2
654.985	20833.44
655.337	20832.08
655.688	20928.57
656.039	20884.28
656.391	20817.84
656.742	20796.83
657.094	20922.92
657.445	20914.11
657.796	20806.77
658.147	20894.9
658.498	20821.01
658.849	20872.08
659.2	20849.93
659.551	20830.95
659.902	20907.56
660.253	20878.63
660.604	20929.93
660.955	20745.08
661.306	20911.85
661.656	20797.5
662.007	20999.76
662.358	20894.22
662.708	20960.66
663.059	20907.78
663.409	20786.88
663.76	20924.73
664.11	20912.53
664.461	21010.15
664.811	20954.11
665.161	20908.69
665.511	20870.27
665.862	20873.43
666.212	21029.81
666.562	20946.43
666.912	20898.07
667.262	20916.82
667.612	20851.97
667.962	20937.84
668.312	20905.07
668.662	21015.58
669.011	21038.18
669.361	20882.47
669.711	20861.46
670.06	20787.56
670.41	20938.52
670.76	20818.07
671.109	20870.5
671.459	20823.04
671.808	20855.13
672.157	20836.83
672.507	20677.28
672.856	20756.15
673.205	20745.3
673.554	20876.37
673.904	20774
674.253	20879.54
674.602	20673.44
674.951	20415.59
675.3	20319.32
675.649	20766.77
675.998	20574.69
676.346	20611.29
676.695	20752.31
677.044	20543.5
677.393	20702.59
677.741	20656.26
678.09	20628.02
678.438	20598.64
678.787	20651.29
679.135	20614.68
679.484	20425.54
679.832	20538.75
680.181	20421.69
680.529	20414.69
680.877	20364.3
681.225	20293.34
681.573	20490.39
681.922	20205.88
682.27	20246.11
682.618	20323.84
682.966	20198.42
683.314	20123.85
683.661	20173.79
684.009	20113.23
684.357	19970.86
684.705	19982.61
685.053	20087.01
685.4	19953.91
685.748	19757.08
686.095	19850.18
686.443	19750.3
686.79	19741.03
687.138	19740.36
687.485	19695.61
687.832	19760.7
688.18	19696.52
688.527	19490.87
688.874	19493.13
689.221	19461.72
689.568	19459.91
689.915	19301.72
690.262	19308.5
690.609	19345.11
690.956	19177.89
691.303	19219.24
691.65	19034.16
691.997	19118.23
692.344	19057.89
692.69	18963.43
693.037	18882.3
693.383	18800.27
693.73	18844.56
694.077	18703.77
694.423	18615.64
694.769	18526.83
695.116	18525.47
695.462	18513.04
695.808	18465.81
696.155	18519.15
696.501	18288.19
696.847	18381.07
697.193	18243.22
697.539	18211.13
697.885	18112.83
698.231	18049.55
698.577	18123.68
698.923	17959.84
699.269	18041.87
699.614	17833.06
699.96	17803.68
700.306	17844.59
700.651	17671.26
700.997	17587.19
701.342	17546.06
701.688	17522.56
702.033	17483.47
702.379	17447.54
702.724	17349.23
703.069	17345.84
703.415	17194.43
703.76	17129.35
704.105	17111.05
704.45	17031.95
704.795	17083.48
705.14	16909.92
705.485	16872.86
705.83	16839.42
706.175	16842.13
706.52	16779.76
706.865	16740.21
707.209	16647.56
707.554	16721
707.899	16632.87
708.243	16496.15
708.588	16615.92
708.932	16362.59
709.277	16470.84
709.621	16455.25
709.966	16341.12
710.31	16328.69
710.654	16119.43
710.998	16196.95
711.342	16157.85
711.687	16133.9
712.031	16056.16
712.375	16017.74
712.719	16031.08
713.063	15955.15
713.407	16059.1
713.75	15897.29
714.094	15939.78
714.438	15859.1
714.782	15901.59
715.125	15832.21
715.469	15805.77
715.812	15707.92
716.156	15753.34
716.499	15611.65
716.843	15705.66
717.186	15539.11
717.53	15628.15
717.873	15653.46
718.216	15561.48
718.559	15475.61
718.902	15405.1
719.246	15473.35
719.589	15413.01
719.932	15364.88
720.275	15301.83
720.617	15370.08
720.96	15267.48
721.303	15329.17
721.646	15355.39
721.989	15286.46
722.331	15291.43
722.674	15210.76
723.016	15249.63
723.359	15250.31
723.701	15177.99
724.044	15061.84
724.386	15053.47
724.729	15098.22
725.071	15178.89
725.413	15102.06
725.755	15077.65
726.097	14923.99
726.439	14963.31
726.782	14947.71
727.124	15108.84
727.465	14942.74
727.807	14919.92
728.149	14898.9
728.491	14921.73
728.833	14936.19
729.175	14941.16
729.516	14827.49
729.858	14846.25
730.199	14878.56
730.541	14824.1
730.882	14832.92
731.224	14860.26
731.565	14756.76
731.906	14738.23
732.248	14859.36
732.589	14678.79
732.93	14711.56
733.271	14641.96
733.612	14742.52
733.953	14750.21
734.294	14719.25
734.635	14789.53
734.976	14831.33
735.317	14677.21
735.658	14793.82
735.999	14721.96
736.339	14759.24
736.68	14766.25
737.021	14704.78
737.361	14704.1
737.702	14805.57
738.042	14769.87
738.383	14717.44
738.723	14841.73
739.063	14664.78
739.404	14753.6
739.744	14796.31
740.084	14677.21
740.424	14805.8
740.764	14766.93
741.104	14868.62
741.444	14754.05
741.784	14728.51
742.124	14803.09
742.464	14834.95
742.804	14846.93
743.143	14869.3
743.483	14865.46
743.823	14870.2
744.162	14822.97
744.502	14968.96
744.841	14794.05
745.181	15077.43
745.52	15006.47
745.86	15056.41
746.199	15011.44
746.538	15202.4
746.877	15172.79
747.216	15258.89
747.556	15207.37
747.895	15324.88
748.234	15263.19
748.573	15366.46
748.911	15414.82
749.25	15475.16
749.589	15443.52
749.928	15636.06
750.267	15652.78
750.605	15760.12
750.944	15735.26
751.283	15796.28
751.621	15893.45
751.96	15927.58
752.298	16026.78
752.636	16097.51
752.975	16137.74
753.313	16184.52
753.651	16415.7
753.989	16416.38
754.327	16454.79
754.666	16511.29
755.004	16724.39
755.342	16770.27
755.679	16891.39
756.017	16927.78
756.355	17055.68
756.693	17112.63
757.031	17320.31
757.368	17278.73
757.706	17402.79
758.044	17572.05
758.381	17703.12
758.719	17773.18
