Data from hue_190_FLMS001491_00064.txt Node
Date: Tue Feb 07 16:45:36 GMT 2017
User: dcchb
Spectrometer: FLMS00149
Trigger mode: 0
Integration Time (sec): 2.000000E-2
Scans to average: 10
Electric dark correction enabled: true
Nonlinearity correction enabled: false
Boxcar width: 0
XAxis mode: Wavelengths
Number of Pixels in Spectrum: 2048
>>>>>Begin Spectral Data<<<<<
341.393	-5.61
341.776	-5.61
342.16	-5.61
342.543	-55.32
342.927	-75.66
343.31	-60.97
343.693	-71.37
344.077	-67.3
344.46	-61.2
344.843	-41.54
345.226	-43.35
345.61	-16.23
345.993	-17.58
346.376	-20.52
346.759	23.54
347.142	16.31
347.525	47.72
347.908	46.59
348.291	67.16
348.674	95.63
349.057	103.09
349.44	129.98
349.823	122.07
350.206	155.74
350.588	202.07
350.971	188.29
351.354	229.64
351.737	245.01
352.119	263.09
352.502	255.4
352.884	259.02
353.267	258.79
353.65	298.11
354.032	298.34
354.414	294.95
354.797	292.92
355.179	316.64
355.562	332.01
355.944	318
356.326	332.46
356.709	347.6
357.091	329.3
357.473	324.78
357.855	338.34
358.238	329.07
358.62	334.95
359.002	328.62
359.384	320.03
359.766	351.22
360.148	345.57
360.53	340.82
360.912	315.29
361.294	332.91
361.676	329.53
362.057	320.94
362.439	331.11
362.821	318
363.203	311.9
363.584	298.79
363.966	317.55
364.348	311.9
364.729	331.11
365.111	320.49
365.493	318.9
365.874	293.14
366.256	325.46
366.637	310.09
367.019	301.96
367.4	310.54
367.781	308.06
368.163	292.69
368.544	314.61
368.925	301.73
369.306	306.02
369.688	311.22
370.069	321.16
370.45	297.44
370.831	320.71
371.212	296.08
371.593	300.37
371.974	302.86
372.355	296.76
372.736	308.06
373.117	324.1
373.498	312.35
373.879	310.54
374.26	308.51
374.641	307.15
375.021	301.5
375.402	304.22
375.783	327.94
376.163	303.31
376.544	326.36
376.925	313.48
377.305	315.74
377.686	325.46
378.066	322.75
378.447	301.73
378.827	311.67
379.208	332.91
379.588	344.89
379.968	322.29
380.349	323.2
380.729	318.68
381.109	337.43
381.489	331.56
381.87	348.96
382.25	325.01
382.63	337.66
383.01	348.06
383.39	317.1
383.77	350.77
384.15	348.73
384.53	312.12
384.91	325.23
385.29	344.21
385.67	324.1
386.049	362.74
386.429	325.01
386.809	336.53
387.189	341.28
387.568	351.67
387.948	343.54
388.328	351.22
388.707	363.87
389.087	356.42
389.466	362.07
389.846	350.32
390.225	366.36
390.605	362.52
390.984	374.72
391.363	344.67
391.743	341.73
392.122	354.61
392.501	377.89
392.881	357.77
393.26	362.97
393.639	364.1
394.018	372.01
394.397	375.4
394.776	373.37
395.155	391.9
395.534	367.49
395.913	374.95
396.292	372.01
396.671	374.04
397.05	393.03
397.429	369.3
397.808	391.22
398.186	379.92
398.565	387.15
398.944	402.97
399.323	383.99
399.701	385.79
400.08	388.96
400.458	366.59
400.837	379.24
401.215	378.34
401.594	392.35
401.972	395.96
402.351	401.39
402.729	427.6
403.107	450.2
403.486	417.43
403.864	416.75
404.242	419.01
404.62	422.86
404.999	425.79
405.377	433.25
405.755	429.18
406.133	458.11
406.511	459.47
406.889	437.54
407.267	482.52
407.645	468.96
408.023	459.92
408.401	468.96
408.779	478.67
409.156	481.84
409.534	480.48
409.912	507.37
410.29	506.47
410.667	505.11
411.045	516.86
411.422	505.57
411.8	542.85
412.178	540.82
412.555	535.85
412.933	563.42
413.31	581.95
413.687	578.11
414.065	591.44
414.442	587.6
414.819	597.31
415.197	603.87
415.574	616.75
415.951	628.5
416.328	612
416.705	643.87
417.082	625.11
417.46	650.42
417.837	677.54
418.214	654.49
418.591	691.1
418.967	668.05
419.344	688.16
419.721	714.83
420.098	710.08
420.475	709.4
420.852	699.01
421.228	731.77
421.605	734.71
421.982	747.59
422.358	793.92
422.735	786.01
423.111	824.43
423.488	806.35
423.864	819.91
424.241	851.32
424.617	852.22
424.994	854.94
425.37	858.78
425.746	906.01
426.123	911.66
426.499	934.03
426.875	922.28
427.251	931.77
427.627	949.62
428.003	958.66
428.379	965.21
428.756	986.46
429.132	1010.41
429.507	997.3
429.883	1029.39
430.259	1031.43
430.635	1046.79
431.011	1068.49
431.387	1076.85
431.763	1116.85
432.138	1126.57
432.514	1122.72
432.89	1142.61
433.265	1173.34
433.641	1209.05
434.016	1202.95
434.392	1245.21
434.767	1245.21
435.143	1265.32
435.518	1285.43
435.894	1300.8
436.269	1327.92
436.644	1370.18
437.02	1374.92
437.395	1379.89
437.77	1420.8
438.145	1422.15
438.52	1432.32
438.895	1484.75
439.271	1484.3
439.646	1542.6
440.021	1574.46
440.395	1579.66
440.77	1606.33
441.145	1598.87
441.52	1635.71
441.895	1660.34
442.27	1670.05
442.645	1656.27
443.019	1725.42
443.394	1720
443.769	1756.15
444.143	1756.15
444.518	1769.94
444.892	1789.83
445.267	1804.97
445.641	1831.18
446.016	1840.67
446.39	1860.33
446.764	1865.98
447.139	1873.44
447.513	1919.09
447.887	1923.83
448.262	1950.27
448.636	1964.51
449.01	1968.13
449.384	1972.65
449.758	2008.8
450.132	2000.89
450.506	2035.7
450.88	2079.08
451.254	2031.85
451.628	2090.38
452.002	2112.3
452.376	2163.38
452.75	2138.74
453.123	2169.93
453.497	2178.29
453.871	2244.96
454.244	2244.96
454.618	2268.01
454.992	2319.3
455.365	2318.63
455.739	2369.47
456.112	2401.11
456.486	2402.01
456.859	2447.44
457.232	2468
457.606	2488.56
457.979	2477.49
458.352	2569.47
458.725	2535.57
459.099	2591.16
459.472	2627.32
459.845	2685.4
460.218	2688.33
460.591	2753.19
460.964	2749.12
461.337	2793.64
461.71	2824.15
462.083	2913.19
462.456	2894.2
462.829	2896.24
463.201	2976.69
463.574	3006.29
463.947	3031.83
464.32	3095.78
464.692	3126.29
465.065	3128.55
465.438	3223.69
465.81	3238.38
466.183	3305.27
466.555	3366.28
466.928	3393.17
467.3	3355.89
467.672	3452.83
468.045	3516.79
468.417	3507.52
468.789	3547.07
469.161	3632.26
469.534	3646.73
469.906	3762.88
470.278	3799.49
470.65	3855.31
471.022	3912.26
471.394	3939.37
471.766	4006.94
472.138	4075.19
472.51	4121.06
472.882	4180.27
473.253	4253.26
473.625	4291.68
473.997	4407.84
474.369	4454.39
474.74	4475.86
475.112	4564.89
475.484	4657.77
475.855	4775.06
476.227	4769.18
476.598	4920.14
476.97	4897.54
477.341	5037.2
477.713	5132.79
478.084	5152
478.455	5309.96
478.827	5350.41
479.198	5506.34
479.569	5521.25
479.94	5647.35
480.311	5727.35
480.682	5807.57
481.053	5931.19
481.424	6063.39
481.795	6038.3
482.166	6170.28
482.537	6261.8
482.908	6451.4
483.279	6485.75
483.65	6608
484.021	6697.49
484.391	6767.1
484.762	6893.42
485.133	6946.53
485.503	7017.03
485.874	7192.17
486.244	7207.76
486.615	7346.29
486.985	7467.87
487.356	7633.51
487.726	7606.62
488.097	7792.15
488.467	7880.29
488.837	7952.83
489.207	8018.14
489.578	8172.03
489.948	8223.55
490.318	8351.69
490.688	8414.96
491.058	8509.88
491.428	8652.7
491.798	8654.5
492.168	8832.8
492.538	8829.64
492.908	8904.22
493.278	9055.85
493.648	9052.69
494.017	9216.3
494.387	9205.9
494.757	9386.46
495.126	9406.12
495.496	9427.37
495.866	9484.31
496.235	9588.94
496.605	9667.81
496.974	9651.54
497.344	9770.41
497.713	9834.81
498.082	9883.4
498.452	9943.51
498.821	9897.18
499.19	9981.7
499.559	10021.25
499.928	10123.39
500.298	10155.26
500.667	10234.8
501.036	10223.5
501.405	10316.61
501.774	10280.45
502.143	10327.91
502.512	10326.32
502.88	10444.51
503.249	10375.59
503.618	10427.11
503.987	10460.33
504.356	10508.24
504.724	10535.58
505.093	10614.23
505.462	10546.66
505.83	10661.91
506.199	10666.2
506.567	10811.74
506.936	10757.5
507.304	10830.04
507.672	10783.26
508.041	10961.11
508.409	10931.96
508.777	10988.23
509.145	11042.01
509.514	10998.85
509.882	11032.29
510.25	11098.28
510.618	11113.42
510.986	11088.79
511.354	11056.02
511.722	11150.26
512.09	11152.07
512.458	11231.39
512.826	11277.26
513.193	11261.67
513.561	11204.49
513.929	11200.2
514.297	11291.72
514.664	11353.42
515.032	11338.05
515.4	11390.03
515.767	11441.78
516.135	11351.61
516.502	11278.39
516.869	11450.14
517.237	11427.31
517.604	11327.88
517.972	11415.34
518.339	11465.5
518.706	11474.99
519.073	11417.37
519.44	11410.82
519.808	11492.17
520.175	11431.38
520.542	11556.57
520.909	11543.47
521.276	11474.54
521.643	11491.72
522.009	11521.1
522.376	11573.52
522.743	11525.62
523.11	11526.29
523.477	11611.04
523.843	11606.52
524.21	11658.27
524.577	11646.52
524.943	11670.7
525.31	11665.27
525.676	11692.84
526.043	11642.45
526.409	11630.92
526.776	11631.83
527.142	11651.26
527.508	11711.6
527.874	11619.4
528.241	11613.07
528.607	11616.01
528.973	11655.33
529.339	11622.79
529.705	11592.51
530.071	11612.84
530.437	11567.42
530.803	11491.49
531.169	11552.28
531.535	11463.92
531.901	11438.16
532.267	11372.62
532.632	11445.17
532.998	11361.78
533.364	11320.87
533.73	11382.79
534.095	11404.49
534.461	11334.21
534.826	11294.43
535.192	11235.91
535.557	11294.21
535.923	11121.56
536.288	11130.6
536.653	11152.74
537.019	11008.11
537.384	10959.3
537.749	10977.61
538.114	10885.86
538.479	10783.49
538.845	10807.89
539.21	10705.07
539.575	10752.08
539.94	10728.12
540.305	10682.25
540.67	10583.72
541.034	10559.99
541.399	10588.69
541.764	10490.39
542.129	10461.24
542.494	10404.74
542.858	10295.82
543.223	10339.43
543.587	10319.32
543.952	10206.78
544.316	10151.87
544.681	10071.87
545.045	10068.7
545.41	10047.46
545.774	9985.32
546.138	9946.9
546.503	9866.68
546.867	9795.49
547.231	9857.64
547.595	9757.98
547.959	9736.74
548.324	9612.44
548.688	9609.73
549.052	9534.03
549.416	9536.29
549.779	9494.03
550.143	9414.94
550.507	9473.01
550.871	9409.96
551.235	9344.43
551.599	9353.24
551.962	9239.35
552.326	9196.86
552.689	9212.91
553.053	9044.78
553.417	9093.36
553.78	9090.88
554.143	9004.55
554.507	8975.85
554.87	8931.56
555.234	8930.88
555.597	8802.07
555.96	8868.28
556.323	8858.57
556.686	8758.46
557.05	8786.7
557.413	8730.21
557.776	8668.52
558.139	8739.7
558.502	8617.44
558.865	8635.52
559.228	8595.75
559.59	8538.8
559.953	8527.28
560.316	8574.73
560.679	8571.57
561.041	8591.45
561.404	8581.29
561.767	8499.48
562.129	8394.17
562.492	8498.12
562.854	8390.33
563.217	8460.16
563.579	8392.59
563.941	8464.68
564.304	8420.84
564.666	8442.76
565.028	8421.97
565.39	8423.1
565.753	8395.98
566.115	8364.79
566.477	8378.58
566.839	8465.13
567.201	8433.27
567.563	8358.01
567.925	8410.22
568.287	8402.08
568.648	8335.64
569.01	8386.49
569.372	8415.64
569.734	8380.39
570.095	8412.93
570.457	8377
570.819	8373.16
571.18	8314.63
571.542	8330.22
571.903	8372.7
572.265	8432.14
572.626	8336.77
572.987	8338.35
573.349	8356.21
573.71	8309.43
574.071	8289.09
574.432	8377.68
574.794	8367.05
575.155	8316.66
575.516	8359.14
575.877	8391.23
576.238	8339.94
576.599	8322.08
576.96	8353.72
577.32	8349.88
577.681	8370.67
578.042	8397.56
578.403	8311.69
578.763	8359.82
579.124	8345.59
579.485	8351.46
579.845	8369.31
580.206	8249.54
580.566	8297.23
580.927	8298.81
581.287	8334.96
581.648	8205.93
582.008	8274.85
582.368	8310.78
582.728	8291.35
583.089	8300.16
583.449	8251.35
583.809	8264.23
584.169	8258.81
584.529	8213.84
584.889	8262.65
585.249	8212.03
585.609	8162.99
585.969	8207.51
586.329	8190.11
586.688	8174.52
587.048	8137.91
587.408	8131.13
587.768	8084.12
588.127	8120.96
588.487	8065.59
588.846	8146.49
589.206	8064.69
589.565	8109.43
589.925	8107.17
590.284	8047.74
590.643	8099.94
591.003	8055.2
591.362	8118.7
591.721	8063.33
592.08	8000.74
592.44	8050.23
592.799	8056.33
593.158	7974.97
593.517	8005.71
593.876	8020.4
594.235	7959.61
594.593	7928.87
594.952	8050.68
595.311	7947.86
595.67	7949.44
596.029	7935.2
596.387	7983.79
596.746	7951.25
597.104	7905.37
597.463	7954.41
597.822	7954.86
598.18	7888.2
598.538	7890.68
598.897	7875.32
599.255	7886.61
599.613	8000.96
599.972	7933.39
600.33	7931.13
600.688	7887.74
601.046	7919.16
601.404	7897.69
601.762	7876.9
602.12	7930.46
602.478	7910.57
602.836	7917.8
603.194	7840.51
603.552	7857.91
603.91	7848.42
604.268	7857.91
604.625	7840.06
604.983	7835.54
605.341	7803.9
605.698	7807.97
606.056	7852.27
606.413	7827.41
606.771	7859.5
607.128	7862.89
607.485	7759.61
607.843	7838.93
608.2	7852.04
608.557	7862.43
608.914	7839.84
609.272	7859.95
609.629	7859.5
609.986	7883
610.343	7855.66
610.7	7902.66
611.057	7907.86
611.414	7918.93
611.771	7884.13
612.127	7924.35
612.484	7973.62
612.841	7966.39
613.198	7894.98
613.554	7885.26
613.911	7932.26
614.267	7928.65
614.624	7897.91
614.98	7932.49
615.337	7975.65
615.693	7922.09
616.05	7923.68
616.406	7948.76
616.762	7946.27
617.118	7949.66
617.475	7970
617.831	7965.93
618.187	7962.77
618.543	7978.14
618.899	8007.74
619.255	7988.76
619.611	7999.15
619.967	8005.26
620.323	7989.66
620.678	7963
621.034	7963.45
621.39	7943.34
621.746	7930.68
622.101	8081.64
622.457	7958.03
622.812	7991.24
623.168	7967.97
623.523	7969.1
623.879	7981.3
624.234	7937.46
624.589	7965.93
624.945	8022.43
625.3	8007.74
625.655	7979.95
626.01	7963
626.365	8027.18
626.72	7985.37
627.075	7966.84
627.43	7963.22
627.785	7955.99
628.14	7993.28
628.495	7968.42
628.85	7954.18
629.205	7883.22
629.559	7985.37
629.914	7891.36
630.269	7962.32
630.623	7901.98
630.978	7894.98
631.332	7944.69
631.687	7890.68
632.041	7897.69
632.396	7844.13
632.75	7857.24
633.104	7865.6
633.459	7781.31
633.813	7810.91
634.167	7767.3
634.521	7826.05
634.875	7845.26
635.229	7770.69
635.583	7722.1
635.937	7752.61
636.291	7775.66
636.645	7704.47
636.999	7727.75
637.352	7711.93
637.706	7715.77
638.06	7740.18
638.413	7658.15
638.767	7703.57
639.121	7633.97
639.474	7596.45
639.828	7618.6
640.181	7690.24
640.534	7642.1
640.888	7690.46
641.241	7635.32
641.594	7625.6
641.947	7626.51
642.301	7573.85
642.654	7588.32
643.007	7634.64
643.36	7557.13
643.713	7521.43
644.066	7591.03
644.419	7495.21
644.771	7518.71
645.124	7472.16
645.477	7424.71
645.83	7385.61
646.182	7344.71
646.535	7386.74
646.888	7376.35
647.24	7311.49
647.593	7396.68
647.945	7347.65
648.298	7291.38
648.65	7324.82
649.002	7299.74
649.355	7329.57
649.707	7321.88
650.059	7342
650.411	7432.62
650.763	7409.79
651.115	7521.43
651.467	7458.15
651.819	7500.86
652.171	7484.82
652.523	7469.45
652.875	7437.36
653.227	7476.23
653.578	7486.85
653.93	7479.39
654.282	7432.84
654.633	7478.72
654.985	7459.73
655.337	7453.63
655.688	7499.51
656.039	7536.12
656.391	7482.11
656.742	7485.72
657.094	7453.41
657.445	7538.83
657.796	7537.02
658.147	7510.13
658.498	7509.9
658.849	7555.78
659.2	7537.92
659.551	7465.16
659.902	7564.82
660.253	7516.91
660.604	7571.82
660.955	7487.98
661.306	7530.24
661.656	7553.06
662.007	7565.72
662.358	7584.7
662.708	7597.13
663.059	7634.42
663.409	7479.85
663.76	7610.46
664.11	7585.15
664.461	7547.87
664.811	7605.04
665.161	7558.71
665.511	7573.63
665.862	7565.49
666.212	7577.92
666.562	7640.52
666.912	7622.89
667.262	7599.62
667.612	7612.72
667.962	7596.23
668.312	7618.15
668.662	7630.8
669.011	7626.51
669.361	7574.08
669.711	7571.14
670.06	7568.2
670.41	7562.78
670.76	7542.22
671.109	7567.53
671.459	7574.98
671.808	7558.94
672.157	7543.35
672.507	7501.99
672.856	7505.38
673.205	7600.07
673.554	7560.52
673.904	7544.7
674.253	7561.65
674.602	7558.49
674.951	7396.68
675.3	7419.51
675.649	7554.87
675.998	7505.16
676.346	7540.86
676.695	7483.91
677.044	7405.95
677.393	7491.14
677.741	7467.64
678.09	7439.17
678.438	7399.85
678.787	7459.28
679.135	7396.23
679.484	7371.37
679.832	7388.77
680.181	7320.53
680.529	7314.65
680.877	7330.02
681.225	7286.63
681.573	7362.79
681.922	7273.3
682.27	7247.76
682.618	7292.51
682.966	7306.06
683.314	7251.6
683.661	7186.97
684.009	7232.85
684.357	7219.06
684.705	7178.16
685.053	7166.63
685.4	7196.92
685.748	7116.24
686.095	7166.63
686.443	7080.99
686.79	7071.27
687.138	7069.01
687.485	7086.18
687.832	7052.51
688.18	7050.25
688.527	6975.9
688.874	6989.92
689.221	6976.58
689.568	6967.99
689.915	6954.66
690.262	6927.32
690.609	6959.86
690.956	6872.18
691.303	6902.91
691.65	6851.16
691.997	6788.79
692.344	6763.25
692.69	6790.82
693.037	6801.45
693.383	6697.04
693.73	6748.11
694.077	6707.66
694.423	6654.78
694.769	6649.59
695.116	6567.1
695.462	6580.66
695.808	6539.98
696.155	6543.37
696.501	6494.33
696.847	6470.61
697.193	6494.33
697.539	6458.4
697.885	6414.56
698.231	6391.51
698.577	6417.05
698.923	6332.76
699.269	6309.03
699.614	6246.21
699.96	6263.15
700.306	6280.56
700.651	6245.53
700.997	6173.44
701.342	6186.09
701.688	6168.02
702.033	6159.43
702.379	6172.76
702.724	6113.1
703.069	6105.42
703.415	6022.48
703.76	6032.88
704.105	6015.48
704.45	6025.19
704.795	5980
705.14	5938.87
705.485	5928.25
705.83	5947.91
706.175	5905.88
706.52	5913.79
706.865	5869.72
707.209	5873.56
707.554	5808.03
707.899	5834.69
708.243	5812.32
708.588	5787.46
708.932	5788.14
709.277	5776.61
709.621	5776.39
709.966	5744.07
710.31	5732.77
710.654	5671.31
710.998	5651.42
711.342	5628.82
711.687	5643.06
712.031	5635.37
712.375	5627.69
712.719	5665.43
713.063	5600.8
713.407	5624.98
713.75	5600.57
714.094	5551.76
714.438	5509.73
714.782	5607.13
715.125	5528.26
715.469	5538.88
715.812	5507.69
716.156	5486.9
716.499	5485.77
716.843	5500.69
717.186	5466.11
717.53	5463.85
717.873	5490.75
718.216	5484.64
718.559	5428.83
718.902	5464.98
719.246	5434.93
719.589	5396.96
719.932	5390.64
720.275	5415.49
720.617	5427.24
720.96	5360.13
721.303	5391.54
721.646	5334.14
721.989	5334.82
722.331	5361.71
722.674	5337.53
723.016	5368.94
723.359	5351.99
723.701	5381.6
724.044	5359.45
724.386	5312.45
724.729	5375.49
725.071	5358.55
725.413	5364.2
725.755	5333.01
726.097	5242.39
726.439	5314.93
726.782	5326.68
727.124	5333.69
727.465	5345.44
727.807	5266.12
728.149	5304.08
728.491	5288.94
728.833	5304.99
729.175	5281.49
729.516	5342.5
729.858	5262.5
730.199	5314.7
730.541	5277.64
730.882	5309.28
731.224	5291.65
731.565	5274.25
731.906	5333.24
732.248	5304.31
732.589	5297.76
732.93	5295.72
733.271	5271.09
733.612	5366.45
733.953	5316.74
734.294	5296.85
734.635	5264.31
734.976	5297.98
735.317	5292.33
735.658	5309.73
735.999	5375.04
736.339	5331.2
736.68	5373.23
737.021	5342.27
737.361	5369.17
737.702	5425.89
738.042	5365.33
738.383	5365.78
738.723	5396.74
739.063	5410.52
739.404	5455.49
739.744	5382.73
740.084	5370.52
740.424	5399
740.764	5434.93
741.104	5495.27
741.444	5471.99
741.784	5481.71
742.124	5467.7
742.464	5498.65
742.804	5494.81
743.143	5534.36
743.483	5533
743.823	5573
744.162	5578.65
744.502	5675.83
744.841	5639.44
745.181	5696.16
745.52	5701.36
745.86	5724.19
746.199	5749.04
746.538	5760.57
746.877	5844.86
747.216	5954.46
747.556	5937.97
747.895	5979.77
748.234	5996.27
748.573	6019.55
748.911	6102.93
749.25	6196.94
749.589	6228.35
749.928	6314.23
750.267	6352.64
750.605	6428.8
750.944	6477.84
751.283	6542.47
751.621	6658.62
751.96	6690.71
752.298	6816.36
752.636	6926.64
752.975	7003.25
753.313	7043.47
753.651	7213.19
753.989	7261.55
754.327	7379.96
754.666	7485.95
755.004	7683.91
755.342	7739.95
755.679	7856.11
756.017	7979.95
756.355	8238.02
756.693	8317.79
757.031	8456.54
757.368	8511.01
757.706	8687.27
758.044	8827.83
758.381	8996.64
758.719	9223.98
759.056	9334.49
759.394	9444.09
759.731	9527.7
760.068	9776.28
760.405	9891.31
760.743	10074.35
761.08	10234.12
761.417	10471.63
761.754	10596.83
762.091	10820.1
762.428	10979.19
762.765	11047.44
763.102	11331.5
763.438	11399.74
763.775	11659.62
764.112	11880.41
764.449	12060.74
764.785	12157.24
765.122	12304.35
765.458	12440.39
765.795	12672.25
766.131	12886.48
766.467	13033.6
766.804	13041.73
767.14	13271.33
