Data from hue_60_FLMS001491_39.txt Node
Date: Mon Feb 06 15:17:18 GMT 2017
User: dcchb
Spectrometer: FLMS00149
Trigger mode: 0
Integration Time (sec): 2.000000E-2
Scans to average: 10
Electric dark correction enabled: true
Nonlinearity correction enabled: false
Boxcar width: 0
XAxis mode: Wavelengths
Number of Pixels in Spectrum: 2048
>>>>>Begin Spectral Data<<<<<
341.393	-9.43
341.776	-9.43
342.16	-9.43
342.543	-35.65
342.927	-68.87
343.31	-66.83
343.693	-65.93
344.077	-75.42
344.46	-63.67
344.843	-55.99
345.226	-32.94
345.61	-39.72
345.993	-25.93
346.376	-7.63
346.759	25.82
347.142	35.54
347.525	46.38
347.908	51.58
348.291	73.5
348.674	88.87
349.057	112.37
349.44	122.99
349.823	144.01
350.206	153.72
350.588	190.79
350.971	205.93
351.354	212.03
351.737	234.4
352.119	240.73
352.502	282.53
352.884	269.2
353.267	305.81
353.65	291.35
354.032	291.8
354.414	301.97
354.797	314.85
355.179	324.79
355.562	342.87
355.944	325.92
356.326	315.3
356.709	329.77
357.091	342.42
357.473	331.35
357.855	330.9
358.238	373.61
358.62	352.14
359.002	351.46
359.384	345.13
359.766	369.54
360.148	325.92
360.53	327.51
360.912	329.77
361.294	325.25
361.676	327.05
362.057	318.24
362.439	331.57
362.821	330.44
363.203	327.51
363.584	317.56
363.966	330.9
364.348	332.25
364.729	313.04
365.111	316.66
365.493	344
365.874	333.61
366.256	321.86
366.637	340.16
367.019	299.48
367.4	325.02
367.781	333.38
368.163	328.64
368.544	322.76
368.925	300.84
369.306	317.11
369.688	297.9
370.069	302.65
370.45	306.94
370.831	318.01
371.212	321.4
371.593	329.09
371.974	295.87
372.355	300.84
372.736	333.16
373.117	304
373.498	315.98
373.879	287.28
374.26	317.79
374.641	327.28
375.021	299.71
375.402	337.67
375.783	319.82
376.163	319.37
376.544	314.17
376.925	322.53
377.305	324.79
377.686	320.05
378.066	341.06
378.447	322.99
378.827	337.22
379.208	329.09
379.588	337.67
379.968	337.9
380.349	336.09
380.729	315.08
381.109	324.79
381.489	316.21
381.87	324.57
382.25	338.58
382.63	334.96
383.01	350.56
383.39	331.8
383.77	343.78
384.15	310.56
384.53	321.86
384.91	339.71
385.29	344.68
385.67	328.86
386.049	347.39
386.429	346.49
386.809	347.84
387.189	368.63
387.568	342.19
387.948	334.96
388.328	339.48
388.707	342.19
389.087	370.89
389.466	351.46
389.846	336.09
390.225	344.68
390.605	358.47
390.984	377
391.363	352.14
391.743	365.47
392.122	358.01
392.501	358.92
392.881	367.28
393.26	370.89
393.639	348.97
394.018	371.12
394.397	380.39
394.776	383.1
395.155	397.11
395.534	354.62
395.913	378.8
396.292	374.74
396.671	374.74
397.05	373.15
397.429	351.69
397.808	370.67
398.186	386.49
398.565	380.39
398.944	372.02
399.323	367.5
399.701	373.38
400.08	361.63
400.458	398.46
400.837	374.06
401.215	384.91
401.594	393.72
401.972	381.29
402.351	378.35
402.729	386.26
403.107	403.21
403.486	395.98
403.864	407.96
404.242	395.53
404.62	399.14
404.999	397.79
405.377	420.84
405.755	400.27
406.133	388.97
406.511	418.58
406.889	414.06
407.267	430.55
407.645	423.77
408.023	414.96
408.401	407.96
408.779	406.83
409.156	429.88
409.534	424.45
409.912	429.88
410.29	448.63
410.667	432.59
411.045	419.03
411.422	451.12
411.8	435.98
412.178	471.68
412.555	459.03
412.933	437.79
413.31	450.67
413.687	443.66
414.065	456.09
414.442	449.76
414.819	437.33
415.197	462.42
415.574	460.84
415.951	446.6
416.328	471.68
416.705	451.8
417.082	461.51
417.46	483.89
417.837	476.88
418.214	476.65
418.591	501.29
418.967	496.99
419.344	490.67
419.721	495.41
420.098	484.11
420.475	494.96
420.852	482.3
421.228	495.64
421.605	503.09
421.982	511
422.358	508.97
422.735	532.7
423.111	517.78
423.488	530.89
423.864	517.56
424.241	510.33
424.617	532.92
424.994	517.33
425.37	515.98
425.746	534.96
426.123	552.81
426.499	558.69
426.875	542.87
427.251	524.34
427.627	564.34
428.003	571.57
428.379	565.92
428.756	575.41
429.132	565.69
429.507	572.7
429.883	596.42
430.259	589.87
430.635	576.76
431.011	579.48
431.387	584.22
431.763	622.41
432.138	593.94
432.514	579.93
432.89	585.8
433.265	600.72
433.641	618.8
434.016	643.2
434.392	633.71
434.767	646.82
435.143	618.35
435.518	636.2
435.894	629.64
436.269	664.9
436.644	668.29
437.02	645.01
437.395	674.16
437.77	656.99
438.145	655.86
438.52	666.71
438.895	673.71
439.271	654.95
439.646	687.04
440.021	698.57
440.395	686.37
440.77	719.59
441.145	690.43
441.52	700.83
441.895	703.99
442.27	713.94
442.645	722.52
443.019	718.91
443.394	710.77
443.769	743.09
444.143	708.96
444.518	736.99
444.892	723.43
445.267	719.36
445.641	744.9
446.016	746.93
446.39	749.19
446.764	762.97
447.139	756.42
447.513	769.98
447.887	760.49
448.262	769.98
448.636	778.79
449.01	779.92
449.384	794.39
449.758	766.82
450.132	812.24
450.506	810.2
450.88	805.69
451.254	797.55
451.628	802.52
452.002	803.65
452.376	828.74
452.75	823.31
453.123	836.19
453.497	852.24
453.871	829.87
454.244	853.14
454.618	875.74
454.992	878
455.365	886.13
455.739	886.13
456.112	895.85
456.486	911.9
456.859	912.57
457.232	893.82
457.606	916.42
457.979	945.57
458.352	926.59
458.725	953.03
459.099	968.39
459.472	970.43
459.845	990.09
460.218	1024.66
460.591	1019.92
460.964	1000.48
461.337	1043.87
461.71	1049.29
462.083	1038.22
462.456	1056.3
462.829	1049.29
463.201	1076.19
463.574	1076.41
463.947	1121.16
464.32	1123.64
464.692	1169.07
465.065	1117.32
465.438	1150.76
465.81	1178.1
466.183	1179.91
466.555	1209.97
466.928	1248.61
467.3	1251.55
467.672	1265.79
468.045	1294.26
468.417	1287.25
468.789	1310.76
469.161	1362.51
469.534	1390.75
469.906	1381.94
470.278	1402.05
470.65	1424.65
471.022	1467.81
471.394	1485.44
471.766	1526.8
472.138	1547.36
472.51	1606.12
472.882	1621.93
473.253	1670.07
473.625	1691.99
473.997	1740.35
474.369	1763.63
474.74	1801.37
475.112	1822.61
475.484	1881.59
475.855	1901.48
476.227	1943.28
476.598	2013.34
476.97	2041.13
477.341	2130.4
477.713	2179.21
478.084	2185.31
478.455	2291.52
478.827	2322.93
479.198	2430.95
479.569	2480.9
479.94	2557.96
480.311	2626.2
480.682	2678.18
481.053	2818.97
481.424	2829.81
481.795	2973.31
482.166	3048.79
482.537	3107.09
482.908	3202.46
483.279	3290.59
483.65	3401.77
484.021	3505.5
484.391	3583.92
484.762	3651.49
485.133	3804.02
485.503	3908.43
485.874	3981.65
486.244	4107.29
486.615	4238.14
486.985	4395.2
487.356	4535.98
487.726	4609.88
488.097	4727.84
488.467	4822.75
488.837	4978.46
489.207	5133.03
489.578	5270.43
489.948	5389.52
490.318	5555.62
490.688	5606.69
491.058	5793.12
491.428	5944.53
491.798	6045.32
492.168	6326.22
492.538	6355.37
492.908	6574.8
493.278	6742.03
493.648	6776.15
494.017	6979.76
494.387	7101.56
494.757	7255.01
495.126	7416.58
495.496	7481.44
495.866	7698.39
496.235	7814.77
496.605	7978.6
496.974	8089.34
497.344	8244.36
497.713	8415.2
498.082	8548.98
498.452	8730
498.821	8824.01
499.19	8969.54
499.559	9130.21
499.928	9270.77
500.298	9426.7
500.667	9607.26
501.036	9666.69
501.405	9819.23
501.774	9923.64
502.143	10184.42
502.512	10182.84
502.88	10397.52
503.249	10486.56
503.618	10637.06
503.987	10715.03
504.356	10885.87
504.724	11014.23
505.093	11116.83
505.462	11187.56
505.83	11394.33
506.199	11503.26
506.567	11724.04
506.936	11776.92
507.304	11959.97
507.672	12090.13
508.041	12267.76
508.409	12307.98
508.777	12496.45
509.145	12642.66
509.514	12775.31
509.882	12923.78
510.25	12983.67
510.618	13176.66
510.986	13236.32
511.354	13450.55
511.722	13494.16
512.09	13639.92
512.458	13796.76
512.826	13945.9
513.193	14108.84
513.561	14046.24
513.929	14251.66
514.297	14477.64
514.664	14591.99
515.032	14701.59
515.4	14855.71
515.767	14903.39
516.135	15115.37
516.502	15110.85
516.869	15425.87
517.237	15539.99
517.604	15378.41
517.972	15680.1
518.339	15808.45
518.706	15850.71
519.073	15918.73
519.44	16086.64
519.808	16351.26
520.175	16405.73
520.542	16638.04
520.909	16760.29
521.276	16741.76
521.643	16886.62
522.009	17097.46
522.376	17297
522.743	17353.27
523.11	17598.69
523.477	17773.15
523.843	17844.33
524.21	17983.76
524.577	18106.25
524.943	18243.42
525.31	18320.48
525.676	18520.02
526.043	18749.85
526.409	18780.81
526.776	18998.65
527.142	19142.83
527.508	19247.46
527.874	19440.9
528.241	19579.65
528.607	19549.15
528.973	19762.93
529.339	19792.08
529.705	20089.7
530.071	20258.73
530.437	20219.64
530.803	20441.1
531.169	20440.42
531.535	20487.65
531.901	20685.61
532.267	20746.86
532.632	20811.49
532.998	20910.47
533.364	21039.28
533.73	21201.76
534.095	21360.4
534.461	21354.07
534.826	21527.4
535.192	21614.4
535.557	21724.23
535.923	21839.03
536.288	21905.02
536.653	21933.94
537.019	21920.84
537.384	22066.59
537.749	22170.55
538.114	22240.6
538.479	22350.43
538.845	22474.95
539.21	22370.32
539.575	22554.27
539.94	22664.55
540.305	22775.73
540.67	22786.35
541.034	22829.74
541.399	22990.41
541.764	23019.11
542.129	23114.03
542.494	23227.47
542.858	23285.77
543.223	23297.3
543.587	23479.44
543.952	23532.55
544.316	23534.13
544.681	23596.95
545.045	23789.04
545.41	23721.01
545.774	23907.68
546.138	23929.82
546.503	23945.87
546.867	24022.93
547.231	24317.38
547.595	24183.6
547.959	24372.3
548.324	24388.34
548.688	24329.81
549.052	24572.07
549.416	24521.67
549.779	24671.72
550.143	24687.99
550.507	24844.15
550.871	24964.6
551.235	24941.77
551.599	25200.3
551.962	25232.16
552.326	25290.46
552.689	25294.98
553.053	25353.97
553.417	25452.49
553.78	25742.2
554.143	25651.81
554.507	25875.99
554.87	25828.3
555.234	26224.9
555.597	26015.87
555.96	26140.16
556.323	26256.77
556.686	26407.95
557.05	26579.47
557.413	26518
557.776	26704.44
558.139	26859.46
558.502	26908.28
558.865	26973.13
559.228	27254.48
559.59	27227.59
559.953	27325.67
560.316	27574.47
560.679	27533.8
561.041	27746.67
561.404	27858.76
561.767	27984.41
562.129	27943.05
562.492	28343.49
562.854	28371.74
563.217	28370.16
563.579	28447.22
563.941	28704.16
564.304	28693.99
564.666	28873.42
565.028	28959.52
565.39	29077.48
565.753	29242.45
566.115	29396.8
566.477	29444.71
566.839	29576.68
567.201	29670.91
567.563	29723.12
567.925	29950.68
568.287	29977.8
568.648	30131.69
569.01	30161.07
569.372	30433.38
569.734	30342.99
570.095	30560.61
570.457	30614.39
570.819	30758.8
571.18	30730.32
571.542	30975.97
571.903	30967.83
572.265	31190.2
572.626	31193.13
572.987	31312
573.349	31424.77
573.71	31390.42
574.071	31544.54
574.432	31707.7
574.794	31871.31
575.155	31808.94
575.516	31862.04
575.877	31978.88
576.238	32083.51
576.599	32144.52
576.96	32210.73
577.32	32278.3
577.681	32430.39
578.042	32473.55
578.403	32449.82
578.763	32438.3
579.124	32596.26
579.485	32676.03
579.845	32744.96
580.206	32706.09
580.566	32766.2
580.927	32870.15
581.287	33042.13
581.648	32690.72
582.008	32921.68
582.368	32989.25
582.728	33055.23
583.089	32981.56
583.449	32874.67
583.809	33056.59
584.169	33067.66
584.529	33039.41
584.889	33328.22
585.249	33038.51
585.609	33071.73
585.969	33222.23
586.329	33073.99
586.688	33360.99
587.048	33205.96
587.408	33291.84
587.768	33275.11
588.127	33223.36
588.487	33208.22
588.846	33400.99
589.206	33225.4
589.565	33274.44
589.925	33359.86
590.284	33385.17
590.643	33386.3
591.003	33542.23
591.362	33592.85
591.721	33567.31
592.08	33385.85
592.44	33609.12
592.799	33596.24
593.158	33426.07
593.517	33632.17
593.876	33688.21
594.235	33532.73
594.593	33574.99
594.952	33762.56
595.311	33588.55
595.67	33708.77
596.029	33810.69
596.387	33972.72
596.746	33952.61
597.104	33800.75
597.463	33874.42
597.822	34168.42
598.18	33895.66
598.538	33949.9
598.897	34049.78
599.255	33709
599.613	34317.35
599.972	34061.31
600.33	34278.7
600.688	34138.59
601.046	34343.79
601.404	34305.82
601.762	34278.48
602.12	34575.64
602.478	34443.9
602.836	34503.1
603.194	34440.73
603.552	34564.35
603.91	34333.62
604.268	34591.01
604.625	34557.79
604.983	34708.52
605.341	34574.97
605.698	34699.71
606.056	34785.81
606.413	34779.03
606.771	34929.76
607.128	34925.92
607.485	34747.84
607.843	34984
608.2	35031
608.557	35282.29
608.914	35077.78
609.272	35184.44
609.629	35340.14
609.986	35608.84
610.343	35345.12
610.7	35706.46
611.057	35582.4
611.414	35576.97
611.771	35554.6
612.127	35880.69
612.484	35877.53
612.841	35807.93
613.198	35782.62
613.554	35838.44
613.911	36092.89
614.267	36032.1
614.624	36103.29
614.98	36134.93
615.337	36306.67
615.693	36284.07
616.05	36113.01
616.406	36409.49
616.762	36323.17
617.118	36385.99
617.475	36493.79
617.831	36454.01
618.187	36536.95
618.543	36689.71
618.899	36793.21
619.255	36766.32
619.611	36733.78
619.967	36902.36
620.323	36943.49
620.678	36752.99
621.034	36783.95
621.39	36813.55
621.746	36914.79
622.101	37221.9
622.457	36997.73
622.812	37160.44
623.168	37223.48
623.523	37143.26
623.879	37234.33
624.234	37062.58
624.589	37309.81
624.945	37137.39
625.3	37387.1
625.655	37237.5
626.01	37389.58
626.365	37356.81
626.72	37294.9
627.075	37423.71
627.43	37277.72
627.785	37293.09
628.14	37374.22
628.495	37415.12
628.85	37342.58
629.205	37424.61
629.559	37619.18
629.914	37340.32
630.269	37279.08
630.623	37283.6
630.978	37234.33
631.332	37389.58
631.687	37482.46
632.041	37251.28
632.396	37344.61
632.75	37121.79
633.104	37091.74
633.459	37144.62
633.813	37051.51
634.167	37131.96
634.521	37068.23
634.875	37086.99
635.229	37008.12
635.583	36992.3
635.937	37030.95
636.291	36990.04
636.645	37052.19
636.999	36912.08
637.352	36943.27
637.706	36759.54
638.06	37029.37
638.413	36907.56
638.767	36767.9
639.121	36929.25
639.474	36634.35
639.828	36658.08
640.181	36782.37
640.534	36774
640.888	36688.58
641.241	36411.3
641.594	36629.15
641.947	36813.78
642.301	36573.33
642.654	36619.66
643.007	36665.08
643.36	36567
643.713	36505.54
644.066	36650.62
644.419	36433.9
644.771	36085.66
645.124	35877.98
645.477	35815.16
645.83	35628.05
646.182	35541.49
646.535	35313.03
646.888	35432.35
647.24	35198.68
647.593	35427.6
647.945	35362.52
648.298	35231.45
648.65	35239.36
649.002	35091.34
649.355	35266.47
649.707	35188.51
650.059	35324.33
650.411	35693.81
650.763	35695.62
651.115	36133.12
651.467	35961.14
651.819	35898.55
652.171	35842.28
652.523	35884.54
652.875	35788.04
653.227	35639.57
653.578	36011.76
653.93	35810.19
654.282	35521.61
654.633	35457.88
654.985	35632.11
655.337	35578.33
655.688	35601.38
656.039	35642.06
656.391	35476.19
656.742	35539.24
657.094	35554.83
657.445	35629.4
657.796	35605.45
658.147	35570.19
658.498	35485.9
658.849	35551.21
659.2	35527.71
659.551	35471.44
659.902	35590.08
660.253	35517.77
660.604	35512.34
660.955	35360.03
661.306	35543.08
661.656	35524.77
662.007	35463.76
662.358	35451.78
662.708	35468.28
663.059	35433.7
663.409	35179.7
663.76	35395.96
664.11	35294.72
664.461	35415.62
664.811	35381.95
665.161	35338.11
665.511	35212.69
665.862	35278.9
666.212	35369.52
666.562	35379.24
666.912	35299.69
667.262	35240.03
667.612	35195.29
667.962	35225.57
668.312	35269.64
668.662	35349.86
669.011	35283.42
669.361	35219.02
669.711	35208.17
670.06	35165.46
670.41	35085.01
670.76	35115.97
671.109	35167.72
671.459	35236.42
671.808	35272.8
672.157	35139.25
672.507	34896.99
672.856	34901.06
673.205	35043.88
673.554	34994.62
673.904	34910.33
674.253	35045.91
674.602	35036.2
674.951	34514.4
675.3	34438.25
675.649	34928.18
675.998	34898.57
676.346	34861.29
676.695	34929.53
677.044	34773.61
677.393	34760.27
677.741	34774.96
678.09	34743.1
678.438	34608.64
678.787	34772.7
679.135	34782.19
679.484	34509.21
679.832	34701.29
680.181	34499.71
680.529	34537.91
680.877	34471.69
681.225	34490.22
681.573	34613.84
681.922	34402.77
682.27	34302.21
682.618	34296.33
682.966	34192.6
683.314	34272.83
683.661	34045.49
684.009	33981.31
684.357	33879.62
684.705	33850.92
685.053	33964.36
685.4	33971.82
685.748	33691.83
686.095	33741.99
686.443	33509.01
686.79	33468.1
687.138	33600.75
687.485	33457.93
687.832	33316.47
688.18	33386.3
688.527	33320.08
688.874	33164.61
689.221	33397.37
689.568	33092.07
689.915	32998.28
690.262	32998.96
690.609	32994.22
690.956	32891.17
691.303	32768.23
691.65	32623.38
691.997	32623.15
692.344	32506.32
692.69	32482.82
693.037	32511.07
693.383	32166.67
693.73	32330.73
694.077	32049.16
694.423	32156.27
694.769	31942.72
695.116	31987.69
695.462	31933.23
695.808	31793.12
696.155	31832.21
696.501	31629.73
696.847	31624.99
697.193	31418.44
697.539	31461.15
697.885	31256.64
698.231	31155.4
698.577	31010.54
698.923	31149.07
699.269	30931.67
699.614	30883.99
699.96	30734.16
700.306	30799.92
700.651	30776.87
700.997	30586.82
701.342	30635.18
701.688	30611.91
702.033	30468.18
702.379	30371.69
702.724	30290.11
703.069	30312.48
703.415	30073.16
703.76	30011.7
704.105	30008.31
704.45	29967.86
704.795	29850.12
705.14	29785.71
705.485	29684.47
705.83	29560.18
706.175	29651.48
706.52	29575.55
706.865	29425.5
707.209	29439.51
707.554	29236.12
707.899	29366.52
708.243	29166.97
708.588	29122.23
708.932	28990.48
709.277	28821.67
709.621	28879.3
709.966	28724.05
710.31	28743.93
710.654	28500.55
710.998	28668.68
711.342	28501.68
711.687	28447.44
712.031	28442.02
712.375	28271.4
712.719	28255.58
713.063	28200.67
713.407	28359.08
713.75	28135.59
714.094	28155.93
714.438	28041.13
714.782	28052.88
715.125	27899.21
715.469	28024.63
715.812	27885.2
716.156	27641.59
716.499	27737.86
716.843	27747.35
717.186	27522.5
717.53	27746.67
717.873	27781.7
718.216	27563.4
718.559	27420.8
718.902	27313.91
719.246	27438.88
719.589	27307.36
719.932	27193.01
720.275	27112.11
720.617	27201.83
720.96	27117.76
721.303	27144.65
721.646	27087.03
721.989	26932.23
722.331	26959.12
722.674	26866.92
723.016	26940.82
723.359	26912.57
723.701	26771.1
724.044	26708.05
724.386	26524.33
724.729	26738.34
725.071	26612.24
725.413	26597.1
725.755	26631.67
726.097	26559.58
726.439	26292.92
726.782	26359.14
727.124	26453.82
727.465	26363.21
727.807	26261.74
728.149	26201.4
728.491	26101.07
728.833	26260.38
729.175	26086.38
729.516	26013.84
729.858	25934.29
730.199	25985.14
730.541	25958.02
730.882	25859.04
731.224	25928.19
731.565	25829.21
731.906	25737.01
732.248	25789.21
732.589	25577.01
732.93	25560.74
733.271	25558.03
733.612	25747.18
733.953	25609.55
734.294	25525.94
734.635	25434.64
734.976	25383.8
735.317	25335.44
735.658	25359.39
735.999	25315.78
736.339	25368.2
736.68	25357.58
737.021	25168.43
737.361	25122.56
737.702	25203.24
738.042	25152.84
738.383	25058.83
738.723	25055.44
739.063	25006.18
739.404	25064.93
739.744	24992.85
740.084	24868.78
740.424	24869.69
740.764	24848.22
741.104	24878.95
741.444	24650.93
741.784	24717.37
742.124	24809.8
742.464	24620.43
742.804	24735.23
743.143	24565.74
743.483	24604.16
743.823	24497.94
744.162	24488.68
744.502	24545.63
744.841	24428.34
745.181	24375.91
745.52	24401.67
745.86	24335.46
746.199	24266.76
746.538	24320.77
746.877	24230.38
747.216	24234
747.556	24120.33
747.895	24156.48
748.234	24104.96
748.573	24022.93
748.911	24010.5
749.25	23932.08
749.589	23828.36
749.928	23777.96
750.267	23852.54
750.605	23825.64
750.944	23725.31
751.283	23787.23
751.621	23769.38
751.96	23591.3
752.298	23633.56
752.636	23487.8
752.975	23445.32
753.313	23347.24
753.651	23424.98
753.989	23395.37
754.327	23274.47
754.666	23191.31
755.004	23133.46
755.342	23206.68
755.679	23137.53
756.017	22906.12
756.355	23082.16
756.693	22932.79
757.031	22968.94
757.368	22788.16
