Data from hue_26_FLMS001491_00001.txt Node
Date: Tue Feb 07 17:13:28 GMT 2017
User: dcchb
Spectrometer: FLMS00149
Trigger mode: 0
Integration Time (sec): 2.000000E-2
Scans to average: 10
Electric dark correction enabled: true
Nonlinearity correction enabled: false
Boxcar width: 0
XAxis mode: Wavelengths
Number of Pixels in Spectrum: 2048
>>>>>Begin Spectral Data<<<<<
341.393	-1.02
341.776	-1.02
342.16	-1.02
342.543	-58.64
342.927	-86.21
343.31	-55.03
343.693	-64.52
344.077	-73.33
344.46	-63.39
344.843	-56.61
345.226	-62.71
345.61	-36.95
345.993	-20.9
346.376	-11.86
346.759	6.21
347.142	40.34
347.525	48.47
347.908	57.29
348.291	92.99
348.674	92.54
349.057	107.45
349.44	116.27
349.823	143.84
350.206	156.27
350.588	191.52
350.971	191.97
351.354	210.5
351.737	252.31
352.119	236.49
352.502	266.55
352.884	274.23
353.267	279.2
353.65	294.57
354.032	311.74
354.414	302.03
354.797	295.02
355.179	326.66
355.562	321.69
355.944	324.4
356.326	331.86
356.709	327.11
357.091	331.18
357.473	330.95
357.855	337.05
358.238	328.47
358.62	319.65
359.002	342.93
359.384	351.52
359.766	340.89
360.148	325.3
360.53	343.83
360.912	342.25
361.294	353.32
361.676	339.31
362.057	331.4
362.439	329.14
362.821	313.55
363.203	304.29
363.584	329.14
363.966	309.48
364.348	333.66
364.729	330.73
365.111	329.14
365.493	316.94
365.874	327.34
366.256	292.53
366.637	307
367.019	293.89
367.4	290.73
367.781	309.26
368.163	308.35
368.544	303.83
368.925	306.09
369.306	299.31
369.688	323.27
370.069	318.75
370.45	310.16
370.831	313.1
371.212	314.68
371.593	303.38
371.974	313.78
372.355	308.35
372.736	304.74
373.117	296.38
373.498	320.33
373.879	293.44
374.26	327.11
374.641	306.09
375.021	310.16
375.402	322.82
375.783	326.88
376.163	294.79
376.544	341.8
376.925	316.94
377.305	312.87
377.686	315.58
378.066	314.68
378.447	342.7
378.827	324.17
379.208	320.33
379.588	335.92
379.968	332.31
380.349	345.19
380.729	312.87
381.109	343.61
381.489	323.95
381.87	328.92
382.25	324.17
382.63	332.31
383.01	312.2
383.39	332.31
383.77	340.67
384.15	357.62
384.53	339.99
384.91	323.27
385.29	348.58
385.67	339.99
386.049	357.62
386.429	357.62
386.809	363.04
387.189	329.14
387.568	361.46
387.948	354
388.328	345.87
388.707	344.51
389.087	353.1
389.466	352.19
389.846	367.56
390.225	355.13
390.605	360.78
390.984	352.87
391.363	365.75
391.743	365.3
392.122	363.72
392.501	366.43
392.881	376.15
393.26	370.05
393.639	376.6
394.018	381.12
394.397	379.76
394.776	379.76
395.155	387
395.534	385.19
395.913	370.95
396.292	374.79
396.671	387.45
397.05	375.92
397.429	369.37
397.808	376.6
398.186	403.72
398.565	380.44
398.944	381.57
399.323	393.55
399.701	382.7
400.08	390.16
400.458	396.03
400.837	384.51
401.215	383.83
401.594	391.97
401.972	401.23
402.351	383.38
402.729	393.55
403.107	394.23
403.486	388.8
403.864	386.54
404.242	403.94
404.62	409.14
404.999	409.14
405.377	405.98
405.755	416.83
406.133	419.99
406.511	420.21
406.889	425.64
407.267	429.48
407.645	417.96
408.023	423.6
408.401	423.15
408.779	441.91
409.156	447.56
409.534	437.62
409.912	433.55
410.29	443.04
410.667	448.46
411.045	445.53
411.422	461.34
411.8	454.79
412.178	455.47
412.555	451.4
412.933	450.72
413.31	459.31
413.687	474.9
414.065	468.35
414.442	473.32
414.819	478.07
415.197	487.11
415.574	482.36
415.951	471.06
416.328	506.09
416.705	471.51
417.082	489.14
417.46	489.59
417.837	496.82
418.214	499.31
418.591	485.98
418.967	502.25
419.344	496.15
419.721	499.76
420.098	515.35
420.475	510.83
420.852	487.78
421.228	498.18
421.605	525.97
421.982	537.95
422.358	528.01
422.735	528.91
423.111	541.57
423.488	563.94
423.864	562.81
424.241	552.19
424.617	553.32
424.994	578.63
425.37	557.84
425.746	554.9
426.123	543.38
426.499	569.36
426.875	577.72
427.251	554.67
427.627	563.71
428.003	555.35
428.379	577.27
428.756	586.99
429.132	612.3
429.507	596.26
429.883	615.92
430.259	584.05
430.635	606.65
431.011	598.74
431.387	628.8
431.763	634.9
432.138	623.83
432.514	643.94
432.89	641.68
433.265	640.1
433.641	652.98
434.016	652.53
434.392	664.95
434.767	654.33
435.143	676.03
435.518	688
435.894	692.75
436.269	696.37
436.644	685.74
437.02	701.34
437.395	694.33
437.77	708.34
438.145	703.82
438.52	723.48
438.895	713.31
439.271	721
439.646	730.94
440.021	747.89
440.395	740.21
440.77	723.48
441.145	749.02
441.52	763.03
441.895	762.58
442.27	742.24
442.645	747.21
443.019	751.73
443.394	757.61
443.769	765.29
444.143	776.59
444.518	774.78
444.892	763.48
445.267	775.69
445.641	795.35
446.016	782.92
446.39	798.51
446.764	788.11
447.139	801.9
447.513	816.36
447.887	830.15
448.262	834.67
448.636	831.96
449.01	836.48
449.384	831.96
449.758	826.53
450.132	842.8
450.506	873.31
450.88	853.88
451.254	861.56
451.628	853.88
452.002	885.97
452.376	894.55
452.75	887.32
453.123	880.99
453.497	895.91
453.871	908.79
454.244	910.37
454.618	915.12
454.992	942.46
455.365	930.71
455.739	953.08
456.112	957.38
456.486	972.06
456.859	1002.8
457.232	992.18
457.606	975
457.979	1010.71
458.352	1008.9
458.725	1021.78
459.099	1033.08
459.472	1062.46
459.845	1065.4
460.218	1078.95
460.591	1073.98
460.964	1075.34
461.337	1088.9
461.71	1125.06
462.083	1135.68
462.456	1104.72
462.829	1142
463.201	1141.55
463.574	1168.9
463.947	1170.7
464.32	1212.28
464.692	1183.58
465.065	1194.21
465.438	1205.96
465.81	1255.45
466.183	1259.97
466.555	1278.27
466.928	1255
467.3	1246.86
467.672	1306.52
468.045	1320.53
468.417	1311.49
468.789	1335.45
469.161	1384.03
469.534	1384.03
469.906	1392.17
470.278	1415.89
470.65	1429.23
471.022	1449.79
471.394	1498.83
471.766	1528.66
472.138	1557.81
472.51	1583.57
472.882	1569.56
473.253	1596.46
473.625	1618.6
473.997	1632.61
474.369	1647.75
474.74	1660.63
475.112	1698.15
475.484	1721.65
475.855	1762.55
476.227	1811.14
476.598	1856.34
476.97	1831.03
477.341	1885.49
477.713	1880.97
478.084	1975.88
478.455	2014.3
478.827	2019.49
479.198	2099.27
479.569	2108.31
479.94	2154.63
480.311	2198.47
480.682	2245.25
481.053	2269.66
481.424	2324.35
481.795	2353.27
482.166	2373.61
482.537	2416.09
482.908	2486.38
483.279	2513.49
483.65	2553.94
484.021	2604.56
484.391	2665.81
484.762	2679.82
485.133	2725.24
485.503	2755.97
485.874	2872.13
486.244	2862.18
486.615	2902.18
486.985	2956.19
487.356	3037.32
487.726	3084.33
488.097	3164.78
488.467	3179.01
488.837	3237.54
489.207	3255.85
489.578	3323.19
489.948	3357.31
490.318	3429.18
490.688	3462.17
491.058	3522.51
491.428	3499.46
491.798	3611.32
492.168	3667.14
492.538	3676.85
492.908	3725.89
493.278	3808.83
493.648	3825.32
494.017	3867.36
494.387	3967.01
494.757	3974.02
495.126	3978.31
495.496	4029.16
495.866	4102.15
496.235	4115.49
496.605	4165.65
496.974	4220.57
497.344	4233
497.713	4258.98
498.082	4282.94
498.452	4368.59
498.821	4338.76
499.19	4384.86
499.559	4438.64
499.928	4459.2
500.298	4482.26
500.667	4534.46
501.036	4567
501.405	4628.01
501.774	4595.47
502.143	4699.65
502.512	4682.48
502.88	4760.21
503.249	4742.36
503.618	4788.46
503.987	4791.17
504.356	4858.97
504.724	4859.19
505.093	4907.55
505.462	4955.91
505.83	4942.13
506.199	4983.94
506.567	5030.94
506.936	5042.01
507.304	5075.46
507.672	5116.81
508.041	5132.41
508.409	5165.4
508.777	5229.35
509.145	5220.99
509.514	5197.49
509.882	5267.32
510.25	5268
510.618	5292.4
510.986	5321.33
511.354	5413.53
511.722	5401.78
512.09	5501.66
512.458	5421.44
512.826	5472.74
513.193	5498.05
513.561	5494.88
513.929	5565.84
514.297	5629.8
514.664	5659.17
515.032	5639.74
515.4	5670.25
515.767	5694.43
516.135	5736.46
516.502	5715.67
516.869	5806.06
517.237	5779.4
517.604	5793.86
517.972	5855.33
518.339	5904.14
518.706	5922.67
519.073	5892.16
519.44	5924.48
519.808	5963.8
520.175	6011.25
520.542	6033.63
520.909	6048.32
521.276	6076.79
521.643	6110.91
522.009	6139.61
522.376	6194.98
522.743	6218.93
523.11	6226.16
523.477	6253.73
523.843	6319.49
524.21	6324.01
524.577	6408.31
524.943	6471.81
525.31	6478.13
525.676	6472.26
526.043	6478.13
526.409	6571.69
526.776	6647.17
527.142	6688.98
527.508	6683.33
527.874	6715.42
528.241	6679.94
528.607	6801.97
528.973	6786.83
529.339	6827.05
529.705	6909.76
530.071	6973.04
530.437	6980.95
530.803	7054.84
531.169	7054.16
531.535	7024.11
531.901	7112.47
532.267	7102.07
532.632	7138
532.998	7153.37
533.364	7186.36
533.73	7247.61
534.095	7248.74
534.461	7262.75
534.826	7308.85
535.192	7416.19
535.557	7430.43
535.923	7423.65
536.288	7429.97
536.653	7478.56
537.019	7458.45
537.384	7455.96
537.749	7528.73
538.114	7554.26
538.479	7643.98
538.845	7649.18
539.21	7673.81
539.575	7733.92
539.94	7785.9
540.305	7785.22
540.67	7782.06
541.034	7838.32
541.399	7903.86
541.764	7902.5
542.129	7923.07
542.494	7981.82
542.858	7994.71
543.223	7973.46
543.587	8038.32
543.952	8044.2
544.316	8057.08
544.681	8146.11
545.045	8148.6
545.41	8232.89
545.774	8294.58
546.138	8238.54
546.503	8318.09
546.867	8317.86
547.231	8385.2
547.595	8417.97
547.959	8417.29
548.324	8404.64
548.688	8463.85
549.052	8500.23
549.416	8523.05
549.779	8544.75
550.143	8590.4
550.507	8668.59
550.871	8652.09
551.235	8655.03
551.599	8700
551.962	8704.29
552.326	8680.11
552.689	8797.85
553.053	8737.51
553.417	8780.9
553.78	8948.8
554.143	8808.02
554.507	8946.09
554.87	8980.89
555.234	9013.44
555.597	8954
555.96	8998.75
556.323	9036.71
556.686	9087.56
557.05	9151.74
557.413	9123.94
557.776	9192.64
558.139	9293.65
558.502	9221.11
558.865	9252.07
559.228	9325.52
559.59	9327.1
559.953	9351.96
560.316	9405.29
560.679	9450.03
561.041	9551.27
561.404	9548.34
561.767	9596.7
562.129	9633.76
562.492	9684.15
562.854	9653.64
563.217	9662.46
563.579	9738.39
563.941	9725.73
564.304	9862.23
564.666	9796.24
565.028	9835.11
565.39	9829.91
565.753	9953.07
566.115	9957.82
566.477	9952.85
566.839	10049.34
567.201	10116.23
567.563	10088.21
567.925	10151.71
568.287	10196.68
568.648	10244.36
569.01	10238.49
569.372	10357.13
569.734	10283.01
570.095	10409.1
570.457	10444.81
570.819	10501.53
571.18	10505.83
571.542	10517.8
571.903	10606.61
572.265	10647.97
572.626	10681.87
572.987	10832.82
573.349	10795.54
573.71	10893.84
574.071	10922.09
574.432	10962.99
574.794	11101.74
575.155	11010.67
575.516	11173.38
575.877	11255.64
576.238	11250.44
576.599	11354.62
576.96	11403.2
577.32	11494.5
577.681	11582.86
578.042	11693.14
578.403	11689.75
578.763	11756.41
579.124	11910.31
579.485	12082.73
579.845	12188.04
580.206	12226.46
580.566	12239.34
580.927	12507.13
581.287	12619.22
581.648	12715.71
582.008	12970.39
582.368	12998.42
582.728	13196.15
583.089	13382.81
583.449	13468.01
583.809	13726.08
584.169	13875.23
584.529	14002.46
584.889	14311.83
585.249	14506.85
585.609	14567.41
585.969	14819.84
586.329	14922.66
586.688	15176.66
587.048	15458.01
587.408	15650.1
587.768	15849.19
588.127	16057.77
588.487	16334.82
588.846	16627.02
589.206	16772.55
589.565	17030.17
589.925	17331.18
590.284	17524.62
590.643	17867.21
591.003	18163.93
591.362	18485.05
591.721	18691.82
592.08	19041.65
592.44	19362.54
592.799	19636.66
593.158	19761.63
593.517	20110.77
593.876	20451.55
594.235	20649.97
594.593	21040.01
594.952	21369.95
595.311	21584.4
595.67	21948.01
596.029	22412.63
596.387	22586.64
596.746	23000.19
597.104	23174.87
597.463	23388.65
597.822	23765.82
598.18	24107.5
598.538	24313.15
598.897	24737.77
599.255	24880.81
599.613	25369.16
599.972	25619.33
600.33	25987.9
600.688	26016.83
601.046	26530.04
601.404	26926.64
601.762	27151.94
602.12	27546.73
602.478	27750.8
602.836	28012.94
603.194	28162.76
603.552	28482.98
603.91	28785.34
604.268	29150.31
604.625	29237.76
604.983	29810.63
605.341	29765.43
605.698	30145.31
606.056	30619.65
606.413	30517.5
606.771	31019.64
607.128	31224.15
607.485	31402.45
607.843	31674.99
608.2	32045.6
608.557	32329.66
608.914	32486.49
609.272	32806.48
609.629	33163.76
609.986	33396.07
610.343	33414.15
610.7	33766.46
611.057	33923.29
611.414	34062.04
611.771	34356.27
612.127	34744.96
612.484	34719.65
612.841	35120.77
613.198	35230.37
613.554	35378.17
613.911	35668.33
614.267	35900.64
614.624	36008.43
614.98	36286.39
615.337	36455.2
615.693	36644.57
616.05	36770.45
616.406	36916.43
616.762	37099.93
617.118	37144.22
617.475	37257.66
617.831	37547.83
618.187	37675.73
618.543	37894.48
618.899	38265.1
619.255	38369.5
619.611	38278.43
619.967	38656.27
620.323	38613.79
620.678	38703.5
621.034	38741.69
621.39	38794.57
621.746	38950.73
622.101	39428.23
622.457	39252.64
622.812	39408.12
623.168	39656.92
623.523	39638.62
623.879	39850.82
624.234	39599.3
624.589	39782.34
624.945	40092.62
625.3	40164.93
625.655	40088.1
626.01	40356.57
626.365	40460.52
626.72	40468.65
627.075	40478.14
627.43	40557.01
627.785	40490.12
628.14	40628.42
628.495	40787.97
628.85	40743.45
629.205	40728.99
629.559	40915.65
629.914	40788.19
630.269	40905.93
630.623	40979.37
630.978	40827.51
631.332	41105.02
631.687	41176.21
632.041	41101.18
632.396	41169.2
632.75	41068.41
633.104	41253.04
633.459	41063.67
633.813	41101.86
634.167	41086.49
634.521	41342.75
634.875	41186.83
635.229	41236.32
635.583	41035.64
635.937	41073.61
636.291	41086.49
636.645	41186.6
636.999	41146.38
637.352	41232.25
637.706	41033.61
638.06	41374.62
638.413	41234.73
638.767	41109.99
639.121	41221.85
639.474	41028.86
639.828	41108.41
640.181	41092.37
640.534	41126.04
640.888	41076.55
641.241	40928.53
641.594	41059.82
641.947	41116.55
642.301	41045.59
642.654	41212.59
643.007	41058.24
643.36	41124.68
643.713	41029.32
644.066	41138.24
644.419	40870.9
644.771	40719.04
645.124	40328.32
645.477	40204.03
645.83	39993.64
646.182	39834.32
646.535	39707.54
646.888	39956.58
647.24	39700.99
647.593	39988.89
647.945	39898.5
648.298	39711.61
648.65	39571.73
649.002	39598.85
649.355	39858.73
649.707	39708.22
650.059	39938.5
650.411	40436.56
650.763	40554.98
651.115	40804.92
651.467	40635.2
651.819	40604.7
652.171	40579.61
652.523	40585.49
652.875	40511.14
653.227	40392.5
653.578	40562.21
653.93	40625.94
654.282	40483.34
654.633	40366.51
654.985	40518.82
655.337	40415.1
655.688	40451.7
656.039	40709.33
656.391	40334.87
656.742	40423.46
657.094	40453.51
657.445	40555.43
657.796	40518.6
658.147	40339.62
658.498	40445.38
658.849	40389.56
659.2	40419.62
659.551	40270.24
659.902	40407.86
660.253	40273.86
660.604	40372.84
660.955	40192.05
661.306	40457.58
661.656	40253.07
662.007	40390.01
662.358	40367.87
662.708	40242.22
663.059	40157.7
663.409	40047.65
663.76	40270.92
664.11	40200.41
664.461	40333.74
664.811	40434.76
665.161	40234.54
665.511	40102.34
665.862	40146.4
666.212	40442.67
666.562	40268.21
666.912	40202.9
667.262	40114.99
667.612	40244.25
667.962	40193.63
668.312	40256.68
668.662	40425.04
669.011	40233.86
669.361	40267.08
669.711	40219.17
670.06	40113.63
670.41	40192.95
670.76	39971.49
671.109	40060.75
671.459	40104.14
671.808	39987.99
672.157	40099.85
672.507	39907.09
672.856	39818.05
673.205	39890.59
673.554	40084.03
673.904	40050.36
674.253	40171.71
674.602	39897.37
674.951	39362.24
675.3	39174.22
675.649	39880.87
675.998	39794.09
676.346	39835.45
676.695	39992.28
677.044	39564.72
677.393	39672.52
677.741	39861.21
678.09	39752.74
678.438	39511.84
678.787	39608.56
679.135	39557.72
679.484	39363.82
679.832	39602.01
680.181	39449.02
680.529	39445.4
680.877	39352.3
681.225	39210.61
681.573	39575.12
681.922	39234.79
682.27	39152.08
682.618	39141
682.966	39098.75
683.314	39220.55
683.661	39006.32
684.009	38926.1
684.357	38747.34
684.705	38798.87
685.053	38745.08
685.4	38825.76
685.748	38693.78
686.095	38711.64
686.443	38415.37
686.79	38393.45
687.138	38532.21
687.485	38483.39
687.832	38364.08
688.18	38294.47
688.527	38015.61
688.874	38013.8
689.221	38055.16
689.568	37903.75
689.915	37912.11
690.262	37821.27
690.609	37754.15
690.956	37587.15
691.303	37562.06
691.65	37313.93
691.997	37419.69
692.344	37299.02
692.69	37206.14
693.037	37235.97
693.383	36838.69
693.73	37111.91
694.077	36890.44
694.423	36827.85
694.769	36626.04
695.116	36644.8
695.462	36635.08
695.808	36622.43
696.155	36626.04
696.501	36460.17
696.847	36314.86
697.193	36088.88
697.539	36253.17
697.885	35893.63
698.231	35952.16
698.577	35766.86
698.923	35796.46
699.269	35662.9
699.614	35368.9
699.96	35421.55
700.306	35354.44
700.651	35310.15
700.997	35113.54
701.342	35144.27
701.688	34954
702.033	34964.62
702.379	35037.84
702.724	34750.61
703.069	34814.79
703.415	34566.44
703.76	34664.29
704.105	34561.46
704.45	34526.89
704.795	34277.4
705.14	34300.23
705.485	34201.25
705.83	34028.37
706.175	34153.34
706.52	34010.07
706.865	33880.8
707.209	33994.93
707.554	33747.25
707.899	33725.55
708.243	33696.4
708.588	33589.96
708.932	33438.78
709.277	33357.88
709.621	33393.81
709.966	33094.16
710.31	33134.16
710.654	32909.76
710.998	32919.93
711.342	32963.77
711.687	32835.63
712.031	32746.14
712.375	32622.08
712.719	32651.46
713.063	32568.52
713.407	32567.39
713.75	32402.88
714.094	32431.8
714.438	32355.65
714.782	32330.79
715.125	32037.01
715.469	32168.53
715.812	32032.04
716.156	31951.36
716.499	31995.88
716.843	32025.94
717.186	31767.41
717.53	31976.9
717.873	31870.01
718.216	31832.5
718.559	31620.3
718.902	31432.51
719.246	31632.28
719.589	31487.87
719.932	31338.95
720.275	31375.33
720.617	31278.39
720.96	31253.08
721.303	31274.77
721.646	31219.41
721.989	31042.69
722.331	31123.14
722.674	31033.2
723.016	31060.54
723.359	30944.38
723.701	31035.91
724.044	30826.42
724.386	30647.67
724.729	30833.65
725.071	30722.92
725.413	30688.57
725.755	30604.51
726.097	30591.4
726.439	30444.51
726.782	30432.31
727.124	30449.93
727.465	30434.12
727.807	30244.06
728.149	30239.54
728.491	30247
728.833	30372.42
729.175	30069.6
729.516	30140.11
729.858	30038.42
730.199	30006.56
730.541	29965.2
730.882	29975.14
731.224	29962.26
731.565	29796.39
731.906	29726.56
732.248	29880.68
732.589	29603.85
732.93	29584.65
733.271	29592.56
733.612	29623.74
733.953	29606.57
734.294	29411.77
734.635	29405.89
734.976	29483.18
735.317	29368.15
735.658	29385.78
735.999	29326.35
736.339	29323.64
736.68	29367.48
737.021	29208.16
737.361	29107.6
737.702	29233.02
738.042	29167.26
738.383	29031.67
738.723	29175.84
739.063	29036.41
739.404	29095.85
739.744	28946.47
740.084	28882.52
740.424	28887.04
740.764	28763.88
741.104	28867.6
741.444	28683.43
741.784	28631.68
742.124	28706.25
742.464	28642.52
742.804	28499.93
743.143	28447.95
743.483	28546.26
743.823	28418.12
744.162	28357.11
744.502	28386.94
744.841	28323.89
745.181	28400.5
745.52	28159.15
745.86	28308.97
746.199	28198.92
746.538	28231.46
746.877	28144.46
747.216	28161.41
747.556	28062.88
747.895	28125.48
748.234	27980.85
748.573	27830.79
748.911	27844.58
749.25	27881.64
749.589	27773.85
749.928	27748.31
750.267	27866.72
750.605	27706.73
750.944	27726.39
751.283	27537.47
751.621	27593.51
751.96	27442.78
752.298	27442.33
752.636	27394.19
752.975	27306.97
753.313	27301.99
753.651	27371.6
753.989	27234.2
754.327	27218.83
754.666	26976.58
755.004	27076.46
755.342	27119.4
755.679	26947.43
756.017	26851.61
756.355	26931.61
756.693	26759.86
757.031	26796.24
757.368	26640.77
757.706	26639.86
758.044	26646.87
758.381	26586.31
758.719	26551.96
759.056	26442.58
759.394	26418.63
759.731	26274.9
760.068	26212.31
760.405	26179.54
