Data from hue_30_FLMS001491_42.txt Node
Date: Mon Feb 06 15:05:22 GMT 2017
User: dcchb
Spectrometer: FLMS00149
Trigger mode: 0
Integration Time (sec): 2.000000E-2
Scans to average: 10
Electric dark correction enabled: true
Nonlinearity correction enabled: false
Boxcar width: 0
XAxis mode: Wavelengths
Number of Pixels in Spectrum: 2048
>>>>>Begin Spectral Data<<<<<
341.393	-33.87
341.776	-33.87
342.16	-33.87
342.543	-77.26
342.927	-78.84
343.31	-76.58
343.693	-57.82
344.077	-62.57
344.46	-57.37
344.843	-46.98
345.226	-28.45
345.61	-27.09
345.993	-39.07
346.376	-15.56
346.759	21.72
347.142	29.41
347.525	48.16
347.908	59.69
348.291	68.73
348.674	74.38
349.057	109.4
349.44	111.44
349.823	139.91
350.206	168.16
350.588	188.95
350.971	191.89
351.354	215.62
351.737	214.71
352.119	223.53
352.502	256.52
352.884	270.76
353.267	287.7
353.65	288.38
354.032	306.23
354.414	299.68
354.797	297.42
355.179	295.84
355.562	324.09
355.944	318.44
356.326	320.7
356.709	345.56
357.091	345.56
357.473	325.67
357.855	310.08
358.238	326.12
358.62	347.36
359.002	331.32
359.384	336.97
359.766	341.49
360.148	332.45
360.53	339.23
360.912	342.62
361.294	327.93
361.676	323.86
362.057	311.88
362.439	329.51
362.821	316.86
363.203	324.31
363.584	327.93
363.966	319.79
364.348	326.35
364.729	321.6
365.111	318.21
365.493	307.14
365.874	299.46
366.256	318.66
366.637	289.06
367.019	318.89
367.4	296.74
367.781	300.36
368.163	302.62
368.544	314.6
368.925	306.69
369.306	314.14
369.688	312.11
370.069	322.96
370.45	277.76
370.831	321.38
371.212	284.77
371.593	313.69
371.974	308.27
372.355	311.43
372.736	306.46
373.117	289.51
373.498	295.61
373.879	322.28
374.26	287.7
374.641	312.11
375.021	313.01
375.402	314.37
375.783	321.38
376.163	296.74
376.544	322.96
376.925	305.1
377.305	336.52
377.686	308.72
378.066	319.12
378.447	313.47
378.827	325.9
379.208	309.62
379.588	304.65
379.968	304.65
380.349	308.95
380.729	326.57
381.109	333.8
381.489	326.8
381.87	327.93
382.25	330.64
382.63	357.31
383.01	328.16
383.39	326.8
383.77	336.06
384.15	335.84
384.53	335.61
384.91	331.09
385.29	332.9
385.67	331.09
386.049	336.29
386.429	368.61
386.809	341.04
387.189	327.03
387.568	328.83
387.948	344.43
388.328	358.21
388.707	340.81
389.087	339
389.466	354.82
389.846	350.3
390.225	350.08
390.605	348.27
390.984	348.49
391.363	362.05
391.743	362.05
392.122	346.91
392.501	381.71
392.881	376.52
393.26	365.44
393.639	357.08
394.018	366.8
394.397	358.44
394.776	348.27
395.155	389.4
395.534	382.39
395.913	364.99
396.292	373.35
396.671	375.39
397.05	355.27
397.429	371.77
397.808	373.8
398.186	362.73
398.565	358.89
398.944	387.81
399.323	354.14
399.701	369.28
400.08	383.3
400.458	381.49
400.837	400.02
401.215	393.01
401.594	370.87
401.972	390.98
402.351	384.65
402.729	398.21
403.107	417.19
403.486	386.23
403.864	409.28
404.242	416.51
404.62	403.63
404.999	388.27
405.377	406.8
405.755	420.81
406.133	400.47
406.511	397.76
406.889	396.4
407.267	421.49
407.645	419.68
408.023	411.09
408.401	404.31
408.779	404.54
409.156	416.51
409.534	416.74
409.912	412.67
410.29	408.83
410.667	436.63
411.045	459.23
411.422	417.42
411.8	447.02
412.178	454.71
412.555	450.19
412.933	462.39
413.31	461.03
413.687	440.69
414.065	448.6
414.442	470.75
414.819	472.11
415.197	470.3
415.574	469.17
415.951	465.1
416.328	478.66
416.705	457.64
417.082	481.37
417.46	474.82
417.837	462.84
418.214	487.93
418.591	484.76
418.967	491.54
419.344	480.24
419.721	488.83
420.098	493.35
420.475	506
420.852	483.63
421.228	512.78
421.605	487.93
421.982	496.96
422.358	502.61
422.735	513.91
423.111	527.02
423.488	521.37
423.864	517.98
424.241	531.54
424.617	518.43
424.994	538.32
425.37	534.93
425.746	519.79
426.123	550.52
426.499	535.16
426.875	525.44
427.251	533.8
427.627	554.36
428.003	562.5
428.379	555.27
428.756	572.89
429.132	560.92
429.507	570.18
429.883	591.88
430.259	598.43
430.635	559.11
431.011	598.43
431.387	593.46
431.763	607.92
432.138	617.64
432.514	609.96
432.89	614.25
433.265	631.2
433.641	618.77
434.016	627.58
434.392	635.27
434.767	631.42
435.143	636.4
435.518	652.89
435.894	652.21
436.269	662.38
436.644	677.07
437.02	684.53
437.395	690.18
437.77	680.46
438.145	713.46
438.52	692.21
438.895	718.65
439.271	696.06
439.646	713.46
440.021	698.99
440.395	715.04
440.77	699.22
441.145	725.21
441.52	723.85
441.895	709.61
442.27	724.53
442.645	730.18
443.019	711.65
443.394	743.96
443.769	741.48
444.143	738.77
444.518	730.86
444.892	753.45
445.267	769.27
445.641	728.14
446.016	754.81
446.39	762.72
446.764	765.66
447.139	768.37
447.513	774.25
447.887	774.47
448.262	799.56
448.636	782.61
449.01	792.78
449.384	815.15
449.758	809.05
450.132	795.26
450.506	818.54
450.88	821.02
451.254	818.09
451.628	836.39
452.002	836.39
452.376	826
452.75	801.59
453.123	829.84
453.497	859.67
453.871	868.93
454.244	882.49
454.618	886.33
454.992	875.26
455.365	879.78
455.739	900.8
456.112	927.91
456.486	909.16
456.859	926.11
457.232	949.16
457.606	947.8
457.979	948.25
458.352	967.69
458.725	973.11
459.099	1014.69
459.472	1009.27
459.845	1014.69
460.218	1014.01
460.591	1018.31
460.964	1020.34
461.337	1066.67
461.71	1072.09
462.083	1082.26
462.456	1086.55
462.829	1079.1
463.201	1090.85
463.574	1101.69
463.947	1139.21
464.32	1142.6
464.692	1123.39
465.065	1156.38
465.438	1195.25
465.81	1183.73
466.183	1187.12
466.555	1232.76
466.928	1252.65
467.3	1221.47
467.672	1260.79
468.045	1246.78
468.417	1303.04
468.789	1284.74
469.161	1326.55
469.534	1336.49
469.906	1359.77
470.278	1352.99
470.65	1386.43
471.022	1390.73
471.394	1413.1
471.766	1402.03
472.138	1468.69
472.51	1472.08
472.882	1515.69
473.253	1526.54
473.625	1580.1
473.997	1606.31
474.369	1607.44
474.74	1634.56
475.112	1666.43
475.484	1703.71
475.855	1722.24
476.227	1764.28
476.598	1812.41
476.97	1822.58
477.341	1870.71
477.713	1891.73
478.084	1926.53
478.455	1968.34
478.827	1988.22
479.198	2081.33
479.569	2091.5
479.94	2152.29
480.311	2155
480.682	2210.59
481.053	2249.01
481.424	2334.2
481.795	2348.67
482.166	2400.87
482.537	2446.74
482.908	2495.78
483.279	2560.19
483.65	2630.24
484.021	2639.73
484.391	2712.27
484.762	2762.44
485.133	2775.77
485.503	2818.03
485.874	2899.39
486.244	2897.35
486.615	2995.43
486.985	3081.53
487.356	3110.45
487.726	3171.02
488.097	3277
488.467	3289.66
488.837	3329.66
489.207	3409.88
489.578	3472.48
489.948	3500.95
490.318	3565.81
490.688	3601.52
491.058	3702.53
491.428	3693.94
491.798	3806.26
492.168	3858.46
492.538	3911.34
492.908	3987.72
493.278	4020.49
493.648	4075.63
494.017	4156.53
494.387	4165.12
494.757	4271.55
495.126	4301.61
495.496	4336.19
495.866	4357.88
496.235	4449.63
496.605	4483.53
496.974	4565.11
497.344	4584.99
497.713	4610.53
498.082	4695.72
498.452	4747.25
498.821	4780.47
499.19	4810.52
499.559	4818.43
499.928	4880.13
500.298	4945.66
500.667	4993.57
501.036	4963.97
501.405	5062.04
501.774	5088.71
502.143	5134.36
502.512	5158.54
502.88	5236.5
503.249	5202.83
503.618	5270.4
503.987	5324.86
504.356	5336.84
504.724	5311.3
505.093	5428.13
505.462	5465.2
505.83	5459.09
506.199	5464.52
506.567	5537.28
506.936	5637.62
507.304	5644.4
507.672	5665.42
508.041	5712.42
508.409	5799.42
508.777	5739.54
509.145	5801.01
509.514	5841.23
509.882	5858.86
510.25	5882.13
510.618	5952.87
510.986	6013.66
511.354	5993.09
511.722	6010.72
512.09	6104.27
512.458	6114.67
512.826	6196.02
513.193	6123.71
513.561	6218.4
513.929	6218.4
514.297	6280.09
514.664	6339.75
515.032	6355.34
515.4	6397.37
515.767	6440.08
516.135	6486.64
516.502	6374.32
516.869	6487.77
517.237	6529.35
517.604	6487.54
517.972	6600.76
518.339	6629.91
518.706	6645.96
519.073	6615.9
519.44	6652.96
519.808	6747.65
520.175	6720.3
520.542	6788.32
520.909	6811.83
521.276	6834.42
521.643	6909.68
522.009	6874.88
522.376	7003.46
522.743	6972.05
523.11	6999.84
523.477	7118.94
523.843	7106.06
524.21	7177.69
524.577	7245.26
524.943	7273.06
525.31	7276.67
525.676	7386.95
526.043	7328.88
526.409	7426.27
526.776	7498.14
527.142	7466.05
527.508	7556.21
527.874	7607.74
528.241	7650.67
528.607	7605.7
528.973	7691.35
529.339	7722.31
529.705	7770.67
530.071	7848.86
530.437	7837.79
530.803	7922.76
531.169	7944.68
531.535	7913.04
531.901	8005.24
532.267	8050.44
532.632	8060.38
532.998	8096.99
533.364	8153.71
533.73	8194.16
534.095	8224.44
534.461	8277.1
534.826	8343.99
535.192	8346.93
535.557	8397.55
535.923	8383.54
536.288	8388.06
536.653	8468.96
537.019	8409.52
537.384	8550.31
537.749	8582.18
538.114	8555.28
538.479	8605
538.845	8636.64
539.21	8626.92
539.575	8708.95
539.94	8752.34
540.305	8777.88
540.67	8768.39
541.034	8855.16
541.399	8962.05
541.764	8865.11
542.129	8947.82
542.494	8955.5
542.858	8994.14
543.223	9009.73
543.587	9075.04
543.952	9078.21
544.316	9096.51
544.681	9185.1
545.045	9165.44
545.41	9330.18
545.774	9284.3
546.138	9400.01
546.503	9382.15
546.867	9347.58
547.231	9442.04
547.595	9490.63
547.959	9489.72
548.324	9476.62
548.688	9545.99
549.052	9539.66
549.416	9646.78
549.779	9604.52
550.143	9623.05
550.507	9733.11
550.871	9826.21
551.235	9784.4
551.599	9893.55
551.962	9854.01
552.326	9892.88
552.689	9923.38
553.053	9873.44
553.417	9988.24
553.78	10104.17
554.143	10014
554.507	10024.85
554.87	10128.35
555.234	10122.93
555.597	10107.56
555.96	10179.65
556.323	10185.07
556.686	10242.47
557.05	10273.66
557.413	10341.9
557.776	10348.68
558.139	10450.83
558.502	10416.7
558.865	10382.58
559.228	10534.67
559.59	10539.19
559.953	10582.35
560.316	10669.8
560.679	10677.49
561.041	10672.52
561.404	10705.06
561.767	10810.37
562.129	10785.51
562.492	10880.87
562.854	10848.1
563.217	10837.03
563.579	10924.71
563.941	10994.54
564.304	11007.2
564.666	11043.35
565.028	11077.48
565.39	11153.41
565.753	11169.68
566.115	11178.27
566.477	11233.18
566.839	11304.36
567.201	11312.27
567.563	11355.44
567.925	11411.93
568.287	11481.08
568.648	11592.27
569.01	11503.91
569.372	11622.1
569.734	11576.9
570.095	11727.86
570.457	11746.84
570.819	11774.18
571.18	11833.62
571.542	11851.24
571.903	11878.36
572.265	11891.69
572.626	11954.06
572.987	12100.5
573.349	12119.94
573.71	12207.16
574.071	12359.25
574.432	12327.39
574.794	12454.16
575.155	12465.24
575.516	12515.86
575.877	12549.53
576.238	12640.6
576.599	12759.69
576.96	12778.45
577.32	12927.37
577.681	12999.69
578.042	13057.76
578.403	13152.9
578.763	13317.19
579.124	13337.76
579.485	13480.13
579.845	13650.29
580.206	13686
580.566	13784.07
580.927	14021.35
581.287	14119.21
581.648	14263.83
582.008	14347.22
582.368	14437.39
582.728	14789.24
583.089	14865.63
583.449	15030.82
583.809	15090.03
584.169	15403.24
584.529	15464.48
584.889	15799.39
585.249	15806.62
585.609	16026.5
585.969	16310.79
586.329	16427.84
586.688	16672.13
587.048	16871.9
587.408	16986.93
587.768	17167.71
588.127	17438.67
588.487	17675.5
588.846	17989.39
589.206	17982.38
589.565	18254.01
589.925	18668.24
590.284	18769.48
590.643	19091.5
591.003	19439.29
591.362	19609.23
591.721	19878.83
592.08	20140.52
592.44	20282.43
592.799	20634.97
593.158	20733.04
593.517	21015.97
593.876	21375.74
594.235	21482.85
594.593	21735.05
594.952	21989.51
595.311	22138.43
595.67	22515.14
596.029	22826.77
596.387	23193.99
596.746	23352.41
597.104	23554.44
597.463	23641.21
597.822	24047.53
598.18	24277.36
598.538	24464.7
598.897	24845.7
599.255	24907.17
599.613	25480.26
599.972	25471
600.33	25733.14
600.688	25901.49
601.046	26176.29
601.404	26518.43
601.762	26771.53
602.12	27058.53
602.478	27341
602.836	27392.08
603.194	27612.86
603.552	27713.88
603.91	27777.38
604.268	28235.22
604.625	28437.7
604.983	28644.47
605.341	28750.46
605.698	29040.39
606.056	29253.95
606.413	29440.84
606.771	29676.31
607.128	29837.89
607.485	29872.01
607.843	30107.71
608.2	30434.48
608.557	30639
608.914	30786.11
609.272	31066.78
609.629	31091.41
609.986	31354.46
610.343	31410.5
610.7	31743.6
611.057	31819.3
611.414	31841.22
611.771	32165.06
612.127	32285.96
612.484	32429.91
612.841	32647.76
613.198	32670.13
613.554	32780.64
613.911	33118.71
614.267	33264.69
614.624	33242.77
614.98	33549.2
615.337	33681.18
615.693	33715.3
616.05	33837.1
616.406	34105.12
616.762	34048.62
617.118	34293.14
617.475	34327.49
617.831	34466.92
618.187	34676.63
618.543	34700.81
618.899	35007.92
619.255	35004.98
619.611	35185.54
619.967	35285.43
620.323	35274.58
620.678	35281.13
621.034	35292.89
621.39	35535.14
621.746	35389.61
622.101	35955.69
622.457	35698.98
622.812	35822.36
623.168	36073.2
623.523	36061
623.879	36175.57
624.234	36009.7
624.589	36279.75
624.945	36287.21
625.3	36438.62
625.655	36445.62
626.01	36401.33
626.365	36588.22
626.72	36603.13
627.075	36566.75
627.43	36609.69
627.785	36621.21
628.14	36725.84
628.495	36652.62
628.85	36710.02
629.205	36728.1
629.559	36983.24
629.914	36807.65
630.269	36867.76
630.623	36796.8
630.978	36819.63
631.332	36952.5
631.687	37148.88
632.041	36848.78
632.396	37072.73
632.75	36824.14
633.104	37079.51
633.459	36844.48
633.813	36938.72
634.167	37000.86
634.521	37041.77
634.875	37108.43
635.229	36968.55
635.583	36986.85
635.937	36738.72
636.291	36941.2
636.645	36928.77
636.999	36784.37
637.352	37019.62
637.706	36756.8
638.06	37032.05
638.413	36921.09
638.767	36964.03
639.121	36895.33
639.474	36683.13
639.828	36853.75
640.181	36836.8
640.534	36839.29
640.888	36772.85
641.241	36656.47
641.594	36796.8
641.947	36770.36
642.301	36742.56
642.654	36705.96
643.007	36592.96
643.36	36691.04
643.713	36615.79
644.066	36750.25
644.419	36435.23
644.771	36386.19
645.124	36021.23
645.477	35853.1
645.83	35664.4
646.182	35664.85
646.535	35520.9
646.888	35645.19
647.24	35373.56
647.593	35637.74
647.945	35470.28
648.298	35503.28
648.65	35451.07
649.002	35346.22
649.355	35393.67
649.707	35367.23
650.059	35604.06
650.411	35989.82
650.763	36064.16
651.115	36411.95
651.467	36330.82
651.819	36232.97
652.171	36234.78
652.523	36073.43
652.875	36091.51
653.227	36090.6
653.578	36366.3
653.93	36171.73
654.282	36151.62
654.633	35909.14
654.985	36087.67
655.337	35998.63
655.688	36196.82
656.039	36143.94
656.391	35906.65
656.742	36012.64
657.094	36022.13
657.445	36119.3
657.796	35913.66
658.147	35810.84
658.498	35979.87
658.849	36116.59
659.2	35854.45
659.551	35856.71
659.902	36051.74
660.253	35865.75
660.604	36041.34
660.955	35755.25
661.306	35906.2
661.656	35868.01
662.007	35729.48
662.358	35827.33
662.708	35854.68
663.059	35750.95
663.409	35597.74
663.76	35883.83
664.11	35961.57
664.461	35829.59
664.811	35838.18
665.161	35849.03
665.511	35668.02
665.862	35684.06
666.212	35928.12
666.562	35865.07
666.912	35876.6
667.262	35775.36
667.612	35663.27
667.962	35719.54
668.312	35704.85
668.662	35792.31
669.011	35807.45
669.361	35791.63
669.711	35644.06
670.06	35583.73
670.41	35605.87
670.76	35619.88
671.109	35688.36
671.459	35690.39
671.808	35752.99
672.157	35741.24
672.507	35398.65
672.856	35415.37
673.205	35533.11
673.554	35591.18
673.904	35545.99
674.253	35697.39
674.602	35530.62
674.951	35039.33
675.3	34745.78
675.649	35427.8
675.998	35383.28
676.346	35474.8
676.695	35340.12
677.044	35190.74
677.393	35213.34
677.741	35329.49
678.09	35230.51
678.438	35205.43
678.787	35182.38
679.135	35215.6
679.484	34988.03
679.832	35198.42
680.181	34956.85
680.529	35137.41
680.877	34974.48
681.225	34951.65
681.573	35098.54
681.922	34996.17
682.27	34783.97
682.618	34747.36
682.966	34710.98
683.314	34683.41
683.661	34608.16
684.009	34421.5
684.357	34422.4
684.705	34328.39
685.053	34439.35
685.4	34314.15
685.748	34046.82
686.095	34235.06
686.443	34068.74
686.79	34053.14
687.138	34125.01
687.485	34150.09
687.832	34038.46
688.18	34052.47
688.527	33770.89
688.874	33784.9
689.221	33796.43
689.568	33679.82
689.915	33667.62
690.262	33611.12
690.609	33497.23
690.956	33420.17
691.303	33308.3
691.65	33171.13
691.997	33093.4
692.344	33038.93
692.69	32956.45
693.037	33059.95
693.383	32685.04
693.73	32788.09
694.077	32682.33
694.423	32708.09
694.769	32481.43
695.116	32490.25
695.462	32297.94
695.808	32323.25
696.155	32287.31
696.501	32047.32
696.847	32163.25
697.193	31908.34
697.539	32031.28
697.885	31744.05
698.231	31598.97
698.577	31693.66
698.923	31659.53
699.269	31574.79
699.614	31344.51
699.96	31303.84
700.306	31364.4
700.651	31180
700.997	31104.52
701.342	31049.61
701.688	30988.14
702.033	30964.41
702.379	30867.92
702.724	30742.95
703.069	30737.75
703.415	30461.83
703.76	30489.85
704.105	30659.11
704.45	30484.88
704.795	30215.28
705.14	30229.29
705.485	30145.68
705.83	30059.35
706.175	30028.84
706.52	29974.16
706.865	30016.41
707.209	29879.92
707.554	29801.96
707.899	29791.34
708.243	29606.26
708.588	29613.03
708.932	29378.24
709.277	29423.89
709.621	29479.25
709.966	29252.82
710.31	29329.43
710.654	29018.02
710.998	29150
711.342	29053.05
711.687	28879.04
712.031	28911.13
712.375	28742.78
712.719	28743
713.063	28639.73
713.407	28808.08
713.75	28561.99
714.094	28638.82
714.438	28453.29
714.782	28670.91
715.125	28479.05
715.469	28379.62
715.812	28284.48
716.156	28139.63
716.499	28180.3
716.843	28258.72
717.186	27938.05
717.53	28242
717.873	28132.4
718.216	28126.75
718.559	27914.77
718.902	27763.37
719.246	27863.25
719.589	27776.93
719.932	27535.12
720.275	27677.72
720.617	27592.52
720.96	27574.44
721.303	27545.97
721.646	27581.9
721.989	27436.82
722.331	27484.73
722.674	27251.29
723.016	27346.88
723.359	27265.53
723.701	27223.04
724.044	27152.53
724.386	27101.01
724.729	27129.03
725.071	27133.78
725.413	26966.1
725.755	26946.21
726.097	26829.83
726.439	26607.69
726.782	26707.35
727.124	26901.24
727.465	26738.53
727.807	26731.53
728.149	26651.3
728.491	26543.29
728.833	26584.19
729.175	26483.4
729.516	26381.26
729.858	26427.36
730.199	26484.76
730.541	26419.45
730.882	26415.38
731.224	26463.97
731.565	26266.68
731.906	26279.34
732.248	26230.98
732.589	26115.5
732.93	26075.73
733.271	26057.2
733.612	26132.67
733.953	26119.34
734.294	25946.92
734.635	25998.67
734.976	25929.29
735.317	25989.85
735.658	25732.01
735.999	25848.16
736.339	25686.81
736.68	25846.13
737.021	25767.03
737.361	25612.69
737.702	25736.53
738.042	25543.31
738.383	25583.99
738.723	25601.84
739.063	25445.91
739.404	25475.74
739.744	25516.19
740.084	25382.41
740.424	25460.6
740.764	25336.76
741.104	25423.31
741.444	25245.47
741.784	25160.72
742.124	25312.81
742.464	25196.2
742.804	25127.28
743.143	25186.03
743.483	25136.09
743.823	25015.87
744.162	25042.99
744.502	25013.16
744.841	24831.69
745.181	24913.72
745.52	24890.9
745.86	24866.27
746.199	24798.25
746.538	24684.58
746.877	24776.78
747.216	24781.75
747.556	24723.45
747.895	24680.96
748.234	24607.06
748.573	24506.95
748.911	24593.96
749.25	24434.64
749.589	24407.97
749.928	24419.5
750.267	24534.3
750.605	24375.43
750.944	24307.86
751.283	24206.4
751.621	24323.46
751.96	24211.14
752.298	24205.04
752.636	24152.39
752.975	24017.93
753.313	24018.38
753.651	24157.59
753.989	23979.96
754.327	23911.94
754.666	23773.41
755.004	23847.76
755.342	23918.27
755.679	23833.53
756.017	23713.08
756.355	23803.24
756.693	23699.29
757.031	23667.43
757.368	23484.38
757.706	23429.02
758.044	23366.42
758.381	23396.7
758.719	23348.11
759.056	23461.78
759.394	23325.74
759.731	23160.78
