Data from hue_24_FLMS001491_00045.txt Node
Date: Tue Feb 07 17:12:19 GMT 2017
User: dcchb
Spectrometer: FLMS00149
Trigger mode: 0
Integration Time (sec): 2.000000E-2
Scans to average: 10
Electric dark correction enabled: true
Nonlinearity correction enabled: false
Boxcar width: 0
XAxis mode: Wavelengths
Number of Pixels in Spectrum: 2048
>>>>>Begin Spectral Data<<<<<
341.393	-27.47
341.776	-27.47
342.16	-27.47
342.543	-72.67
342.927	-60.69
343.31	-84.87
343.693	-81.03
344.077	-55.72
344.46	-61.59
344.843	-50.52
345.226	-32.44
345.61	-47.81
345.993	-11.43
346.376	-19.56
346.759	3.04
347.142	16.82
347.525	54.33
347.908	76.48
348.291	92.3
348.674	87.78
349.057	114.22
349.44	125.07
349.823	121.68
350.206	172.75
350.588	199.42
350.971	219.3
351.354	227.21
351.737	228.79
352.119	238.51
352.502	261.33
352.884	281.9
353.267	293.2
353.65	286.42
354.032	294.55
354.414	309.92
354.797	305.85
355.179	326.64
355.562	317.15
355.944	330.71
356.326	318.96
356.709	323.25
357.091	328.68
357.473	348.34
357.855	333.88
358.238	337.27
358.62	335.23
359.002	345.63
359.384	349.47
359.766	337.94
360.148	342.24
360.53	340.2
360.912	330.26
361.294	318.51
361.676	335.46
362.057	336.14
362.439	330.94
362.821	339.98
363.203	350.82
363.584	318.28
363.966	321.45
364.348	314.67
364.729	323.25
365.111	296.36
365.493	313.08
365.874	329.58
366.256	332.07
366.637	311.05
367.019	306.53
367.4	306.53
367.781	320.54
368.163	327.32
368.544	293.2
368.925	289.13
369.306	317.83
369.688	307.66
370.069	324.84
370.45	320.54
370.831	315.34
371.212	336.36
371.593	301.79
371.974	327.77
372.355	307.44
372.736	332.29
373.117	328.23
373.498	325.29
373.879	324.84
374.26	317.38
374.641	318.73
375.021	311.28
375.402	323.71
375.783	322.58
376.163	316.93
376.544	341.78
376.925	331.62
377.305	311.73
377.686	329.58
378.066	326.87
378.447	338.17
378.827	333.65
379.208	329.58
379.588	323.93
379.968	330.71
380.349	348.79
380.729	334.55
381.109	323.48
381.489	349.02
381.87	341.56
382.25	331.16
382.63	344.5
383.01	343.37
383.39	358.51
383.77	323.25
384.15	338.4
384.53	342.01
384.91	337.72
385.29	348.56
385.67	338.85
386.049	340.43
386.429	351.05
386.809	363.71
387.189	365.74
387.568	377.04
387.948	384.04
388.328	346.53
388.707	350.6
389.087	346.53
389.466	373.87
389.846	354.67
390.225	376.81
390.605	386.53
390.984	356.7
391.363	341.33
391.743	377.26
392.122	391.95
392.501	377.04
392.881	388.11
393.26	379.3
393.639	394.44
394.018	394.66
394.397	392.86
394.776	392.18
395.155	384.27
395.534	386.53
395.913	389.92
396.292	393.31
396.671	389.02
397.05	403.03
397.429	399.18
397.808	416.59
398.186	393.31
398.565	410.48
398.944	406.42
399.323	384.95
399.701	395.79
400.08	399.86
400.458	405.96
400.837	395.57
401.215	419.07
401.594	410.03
401.972	419.75
402.351	405.74
402.729	417.72
403.107	410.94
403.486	425.85
403.864	429.92
404.242	426.3
404.62	420.88
404.999	437.38
405.377	421.78
405.755	433.53
406.133	429.47
406.511	434.66
406.889	407.77
407.267	456.81
407.645	458.62
408.023	438.73
408.401	431.95
408.779	455.91
409.156	458.62
409.534	458.17
409.912	441.22
410.29	440.54
410.667	462.69
411.045	473.31
411.422	459.07
411.8	470.37
412.178	489.13
412.555	457.94
412.933	479.18
413.31	494.78
413.687	480.99
414.065	505.4
414.442	497.03
414.819	498.39
415.197	510.82
415.574	493.42
415.951	486.87
416.328	493.87
416.705	507.2
417.082	514.44
417.46	506.75
417.837	513.53
418.214	513.76
418.591	525.73
418.967	521.22
419.344	535.68
419.721	520.76
420.098	530.71
420.475	537.03
420.852	529.58
421.228	551.72
421.605	539.07
421.982	532.06
422.358	536.13
422.735	543.81
423.111	547.2
423.488	549.24
423.864	556.02
424.241	572.51
424.617	553.53
424.994	572.51
425.37	576.81
425.746	578.84
426.123	595.34
426.499	558.5
426.875	585.85
427.251	579.07
427.627	590.59
428.003	590.82
428.379	605.28
428.756	607.99
429.132	609.57
429.507	644.38
429.883	643.47
430.259	615.9
430.635	638.95
431.011	632.62
431.387	654.32
431.763	650.03
432.138	650.48
432.514	672.17
432.89	634.43
433.265	671.95
433.641	682.79
434.016	682.57
434.392	659.29
434.767	685.96
435.143	697.26
435.518	712.4
435.894	718.27
436.269	709.68
436.644	698.84
437.02	710.36
437.395	721.66
437.77	723.92
438.145	737.48
438.52	730.48
438.895	744.49
439.271	752.62
439.646	760.3
440.021	767.31
440.395	781.77
440.77	778.61
441.145	761.43
441.52	818.38
441.895	798.5
442.27	824.71
442.645	800.53
443.019	819.96
443.394	811.15
443.769	823.81
444.143	810.7
444.518	823.81
444.892	810.93
445.267	842.79
445.641	846.86
446.016	850.92
446.39	855.67
446.764	859.51
447.139	849.12
447.513	858.16
447.887	840.75
448.262	855.44
448.636	856.35
449.01	863.13
449.384	888.21
449.758	906.74
450.132	907.19
450.506	897.7
450.88	902
451.254	900.64
451.628	915.33
452.002	935.89
452.376	925.95
452.75	937.93
453.123	927.76
453.497	958.27
453.871	943.8
454.244	976.12
454.618	972.5
454.992	975.44
455.365	998.49
455.739	1036.23
456.112	1004.59
456.486	1005.72
456.859	1042.33
457.232	1046.63
457.606	1060.64
457.979	1047.98
458.352	1066.51
458.725	1089.79
459.099	1080.07
459.472	1124.36
459.845	1125.04
460.218	1118.71
460.591	1129.56
460.964	1137.24
461.337	1167.07
461.71	1202.1
462.083	1192.38
462.456	1214.53
462.829	1223.34
463.201	1240.29
463.574	1263.12
463.947	1206.39
464.32	1283
464.692	1279.16
465.065	1301.99
465.438	1303.57
465.81	1318.26
466.183	1333.62
466.555	1351.93
466.928	1387.41
467.3	1390.34
467.672	1407.97
468.045	1435.99
468.417	1425.37
468.789	1426.73
469.161	1423.34
469.534	1504.69
469.906	1521.64
470.278	1538.59
470.65	1533.17
471.022	1581.07
471.394	1602.77
471.766	1583.56
472.138	1616.1
472.51	1652.71
472.882	1682.99
473.253	1682.09
473.625	1749.88
473.997	1761.63
474.369	1793.05
474.74	1802.09
475.112	1851.35
475.484	1882.76
475.855	1903.33
476.227	1933.83
476.598	1974.51
476.97	2010.22
477.341	2056.09
477.713	2066.71
478.084	2121.63
478.455	2144.68
478.827	2192.58
479.198	2251.11
479.569	2227.84
479.94	2332.01
480.311	2350.09
480.682	2416.08
481.053	2470.99
481.424	2482.75
481.795	2527.94
482.166	2565.46
482.537	2615.4
482.908	2685.45
483.279	2703.98
483.65	2762.74
484.021	2834.37
484.391	2859.01
484.762	2896.75
485.133	2962.05
485.503	2967.93
485.874	3038.66
486.244	3116.18
486.615	3151.2
486.985	3193.01
487.356	3254.93
487.726	3256.06
488.097	3378.32
488.467	3417.41
488.837	3439.33
489.207	3517.97
489.578	3571.76
489.948	3614.69
490.318	3710.28
490.688	3680.23
491.058	3789.15
491.428	3813.56
491.798	3901.01
492.168	3952.31
492.538	3984.17
492.908	4055.81
493.278	4095.13
493.648	4092.65
494.017	4131.52
494.387	4214.68
494.757	4241.12
495.126	4293.09
495.496	4265.3
495.866	4334.45
496.235	4419.42
496.605	4449.93
496.974	4486.53
497.344	4526.53
497.713	4555.23
498.082	4624.61
498.452	4622.58
498.821	4641.33
499.19	4683.82
499.559	4721.56
499.928	4764.49
500.298	4770.14
500.667	4852.63
501.036	4849.91
501.405	4902.12
501.774	4883.59
502.143	4952.06
502.512	4990.48
502.88	4965.62
503.249	5024.37
503.618	5023.24
503.987	5090.36
504.356	5173.97
504.724	5127.42
505.093	5184.37
505.462	5173.75
505.83	5206.29
506.199	5249.9
506.567	5334.87
506.936	5328.55
507.304	5366.74
507.672	5435.44
508.041	5434.31
508.409	5387.98
508.777	5522.21
509.145	5500.52
509.514	5450.8
509.882	5540.97
510.25	5581.42
510.618	5604.7
510.986	5639.5
511.354	5670.91
511.722	5707.75
512.09	5760.4
512.458	5716.56
512.826	5812.6
513.193	5821.87
513.561	5846.95
513.929	5856.89
514.297	5914.07
514.664	5954.07
515.032	5947.29
515.4	5966.72
515.767	5997.91
516.135	6050.56
516.502	6018.47
516.869	6061.41
517.237	6141.63
517.604	6059.6
517.972	6164.68
518.339	6220.95
518.706	6189.09
519.073	6215.08
519.44	6234.96
519.808	6285.58
520.175	6320.16
520.542	6356.09
520.909	6389.54
521.276	6393.15
521.643	6442.64
522.009	6483.54
522.376	6545.92
522.743	6502.53
523.11	6608.29
523.477	6679.02
523.843	6667.95
524.21	6712.92
524.577	6716.08
524.943	6773.48
525.31	6824.1
525.676	6832.91
526.043	6860.71
526.409	6947.49
526.776	6933.02
527.142	7032
527.508	6999.69
527.874	7079.01
528.241	7066.35
528.607	7114.94
528.973	7208.95
529.339	7193.36
529.705	7272.45
530.071	7220.7
530.437	7310.19
530.803	7360.13
531.169	7417.76
531.535	7413.01
531.901	7457.08
532.267	7457.3
532.632	7543.86
532.998	7556.74
533.364	7641.48
533.73	7636.73
534.095	7678.99
534.461	7716.51
534.826	7794.92
535.192	7829.05
535.557	7895.71
535.923	7789.27
536.288	7928.48
536.653	7917.18
537.019	7873.56
537.384	7930.74
537.749	8020.9
538.114	7977.74
538.479	8005.99
538.845	8108.81
539.21	8017.06
539.575	8075.59
539.94	8154.23
540.305	8226.1
540.67	8178.64
541.034	8265.42
541.399	8265.42
541.764	8287.11
542.129	8325.98
542.494	8315.36
542.858	8375.47
543.223	8486.66
543.587	8472.42
543.952	8450.72
544.316	8493.89
544.681	8476.94
545.045	8592.19
545.41	8604.62
545.774	8650.49
546.138	8660.89
546.503	8744.05
546.867	8694.33
547.231	8826.08
547.595	8798.06
547.959	8810.04
548.324	8869.7
548.688	8827.89
549.052	8880.32
549.416	9000.54
549.779	9016.36
550.143	9015.91
550.507	9059.97
550.871	9106.07
551.235	9037.83
551.599	9174.32
551.962	9193.3
552.326	9226.07
552.689	9229.23
553.053	9198.05
553.417	9192.63
553.78	9371.6
554.143	9334.54
554.507	9431.94
554.87	9407.76
555.234	9495.67
555.597	9464.93
555.96	9461.09
556.323	9525.5
556.686	9547.87
557.05	9564.37
557.413	9658.38
557.776	9589.9
558.139	9728.66
558.502	9743.8
558.865	9691.37
559.228	9855.43
559.59	9881.87
559.953	9951.48
560.316	10001.87
560.679	9994.19
561.041	9999.61
561.404	10029.21
561.767	10067.18
562.129	10062.21
562.492	10188.53
562.854	10157.12
563.217	10102.21
563.579	10168.42
563.941	10250.22
564.304	10297.23
564.666	10368.41
565.028	10319.6
565.39	10428.75
565.753	10446.38
566.115	10473.27
566.477	10489.77
566.839	10497.22
567.201	10579.03
567.563	10620.61
567.925	10737.22
568.287	10716.65
568.648	10770.21
569.01	10796.88
569.372	10866.48
569.734	10891.34
570.095	10899.47
570.457	10992.58
570.819	10980.15
571.18	11016.08
571.542	11116.87
571.903	11126.59
572.265	11176.98
572.626	11175.62
572.987	11238
573.349	11315.06
573.71	11402.96
574.071	11436.63
574.432	11530.64
574.794	11557.08
575.155	11586.23
575.516	11621.71
575.877	11680.24
576.238	11808.38
576.599	11869.17
576.96	11865.1
577.32	12021.25
577.681	12130.4
578.042	12224.41
578.403	12371.75
578.763	12381.47
579.124	12519.54
579.485	12563.38
579.845	12682.25
580.206	12847.22
580.566	12876.6
580.927	13049.02
581.287	13256.02
581.648	13286.53
582.008	13480.65
582.368	13550.93
582.728	13771.04
583.089	13940.98
583.449	14106.17
583.809	14184.81
584.169	14395.43
584.529	14489.89
584.889	14786.15
585.249	14910.44
585.609	15094.84
585.969	15388.62
586.329	15464.78
586.688	15749.52
587.048	15924.2
587.408	16162.84
587.768	16310.86
588.127	16526.22
588.487	16697.51
588.846	17098.18
589.206	17277.61
589.565	17504.27
589.925	17944.49
590.284	18042.79
590.643	18377.02
591.003	18840.51
591.362	19053.84
591.721	19297.9
592.08	19558.23
592.44	19789.86
592.799	20234.37
593.158	20384.87
593.517	20714.36
593.876	21114.12
594.235	21303.27
594.593	21584.84
594.952	21851.28
595.311	22096.02
595.67	22512.5
596.029	22945.94
596.387	23270.9
596.746	23465.7
597.104	23781.85
597.463	23962.86
597.822	24466.57
598.18	24578.44
598.538	24862.27
598.897	25432.88
599.255	25397.85
599.613	25972.52
599.972	26109.24
600.33	26551.04
600.688	26844.14
601.046	27110.35
601.404	27438.7
601.762	27720.27
602.12	28129.53
602.478	28324.33
602.836	28776.74
603.194	28902.39
603.552	29256.5
603.91	29149.61
604.268	29803.83
604.625	29879.09
604.983	30363.37
605.341	30485.62
605.698	30877.71
606.056	31168.32
606.413	31297.81
606.771	31649.89
607.128	31985.7
607.485	32083.1
607.843	32339.81
608.2	32650.31
608.557	33091.88
608.914	33220.02
609.272	33515.15
609.629	33800.11
609.986	34175.47
610.343	34145.87
610.7	34531.85
611.057	34704.72
611.414	34888
611.771	35009.35
612.127	35334.99
612.484	35353.07
612.841	35857.46
613.198	35864.69
613.554	36029.66
613.911	36358.46
614.267	36429.88
614.624	36723.88
614.98	36830.09
615.337	37230.53
615.693	37150.99
616.05	37340.36
616.406	37739.67
616.762	37749.84
617.118	38004.3
617.475	38172.65
617.831	38453.78
618.187	38581.91
618.543	38626.43
618.899	38909.36
619.255	39024.61
619.611	39187.09
619.967	39371.49
620.323	39518.16
620.678	39510.7
621.034	39600.41
621.39	39631.15
621.746	39757.02
622.101	40280.85
622.457	40060.97
622.812	40296.21
623.168	40346.83
623.523	40595.19
623.879	40715.41
624.234	40519.49
624.589	40688.75
624.945	40738.01
625.3	41081.96
625.655	40956.99
626.01	41060.71
626.365	41213.48
626.72	41213.48
627.075	41234.49
627.43	41371.89
627.785	41205.57
628.14	41453.02
628.495	41444.88
628.85	41578.44
629.205	41393.36
629.559	41750.41
629.914	41638.1
630.269	41688.49
630.623	41693.92
630.978	41759.45
631.332	41845.78
631.687	41998.32
632.041	41832.22
632.396	41999.45
632.75	41886
633.104	42106.34
633.459	41803.07
633.813	41980.46
634.167	41989.5
634.521	42091.87
634.875	42030.41
635.229	41994.7
635.583	42129.84
635.937	42004.19
636.291	42052.1
636.645	42050.07
636.999	41884.2
637.352	42066.79
637.706	41905.44
638.06	42125.09
638.413	41927.58
638.767	41963.52
639.121	42032.89
639.474	41772.33
639.828	41931.2
640.181	41914.03
640.534	41886.68
640.888	41827.02
641.241	41765.1
641.594	41876.06
641.947	42143.4
642.301	41994.93
642.654	41987.02
643.007	41794.03
643.36	42060.91
643.713	41989.05
644.066	42087.58
644.419	41643.07
644.771	41576.18
645.124	41150.88
645.477	41185.46
645.83	40937.33
646.182	40882.64
646.535	40711.12
646.888	40948.17
647.24	40726.49
647.593	40930.32
647.945	40879.93
648.298	40543.21
648.65	40482.88
649.002	40645.13
649.355	40767.61
649.707	40720.38
650.059	40821.85
650.411	41338.45
650.763	41283.08
651.115	41711.09
651.467	41631.32
651.819	41585.22
652.171	41458.67
652.523	41525.56
652.875	41427.94
653.227	41284.21
653.578	41580.25
653.93	41446.01
654.282	41221.39
654.633	41307.94
654.985	41279.24
655.337	41313.81
655.688	41335.96
656.039	41451.89
656.391	41200.37
656.742	41355.62
657.094	41320.82
657.445	41329.41
657.796	41436.3
658.147	41272.23
658.498	41272.23
658.849	41328.5
659.2	41315.62
659.551	41223.2
659.902	41395.85
660.253	41243.31
660.604	41362.63
660.955	41026.82
661.306	41429.52
661.656	41195.85
662.007	41302.52
662.358	41224.55
662.708	41230.65
663.059	41186.13
663.409	40855.52
663.76	41337.32
664.11	41316.07
664.461	41191.11
664.811	41283.53
665.161	41245.34
665.511	41121.05
665.862	41148.17
666.212	41220.48
666.562	41195.63
666.912	41079.7
667.262	40991.34
667.612	41156.53
667.962	41214.38
668.312	41136.42
668.662	41045.12
669.011	41021.39
669.361	41020.49
669.711	40921.96
670.06	41003.99
670.41	41004.22
670.76	40938.91
671.109	40987.27
671.459	40873.6
671.808	40827.27
672.157	40931.23
672.507	40724.45
672.856	40650.1
673.205	40751.57
673.554	41139.13
673.904	40854.17
674.253	41005.12
674.602	40825.47
674.951	40415.76
675.3	40062.55
675.649	40907.5
675.998	40758.8
676.346	40786.15
676.695	40849.19
677.044	40622.53
677.393	40632.48
677.741	40692.59
678.09	40573.04
678.438	40425.02
678.787	40649.88
679.135	40466.38
679.484	40302.32
679.832	40524.68
680.181	40164.92
680.529	40406.72
680.877	40300.73
681.225	40186.39
681.573	40485.59
681.922	40175.77
682.27	40183.45
682.618	40032.04
682.966	40021.42
683.314	40058.93
683.661	40117.46
684.009	39652.84
684.357	39742.33
684.705	39658.49
685.053	39781.65
685.4	39642.67
685.748	39431.6
686.095	39542.11
686.443	39301.89
686.79	39213.53
687.138	39339.4
687.485	39381.21
687.832	39251.95
688.18	39300.31
688.527	39005.4
688.874	39043.37
689.221	39044.27
689.568	38944.84
689.915	38827.78
690.262	38746.88
690.609	38604.51
690.956	38619.42
691.303	38588.01
691.65	38371.75
691.997	38417.39
692.344	38200.45
692.69	38282.48
693.037	38111.87
693.383	37808.82
693.73	37920.46
694.077	37737.86
694.423	37741.71
694.769	37790.52
695.116	37544.2
695.462	37603.63
695.808	37451.09
696.155	37539.68
696.501	37223.3
696.847	37209.74
697.193	37034.15
697.539	37235.73
697.885	36750.77
698.231	36715.97
698.577	36785.12
698.923	36619.02
699.269	36594.84
699.614	36330.44
699.96	36257.45
700.306	36295.42
700.651	36110.79
700.997	36032.82
701.342	35961.19
701.688	35922.54
702.033	35728.2
702.379	35814.07
702.724	35724.13
703.069	35782.43
703.415	35277.82
703.76	35429.68
704.105	35441.65
704.45	35342.45
704.795	35163.24
705.14	34964.38
705.485	35034.88
705.83	34942.91
706.175	35012.06
706.52	34756.47
706.865	34871.5
707.209	34738.17
707.554	34561.9
707.899	34678.74
708.243	34408.69
708.588	34370.27
708.932	34196.94
709.277	34081.69
709.621	34012.31
709.966	34053.67
710.31	34056.6
710.654	33716.73
710.998	33704.75
711.342	33698.87
711.687	33601.48
712.031	33658.87
712.375	33477.86
712.719	33626.79
713.063	33446.68
713.407	33469.28
713.75	33259.11
714.094	33309.51
714.438	33201.94
714.782	33113.8
715.125	33051.21
715.469	33205.78
715.812	32856.18
716.156	32807.82
716.499	32696.64
716.843	32705.91
717.186	32687.15
717.53	32822.74
717.873	32719.01
718.216	32660.03
718.559	32453.93
718.902	32351.56
719.246	32392.92
719.589	32373.26
719.932	32162.87
720.275	32210.33
720.617	32270.21
720.96	32062.08
721.303	32055.98
721.646	32017.11
721.989	31915.87
722.331	32031.57
722.674	32046.04
723.016	31890.11
723.359	31686.95
723.701	31845.82
724.044	31530.34
724.386	31404.7
724.729	31553.62
725.071	31416.67
725.413	31418.03
725.755	31462.32
726.097	31287.41
726.439	31191.6
726.782	31179.39
727.124	31313.4
727.465	31111.82
727.807	31118.38
728.149	31115.66
728.491	30954.77
728.833	31014.65
729.175	30806.97
729.516	30762.45
729.858	30847.2
730.199	30937.14
730.541	30600.88
730.882	30690.59
731.224	30761.32
731.565	30571.5
731.906	30558.17
732.248	30674.32
732.589	30418.06
732.93	30340.77
733.271	30290.83
733.612	30446.76
733.953	30406.53
734.294	30150.27
734.635	30073.21
734.976	30225.97
735.317	29978.52
735.658	30089.03
735.999	30100.32
736.339	30036.15
736.68	29952.31
737.021	29931.74
737.361	29826.89
737.702	29952.76
738.042	29887.45
738.383	29834.57
738.723	29830.73
739.063	29724.52
739.404	29774.68
739.744	29680
740.084	29544.86
740.424	29609.26
740.764	29476.61
741.104	29622.14
741.444	29472.54
741.784	29410.85
742.124	29460.79
742.464	29299.44
742.804	29286.56
743.143	29238.2
743.483	29311.42
743.823	29172.44
744.162	29072.55
744.502	29128.82
744.841	28886.57
745.181	29194.36
745.52	28958.89
745.86	29006.79
746.199	28876.18
746.538	28831.21
746.877	28936.97
747.216	28879.57
747.556	28835.72
747.895	28740.13
748.234	28737.87
748.573	28722.96
748.911	28639.12
749.25	28628.27
749.589	28576.07
749.928	28550.76
750.267	28638.44
750.605	28513.47
750.944	28429.41
751.283	28379.69
751.621	28446.58
751.96	28349.64
752.298	28180.83
752.636	28283.87
752.975	28075.74
753.313	28132.24
753.651	28230.77
753.989	28048.85
754.327	28042.98
754.666	27755.53
755.004	27853.83
755.342	27816.09
755.679	27838.69
756.017	27628.98
756.355	27847.73
756.693	27621.29
757.031	27669.43
757.368	27581.52
757.706	27349.21
758.044	27468.53
758.381	27382.2
758.719	27374.07
759.056	27358.02
