Data from hue_28_FLMS001491_00009.txt Node
Date: Tue Feb 07 17:16:48 GMT 2017
User: dcchb
Spectrometer: FLMS00149
Trigger mode: 0
Integration Time (sec): 2.000000E-2
Scans to average: 10
Electric dark correction enabled: true
Nonlinearity correction enabled: false
Boxcar width: 0
XAxis mode: Wavelengths
Number of Pixels in Spectrum: 2048
>>>>>Begin Spectral Data<<<<<
341.393	-11.33
341.776	-11.33
342.16	-11.33
342.543	-70.31
342.927	-57.88
343.31	-60.82
343.693	-75.28
344.077	-75.73
344.46	-61.72
344.843	-56.98
345.226	-23.3
345.61	-33.93
345.993	-21.5
346.376	1.55
346.759	10.82
347.142	23.93
347.525	41.55
347.908	52.17
348.291	74.77
348.674	96.69
349.057	107.77
349.44	129.69
349.823	144.37
350.206	171.27
350.588	183.24
350.971	218.5
351.354	214.88
351.737	231.15
352.119	254.43
352.502	260.98
352.884	286.97
353.267	292.62
353.65	296.01
354.032	303.92
354.414	331.04
354.797	307.31
355.179	314.09
355.562	334.2
355.944	335.1
356.326	339.17
356.709	326.52
357.091	339.4
357.473	340.75
357.855	352.73
358.238	351.37
358.62	328.78
359.002	318.83
359.384	338.04
359.766	332.84
360.148	335.78
360.53	351.83
360.912	337.14
361.294	335.56
361.676	357.7
362.057	320.19
362.439	345.95
362.821	329.91
363.203	350.7
363.584	357.25
363.966	322.68
364.348	320.64
364.729	339.17
365.111	339.4
365.493	350.92
365.874	313.86
366.256	317.7
366.637	306.18
367.019	336.01
367.4	318.16
367.781	309.34
368.163	313.18
368.544	338.27
368.925	330.58
369.306	350.02
369.688	322.9
370.069	319.06
370.45	330.58
370.831	324.03
371.212	320.64
371.593	314.31
371.974	333.97
372.355	323.58
372.736	323.35
373.117	323.13
373.498	308.21
373.879	334.88
374.26	313.18
374.641	337.59
375.021	330.81
375.402	328.1
375.783	350.25
376.163	333.52
376.544	350.47
376.925	354.09
377.305	318.16
377.686	333.3
378.066	320.42
378.447	350.92
378.827	349.79
379.208	345.95
379.588	333.3
379.968	330.36
380.349	338.95
380.729	344.6
381.109	338.49
381.489	363.35
381.87	339.85
382.25	361.32
382.63	340.75
383.01	352.05
383.39	353.41
383.77	359.28
384.15	361.54
384.53	362.45
384.91	328.78
385.29	359.96
385.67	349.79
386.049	370.13
386.429	366.74
386.809	355.44
387.189	377.59
387.568	372.17
387.948	358.38
388.328	369.23
388.707	364.03
389.087	375.56
389.466	371.94
389.846	394.54
390.225	354.99
390.605	376.69
390.984	394.99
391.363	361.54
391.743	386.63
392.122	405.84
392.501	385.5
392.881	375.56
393.26	388.44
393.639	404.25
394.018	378.72
394.397	397.48
394.776	380.98
395.155	395.22
395.534	381.2
395.913	400.87
396.292	415.55
396.671	393.86
397.05	395.89
397.429	399.96
397.808	378.72
398.186	383.92
398.565	394.76
398.944	397.93
399.323	401.32
399.701	414.2
400.08	422.56
400.458	420.3
400.837	423.01
401.215	417.81
401.594	426.85
401.972	425.95
402.351	435.67
402.729	418.04
403.107	423.24
403.486	395.22
403.864	419.4
404.242	427.98
404.62	430.69
404.999	440.19
405.377	447.87
405.755	439.06
406.133	446.29
406.511	430.92
406.889	447.64
407.267	466.63
407.645	437.7
408.023	448.77
408.401	431.37
408.779	455.55
409.156	461.65
409.534	483.8
409.912	466.63
410.29	466.63
410.667	487.42
411.045	490.13
411.422	474.54
411.8	503.69
412.178	491.71
412.555	497.36
412.933	483.8
413.31	522.44
413.687	507.98
414.065	498.26
414.442	509.56
414.819	508.21
415.197	513.4
415.574	517.92
415.951	518.38
416.328	530.81
416.705	540.97
417.082	554.76
417.46	519.05
417.837	531.94
418.214	514.53
418.591	542.78
418.967	550.47
419.344	550.47
419.721	555.21
420.098	566.28
420.475	550.69
420.852	575.1
421.228	559.96
421.605	557.7
421.982	563.35
422.358	566.28
422.735	571.93
423.111	606.74
423.488	589.56
423.864	591.82
424.241	606.74
424.617	601.76
424.994	608.32
425.37	600.86
425.746	608.32
426.123	611.48
426.499	623.68
426.875	644.7
427.251	621.88
427.627	633.85
428.003	654.64
428.379	628.2
428.756	652.38
429.132	651.71
429.507	682.89
429.883	665.49
430.259	660.75
430.635	680.63
431.011	671.82
431.387	680.18
431.763	724.25
432.138	692.38
432.514	703.23
432.89	723.57
433.265	701.2
433.641	732.61
434.016	734.64
434.392	752.49
434.767	752.72
435.143	768.99
435.518	734.87
435.894	765.83
436.269	795.88
436.644	764.25
437.02	760.63
437.395	790.23
437.77	789.56
438.145	794.98
438.52	801.31
438.895	809.89
439.271	813.51
439.646	827.07
440.021	824.13
440.395	830.01
440.77	838.37
441.145	844.47
441.52	871.14
441.895	853.28
442.27	842.66
442.645	859.38
443.019	866.62
443.394	886.73
443.769	878.59
444.143	865.49
444.518	887.86
444.892	891.7
445.267	891.93
445.641	887.86
446.016	902.09
446.39	918.82
446.764	915.88
447.139	910.68
447.513	913.85
447.887	941.87
448.262	952.49
448.636	933.96
449.01	930.57
449.384	949.1
449.758	950.91
450.132	949.55
450.506	978.48
450.88	960.4
451.254	972.83
451.628	1008.08
452.002	1014.41
452.376	1019.38
452.75	1028.87
453.123	1009.66
453.497	1017.57
453.871	1005.6
454.244	1044.46
454.618	1069.55
454.992	1056.67
455.365	1065.25
455.739	1100.96
456.112	1084.01
456.486	1123.33
456.859	1135.54
457.232	1141.18
457.606	1146.83
457.979	1143.67
458.352	1188.64
458.725	1208.08
459.099	1203.1
459.472	1207.85
459.845	1220.96
460.218	1235.87
460.591	1243.33
460.964	1228.87
461.337	1277.45
461.71	1268.19
462.083	1314.97
462.456	1317
462.829	1306.15
463.201	1331.46
463.574	1341.86
463.947	1380.5
464.32	1405.81
464.692	1421.63
465.065	1436.09
465.438	1432.93
465.81	1461.63
466.183	1475.19
466.555	1473.38
466.928	1509.31
467.3	1508.41
467.672	1516.09
468.045	1565.81
468.417	1562.19
468.789	1589.31
469.161	1609.19
469.534	1647.39
469.906	1682.19
470.278	1653.04
470.65	1675.63
471.022	1745.91
471.394	1781.39
471.766	1788.85
472.138	1807.16
472.51	1839.7
472.882	1850.54
473.253	1890.09
473.625	1912.69
473.997	1949.07
474.369	1990.2
474.74	1970.32
475.112	2011.44
475.484	2068.84
475.855	2117.66
476.227	2168.05
476.598	2187.03
476.97	2195.62
477.341	2253.92
477.713	2321.49
478.084	2318.33
478.455	2394.94
478.827	2418.67
479.198	2490.3
479.569	2494.37
479.94	2576.4
480.311	2591.32
480.682	2639.45
481.053	2735.49
481.424	2763.06
481.795	2778.43
482.166	2818.88
482.537	2905.88
482.908	3013
483.279	2998.31
483.65	3052.09
484.021	3143.39
484.391	3147.69
484.762	3229.49
485.133	3255.71
485.503	3334.57
485.874	3437.85
486.244	3428.36
486.615	3523.04
486.985	3607.11
487.356	3651.18
487.726	3693.89
488.097	3782.92
488.467	3803.49
488.837	3912.19
489.207	3933.43
489.578	3985.4
489.948	4080.54
490.318	4117.6
490.688	4139.52
491.058	4232.63
491.428	4294.1
491.798	4294.32
492.168	4445.28
492.538	4459.29
492.908	4526.18
493.278	4576.35
493.648	4606.18
494.017	4674.65
494.387	4750.58
494.757	4772.28
495.126	4847.08
495.496	4828.77
495.866	4929.56
496.235	4986.51
496.605	5021.76
496.974	5057.92
497.344	5112.61
497.713	5127.29
498.082	5191.02
498.452	5293.62
498.821	5301.08
499.19	5347.85
499.559	5344.24
499.928	5445.93
500.298	5461.3
500.667	5489.32
501.036	5517.11
501.405	5618.81
501.774	5588.98
502.143	5666.94
502.512	5707.62
502.88	5749.65
503.249	5747.39
503.618	5833.49
503.987	5850.21
504.356	5912.81
504.724	5882.75
505.093	5949.65
505.462	5980.38
505.83	6017.67
506.199	6094.5
506.567	6150.09
506.936	6087.27
507.304	6163.43
507.672	6197.32
508.041	6250.43
508.409	6289.07
508.777	6278.22
509.145	6417.2
509.514	6429.41
509.882	6444.32
510.25	6464.66
510.618	6458.33
510.986	6526.13
511.354	6539.91
511.722	6588.95
512.09	6710.98
512.458	6692.23
512.826	6670.53
513.193	6728.83
513.561	6823.07
513.929	6828.49
514.297	6917.08
514.664	6900.36
515.032	6903.75
515.4	6975.83
515.767	6990.75
516.135	7037.07
516.502	6975.61
516.869	7098.99
517.237	7142.83
517.604	7075.72
517.972	7168.37
518.339	7160.46
518.706	7199.33
519.073	7249.95
519.44	7281.36
519.808	7378.76
520.175	7355.71
520.542	7438.42
520.909	7431.41
521.276	7441.81
521.643	7512.77
522.009	7554.35
522.376	7658.75
522.743	7666.21
523.11	7694.46
523.477	7778.75
523.843	7815.81
524.21	7924.28
524.577	7908.69
524.943	7952.53
525.31	7994.34
525.676	8019.87
526.043	8107.1
526.409	8136.25
526.776	8220.09
527.142	8251.28
527.508	8295.12
527.874	8311.62
528.241	8302.13
528.607	8352.52
528.973	8475.46
529.339	8436.59
529.705	8494.89
530.071	8534.44
530.437	8630.71
530.803	8656.69
531.169	8696.24
531.535	8741.21
531.901	8709.8
532.267	8777.82
532.632	8910.25
532.998	8870.02
533.364	8994.99
533.73	8911.38
534.095	9049.23
534.461	9098.94
534.826	9116.57
535.192	9105.27
535.557	9257.81
535.923	9218.03
536.288	9260.07
536.653	9265.72
537.019	9294.87
537.384	9340.97
537.749	9376.45
538.114	9437.69
538.479	9422.32
538.845	9484.47
539.21	9535.09
539.575	9514.98
539.94	9574.64
540.305	9660.96
540.67	9628.19
541.034	9674.07
541.399	9740.96
541.764	9815.53
542.129	9850.33
542.494	9818.92
542.858	9850.56
543.223	9869.54
543.587	9988.64
543.952	10002.19
544.316	10021.63
544.681	10049.2
545.045	10142.53
545.41	10143.89
545.774	10192.7
546.138	10184.11
546.503	10297.1
546.867	10241.96
547.231	10389.08
547.595	10398.34
547.959	10469.08
548.324	10451.45
548.688	10501.62
549.052	10563.31
549.416	10562.41
549.779	10619.58
550.143	10566.93
550.507	10678.34
550.871	10667.49
551.235	10609.18
551.599	10781.84
551.962	10737.99
552.326	10820.7
552.689	10853.92
553.053	10850.08
553.417	10901.15
553.78	10979.8
554.143	10939.8
554.507	11039.68
554.87	11074.03
555.234	11161.94
555.597	11086.23
555.96	11215.27
556.323	11234.48
556.686	11191.77
557.05	11282.16
557.413	11347.7
557.776	11328.94
558.139	11430.18
558.502	11457.07
558.865	11497.97
559.228	11550.18
559.59	11539.56
559.953	11597.41
560.316	11667.91
560.679	11683.05
561.041	11779.1
561.404	11762.37
561.767	11889.6
562.129	11838.53
562.492	11949.26
562.854	11940.67
563.217	11971.41
563.579	12080.56
563.941	12075.81
564.304	12112.87
564.666	12226.77
565.028	12269.03
565.39	12195.58
565.753	12299.08
566.115	12328.46
566.477	12418.18
566.839	12481.45
567.201	12475.35
567.563	12563.03
567.925	12683.03
568.287	12674.21
568.648	12668.34
569.01	12667.66
569.372	12818.17
569.734	12782.46
570.095	12856.36
570.457	12831.5
570.819	12942.46
571.18	12964.6
571.542	13041.66
571.903	13127.76
572.265	13107.88
572.626	13229.68
572.987	13204.37
573.349	13314.88
573.71	13354.2
574.071	13465.61
574.432	13487.3
574.794	13653.62
575.155	13731.14
575.516	13646.84
575.877	13862.66
576.238	13861.75
576.599	14001.41
576.96	14082.77
577.32	14127.74
577.681	14183.33
578.042	14392.59
578.403	14449.08
578.763	14509.42
579.124	14688.63
579.485	14758.91
579.845	15008.84
580.206	15010.65
580.566	15213.58
580.927	15344.43
581.287	15463.97
581.648	15564.08
582.008	15761.82
582.368	15935.15
582.728	16054.46
583.089	16253.78
583.449	16379.2
583.809	16519.99
584.169	16714.56
584.529	16933.54
584.889	17271.38
585.249	17260.31
585.609	17517.93
585.969	17753.86
586.329	17968.31
586.688	18136.67
587.048	18384.12
587.408	18585.02
587.768	18835.63
588.127	19073.14
588.487	19273.59
588.846	19711.32
589.206	19782.05
589.565	20028.15
589.925	20412.77
590.284	20670.39
590.643	20933.66
591.003	21268.79
591.362	21632.17
591.721	21806.86
592.08	22036.23
592.44	22336.33
592.799	22700.17
593.158	22826.72
593.517	23226.03
593.876	23585.57
594.235	23687.71
594.593	24194.14
594.952	24377.41
595.311	24605.65
595.67	25017.85
596.029	25440.43
596.387	25585.06
596.746	25924.04
597.104	26122
597.463	26541.87
597.822	26875.65
598.18	27187.73
598.538	27409.65
598.897	27853.7
599.255	27908.84
599.613	28485.55
599.972	28604.87
600.33	29016.16
600.688	29024.07
601.046	29625.86
601.404	29840.32
601.762	30107.2
602.12	30494.99
602.478	30724.59
602.836	30949.67
603.194	31105.14
603.552	31601.17
603.91	31731.57
604.268	32068.73
604.625	32075.06
604.983	32630.53
605.341	32594.82
605.698	32997.3
606.056	33431.86
606.413	33545.3
606.771	33821.46
607.128	34117.72
607.485	34111.84
607.843	34477.26
608.2	34738.49
608.557	35228.2
608.914	35195.43
609.272	35577.57
609.629	35838.35
609.986	36021.62
610.343	36179.13
610.7	36535.51
611.057	36771.89
611.414	36907.25
611.771	37077.87
612.127	37291.65
612.484	37440.57
612.841	37852.54
613.198	37808.24
613.554	38026.77
613.911	38403.93
614.267	38577.49
614.624	38642.35
614.98	38891.38
615.337	39232.16
615.693	39271.71
616.05	39358.26
616.406	39668.08
616.762	39795.54
617.118	39939.03
617.475	40030.56
617.831	40234.39
618.187	40467.16
618.543	40384.67
618.899	40728.84
619.255	40675.96
619.611	40856.75
619.967	41176.74
620.323	41227.36
620.678	41278.43
621.034	41110.3
621.39	41282.5
621.746	41372.9
622.101	41988.47
622.457	41739.44
622.812	41822.83
623.168	42027.57
623.523	42060.11
623.879	42218.07
624.234	42132.88
624.589	42365.41
624.945	42423.72
625.3	42542.13
625.655	42598.63
626.01	42799.52
626.365	42926.98
626.72	42843.59
627.075	42859.86
627.43	42916.13
627.785	42823.25
628.14	42976.92
628.495	43192.06
628.85	43104.83
629.205	43014.43
629.559	43406.29
629.914	43152.74
630.269	43409.45
630.623	43269.57
630.978	43299.4
631.332	43416.01
631.687	43570.58
632.041	43428.89
632.396	43634.76
632.75	43388.21
633.104	43637.92
633.459	43377.36
633.813	43462.11
634.167	43391.6
634.521	43464.59
634.875	43562.44
635.229	43568.54
635.583	43288.78
635.937	43354.76
636.291	43451.26
636.645	43662.1
636.999	43449.22
637.352	43554.53
637.706	43356.12
638.06	43597.92
638.413	43413.75
638.767	43390.24
639.121	43552.95
639.474	43376.91
639.828	43422.33
640.181	43325.84
640.534	43399.28
640.888	43304.82
641.241	43110.93
641.594	43247.87
641.947	43404.03
642.301	43363.8
642.654	43296.01
643.007	43338.72
643.36	43326.74
643.713	43232.51
644.066	43471.6
644.419	43107.54
644.771	42899.63
645.124	42658.96
645.477	42644.27
645.83	42412.42
646.182	42113.44
646.535	42084.51
646.888	42084.51
647.24	42044.74
647.593	42218.97
647.945	42056.95
648.298	41942.6
648.65	41878.64
649.002	41867.57
649.355	42091.52
649.707	41989.6
650.059	42175.81
650.411	42500.78
650.763	42638.17
651.115	43068.22
651.467	42793.65
651.819	42929.92
652.171	42907.32
652.523	42747.55
652.875	42897.37
653.227	42769.02
653.578	42869.35
653.93	42835.46
654.282	42622.35
654.633	42559.08
654.985	42699.87
655.337	42746.64
655.688	42664.16
656.039	42774.44
656.391	42461.68
656.742	42574.22
657.094	42592.52
657.445	42692.86
657.796	42624.84
658.147	42532.41
658.498	42490.15
658.849	42581.68
659.2	42565.63
659.551	42457.39
659.902	42677.27
660.253	42602.69
660.604	42624.84
660.955	42448.57
661.306	42599.3
661.656	42462.13
662.007	42581.68
662.358	42550.04
662.708	42571.51
663.059	42516.37
663.409	42257.62
663.76	42512.3
664.11	42551.85
664.461	42603.15
664.811	42585.29
665.161	42440.21
665.511	42334.68
665.862	42472.98
666.212	42545.97
666.562	42562.69
666.912	42360.67
667.262	42369.25
667.612	42390.5
667.962	42408.35
668.312	42371.51
668.662	42638.85
669.011	42368.8
669.361	42366.32
669.711	42371.51
670.06	42257.39
670.41	42230.73
670.76	42242.7
671.109	42391.63
671.459	42339.65
671.808	42231.4
672.157	42301.91
672.507	42071.86
672.856	42029.15
673.205	42096.49
673.554	42327.22
673.904	42190.5
674.253	42257.62
674.602	42250.39
674.951	41645.88
675.3	41348.04
675.649	41956.16
675.998	42033.67
676.346	42063.72
676.695	42074.57
677.044	41715.26
677.393	41934.46
677.741	41976.5
678.09	41854.69
678.438	41856.05
678.787	42016.49
679.135	41826.22
679.484	41733.11
679.832	41827.8
680.181	41609.05
680.529	41598.65
680.877	41553.46
681.225	41486.34
681.573	41940.11
681.922	41480.69
682.27	41263.97
682.618	41434.36
682.966	41364.53
683.314	41416.28
683.661	41127.03
684.009	41049.06
684.357	41008.61
684.705	40965.9
685.053	41078.21
685.4	40857.2
685.748	40702.4
686.095	40766.13
686.443	40656.3
686.79	40680.03
687.138	40666.93
687.485	40672.57
687.832	40442.52
688.18	40549.64
688.527	40431
688.874	40279.36
689.221	40265.35
689.568	40148.07
689.915	40032.37
690.262	40025.13
690.609	39982.2
690.956	39778.81
691.303	39759.83
691.65	39570
691.997	39642.32
692.344	39334.3
692.69	39313.51
693.037	39346.28
693.383	39161.88
693.73	39151.71
694.077	38794.66
694.423	38957.82
694.769	38772.51
695.116	38733.42
695.462	38653.64
695.808	38610.71
696.155	38692.06
696.501	38294.56
696.847	38281.9
697.193	38129.59
697.539	38318.74
697.885	38021.8
698.231	37928.92
698.577	37889.6
698.923	37853.89
699.269	37606.21
699.614	37631.07
699.96	37487.12
700.306	37509.27
700.651	37189.05
700.997	37161.71
701.342	37203.51
701.688	37176.62
702.033	36891.88
702.379	37055.27
702.724	36837.2
703.069	36870.87
703.415	36471.33
703.76	36547.94
704.105	36579.57
704.45	36368.96
704.795	36244.67
705.14	36143.43
705.485	36142.52
705.83	35889.2
706.175	36079.7
706.52	35991.12
706.865	35817.34
707.209	35835.41
707.554	35591.13
707.899	35724.91
708.243	35487.85
708.588	35477.91
708.932	35281.08
709.277	35256.22
709.621	35303.9
709.966	35012.38
710.31	35024.59
710.654	34764.48
710.998	34713.64
711.342	34773.75
711.687	34728.78
712.031	34510.02
712.375	34434.32
712.719	34560.42
713.063	34547.76
713.407	34610.36
713.75	34310.03
714.094	34288.79
714.438	34247.21
714.782	34171.95
715.125	34091.73
715.469	34063.03
715.812	33898.29
716.156	33894.9
716.499	33861.23
716.843	33860.55
717.186	33731.06
717.53	33774.68
717.873	33604.74
718.216	33653.55
718.559	33514.12
718.902	33351.86
719.246	33295.82
719.589	33305.08
719.932	33169.27
720.275	32988.26
720.617	33119.33
720.96	32995.94
721.303	33113.23
721.646	32946.9
721.989	32780.8
722.331	32977.41
722.674	32841.14
723.016	32880.24
723.359	32769.05
723.701	32784.87
724.044	32555.73
724.386	32394.37
724.729	32572
725.071	32535.39
725.413	32494.48
725.755	32602.73
726.097	32290.87
726.439	32123.19
726.782	32289.07
727.124	32268.73
727.465	32080.03
727.807	32112.8
728.149	31983.31
728.491	31917.1
728.833	31999.36
729.175	31981.28
729.516	31771.34
729.858	31794.62
730.199	31731.57
730.541	31665.13
730.882	31650.21
731.224	31744.9
731.565	31527.28
731.906	31561.18
732.248	31656.09
732.589	31351.01
732.93	31261.75
733.271	31346.49
733.612	31381.75
733.953	31405.02
734.294	31103.79
734.635	31120.96
734.976	31255.42
735.317	30988.54
735.658	30947.63
735.999	30831.03
736.339	31013.39
736.68	30994.19
737.021	30744.7
737.361	30706.96
737.702	30821.99
738.042	30789.22
738.383	30788.99
738.723	30758.26
739.063	30598.04
739.404	30717.36
739.744	30621.77
740.084	30607.53
740.424	30464.48
740.764	30496.35
741.104	30604.36
741.444	30330.02
741.784	30255.45
742.124	30361.66
742.464	30339.51
742.804	30215.22
743.143	30233.98
743.483	30227.43
743.823	30094.1
744.162	29917.83
744.502	30142.46
744.841	29807.55
745.181	30030.82
745.52	29776.59
745.86	30034.66
746.199	29836.02
746.538	29810.26
746.877	29859.3
747.216	29780.88
747.556	29722.13
747.895	29794.22
748.234	29587.22
748.573	29596.48
748.911	29574.11
749.25	29509.25
749.589	29240.33
749.928	29473.1
750.267	29412.98
750.605	29184.52
750.944	29315.36
751.283	29184.74
751.621	29174.57
751.96	29100.68
752.298	28989.04
752.636	28990.85
752.975	28899.32
753.313	28868.14
753.651	29114.23
753.989	28836.5
754.327	28784.3
754.666	28576.4
755.004	28561.48
755.342	28622.5
755.679	28473.12
756.017	28312.45
756.355	28571.88
756.693	28390.41
757.031	28490.52
757.368	28237.2
757.706	28178.67
758.044	28093.02
758.381	28222.51
