Data from hue_220_FLMS001491_00061.txt Node
Date: Tue Feb 07 16:39:46 GMT 2017
User: dcchb
Spectrometer: FLMS00149
Trigger mode: 0
Integration Time (sec): 2.000000E-2
Scans to average: 10
Electric dark correction enabled: true
Nonlinearity correction enabled: false
Boxcar width: 0
XAxis mode: Wavelengths
Number of Pixels in Spectrum: 2048
>>>>>Begin Spectral Data<<<<<
341.393	1.05
341.776	1.05
342.16	1.05
342.543	-61.78
342.927	-85.51
343.31	-74.21
343.693	-89.8
344.077	-67.88
344.46	-55
344.843	-40.76
345.226	-48.9
345.61	-36.02
345.993	0.82
346.376	-11.61
346.759	15.51
347.142	20.93
347.525	54.38
347.908	54.15
348.291	74.04
348.674	90.99
349.057	113.36
349.44	128.27
349.823	138.67
350.206	154.49
350.588	187.03
350.971	199.46
351.354	221.6
351.737	236.97
352.119	223.41
352.502	260.47
352.884	262.51
353.267	272
353.65	283.98
354.032	291.21
354.414	291.21
354.797	298.21
355.179	340.92
355.562	308.16
355.944	300.25
356.326	312.68
356.709	319.45
357.091	323.3
357.473	345.44
357.855	333.24
358.238	343.86
358.62	330.53
359.002	344.09
359.384	342.51
359.766	317.65
360.148	352.45
360.53	290.76
360.912	335.95
361.294	321.71
361.676	320.36
362.057	321.49
362.439	315.39
362.821	341.15
363.203	320.36
363.584	306.57
363.966	338.44
364.348	312.68
364.729	301.38
365.111	315.61
365.493	319.23
365.874	317.2
366.256	314.94
366.637	335.27
367.019	330.53
367.4	303.41
367.781	325.56
368.163	305.44
368.544	307.7
368.925	306.35
369.306	321.26
369.688	300.7
370.069	291.88
370.45	297.53
370.831	297.53
371.212	317.87
371.593	303.64
371.974	291.43
372.355	302.96
372.736	292.11
373.117	324.43
373.498	307.7
373.879	313.58
374.26	307.48
374.641	303.64
375.021	298.66
375.402	308.16
375.783	301.38
376.163	322.62
376.544	300.92
376.925	307.25
377.305	321.26
377.686	328.27
378.066	319
378.447	312
378.827	326.23
379.208	332.34
379.588	328.95
379.968	327.59
380.349	315.84
380.729	317.42
381.109	309.96
381.489	311.09
381.87	327.59
382.25	342.51
382.63	328.95
383.01	326.46
383.39	352.67
383.77	357.42
384.15	328.27
384.53	340.02
384.91	334.6
385.29	340.47
385.67	335.95
386.049	338.89
386.429	330.53
386.809	351.09
387.189	347.48
387.568	375.5
387.948	335.27
388.328	362.62
388.707	359.23
389.087	335.27
389.466	341.38
389.846	352.45
390.225	351.54
390.605	328.27
390.984	355.61
391.363	353.8
391.743	347.93
392.122	350.87
392.501	370.3
392.881	375.72
393.26	365.56
393.639	373.46
394.018	375.72
394.397	393.13
394.776	360.36
395.155	377.31
395.534	361.26
395.913	363.3
396.292	340.47
396.671	389.51
397.05	392.45
397.429	394.71
397.808	392.9
398.186	382.05
398.565	382.05
398.944	365.33
399.323	383.41
399.701	395.61
400.08	395.84
400.458	402.62
400.837	397.19
401.215	400.36
401.594	390.87
401.972	396.51
402.351	382.96
402.729	409.62
403.107	396.51
403.486	416.18
403.864	417.53
404.242	408.94
404.62	424.31
404.999	413.01
405.377	432.9
405.755	443.52
406.133	451.88
406.511	449.85
406.889	481.94
407.267	455.27
407.645	457.08
408.023	444.42
408.401	462.73
408.779	460.92
409.156	479
409.534	477.87
409.912	476.51
410.29	503.86
410.667	511.09
411.045	505.66
411.422	526.23
411.8	521.03
412.178	517.87
412.555	534.59
412.933	541.6
413.31	545.21
413.687	549.28
414.065	555.38
414.442	568.71
414.819	583.4
415.197	592.22
415.574	618.2
415.951	578.66
416.328	621.59
416.705	594.25
417.082	611.42
417.46	653.01
417.837	662.5
418.214	640.8
418.591	679.9
418.967	659.78
419.344	682.38
419.721	695.94
420.098	696.62
420.475	704.3
420.852	722.61
421.228	718.54
421.605	704.08
421.982	734.36
422.358	775.94
422.735	769.84
423.111	776.84
423.488	810.74
423.864	808.93
424.241	802.15
424.617	846.22
424.994	826.33
425.37	852.32
425.746	860.46
426.123	903.62
426.499	891.42
426.875	907.91
427.251	909.95
427.627	939.78
428.003	945.43
428.379	979.32
428.756	958.99
429.132	980
429.507	996.5
429.883	1018.19
430.259	1016.61
430.635	1015.71
431.011	1043.5
431.387	1039.66
431.763	1068.14
432.138	1088.25
432.514	1085.31
432.89	1074.69
433.265	1138.42
433.641	1143.61
434.016	1169.15
434.392	1205.53
434.767	1213.44
435.143	1234.91
435.518	1258.87
435.894	1251.18
436.269	1285.98
436.644	1315.13
437.02	1335.47
437.395	1345.42
437.77	1366.88
438.145	1413.89
438.52	1427
438.895	1428.58
439.271	1430.61
439.646	1490.27
440.021	1483.49
440.395	1503.83
440.77	1480.33
441.145	1526.2
441.52	1541.8
441.895	1552.19
442.27	1614.11
442.645	1605.75
443.019	1629.25
443.394	1617.95
443.769	1648.01
444.143	1658.18
444.518	1689.59
444.892	1707.89
445.267	1694.79
445.641	1705.63
446.016	1759.42
446.39	1784.28
446.764	1766.2
447.139	1800.09
447.513	1780.89
447.887	1800.77
448.262	1811.85
448.636	1841.9
449.01	1835.12
449.384	1860.66
449.758	1874.89
450.132	1914.67
450.506	1892.75
450.88	1922.12
451.254	1928
451.628	1942.01
452.002	1991.73
452.376	1997.38
452.75	1973.2
453.123	2020.2
453.497	2042.12
453.871	2045.96
454.244	2076.02
454.618	2074.66
454.992	2096.81
455.365	2138.39
455.739	2188.78
456.112	2171.16
456.486	2197.15
456.859	2236.01
457.232	2258.61
457.606	2246.41
457.979	2299.74
458.352	2357.14
458.725	2351.72
459.099	2377.71
459.472	2392.62
459.845	2431.26
460.218	2464.26
460.591	2449.57
460.964	2476.01
461.337	2555.55
461.71	2571.83
462.083	2606.17
462.456	2568.89
462.829	2611.15
463.201	2663.8
463.574	2678.49
463.947	2701.31
464.32	2749.22
464.692	2766.17
465.065	2765.49
465.438	2832.84
465.81	2839.39
466.183	2894.98
466.555	2933.85
466.928	2953.28
467.3	2943.11
467.672	3008.2
468.045	3086.61
468.417	3075.54
468.789	3087.52
469.161	3096.56
469.534	3161.19
469.906	3223.79
470.278	3265.14
470.65	3292.48
471.022	3302.65
471.394	3386.49
471.766	3443.89
472.138	3430.33
472.51	3486.15
472.882	3527.73
473.253	3615.87
473.625	3623.1
473.997	3716.65
474.369	3688.86
474.74	3731.34
475.112	3827.39
475.484	3835.29
475.855	3915.74
476.227	3945.35
476.598	4038.45
476.97	4044.1
477.341	4098.56
477.713	4194.16
478.084	4214.49
478.455	4292.91
478.827	4344.66
479.198	4406.58
479.569	4453.58
479.94	4541.49
480.311	4629.85
480.682	4623.52
481.053	4776.29
481.424	4811.09
481.795	4877.75
482.166	4940.58
482.537	4983.74
482.908	5068.26
483.279	5087.47
483.65	5167.46
484.021	5237.97
484.391	5254.24
484.762	5263.51
485.133	5365.88
485.503	5425.08
485.874	5576.72
486.244	5526.78
486.615	5661.91
486.985	5698.52
487.356	5803.38
487.726	5807.22
488.097	5942.81
488.467	5894.22
488.837	6026.2
489.207	6115.01
489.578	6136.93
489.948	6206.31
490.318	6257.38
490.688	6333.08
491.058	6384.83
491.428	6463.25
491.798	6530.82
492.168	6623.47
492.538	6584.83
492.908	6697.14
493.278	6746.63
493.648	6725.39
494.017	6809.45
494.387	6830.7
494.757	6805.84
495.126	6938.49
495.496	6998.38
495.866	7002.22
496.235	7078.15
496.605	7134.42
496.974	7117.92
497.344	7221.19
497.713	7207.64
498.082	7295.09
498.452	7345.94
498.821	7281.76
499.19	7331.93
499.559	7403.56
499.928	7355.65
500.298	7432.71
500.667	7452.6
501.036	7444.92
501.405	7502.09
501.774	7520.4
502.143	7586.61
502.512	7601.75
502.88	7696.21
503.249	7607.85
503.618	7702.09
503.987	7659.37
504.356	7721.52
504.724	7732.37
505.093	7706.61
505.462	7788.64
505.83	7840.84
506.199	7819.14
506.567	7900.05
506.936	7853.49
507.304	7978.01
507.672	7983.89
508.041	7977.11
508.409	8042.42
508.777	7987.95
509.145	8159.25
509.514	8028.18
509.882	8096.2
510.25	8055.3
510.618	8096.88
510.986	8144.11
511.354	8155.41
511.722	8153.15
512.09	8197.21
512.458	8154.28
512.826	8251.22
513.193	8201.73
513.561	8268.17
513.929	8312.69
514.297	8289.64
514.664	8314.72
515.032	8259.36
515.4	8352.69
515.767	8314.72
516.135	8319.7
516.502	8275.4
516.869	8394.5
517.237	8354.27
517.604	8347.72
517.972	8379.81
518.339	8455.96
518.706	8402.63
519.073	8421.16
519.44	8405.12
519.808	8442.63
520.175	8377.1
520.542	8456.19
520.909	8413.03
521.276	8472.23
521.643	8521.95
522.009	8516.53
522.376	8440.82
522.743	8466.81
523.11	8560.37
523.477	8530.76
523.843	8583.42
524.21	8644.21
524.577	8606.02
524.943	8640.59
525.31	8585.45
525.676	8613.25
526.043	8688.95
526.409	8643.98
526.776	8735.5
527.142	8660.48
527.508	8604.43
527.874	8657.77
528.241	8699.35
528.607	8674.26
528.973	8626.58
529.339	8689.86
529.705	8664.09
530.071	8663.42
530.437	8689.4
530.803	8685.56
531.169	8681.04
531.535	8629.97
531.901	8587.03
532.267	8610.31
532.632	8653.7
532.998	8600.82
533.364	8623.64
533.73	8550.88
534.095	8583.87
534.461	8554.72
534.826	8564.66
535.192	8577.54
535.557	8573.25
535.923	8507.94
536.288	8533.7
536.653	8532.12
537.019	8431.56
537.384	8461.39
537.749	8505.45
538.114	8448.96
538.479	8407.6
538.845	8366.7
539.21	8407.15
539.575	8335.06
539.94	8329.87
540.305	8273.14
540.67	8246.93
541.034	8252.35
541.399	8230.66
541.764	8182.75
542.129	8237.89
542.494	8215.29
542.858	8153.83
543.223	8098.46
543.587	8112.02
543.952	8116.31
544.316	8107.05
544.681	8041.96
545.045	8084.45
545.41	8051
545.774	8036.54
546.138	7958.58
546.503	7956.54
546.867	7924.9
547.231	7975.3
547.595	7869.54
547.959	7862.76
548.324	7852.36
548.688	7844
549.052	7826.15
549.416	7797.9
549.779	7734.63
550.143	7711.12
550.507	7713.84
550.871	7738.69
551.235	7667.96
551.599	7709.09
551.962	7652.82
552.326	7668.64
552.689	7699.37
553.053	7553.16
553.417	7527.17
553.78	7580.96
554.143	7542.77
554.507	7574.18
554.87	7513.62
555.234	7520.4
555.597	7494.86
555.96	7517.46
556.323	7467.52
556.686	7482.66
557.05	7419.16
557.413	7460.06
557.776	7416.44
558.139	7452.83
558.502	7425.03
558.865	7396.1
559.228	7371.47
559.59	7471.81
559.953	7417.8
560.316	7433.84
560.679	7394.07
561.041	7406.73
561.404	7429.55
561.767	7448.08
562.129	7388.87
562.492	7457.57
562.854	7344.58
563.217	7358.37
563.579	7451.92
563.941	7422.54
564.304	7470.68
564.666	7522.66
565.028	7444.69
565.39	7405.82
565.753	7544.58
566.115	7404.47
566.477	7450.11
566.839	7484.24
567.201	7497.35
567.563	7523.33
567.925	7540.28
568.287	7544.35
568.648	7537.12
569.01	7528.76
569.372	7581.18
569.734	7525.14
570.095	7534.63
570.457	7567.85
570.819	7590.9
571.18	7601.98
571.542	7583.9
571.903	7639.94
572.265	7578.47
572.626	7624.12
572.987	7637.45
573.349	7602.88
573.71	7708.19
574.071	7682.65
574.432	7695.76
574.794	7786.83
575.155	7713.61
575.516	7717.9
575.877	7712.03
576.238	7781.63
576.599	7752.48
576.96	7731.24
577.32	7750.67
577.681	7818.47
578.042	7881.06
578.403	7818.47
578.763	7770.56
579.124	7895.07
579.485	7960.38
579.845	7869.54
580.206	7900.95
580.566	7905.47
580.927	7919.71
581.287	7911.35
581.648	7961.06
582.008	7964.68
582.368	7937.33
582.728	7970.55
583.089	7949.54
583.449	7962.42
583.809	7995.64
584.169	8055.75
584.529	8010.55
584.889	8096.43
585.249	8048.07
585.609	7997.22
585.969	8152.47
586.329	8066.37
586.688	8110.21
587.048	8147.72
587.408	8078.57
587.768	8108.85
588.127	8168.97
588.487	8124.9
588.846	8237.21
589.206	8109.76
589.565	8162.64
589.925	8202.19
590.284	8225.69
590.643	8222.3
591.003	8198.57
591.362	8293.03
591.721	8238.34
592.08	8195.63
592.44	8273.14
592.799	8284.67
593.158	8335.74
593.517	8298.91
593.876	8334.84
594.235	8312.92
594.593	8293.26
594.952	8339.58
595.311	8302.75
595.67	8319.92
596.029	8356.53
596.387	8366.25
596.746	8444.66
597.104	8403.99
597.463	8361.28
597.822	8497.32
598.18	8354.05
598.538	8357.44
598.897	8432.91
599.255	8352.01
599.613	8504.1
599.972	8467.49
600.33	8491.22
600.688	8408.28
601.046	8468.17
601.404	8509.75
601.762	8498.9
602.12	8512.69
602.478	8482.4
602.836	8433.14
603.194	8453.93
603.552	8445.57
603.91	8470.65
604.268	8511.33
604.625	8474.95
604.983	8491.22
605.341	8501.61
605.698	8535.28
606.056	8520.82
606.413	8516.3
606.771	8569.18
607.128	8556.98
607.485	8500.03
607.843	8494.61
608.2	8578.45
608.557	8601.95
608.914	8591.33
609.272	8638.11
609.629	8679.91
609.986	8579.12
610.343	8611.67
610.7	8744.54
611.057	8684.66
611.414	8601.72
611.771	8672
612.127	8721.27
612.484	8703.19
612.841	8749.97
613.198	8624.77
613.554	8696.18
613.911	8756.3
614.267	8719.69
614.624	8659.8
614.98	8701.38
615.337	8784.99
615.693	8848.27
616.05	8754.49
616.406	8798.78
616.762	8782.28
617.118	8778.67
617.475	8792.9
617.831	8771.44
618.187	8846.69
618.543	8853.69
618.899	8931.66
619.255	8884.88
619.611	8805.56
619.967	8854.6
620.323	8892.34
620.678	8845.78
621.034	8843.07
621.39	8822.28
621.746	8778.67
622.101	8946.8
622.457	8883.75
622.812	8877.42
623.168	8833.58
623.523	8878.1
623.879	8896.4
624.234	8780.25
624.589	8906.12
624.945	8873.81
625.3	8863.19
625.655	8888.5
626.01	8871.09
626.365	8855.28
626.72	8831.77
627.075	8905.44
627.43	8832.23
627.785	8826.35
628.14	8831.32
628.495	8801.72
628.85	8804.2
629.205	8793.58
629.559	8848.95
629.914	8836.29
630.269	8807.59
630.623	8695.73
630.978	8757.65
631.332	8796.97
631.687	8841.94
632.041	8771.44
632.396	8803.53
632.75	8726.69
633.104	8729.18
633.459	8733.92
633.813	8705
634.167	8688.5
634.521	8721.04
634.875	8736.18
635.229	8715.39
635.583	8628.61
635.937	8658.44
636.291	8686.24
636.645	8630.42
636.999	8662.29
637.352	8632.91
637.706	8589.29
638.06	8617.32
638.413	8616.86
638.767	8587.49
639.121	8599.92
639.474	8549.75
639.828	8575.96
640.181	8546.13
640.534	8528.73
640.888	8547.94
641.241	8503.42
641.594	8561.72
641.947	8548.62
642.301	8525.34
642.654	8513.36
643.007	8524.89
643.36	8585.9
643.713	8485.34
644.066	8458.9
644.419	8490.31
644.771	8422.74
645.124	8405.8
645.477	8348.85
645.83	8337.32
646.182	8279.02
646.535	8305.46
646.888	8224.78
647.24	8245.57
647.593	8326.48
647.945	8274.73
648.298	8206.25
648.65	8239.47
649.002	8164.67
649.355	8165.35
649.707	8228.85
650.059	8233.37
650.411	8345.68
650.763	8316.53
651.115	8418.45
651.467	8418
651.819	8416.19
652.171	8418.22
652.523	8349.53
652.875	8406.93
653.227	8364.22
653.578	8407.15
653.93	8378.45
654.282	8394.5
654.633	8322.63
654.985	8367.38
655.337	8363.09
655.688	8362.18
656.039	8448.28
656.391	8330.09
656.742	8406.93
657.094	8361.28
657.445	8407.83
657.796	8414.84
658.147	8314.5
658.498	8379.58
658.849	8394.27
659.2	8400.37
659.551	8440.82
659.902	8389.75
660.253	8411.9
660.604	8437.66
660.955	8373.93
661.306	8432.69
661.656	8455.96
662.007	8394.04
662.358	8434.27
662.708	8441.28
663.059	8373.03
663.409	8376.19
663.76	8460.03
664.11	8477.21
664.461	8502.06
664.811	8526.24
665.161	8483.08
665.511	8425.91
665.862	8434.95
666.212	8490.99
666.562	8518.11
666.912	8457.77
667.262	8459.81
667.612	8471.33
667.962	8469.3
668.312	8494.38
668.662	8521.05
669.011	8496.19
669.361	8588.16
669.711	8464.33
670.06	8431.33
670.41	8431.33
670.76	8488.28
671.109	8440.82
671.459	8477.88
671.808	8428.62
672.157	8439.92
672.507	8371.22
672.856	8432.91
673.205	8404.67
673.554	8425.68
673.904	8368.96
674.253	8406.7
674.602	8366.25
674.951	8283.77
675.3	8256.42
675.649	8363.54
675.998	8319.24
676.346	8356.53
676.695	8364.89
677.044	8325.57
677.393	8339.13
677.741	8288.51
678.09	8293.26
678.438	8288.74
678.787	8330.77
679.135	8265.69
679.484	8229.98
679.832	8254.39
680.181	8196.54
680.529	8221.17
680.877	8252.58
681.225	8258.23
681.573	8248.29
681.922	8144.33
682.27	8134.39
682.618	8134.39
682.966	8167.38
683.314	8089.87
683.661	8099.59
684.009	8046.26
684.357	8027.95
684.705	8049.2
685.053	8008.74
685.4	8012.59
685.748	7972.14
686.095	7952.25
686.443	7872.25
686.79	7892.36
687.138	7876.54
687.485	7882.42
687.832	7928.07
688.18	7904.79
688.527	7817.79
688.874	7833.83
689.221	7805.59
689.568	7708.64
689.915	7788.86
690.262	7781.18
690.609	7698.47
690.956	7682.88
691.303	7693.95
691.65	7628.42
691.997	7628.42
692.344	7549.55
692.69	7554.29
693.037	7583.22
693.383	7478.59
693.73	7506.84
694.077	7478.59
694.423	7496.22
694.769	7398.59
695.116	7411.7
695.462	7323.34
695.808	7403.11
696.155	7352.26
696.501	7382.32
696.847	7251.25
697.193	7272.94
697.539	7255.32
697.885	7223.91
698.231	7200.63
698.577	7164.02
698.923	7143
699.269	7110.01
699.614	7099.39
699.96	7060.97
700.306	7065.27
700.651	7012.39
700.997	6946.85
701.342	6973.97
701.688	6946.63
702.033	6944.59
702.379	6871.15
702.724	6885.84
703.069	6863.01
703.415	6799.51
703.76	6783.47
704.105	6804.26
704.45	6771.94
704.795	6682.23
705.14	6741.21
705.485	6708.44
705.83	6716.35
706.175	6662.11
706.52	6596.13
706.865	6533.98
707.209	6548.67
707.554	6598.16
707.899	6573.53
708.243	6472.06
708.588	6554.32
708.932	6448.33
709.277	6500.08
709.621	6507.99
709.966	6465.73
710.31	6447.2
710.654	6347.32
710.998	6363.59
711.342	6361.78
711.687	6377.37
712.031	6305.06
712.375	6307.32
712.719	6312.97
713.063	6279.07
713.407	6273.2
713.75	6305.06
714.094	6248.34
714.438	6264.61
714.782	6297.83
715.125	6215.35
715.469	6228
715.812	6195.91
716.156	6203.37
716.499	6195.68
716.843	6206.53
717.186	6150.71
717.53	6200.88
717.873	6141.9
718.216	6115.01
718.559	6099.42
718.902	6045.63
719.246	6129.02
719.589	6108.23
719.932	6068.91
720.275	6092.86
720.617	6065.74
720.96	6035.91
721.303	6031.85
721.646	6098.96
721.989	6065.52
722.331	6082.24
722.674	6032.07
723.016	6016.25
723.359	5975.35
723.701	6098.74
724.044	6011.06
724.386	5981.68
724.729	6022.81
725.071	5956.37
725.413	5971.51
725.755	5978.74
726.097	5987.1
726.439	5938.06
726.782	5965.63
727.124	5972.64
727.465	5933.32
727.807	5932.19
728.149	5964.28
728.491	5971.06
728.833	5947.56
729.175	5937.84
729.516	5889.03
729.858	5922.02
730.199	5945.75
730.541	5900.1
730.882	5908.91
731.224	6016.93
731.565	5936.48
731.906	5965.63
732.248	5917.27
732.589	5918.63
732.93	5869.59
733.271	5904.84
733.612	5938.97
733.953	5943.04
734.294	5910.95
734.635	5928.12
734.976	5952.75
735.317	5910.04
735.658	5925.64
735.999	5941.45
736.339	5923.6
736.68	5960.89
737.021	5914.34
737.361	5918.86
737.702	5958.18
738.042	5945.52
738.383	5955.69
738.723	6013.77
739.063	5999.31
739.404	6048.57
739.744	6021.9
740.084	6031.4
740.424	6043.6
740.764	6060.77
741.104	6082.24
741.444	6021
741.784	6048.57
742.124	6093.99
742.464	6098.74
742.804	6115.69
743.143	6105.52
743.483	6117.04
743.823	6062.35
744.162	6127.44
744.502	6184.39
744.841	6242.91
745.181	6229.13
745.52	6248.11
745.86	6364.04
746.199	6325.4
746.538	6399.52
746.877	6452.63
747.216	6463.7
747.556	6530.14
747.895	6547.77
748.234	6605.62
748.573	6622.57
748.911	6701.89
749.25	6739.85
749.589	6804.48
749.928	6870.92
750.267	6965.61
750.605	6961.09
750.944	7059.16
751.283	7118.6
751.621	7180.74
751.96	7275.88
752.298	7359.27
752.636	7458.48
752.975	7505.48
753.313	7607.62
753.651	7738.69
753.989	7801.07
754.327	7895.98
754.666	7983.66
755.004	8138.23
755.342	8246.48
755.679	8338
756.017	8522.63
756.355	8630.42
756.693	8724.88
757.031	8935.27
757.368	8986.12
757.706	9205.55
758.044	9370.52
758.381	9444.64
758.719	9620
759.056	9807.34
759.394	9907.45
759.731	10030.39
760.068	10197.16
760.405	10295.46
760.743	10527.55
761.08	10738.39
761.417	10855.9
761.754	10986.52
762.091	11245.5
762.428	11303.35
762.765	11521.42
763.102	11724.58
763.438	11839.6
763.775	11934.06
764.112	12106.94
764.449	12435.52
764.785	12493.37
765.122	12685.23
765.458	12695.85
765.795	12884.55
766.131	13147.82
766.467	13266.46
766.804	13356.63
767.14	13504.87
767.476	13687.24
767.812	13843.62
768.148	13901.24
768.485	14041.13
768.821	14175.14
769.157	14351.18
769.492	14441.34
