Data from hue_270_FLMS001491_00077.txt Node
Date: Tue Feb 07 15:57:41 GMT 2017
User: dcchb
Spectrometer: FLMS00149
Trigger mode: 0
Integration Time (sec): 2.000000E-2
Scans to average: 10
Electric dark correction enabled: true
Nonlinearity correction enabled: false
Boxcar width: 0
XAxis mode: Wavelengths
Number of Pixels in Spectrum: 2048
>>>>>Begin Spectral Data<<<<<
341.393	-24.28
341.776	-24.28
342.16	-24.28
342.543	-63.6
342.927	-79.64
343.31	-58.18
343.693	-71.28
344.077	-48.01
344.46	-58.85
344.843	-53.2
345.226	-40.78
345.61	-22.25
345.993	3.74
346.376	0.35
346.759	-1
347.142	24.76
347.525	49.17
347.908	37.19
348.291	65.21
348.674	72.22
349.057	100.92
349.44	107.69
349.823	151.54
350.206	166.45
350.588	181.37
350.971	190.18
351.354	211.2
351.737	223.85
352.119	236.73
352.502	234.02
352.884	269.95
353.267	273.34
353.65	275.15
354.032	294.13
354.414	296.84
354.797	281.48
355.179	284.19
355.562	308.37
355.944	334.81
356.326	338.65
356.709	321.93
357.091	336.16
357.473	316.28
357.855	316.73
358.238	314.7
358.62	336.62
359.002	334.36
359.384	339.55
359.766	353.79
360.148	303.17
360.53	312.66
360.912	326.9
361.294	336.16
361.676	330.29
362.057	338.42
362.439	329.16
362.821	317.18
363.203	310.4
363.584	335.26
363.966	308.82
364.348	306.33
364.729	314.24
365.111	314.47
365.493	311.31
365.874	316.05
366.256	297.52
366.637	295.71
367.019	293.68
367.4	316.73
367.781	295.03
368.163	301.36
368.544	306.79
368.925	281.7
369.306	299.78
369.688	328.93
370.069	297.75
370.45	274.02
370.831	296.16
371.212	321.25
371.593	294.58
371.974	297.97
372.355	276.73
372.736	296.84
373.117	309.27
373.498	299.78
373.879	305.43
374.26	301.36
374.641	313.79
375.021	301.59
375.402	321.93
375.783	310.63
376.163	316.95
376.544	322.6
376.925	318.99
377.305	312.89
377.686	321.02
378.066	334.36
378.447	315.6
378.827	302.72
379.208	310.63
379.588	315.83
379.968	306.11
380.349	339.33
380.729	323.73
381.109	312.21
381.489	326.22
381.87	337.07
382.25	330.74
382.63	339.55
383.01	336.62
383.39	333.68
383.77	338.65
384.15	339.78
384.53	305.43
384.91	352.21
385.29	323.73
385.67	356.95
386.049	336.84
386.429	350.63
386.809	336.16
387.189	355.37
387.568	361.25
387.948	360.8
388.328	347.69
388.707	353.11
389.087	349.5
389.466	354.92
389.846	365.54
390.225	353.11
390.605	358.31
390.984	378.42
391.363	354.69
391.743	373
392.122	356.05
392.501	381.36
392.881	367.12
393.26	371.42
393.639	358.08
394.018	386.33
394.397	368.25
394.776	379.78
395.155	381.81
395.534	381.81
395.913	366.22
396.292	385.65
396.671	384.52
397.05	390.4
397.429	408.93
397.808	397.18
398.186	395.14
398.565	413.45
398.944	380.68
399.323	403.73
399.701	393.79
400.08	402.38
400.458	395.14
400.837	399.89
401.215	415.26
401.594	429.72
401.972	421.81
402.351	415.03
402.729	430.62
403.107	432.88
403.486	427.46
403.864	439.66
404.242	425.65
404.62	439.44
404.999	443.73
405.377	435.37
405.755	439.89
406.133	438.31
406.511	445.77
406.889	458.65
407.267	448.48
407.645	445.54
408.023	482.83
408.401	491.64
408.779	476.72
409.156	482.83
409.534	498.19
409.912	492.77
410.29	520.79
410.667	510.4
411.045	530.51
411.422	537.51
411.8	520.79
412.178	532.77
412.555	547.68
412.933	561.47
413.31	556.27
413.687	564.18
414.065	573.9
414.442	568.93
414.819	586.55
415.197	584.07
415.574	593.56
415.951	586.33
416.328	594.46
416.705	625.2
417.082	591.98
417.46	607.79
417.837	646.89
418.214	630.62
418.591	648.92
418.967	646.66
419.344	639.21
419.721	690.5
420.098	644.86
420.475	681.01
420.852	665.42
421.228	706.78
421.605	700.9
421.982	711.07
422.358	728.7
422.735	753.78
423.111	740.45
423.488	754.46
423.864	760.79
424.241	784.74
424.617	790.39
424.994	784.97
425.37	825.42
425.746	802.82
426.123	825.19
426.499	835.81
426.875	850.5
427.251	864.74
427.627	874.45
428.003	865.42
428.379	882.59
428.756	879.65
429.132	897.73
429.507	927.33
429.883	942.25
430.259	960.78
430.635	941.57
431.011	923.72
431.387	982.47
431.763	981.57
432.138	989.03
432.514	1017.73
432.89	1017.5
433.265	1032.87
433.641	1065.64
434.016	1043.26
434.392	1091.4
434.767	1079.19
435.143	1099.31
435.518	1134.11
435.894	1131.4
436.269	1177.27
436.644	1195.12
437.02	1194.67
437.395	1197.38
437.77	1232.41
438.145	1253.88
438.52	1252.98
438.895	1239.42
439.271	1269.47
439.646	1305.18
440.021	1329.36
440.395	1337.95
440.77	1302.47
441.145	1338.85
441.52	1365.29
441.895	1361.67
442.27	1382.92
442.645	1386.76
443.019	1425.4
443.394	1392.41
443.769	1425.63
444.143	1484.38
444.518	1463.59
444.892	1434.89
445.267	1469.69
445.641	1486.19
446.016	1497.94
446.39	1515.34
446.764	1508.11
447.139	1530.03
447.513	1550.82
447.887	1551.27
448.262	1547.43
448.636	1554.89
449.01	1581.78
449.384	1573.65
449.758	1593.31
450.132	1599.41
450.506	1602.34
450.88	1628.56
451.254	1626.98
451.628	1656.35
452.002	1683.47
452.376	1676.02
452.75	1691.83
453.123	1732.51
453.497	1752.4
453.871	1737.26
454.244	1778.61
454.618	1785.16
454.992	1774.09
455.365	1819.51
455.739	1810.25
456.112	1842.79
456.486	1844.6
456.859	1865.16
457.232	1926.86
457.606	1899.06
457.979	1934.77
458.352	1944.71
458.725	1934.09
459.099	1994.42
459.472	1993.07
459.845	1995.55
460.218	2003.69
460.591	2037.59
460.964	2044.37
461.337	2099.05
461.71	2120.98
462.083	2143.35
462.456	2175.21
462.829	2174.53
463.201	2186.28
463.574	2196.23
463.947	2241.42
464.32	2290.91
464.692	2301.08
465.065	2301.99
465.438	2294.53
465.81	2291.14
466.183	2365.94
466.555	2412.72
466.928	2403.68
467.3	2407.52
467.672	2446.39
468.045	2501.08
468.417	2498.59
468.789	2533.85
469.161	2557.12
469.534	2581.98
469.906	2626.95
470.278	2637.57
470.65	2663.11
471.022	2708.3
471.394	2740.17
471.766	2715.99
472.138	2795.76
472.51	2829.43
472.882	2839.15
473.253	2868.07
473.625	2941.74
473.997	2981.52
474.369	2984
474.74	3010.22
475.112	3057.9
475.484	3080.5
475.855	3151.23
476.227	3169.76
476.598	3220.38
476.97	3243.88
477.341	3282.07
477.713	3318.01
478.084	3336.76
478.455	3420.83
478.827	3419.25
479.198	3546.02
479.569	3549.64
479.94	3651.33
480.311	3621.73
480.682	3685.45
481.053	3733.36
481.424	3778.78
481.795	3848.16
482.166	3839.8
482.537	3904.66
482.908	3993.24
483.279	4037.31
483.65	4057.87
484.021	4135.84
484.391	4166.8
484.762	4169.96
485.133	4236.63
485.503	4250.86
485.874	4326.57
486.244	4346.23
486.615	4457.64
486.985	4473.91
487.356	4537.63
487.726	4575.6
488.097	4608.37
488.467	4677.52
488.837	4715.48
489.207	4761.13
489.578	4784.18
489.948	4827.8
490.318	4897.63
490.688	4848.36
491.058	4980.11
491.428	5022.59
491.798	5034.35
492.168	5155.25
492.538	5167.9
492.908	5224.17
493.278	5257.16
493.648	5249.48
494.017	5280.44
494.387	5340.55
494.757	5344.17
495.126	5419.87
495.496	5463.94
495.866	5469.14
496.235	5499.19
496.605	5535.8
496.974	5576.03
497.344	5564.5
497.713	5597.95
498.082	5651.96
498.452	5677.94
498.821	5685.63
499.19	5707.77
499.559	5778.05
499.928	5805.17
500.298	5789.81
500.667	5811.5
501.036	5819.86
501.405	5826.41
501.774	5851.27
502.143	5943.93
502.512	5916.36
502.88	5992.74
503.249	5961.55
503.618	6003.36
503.987	5979.63
504.356	6061.89
504.724	6079.74
505.093	6084.49
505.462	6079.97
505.83	6118.38
506.199	6156.58
506.567	6157.93
506.936	6164.26
507.304	6213.3
507.672	6202
508.041	6280.19
508.409	6296.91
508.777	6278.15
509.145	6370.58
509.514	6311.6
509.882	6333.75
510.25	6359.73
510.618	6341.88
510.986	6411.94
511.354	6444.93
511.722	6395.44
512.09	6501.43
512.458	6462.56
512.826	6545.72
513.193	6534.87
513.561	6492.39
513.929	6550.92
514.297	6560.86
514.664	6622.33
515.032	6644.02
515.4	6688.31
515.767	6701.42
516.135	6675.66
516.502	6586.39
516.869	6771.02
517.237	6716.56
517.604	6657.13
517.972	6735.09
518.339	6700.29
518.706	6677.24
519.073	6697.13
519.44	6715.43
519.808	6805.82
520.175	6795.65
520.542	6855.77
520.909	6885.82
521.276	6883.34
521.643	6900.51
522.009	6926.05
522.376	6944.58
522.743	6958.14
523.11	6999.04
523.477	7000.85
523.843	7033.39
524.21	7041.52
524.577	7110.9
524.943	7150
525.31	7137.11
525.676	7152.93
526.043	7170.11
526.409	7178.47
526.776	7264.12
527.142	7279.71
527.508	7251.91
527.874	7241.52
528.241	7289.2
528.607	7268.18
528.973	7340.73
529.339	7319.03
529.705	7352.93
530.071	7380.5
530.437	7415.53
530.803	7459.37
531.169	7458.91
531.535	7474.73
531.901	7430.44
532.267	7481.29
532.632	7511.79
532.998	7529.65
533.364	7540.27
533.73	7517.44
534.095	7621.17
534.461	7646.93
534.826	7574.84
535.192	7589.08
535.557	7715.63
535.923	7565.35
536.288	7652.58
536.653	7669.3
537.019	7616.65
537.384	7636.31
537.749	7661.39
538.114	7691.9
538.479	7663.65
538.845	7716.08
539.21	7638.34
539.575	7639.93
539.94	7691.45
540.305	7710.66
540.67	7745.69
541.034	7699.81
541.399	7743.65
541.764	7700.26
542.129	7800.6
542.494	7747.95
542.858	7752.92
543.223	7790.88
543.587	7828.4
543.952	7802.18
544.316	7774.84
544.681	7752.69
545.045	7820.49
545.41	7831.11
545.774	7756.31
546.138	7840.82
546.503	7804.22
546.867	7853.71
547.231	7828.17
547.595	7844.44
547.959	7858
548.324	7871.33
548.688	7895.29
549.052	7896.87
549.416	7828.4
549.779	7814.16
550.143	7791.79
550.507	7911.78
550.871	7901.84
551.235	7905.91
551.599	7933.25
551.962	7947.26
552.326	7912.69
552.689	7987.26
553.053	7852.58
553.417	7964.21
553.78	7995.17
554.143	7949.07
554.507	8028.84
554.87	8033.81
555.234	8082.85
555.597	8018.22
555.96	8036.98
556.323	7978.22
556.686	8088.05
557.05	8113.13
557.413	8067.94
557.776	8134.15
558.139	8097.54
558.502	8135.51
558.865	8138.44
559.228	8220.93
559.59	8153.13
559.953	8216.86
560.316	8277.65
560.679	8241.72
561.041	8291.89
561.404	8330.08
561.767	8384.54
562.129	8273.36
562.492	8379.79
562.854	8376.86
563.217	8389.29
563.579	8393.58
563.941	8433.13
564.304	8515.61
564.666	8528.26
565.028	8520.58
565.39	8576.62
565.753	8558.77
566.115	8606.45
566.477	8646.68
566.839	8726.68
567.201	8717.41
567.563	8744.53
567.925	8772.33
568.287	8744.76
568.648	8794.25
569.01	8801.93
569.372	8894.58
569.734	8861.59
570.095	8857.52
570.457	8908.14
570.819	8919.44
571.18	8993.34
571.542	9038.08
571.903	8924.64
572.265	9069.27
572.626	9041.92
572.987	9080.57
573.349	9161.24
573.71	9128.02
574.071	9268.81
574.432	9216.38
574.794	9271.3
575.155	9305.65
575.516	9272.65
575.877	9301.35
576.238	9419.09
576.599	9385.87
576.96	9372.08
577.32	9399.65
577.681	9464.51
578.042	9530.95
578.403	9555.36
578.763	9498.86
579.124	9588.12
579.485	9685.3
579.845	9644.17
580.206	9639.42
580.566	9715.13
580.927	9739.31
581.287	9762.58
581.648	9827.67
582.008	9854.78
582.368	9804.84
582.728	9891.17
583.089	9871.05
583.449	9932.07
583.809	9912.18
584.169	9938.62
584.529	9951.96
584.889	10045.06
585.249	10013.2
585.609	10040.32
585.969	10100.65
586.329	10109.24
586.688	10119.41
587.048	10105.17
587.408	10179.29
587.768	10182.46
588.127	10212.74
588.487	10151.95
588.846	10341.1
589.206	10230.37
589.565	10361.21
589.925	10399.4
590.284	10364.15
590.643	10383.58
591.003	10436.69
591.362	10465.39
591.721	10500.64
592.08	10465.39
592.44	10523.92
592.799	10576.35
593.158	10528.44
593.517	10627.64
593.876	10625.16
594.235	10645.27
594.593	10644.59
594.952	10722.78
595.311	10669
595.67	10708.09
596.029	10718.26
596.387	10795.78
596.746	10766.62
597.104	10768.88
597.463	10724.14
597.822	10829.9
598.18	10776.11
598.538	10781.31
598.897	10854.53
599.255	10872.38
599.613	10949.22
599.972	10888.88
600.33	10923.23
600.688	10828.32
601.046	10921.87
601.404	10962.1
601.762	10955.09
602.12	11043.9
602.478	10989.22
602.836	10962.78
603.194	11004.58
603.552	11014.07
603.91	10910.35
604.268	11033.96
604.625	10978.37
604.983	11028.76
605.341	11011.36
605.698	11004.36
606.056	11105.15
606.413	11068.31
606.771	11099.5
607.128	11082.55
607.485	11097.24
607.843	11100.63
608.2	11099.95
608.557	11220.62
608.914	11154.41
609.272	11215.43
609.629	11240.96
609.986	11278.7
610.343	11284.58
610.7	11289.1
611.057	11243.45
611.414	11238.93
611.771	11224.01
612.127	11384.91
612.484	11370.45
612.841	11336.1
613.198	11337.91
613.554	11426.72
613.911	11435.08
614.267	11327.96
614.624	11344.46
614.98	11357.34
615.337	11427.4
615.693	11452.03
616.05	11347.17
616.406	11491.58
616.762	11407.06
617.118	11393.27
617.475	11411.58
617.831	11455.42
618.187	11523.67
618.543	11539.26
618.899	11563.89
619.255	11584.68
619.611	11520.5
619.967	11531.35
620.323	11615.41
620.678	11520.95
621.034	11524.57
621.39	11547.39
621.746	11475.31
622.101	11619.93
622.457	11551.24
622.812	11635.3
623.168	11515.98
623.523	11540.84
623.879	11609.77
624.234	11606.83
624.589	11582.65
624.945	11563.44
625.3	11585.59
625.655	11591.46
626.01	11518.47
626.365	11650.89
626.72	11547.17
627.075	11546.72
627.43	11613.83
627.785	11559.37
628.14	11580.61
628.495	11562.08
628.85	11578.35
629.205	11511.24
629.559	11544.91
629.914	11496.55
630.269	11507.17
630.623	11441.41
630.978	11445.48
631.332	11584.23
631.687	11548.3
632.041	11443.22
632.396	11499.03
632.75	11481.86
633.104	11407.96
633.459	11325.48
633.813	11439.83
634.167	11369.32
634.521	11393.95
634.875	11408.64
635.229	11343.78
635.583	11320.28
635.937	11259.72
636.291	11332.71
636.645	11287.29
636.999	11250.9
637.352	11285.48
637.706	11276.44
638.06	11238.93
638.413	11230.34
638.767	11192.83
639.121	11205.26
639.474	11160.51
639.828	11172.04
640.181	11182.66
640.534	11174.3
640.888	11084.81
641.241	11125.94
641.594	11108.31
641.947	11207.52
642.301	11069.67
642.654	11086.62
643.007	11101.3
643.36	11097.91
643.713	11065.15
644.066	11220.62
644.419	11044.58
644.771	10974.75
645.124	10867.64
645.477	10853.85
645.83	10842.78
646.182	10721.88
646.535	10797.81
646.888	10692.73
647.24	10584.71
647.593	10719.62
647.945	10671.26
648.298	10613.18
648.65	10672.61
649.002	10597.36
649.355	10678.49
649.707	10674.2
650.059	10660.19
650.411	10841.65
650.763	10890.01
651.115	10949.44
651.467	10926.39
651.819	11008.43
652.171	10961.87
652.523	10854.76
652.875	10908.99
653.227	10861.08
653.578	10979.05
653.93	10961.19
654.282	10853.4
654.633	10895.43
654.985	10949.44
655.337	10942.89
655.688	10928.2
656.039	10990.8
656.391	10927.07
656.742	10918.71
657.094	10956.22
657.445	10910.12
657.796	10897.24
658.147	10857.47
658.498	10854.98
658.849	10897.69
659.2	10852.72
659.551	10934.3
659.902	10966.62
660.253	10914.64
660.604	10859.28
660.955	10866.96
661.306	10904.02
661.656	10944.47
662.007	10970.01
662.358	10898.15
662.708	10943.34
663.059	10955.09
663.409	10879.84
663.76	10951.25
664.11	10913.51
664.461	10934.3
664.811	10936.79
665.161	10942.66
665.511	10822.89
665.862	10975.21
666.212	10946.96
666.562	10997.58
666.912	10911.48
667.262	10964.81
667.612	10900.63
667.962	10920.29
668.312	10895.89
668.662	10931.82
669.011	10940.86
669.361	10859.5
669.711	10924.81
670.06	10910.35
670.41	10888.43
670.76	10828.09
671.109	10916
671.459	10940.4
671.808	10866.51
672.157	10897.92
672.507	10833.51
672.856	10813.4
673.205	10814.31
673.554	10843.46
673.904	10761.88
674.253	10867.64
674.602	10840.75
674.951	10645.72
675.3	10589.23
675.649	10789.45
675.998	10777.24
676.346	10726.4
676.695	10802.55
677.044	10699.05
677.393	10704.03
677.741	10766.4
678.09	10742.22
678.438	10697.92
678.787	10746.06
679.135	10684.37
679.484	10662.67
679.832	10709.22
680.181	10571.15
680.529	10603.69
680.877	10609.34
681.225	10545.61
681.573	10670.36
681.922	10481.89
682.27	10431.27
682.618	10520.75
682.966	10480.08
683.314	10422.45
683.661	10422.23
684.009	10375.9
684.357	10381.55
684.705	10345.39
685.053	10345.17
685.4	10323.25
685.748	10333.87
686.095	10299.07
686.443	10223.81
686.79	10193.53
687.138	10202.57
687.485	10274.66
687.832	10182.91
688.18	10158.5
688.527	10115.79
688.874	10139.52
689.221	10012.07
689.568	9976.59
689.915	10068.34
690.262	9939.98
690.609	9949.02
690.956	9932.97
691.303	9883.03
691.65	9821.34
691.997	9827.21
692.344	9819.76
692.69	9808.46
693.037	9829.25
693.383	9604.85
693.73	9737.5
694.077	9624.96
694.423	9617.95
694.769	9589.93
695.116	9580.44
695.462	9515.36
695.808	9512.19
696.155	9520.33
696.501	9394.46
696.847	9459.99
697.193	9369.6
697.539	9354.91
697.885	9297.96
698.231	9278.3
698.577	9298.41
698.923	9300.45
699.269	9187.68
699.614	9152.2
699.96	9102.94
700.306	9152.88
700.651	9111.75
700.997	9112.2
701.342	9016.61
701.688	9029.27
702.033	8945.65
702.379	8966.67
702.724	8944.52
703.069	8956.95
703.415	8814.58
703.76	8835.83
704.105	8839.22
704.45	8824.75
704.795	8737.98
705.14	8761.48
705.485	8651.2
705.83	8662.72
706.175	8738.2
706.52	8602.39
706.865	8570.75
707.209	8582.95
707.554	8528.04
707.899	8585.89
708.243	8473.12
708.588	8444.65
708.932	8430.64
709.277	8446.46
709.621	8382.73
709.966	8375.05
710.31	8426.12
710.654	8255.05
710.998	8342.96
711.342	8289.17
711.687	8245.79
712.031	8269.74
712.375	8185.67
712.719	8219.35
713.063	8176.41
713.407	8208.72
713.75	8131.89
714.094	8167.82
714.438	8126.47
714.782	8121.04
715.125	8064.55
715.469	8103.42
715.812	8105.9
716.156	8008.05
716.499	8072.23
716.843	8085.56
717.186	8026.81
717.53	8013.7
717.873	8066.13
718.216	7966.47
718.559	7965.34
718.902	7928.28
719.246	7950.2
719.589	7978
719.932	7856.42
720.275	7899.58
720.617	7892.8
720.96	7904.78
721.303	7869.75
721.646	7893.03
721.989	7791.79
722.331	7855.97
722.674	7840.82
723.016	7808.96
723.359	7772.13
723.701	7794.95
724.044	7751.11
724.386	7747.95
724.729	7828.62
725.071	7728.74
725.413	7749.3
725.755	7712.92
726.097	7689.19
726.439	7656.65
726.782	7707.72
727.124	7744.78
727.465	7676.99
727.807	7635.41
728.149	7634.73
728.491	7645.35
728.833	7738.45
729.175	7640.15
729.516	7627.27
729.858	7663.65
730.199	7669.98
730.541	7643.99
730.882	7629.31
731.224	7694.39
731.565	7603.32
731.906	7571.45
732.248	7612.58
732.589	7603.09
732.93	7604.67
733.271	7631.34
733.612	7589.98
733.953	7611.45
734.294	7632.02
734.635	7589.76
734.976	7626.82
735.317	7586.14
735.658	7599.93
735.999	7608.29
736.339	7634.5
736.68	7598.8
737.021	7600.15
737.361	7568.29
737.702	7587.95
738.042	7616.42
738.383	7639.02
738.723	7637.67
739.063	7593.37
739.404	7626.37
739.744	7642.64
740.084	7655.52
740.424	7658.68
740.764	7673.15
741.104	7741.62
741.444	7653.03
741.784	7645.12
742.124	7674.5
742.464	7733.48
742.804	7651.45
743.143	7753.6
743.483	7724.44
743.823	7698.68
744.162	7755.86
744.502	7753.37
744.841	7782.97
745.181	7818.9
745.52	7868.17
745.86	7942.07
746.199	7920.14
746.538	7974.83
746.877	8020.93
747.216	8060.25
747.556	8040.59
747.895	8085.34
748.234	8177.54
748.573	8173.92
748.911	8198.78
749.25	8263.19
749.589	8257.09
749.928	8360.36
750.267	8509.06
750.605	8528.94
750.944	8605.78
751.283	8632.67
751.621	8777.98
751.96	8737.3
752.298	8867.24
752.636	8975.26
752.975	8974.58
753.313	9016.61
753.651	9211.41
753.989	9257.96
754.327	9355.36
754.666	9391.74
755.004	9507.22
755.342	9728.68
755.679	9807.33
756.017	9934.1
756.355	10076.02
756.693	10149.46
757.031	10340.87
757.368	10393.98
757.706	10567.76
758.044	10607.31
758.381	10826.74
758.719	10900.18
759.056	11128.65
759.394	11162.55
759.731	11300.39
760.068	11524.34
760.405	11562.08
760.743	11699.71
761.08	11858.8
761.417	12019.02
761.754	12186.47
762.091	12387.82
762.428	12529.97
762.765	12582.17
763.102	12887.47
