Data from hue_200_FLMS001491_00091.txt Node
Date: Tue Feb 07 16:44:12 GMT 2017
User: dcchb
Spectrometer: FLMS00149
Trigger mode: 0
Integration Time (sec): 2.000000E-2
Scans to average: 10
Electric dark correction enabled: true
Nonlinearity correction enabled: false
Boxcar width: 0
XAxis mode: Wavelengths
Number of Pixels in Spectrum: 2048
>>>>>Begin Spectral Data<<<<<
341.393	0.61
341.776	0.61
342.16	0.61
342.543	-68.77
342.927	-64.7
343.31	-88.2
343.693	-76.45
344.077	-72.39
344.46	-52.27
344.843	-62.67
345.226	-59.96
345.61	-19.28
345.993	-20.18
346.376	-14.08
346.759	20.49
347.142	29.53
347.525	46.48
347.908	65.24
348.291	89.19
348.674	106.82
349.057	107.72
349.44	118.12
349.823	141.85
350.206	161.96
350.588	193.37
350.971	219.36
351.354	229.75
351.737	252.13
352.119	240.38
352.502	251.67
352.884	279.02
353.267	249.64
353.65	271.79
354.032	284.67
354.414	297.32
354.797	302.52
355.179	296.87
355.562	317.21
355.944	324.44
356.326	330.32
356.709	339.36
357.091	336.42
357.473	344.33
357.855	332.58
358.238	345.91
358.62	330.32
359.002	331.9
359.384	340.49
359.766	331.22
360.148	347.04
360.53	329.19
360.912	331.45
361.294	324.67
361.676	318.79
362.057	312.92
362.439	316.53
362.821	325.12
363.203	353.82
363.584	343.42
363.966	321.28
364.348	318.79
364.729	321.73
365.111	316.31
365.493	300.71
365.874	316.31
366.256	312.24
366.637	332.58
367.019	305.46
367.4	314.27
367.781	319.92
368.163	312.69
368.544	299.36
368.925	301.84
369.306	314.27
369.688	316.08
370.069	306.81
370.45	310.88
370.831	311.33
371.212	307.27
371.593	305.23
371.974	288.51
372.355	288.51
372.736	315.63
373.117	305.01
373.498	309.07
373.879	287.38
374.26	313.14
374.641	310.88
375.021	318.34
375.402	322.63
375.783	339.13
376.163	316.31
376.544	333.48
376.925	317.21
377.305	309.53
377.686	299.81
378.066	298.23
378.447	295.97
378.827	315.18
379.208	329.64
379.588	319.92
379.968	316.98
380.349	338.23
380.729	333.71
381.109	339.81
381.489	347.72
381.87	331.9
382.25	330.99
382.63	334.38
383.01	325.8
383.39	334.16
383.77	344.78
384.15	324.67
384.53	328.73
384.91	342.97
385.29	334.16
385.67	341.62
386.049	326.47
386.429	347.04
386.809	344.33
387.189	323.54
387.568	343.65
387.948	347.49
388.328	350.2
388.707	350.65
389.087	353.14
389.466	359.47
389.846	355.63
390.225	343.42
390.605	364.44
390.984	370.32
391.363	373.03
391.743	389.98
392.122	357.89
392.501	371.67
392.881	371.9
393.26	375.51
393.639	341.62
394.018	376.19
394.397	370.77
394.776	386.59
395.155	388.17
395.534	397.43
395.913	359.02
396.292	376.42
396.671	378.22
397.05	403.31
397.429	399.69
397.808	387.04
398.186	388.17
398.565	399.69
398.944	395.85
399.323	387.94
399.701	415.06
400.08	401.05
400.458	417.77
400.837	415.29
401.215	401.27
401.594	409.41
401.972	430.43
402.351	406.02
402.729	399.69
403.107	440.82
403.486	438.11
403.864	418.45
404.242	440.6
404.62	460.03
404.999	436.3
405.377	446.92
405.755	453.02
406.133	461.16
406.511	446.25
406.889	465.91
407.267	479.24
407.645	465.68
408.023	467.26
408.401	511.33
408.779	479.92
409.156	501.39
409.534	498.67
409.912	521.72
410.29	501.39
410.667	554.72
411.045	536.64
411.422	535.06
411.8	556.75
412.178	549.29
412.555	571.44
412.933	581.83
413.31	586.35
413.687	583.87
414.065	584.09
414.442	615.96
414.819	622.06
415.197	654.6
415.574	614.15
415.951	642.62
416.328	645.34
416.705	669.74
417.082	659.57
417.46	693.47
417.837	685.56
418.214	706.13
418.591	714.03
418.967	716.29
419.344	732.57
419.721	750.87
420.098	759.46
420.475	767.82
420.852	782.06
421.228	784.32
421.605	781.83
421.982	808.72
422.358	845.1
422.735	837.65
423.111	853.01
423.488	868.16
423.864	884.88
424.241	907.25
424.617	914.48
424.994	924.2
425.37	919
425.746	970.98
426.123	995.16
426.499	992.9
426.875	1008.04
427.251	1004.2
427.627	1053.69
428.003	1041.03
428.379	1079.9
428.756	1065.21
429.132	1083.74
429.507	1105.44
429.883	1117.19
430.259	1113.57
430.635	1148.6
431.011	1161.25
431.387	1175.49
431.763	1163.74
432.138	1220.46
432.514	1204.42
432.89	1259.33
433.265	1280.35
433.641	1258.65
434.016	1326.45
434.392	1358.99
434.767	1369.16
435.143	1389.72
435.518	1393.34
435.894	1440.12
436.269	1470.17
436.644	1474.47
437.02	1496.16
437.395	1507.91
437.77	1579.32
438.145	1589.94
438.52	1627.91
438.895	1629.04
439.271	1639.43
439.646	1724.18
440.021	1721.24
440.395	1748.13
440.77	1729.15
441.145	1768.7
441.52	1795.81
441.895	1821.35
442.27	1904.74
442.645	1850.73
443.019	1896.15
443.394	1890.5
443.769	1915.36
444.143	1917.17
444.518	1976.83
444.892	1984.28
445.267	1998.07
445.641	2031.74
446.016	2035.13
446.39	2062.47
446.764	2062.47
447.139	2084.39
447.513	2104.51
447.887	2123.72
448.262	2119.65
448.636	2133.43
449.01	2147.22
449.384	2216.82
449.758	2189.48
450.132	2226.31
450.506	2284.16
450.88	2264.05
451.254	2269.47
451.628	2310.15
452.002	2351.05
452.376	2349.02
452.75	2343.82
453.123	2414.1
453.497	2449.58
453.871	2476.93
454.244	2490.94
454.618	2526.19
454.992	2529.58
455.365	2569.81
455.739	2638.05
456.112	2655
456.486	2590.14
456.859	2644.38
457.232	2742.91
457.606	2732.96
457.979	2762.79
458.352	2793.08
458.725	2839.63
459.099	2864.49
459.472	2905.39
459.845	2938.38
460.218	2939.74
460.591	2981.09
460.964	2990.81
461.337	3126.85
461.71	3158.94
462.083	3168.89
462.456	3157.81
462.829	3193.74
463.201	3234.42
463.574	3285.04
463.947	3329.33
464.32	3376.34
464.692	3430.35
465.065	3405.94
465.438	3433.74
465.81	3515.77
466.183	3523
466.555	3624.24
466.928	3637.8
467.3	3612.94
467.672	3741.53
468.045	3773.62
468.417	3816.1
468.789	3828.3
469.161	3853.84
469.534	3948.3
469.906	4025.81
470.278	4021.07
470.65	4081.86
471.022	4130.89
471.394	4217.67
471.766	4276.65
472.138	4284.11
472.51	4354.17
472.882	4444.78
473.253	4503.99
473.625	4543.99
473.997	4643.88
474.369	4618.57
474.74	4710.99
475.112	4759.13
475.484	4815.17
475.855	4930.65
476.227	4983.08
476.598	5088.38
476.97	5160.47
477.341	5209.51
477.713	5277.3
478.084	5351.2
478.455	5466
478.827	5475.27
479.198	5622.61
479.569	5654.47
479.94	5797.74
480.311	5816.27
480.682	5959.09
481.053	6063.95
481.424	6107.57
481.795	6162.93
482.166	6287
482.537	6354.34
482.908	6485.41
483.279	6550.72
483.65	6653.77
484.021	6772.18
484.391	6773.31
484.762	6828.9
485.133	6956.81
485.503	6976.92
485.874	7157.71
486.244	7186.18
486.615	7309.79
486.985	7344.37
487.356	7515.89
487.726	7559.05
488.097	7684.93
488.467	7666.85
488.837	7906.16
489.207	7905.26
489.578	8029.32
489.948	8102.32
490.318	8159.49
490.688	8171.01
491.058	8342.99
491.428	8385.02
491.798	8451.91
492.168	8598.35
492.538	8562.64
492.908	8707.27
493.278	8780.04
493.648	8766.03
494.017	8906.14
494.387	8968.51
494.757	9053.02
495.126	9040.14
495.496	9128.95
495.866	9122.18
496.235	9198.56
496.605	9309.97
496.974	9312.23
497.344	9341.83
497.713	9339.34
498.082	9397.65
498.452	9553.35
498.821	9640.58
499.19	9592.22
499.559	9654.36
499.928	9657.75
500.298	9764.19
500.667	9763.74
501.036	9733.01
501.405	9853.68
501.774	9853.23
502.143	9884.42
502.512	9799.9
502.88	10006.45
503.249	9970.06
503.618	9992.44
503.987	9992.44
504.356	10050.06
504.724	10109.27
505.093	10076.27
505.462	10071.98
505.83	10198.08
506.199	10180.9
506.567	10278.98
506.936	10253.9
507.304	10353.33
507.672	10359.66
508.041	10395.59
508.409	10401.69
508.777	10516.26
509.145	10520.1
509.514	10413.67
509.882	10468.35
510.25	10522.14
510.618	10629.71
510.986	10530.73
511.354	10573.89
511.722	10650.04
512.09	10687.56
512.458	10618.86
512.826	10671.06
513.193	10704.05
513.561	10699.08
513.929	10768.69
514.297	10770.04
514.664	10787.44
515.032	10851.4
515.4	10835.12
515.767	10804.84
516.135	10875.8
516.502	10685.75
516.869	10910.15
517.237	10841.9
517.604	10909.25
517.972	10883.71
518.339	10904.28
518.706	10894.11
519.073	10978.17
519.44	10897.04
519.808	10967.78
520.175	10779.31
520.542	10981.56
520.909	10991.96
521.276	10970.26
521.643	10983.37
522.009	10977.72
522.376	11177.94
522.743	11058.4
523.11	11096.13
523.477	11058.62
523.843	11147.43
524.21	11137.72
524.577	11215.23
524.943	11162.57
525.31	11121.44
525.676	11193.99
526.043	11184.95
526.409	11081.22
526.776	11235.11
527.142	11200.54
527.508	11205.06
527.874	11179.75
528.241	11175.23
528.607	11172.52
528.973	11215.23
529.339	11123.93
529.705	11125.06
530.071	11213.42
530.437	11165.51
530.803	11218.17
531.169	11159.41
531.535	11086.19
531.901	11033.76
532.267	11056.81
532.632	11042.12
532.998	11015.91
533.364	10979.53
533.73	10964.16
534.095	11003.71
534.461	10976.36
534.826	10927.55
535.192	10910.15
535.557	10931.17
535.923	10860.43
536.288	10781.11
536.653	10713.77
537.019	10725.3
537.384	10624.96
537.749	10674.45
538.114	10606.2
538.479	10572.76
538.845	10570.95
539.21	10492.99
539.575	10467.22
539.94	10517.17
540.305	10426.77
540.67	10371.41
541.034	10333.89
541.399	10345.87
541.764	10245.76
542.129	10250.06
542.494	10217.97
542.858	10148.82
543.223	10087.8
543.587	10071.98
543.952	10031.08
544.316	9998.08
544.681	9875.38
545.045	9935.49
545.41	9850.74
545.774	9862.72
546.138	9752.22
546.503	9738.2
546.867	9734.36
547.231	9747.24
547.595	9627.92
547.959	9579.34
548.324	9601.26
548.688	9466.8
549.052	9460.25
549.416	9477.65
549.779	9414.82
550.143	9410.98
550.507	9388.16
550.871	9310.19
551.235	9320.81
551.599	9234.94
551.962	9252.79
552.326	9157.43
552.689	9151.33
553.053	9146.13
553.417	9056.87
553.78	9070.88
554.143	8975.29
554.507	9040.14
554.87	9007.6
555.234	9014.83
555.597	8860.71
555.96	8863.88
556.323	8896.87
556.686	8797.66
557.05	8773.26
557.413	8785.01
557.776	8766.7
558.139	8786.59
558.502	8808.29
558.865	8707.72
559.228	8730.77
559.59	8689.42
559.953	8619.36
560.316	8686.03
560.679	8689.42
561.041	8663.66
561.404	8674.28
561.767	8637.89
562.129	8608.06
562.492	8649.65
562.854	8568.29
563.217	8530.55
563.579	8535.3
563.941	8593.15
564.304	8552.47
564.666	8514.28
565.028	8676.09
565.39	8608.74
565.753	8568.97
566.115	8572.59
566.477	8572.13
566.839	8545.02
567.201	8603.32
567.563	8571
567.925	8605.13
568.287	8534.39
568.648	8596.77
569.01	8608.97
569.372	8626.14
569.734	8624.34
570.095	8559.25
570.457	8653.49
570.819	8586.82
571.18	8599.7
571.542	8580.49
571.903	8585.47
572.265	8552.7
572.626	8591.12
572.987	8568.07
573.349	8622.75
573.71	8560.61
574.071	8632.02
574.432	8651.91
574.794	8606.26
575.155	8649.65
575.516	8596.99
575.877	8560.16
576.238	8598.35
576.599	8584.11
576.96	8653.04
577.32	8576.43
577.681	8589.08
578.042	8596.31
578.403	8628.63
578.763	8577.33
579.124	8606.48
579.485	8642.19
579.845	8633.83
580.206	8561.06
580.566	8574.39
580.927	8598.35
581.287	8634.73
581.648	8681.51
582.008	8619.14
582.368	8653.04
582.728	8588.18
583.089	8660.49
583.449	8565.81
583.809	8561.51
584.169	8634.5
584.529	8554.51
584.889	8684.67
585.249	8521.06
585.609	8580.49
585.969	8612.81
586.329	8491.23
586.688	8552.02
587.048	8512.93
587.408	8405.13
587.768	8502.3
588.127	8495.75
588.487	8504.56
588.846	8582.08
589.206	8478.35
589.565	8497.79
589.925	8575.07
590.284	8494.85
590.643	8477.22
591.003	8482.64
591.362	8534.39
591.721	8498.69
592.08	8474.96
592.44	8495.07
592.799	8468.18
593.158	8482.42
593.517	8466.83
593.876	8522.19
594.235	8409.65
594.593	8481.06
594.952	8451.23
595.311	8439.71
595.67	8419.14
596.029	8503.21
596.387	8413.72
596.746	8465.92
597.104	8384.12
597.463	8395.64
597.822	8435.19
598.18	8358.81
598.538	8387.73
598.897	8371.91
599.255	8341.18
599.613	8415.75
599.972	8356.77
600.33	8384.79
600.688	8411.23
601.046	8395.41
601.404	8434.74
601.762	8392.25
602.12	8378.92
602.478	8387.28
602.836	8373.49
603.194	8328.52
603.552	8363.1
603.91	8343.21
604.268	8417.56
604.625	8312.25
604.983	8324.46
605.341	8310.22
605.698	8362.65
606.056	8438.13
606.413	8358.81
606.771	8383.44
607.128	8409.2
607.485	8364.91
607.843	8413.04
608.2	8387.28
608.557	8425.92
608.914	8384.12
609.272	8443.78
609.629	8372.14
609.986	8421.18
610.343	8397.9
610.7	8501.63
611.057	8398.13
611.414	8426.15
611.771	8419.6
612.127	8435.41
612.484	8394.51
612.841	8457.79
613.198	8464.11
613.554	8474.96
613.911	8479.93
614.267	8426.15
614.624	8473.83
614.98	8421.85
615.337	8525.13
615.693	8511.57
616.05	8498.46
616.406	8487.39
616.762	8450.78
617.118	8480.61
617.475	8506.37
617.831	8535.75
618.187	8531.91
618.543	8516.54
618.899	8488.29
619.255	8545.92
619.611	8503.89
619.967	8533.26
620.323	8554.28
620.678	8537.78
621.034	8536.43
621.39	8532.13
621.746	8490.55
622.101	8582.75
622.457	8498.46
622.812	8512.93
623.168	8492.81
623.523	8594.73
623.879	8564
624.234	8496.2
624.589	8559.03
624.945	8538.24
625.3	8538.91
625.655	8540.27
626.01	8534.17
626.365	8568.97
626.72	8508.63
627.075	8442.65
627.43	8518.58
627.785	8512.47
628.14	8419.37
628.495	8444.45
628.85	8483.77
629.205	8458.92
629.559	8484.9
629.914	8473.15
630.269	8413.95
630.623	8472.25
630.978	8451.23
631.332	8413.27
631.687	8443.55
632.041	8419.82
632.396	8430.44
632.75	8321.07
633.104	8447.39
633.459	8360.61
633.813	8304.8
634.167	8353.38
634.521	8349.09
634.875	8341.63
635.229	8286.94
635.583	8292.37
635.937	8286.94
636.291	8310.67
636.645	8285.14
636.999	8253.95
637.352	8206.04
637.706	8240.84
638.06	8252.14
638.413	8234.29
638.767	8216.44
639.121	8237.23
639.474	8135.53
639.828	8192.48
640.181	8229.32
640.534	8175.53
640.888	8185.02
641.241	8129.66
641.594	8137.12
641.947	8191.35
642.301	8127.4
642.654	8135.99
643.007	8141.64
643.36	8158.58
643.713	8116.78
644.066	8110.68
644.419	8077.91
644.771	8077.46
645.124	8030.68
645.477	8001.53
645.83	7933.28
646.182	7904.58
646.535	7903.45
646.888	7825.71
647.24	7860.74
647.593	7831.14
647.945	7859.84
648.298	7807.86
648.65	7830.46
649.002	7839.95
649.355	7862.77
649.707	7862.77
650.059	7843.79
650.411	7953.84
650.763	7964.92
651.115	8051.24
651.467	7998.59
651.819	8040.62
652.171	8102.99
652.523	8034.97
652.875	8002.88
653.227	8000.17
653.578	8061.64
653.93	8008.31
654.282	7935.09
654.633	7955.43
654.985	8018.25
655.337	8029.55
655.688	7992.26
656.039	8040.85
656.391	8022.54
656.742	7992.94
657.094	8013.5
657.445	8056.44
657.796	8123.33
658.147	7963.34
658.498	8042.66
658.849	8047.63
659.2	8077.46
659.551	8008.08
659.902	8077.23
660.253	8022.54
660.604	8103.45
660.955	8051.47
661.306	8047.18
661.656	8021.41
662.007	8074.75
662.358	8112.26
662.708	8091.47
663.059	8078.81
663.409	8065.03
663.76	8099.15
664.11	8076.33
664.461	8130.11
664.811	8158.13
665.161	8152.03
665.511	8122.43
665.862	8082.43
666.212	8084.46
666.562	8113.84
666.912	8110.68
667.262	8089.43
667.612	8092.6
667.962	8123.33
668.312	8185.48
668.662	8158.81
669.011	8074.97
669.361	8141.41
669.711	8091.24
670.06	8081.07
670.41	8060.73
670.76	8091.47
671.109	8079.49
671.459	8053.5
671.808	8010.34
672.157	8095.54
672.507	8035.65
672.856	8041.98
673.205	8013.73
673.554	8062.77
673.904	8031.13
674.253	8043.56
674.602	8046.95
674.951	7916.11
675.3	7877.69
675.649	8022.32
675.998	7994.07
676.346	7963.34
676.695	8055.76
677.044	7939.83
677.393	7974.18
677.741	7962.43
678.09	7941.19
678.438	7924.92
678.787	7938.48
679.135	7921.98
679.484	7859.84
679.832	7883.34
680.181	7839.95
680.529	7874.52
680.877	7819.38
681.225	7820.29
681.573	7831.59
681.922	7829.78
682.27	7761.08
682.618	7810.12
682.966	7771.93
683.314	7737.81
683.661	7680.86
684.009	7706.62
684.357	7678.37
684.705	7667.07
685.053	7690.12
685.4	7675.89
685.748	7625.49
686.095	7581.65
686.443	7603.8
686.79	7570.58
687.138	7526.96
687.485	7607.86
687.832	7464.82
688.18	7505.95
688.527	7496.46
688.874	7426.85
689.221	7408.55
689.568	7360.64
689.915	7421.2
690.262	7366.29
690.609	7367.87
690.956	7306.18
691.303	7361.54
691.65	7304.82
691.997	7263.69
692.344	7258.27
692.69	7151.61
693.037	7272.73
693.383	7117.48
693.73	7149.57
694.077	7096.01
694.423	7124.04
694.769	7052.4
695.116	7046.98
695.462	7027.09
695.808	6997.03
696.155	7023.25
696.501	6905.06
696.847	6963.59
697.193	6937.37
697.539	6842.01
697.885	6837.94
698.231	6831.84
698.577	6799.07
698.923	6781.45
699.269	6762.92
699.614	6742.8
699.96	6695.57
700.306	6695.8
700.651	6645.63
700.997	6588.46
701.342	6629.59
701.688	6563.37
702.033	6528.8
702.379	6567.44
702.724	6549.14
703.069	6520.66
703.415	6430.27
703.76	6451.51
704.105	6417.39
704.45	6449.03
704.795	6373.55
705.14	6370.16
705.485	6383.94
705.83	6348.91
706.175	6340.55
706.52	6267.34
706.865	6274.34
707.209	6232.31
707.554	6222.14
707.899	6180.33
708.243	6199.09
708.588	6200.9
708.932	6131.97
709.277	6136.72
709.621	6135.36
709.966	6056.49
710.31	6136.04
710.654	6056.27
710.998	6032.99
711.342	6061.24
711.687	5995.48
712.031	5995.48
712.375	5988.7
712.719	6019.88
713.063	6000.22
713.407	5971.98
713.75	5976.95
714.094	5933.78
714.438	5907.57
714.782	5892.88
715.125	5884.52
715.469	5852.43
715.812	5856.27
716.156	5903.05
716.499	5838.42
716.843	5849.27
717.186	5813.11
717.53	5790.51
717.873	5873
718.216	5841.58
718.559	5767.91
718.902	5741.47
719.246	5806.1
719.589	5788.25
719.932	5793.9
720.275	5795.03
720.617	5738.31
720.96	5792.32
721.303	5761.13
721.646	5764.75
721.989	5725.65
722.331	5716.84
722.674	5744.41
723.016	5729.95
723.359	5711.87
723.701	5729.04
724.044	5687.01
724.386	5675.03
724.729	5675.26
725.071	5677.07
725.413	5710.29
725.755	5650.4
726.097	5706.9
726.439	5628.26
726.782	5654.7
727.124	5669.38
727.465	5654.02
727.807	5650.63
728.149	5631.65
728.491	5659.67
728.833	5625.54
729.175	5564.75
729.516	5635.71
729.858	5639.56
730.199	5626.9
730.541	5604.53
730.882	5634.58
731.224	5623.74
731.565	5645.88
731.906	5641.59
732.248	5632.32
732.589	5602.49
732.93	5619.67
733.271	5630.52
733.612	5665.32
733.953	5648.37
734.294	5619.44
734.635	5620.57
734.976	5649.5
735.317	5678.42
735.658	5684.07
735.999	5660.12
736.339	5595.04
736.68	5637.75
737.021	5632.32
737.361	5620.57
737.702	5716.16
738.042	5654.92
738.383	5682.94
738.723	5745.32
739.063	5694.92
739.404	5755.94
739.744	5712.32
740.084	5750.74
740.424	5776.27
740.764	5752.09
741.104	5802.71
741.444	5785.31
741.784	5729.27
742.124	5793.68
742.464	5817.4
742.804	5828.25
743.143	5884.75
743.483	5906.89
743.823	5897.4
744.162	5910.51
744.502	5970.62
744.841	5974.24
745.181	6018.08
745.52	6079.32
745.86	6089.26
746.199	6126.1
746.538	6140.11
746.877	6163.61
747.216	6235.7
747.556	6261.23
747.895	6259.2
748.234	6317.05
748.573	6396.6
748.911	6410.16
749.25	6502.13
749.589	6579.19
749.928	6628.91
750.267	6693.99
750.605	6738.51
750.944	6791.62
751.283	6871.61
751.621	7024.83
751.96	6972.4
752.298	7082.68
752.636	7187.99
752.975	7314.31
753.313	7384.37
753.651	7518.83
753.989	7595.89
754.327	7717.47
754.666	7732.38
755.004	7884.92
755.342	8061.41
755.679	8154.74
756.017	8310.45
756.355	8471.57
756.693	8512.93
757.031	8677.67
757.368	8847.61
757.706	8922.86
758.044	9104.55
758.381	9268.84
758.719	9443.3
759.056	9627.02
759.394	9709.96
759.731	9863.17
760.068	10037.18
760.405	10230.39
760.743	10357.4
761.08	10541.12
761.417	10676.71
761.754	10792.41
762.091	11060.2
762.428	11215.23
762.765	11312.63
763.102	11552.85
763.438	11665.84
763.775	11889.11
764.112	12031.93
764.449	12208.65
764.785	12428.08
765.122	12518.02
765.458	12596.89
765.795	12847.5
766.131	13024.45
