Data from hue_200_FLMS001491_00023.txt Node
Date: Tue Feb 07 16:43:02 GMT 2017
User: dcchb
Spectrometer: FLMS00149
Trigger mode: 0
Integration Time (sec): 2.000000E-2
Scans to average: 10
Electric dark correction enabled: true
Nonlinearity correction enabled: false
Boxcar width: 0
XAxis mode: Wavelengths
Number of Pixels in Spectrum: 2048
>>>>>Begin Spectral Data<<<<<
341.393	-17.75
341.776	-17.75
342.16	-17.75
342.543	-57.98
342.927	-56.4
343.31	-65.89
343.693	-78.54
344.077	-67.47
344.46	-72.67
344.843	-54.36
345.226	-39.22
345.61	-33.35
345.993	-27.7
346.376	-16.17
346.759	14.56
347.142	40.78
347.525	30.61
347.908	59.76
348.291	93.66
348.674	98.4
349.057	117.61
349.44	149.93
349.823	148.34
350.206	180.89
350.588	191.51
350.971	210.26
351.354	211.84
351.737	251.17
352.119	252.52
352.502	229.02
352.884	281.67
353.267	263.82
353.65	307.66
354.032	292.97
354.414	298.85
354.797	326.42
355.179	316.47
355.562	328
355.944	311.28
356.326	342.24
356.709	326.87
357.091	327.77
357.473	344.95
357.855	344.27
358.238	356.93
358.62	342.24
359.002	357.15
359.384	340.88
359.766	339.75
360.148	344.5
360.53	340.65
360.912	348.11
361.294	325.74
361.676	335.01
362.057	339.98
362.439	339.52
362.821	313.99
363.203	330.71
363.584	314.21
363.966	316.7
364.348	332.07
364.729	322.35
365.111	331.62
365.493	333.42
365.874	297.94
366.256	313.99
366.637	318.06
367.019	315.12
367.4	319.41
367.781	309.47
368.163	319.41
368.544	319.19
368.925	301.33
369.306	304.95
369.688	299.53
370.069	308.57
370.45	321.9
370.831	317.6
371.212	297.27
371.593	319.41
371.974	318.73
372.355	307.89
372.736	319.64
373.117	313.76
373.498	324.61
373.879	313.76
374.26	315.12
374.641	325.06
375.021	302.92
375.402	338.17
375.783	318.28
376.163	329.13
376.544	305.85
376.925	328.9
377.305	330.03
377.686	330.94
378.066	313.54
378.447	327.77
378.827	338.85
379.208	326.87
379.588	349.92
379.968	329.36
380.349	329.36
380.729	317.6
381.109	334.33
381.489	307.89
381.87	339.52
382.25	334.1
382.63	348.56
383.01	343.59
383.39	350.37
383.77	333.2
384.15	357.6
384.53	337.72
384.91	337.04
385.29	324.38
385.67	361.67
386.049	346.98
386.429	344.5
386.809	364.84
387.189	342.46
387.568	358.28
387.948	350.37
388.328	335.91
388.707	355.57
389.087	346.53
389.466	358.06
389.846	357.38
390.225	374.55
390.605	376.36
390.984	372.07
391.363	372.07
391.743	390.15
392.122	372.07
392.501	360.32
392.881	376.13
393.26	366.42
393.639	390.37
394.018	374.33
394.397	386.53
394.776	367.77
395.155	394.66
395.534	406.87
395.913	376.36
396.292	402.8
396.671	387.21
397.05	405.51
397.429	362.8
397.808	396.47
398.186	386.98
398.565	386.08
398.944	411.61
399.323	406.19
399.701	387.66
400.08	412.97
400.458	391.05
400.837	417.26
401.215	419.07
401.594	434.21
401.972	452.29
402.351	429.01
402.729	419.75
403.107	423.59
403.486	424.04
403.864	438.96
404.242	436.25
404.62	436.25
404.999	433.31
405.377	451.84
405.755	464.49
406.133	475.34
406.511	459.3
406.889	471.72
407.267	487.09
407.645	475.34
408.023	489.8
408.401	484.61
408.779	481.67
409.156	484.83
409.534	516.92
409.912	508.79
410.29	524.15
410.667	561.44
411.045	565.51
411.422	558.05
411.8	538.84
412.178	566.64
412.555	575.9
412.933	590.82
413.31	581.55
413.687	595.11
414.065	624.49
414.442	633.3
414.819	633.98
415.197	616.58
415.574	631.95
415.951	656.58
416.328	650.03
416.705	683.7
417.082	673.08
417.46	678.5
417.837	710.36
418.214	724.15
418.591	716.46
418.967	733.86
419.344	732.96
419.721	743.13
420.098	752.62
420.475	768.21
420.852	763.69
421.228	797.37
421.605	809.57
421.982	809.34
422.358	856.8
422.735	866.74
423.111	859.74
423.488	898.38
423.864	895.44
424.241	898.15
424.617	914.88
424.994	937.7
425.37	923.24
425.746	961.88
426.123	988.1
426.499	998.49
426.875	1007.98
427.251	1026.96
427.627	1038.94
428.003	1035.1
428.379	1077.36
428.756	1097.02
429.132	1110.35
429.507	1117.81
429.883	1121.2
430.259	1149.45
430.635	1156.45
431.011	1153.29
431.387	1189.45
431.763	1198.26
432.138	1229.22
432.514	1244.81
432.89	1254.53
433.265	1280.74
433.641	1274.87
434.016	1332.04
434.392	1351.7
434.767	1371.14
435.143	1392.15
435.518	1407.97
435.894	1449.78
436.269	1483
436.644	1506.73
437.02	1504.47
437.395	1523.45
437.77	1568.65
438.145	1628.3
438.52	1632.37
438.895	1662.2
439.271	1663.33
439.646	1707.85
440.021	1767.06
440.395	1770
440.77	1775.65
441.145	1784.68
441.52	1847.28
441.895	1868.3
442.27	1857.45
442.645	1872.59
443.019	1933.16
443.394	1954.85
443.769	1968.63
444.143	1940.84
444.518	1980.16
444.892	1983.55
445.267	2011.8
445.641	2047.73
446.016	2088.63
446.39	2105.35
446.764	2122.98
447.139	2102.19
447.513	2133.6
447.887	2139.7
448.262	2169.08
448.636	2182.19
449.01	2191.23
449.384	2239.59
449.758	2194.39
450.132	2261.28
450.506	2295.63
450.88	2300.6
451.254	2319.36
451.628	2344.67
452.002	2363.2
452.376	2378.79
452.75	2415.85
453.123	2405.01
453.497	2496.3
453.871	2541.73
454.244	2579.69
454.618	2531.56
454.992	2610.43
455.365	2563.2
455.739	2630.31
456.112	2663.08
456.486	2696.53
456.859	2754.6
457.232	2777.88
457.606	2757.54
457.979	2812.68
458.352	2843.87
458.725	2883.19
459.099	2925.22
459.472	2980.59
459.845	3004.09
460.218	3024.88
460.591	3047.48
460.964	3056.52
461.337	3119.34
461.71	3139.9
462.083	3160.02
462.456	3192.11
462.829	3243.86
463.201	3322.05
463.574	3319.11
463.947	3362.04
464.32	3428.94
464.692	3444.53
465.065	3500.57
465.438	3550.74
465.81	3614.02
466.183	3620.12
466.555	3677.74
466.928	3692.66
467.3	3711.19
467.672	3757.06
468.045	3842.03
468.417	3832.99
468.789	3898.3
469.161	3927.23
469.534	3973.33
469.906	4055.81
470.278	4106.66
470.65	4158.18
471.022	4187.56
471.394	4265.07
471.766	4307.78
472.138	4355.01
472.51	4451.28
472.882	4489.25
473.253	4540.32
473.625	4633.42
473.997	4671.16
474.369	4728.34
474.74	4733.99
475.112	4865.51
475.484	4933.98
475.855	4956.58
476.227	5065.5
476.598	5203.35
476.97	5209.68
477.341	5334.87
477.713	5404.93
478.084	5405.38
478.455	5526.28
478.827	5573.29
479.198	5776.44
479.569	5680.18
479.94	5902.32
480.311	5951.81
480.682	6030.67
481.053	6133.5
481.424	6218.24
481.795	6263.44
482.166	6400.16
482.537	6377.78
482.908	6561.06
483.279	6652.58
483.65	6710.43
484.021	6831.33
484.391	6831.33
484.762	7004.66
485.133	7028.61
485.503	7125.34
485.874	7216.63
486.244	7329.62
486.615	7407.59
486.985	7478.55
487.356	7575.04
487.726	7617.75
488.097	7818.2
488.467	7793.34
488.837	7953.56
489.207	7958.08
489.578	8089.6
489.948	8201.01
490.318	8264.74
490.688	8286.89
491.058	8400.1
491.428	8473.77
491.798	8562.59
492.168	8657.05
492.538	8736.82
492.908	8851.39
493.278	8834.44
493.648	8833.09
494.017	9013.65
494.387	9060.65
494.757	9098.84
495.126	9201.89
495.496	9207.99
495.866	9180.42
496.235	9270.14
496.605	9385.16
496.974	9409.57
497.344	9473.07
497.713	9481.66
498.082	9549.45
498.452	9690.47
498.821	9707.19
499.19	9643.91
499.559	9727.98
499.928	9809.11
500.298	9860.4
500.667	9898.6
501.036	9828.09
501.405	9907.86
501.774	9912.15
502.143	9922.1
502.512	9984.24
502.88	10085.71
503.249	10091.36
503.618	10076.67
503.987	10132.49
504.356	10216.78
504.724	10141.3
505.093	10193.28
505.462	10206.84
505.83	10259.49
506.199	10284.8
506.567	10394.85
506.936	10337.45
507.304	10439.15
507.672	10482.99
508.041	10484.12
508.409	10522.31
508.777	10519.82
509.145	10556.21
509.514	10554.4
509.882	10644.34
510.25	10561.63
510.618	10601.85
510.986	10636.66
511.354	10739.03
511.722	10746.71
512.09	10767.5
512.458	10758.91
512.826	10780.38
513.193	10757.56
513.561	10821.96
513.929	10786.93
514.297	10853.37
514.664	10904.67
515.032	10941.51
515.4	10976.31
515.767	10865.8
516.135	10960.04
516.502	10785.35
516.869	11033.26
517.237	10941.51
517.604	10863.99
517.972	11016.98
518.339	10966.14
518.706	10948.96
519.073	10953.03
519.44	10939.25
519.808	11039.58
520.175	10942.86
520.542	11058.34
520.909	11018.79
521.276	10999.58
521.643	10984.89
522.009	11149.86
522.376	11093.14
522.743	11095.85
523.11	11168.62
523.477	11178.11
523.843	11139.24
524.21	11199.8
524.577	11187.83
524.943	11185.57
525.31	11217.43
525.676	11203.42
526.043	11180.82
526.409	11208.17
526.776	11248.62
527.142	11195.51
527.508	11274.6
527.874	11167.94
528.241	11172.91
528.607	11148.05
528.973	11201.61
529.339	11219.92
529.705	11167.04
530.071	11166.81
530.437	11225.57
530.803	11174.27
531.169	11197.77
531.535	11076.42
531.901	11011.79
532.267	11076.42
532.632	11101.95
532.998	11045.46
533.364	11056.98
533.73	10957.78
534.095	11039.13
534.461	10932.92
534.826	10871.23
535.192	10959.58
535.557	10936.76
535.923	10858.34
536.288	10825.12
536.653	10790.32
537.019	10731.34
537.384	10702.64
537.749	10729.31
538.114	10727.5
538.479	10616.54
538.845	10577.9
539.21	10532.03
539.575	10473.95
539.94	10416.77
540.305	10461.07
540.67	10318.7
541.034	10327.74
541.399	10340.17
541.764	10242.54
542.129	10255.2
542.494	10169.1
542.858	10164.13
543.223	10080.29
543.587	10120.28
543.952	10045.71
544.316	10020.4
544.681	9972.27
545.045	9890.46
545.41	9870.12
545.774	9874.19
546.138	9828.77
546.503	9768.2
546.867	9696.12
547.231	9744.25
547.595	9664.25
547.959	9644.82
548.324	9628.77
548.688	9598.26
549.052	9565.95
549.416	9464.48
549.779	9478.95
550.143	9371.38
550.507	9415.22
550.871	9385.84
551.235	9357.59
551.599	9238.27
551.962	9225.62
552.326	9183.81
552.689	9193.3
553.053	9138.16
553.417	9122.8
553.78	9215.22
554.143	9112.4
554.507	8966.42
554.87	9040.31
555.234	9061.56
555.597	8968
555.96	8935.23
556.323	8907.21
556.686	8917.38
557.05	8881.9
557.413	8810.94
557.776	8865.4
558.139	8873.31
558.502	8819.3
558.865	8783.14
559.228	8841.67
559.59	8806.42
559.953	8742.24
560.316	8852.97
560.679	8747.21
561.041	8819.53
561.404	8779.53
561.767	8790.6
562.129	8672.87
562.492	8831.05
562.854	8725.75
563.217	8652.3
563.579	8693.88
563.941	8701.56
564.304	8631.06
564.666	8702.69
565.028	8695.92
565.39	8659.31
565.753	8713.09
566.115	8656.59
566.477	8748.12
566.839	8584.28
567.201	8737.95
567.563	8740.43
567.925	8692.98
568.287	8733.88
568.648	8653.43
569.01	8706.76
569.372	8744.5
569.734	8697.72
570.095	8744.5
570.457	8771.85
570.819	8735.01
571.18	8780.21
571.542	8763.94
571.903	8670.38
572.265	8701.79
572.626	8702.02
572.987	8733.65
573.349	8737.72
573.71	8718.51
574.071	8745.63
574.432	8772.98
574.794	8836.48
575.155	8822.47
575.516	8766.42
575.877	8772.98
576.238	8781.79
576.599	8779.76
576.96	8753.09
577.32	8840.32
577.681	8754.22
578.042	8847.55
578.403	8805.07
578.763	8773.88
579.124	8810.71
579.485	8881.45
579.845	8851.39
580.206	8839.41
580.566	8744.28
580.927	8796.7
581.287	8890.94
581.648	8833.99
582.008	8854.78
582.368	8834.22
582.728	8870.83
583.089	8766.87
583.449	8748.57
583.809	8788.79
584.169	8804.39
584.529	8714.22
584.889	8745.18
585.249	8844.84
585.609	8759.87
585.969	8824.73
586.329	8739.3
586.688	8789.7
587.048	8731.85
587.408	8752.41
587.768	8839.87
588.127	8764.39
588.487	8703.82
588.846	8737.95
589.206	8751.96
589.565	8706.54
589.925	8756.7
590.284	8760.32
590.643	8711.96
591.003	8737.72
591.362	8728.23
591.721	8768.46
592.08	8685.97
592.44	8706.76
592.799	8724.62
593.158	8699.31
593.517	8684.62
593.876	8705.41
594.235	8651.4
594.593	8684.16
594.952	8712.41
595.311	8659.76
595.67	8680.55
596.029	8685.07
596.387	8695.24
596.746	8639.65
597.104	8653.66
597.463	8651.62
597.822	8673.09
598.18	8589.93
598.538	8640.32
598.897	8721.68
599.255	8604.17
599.613	8705.41
599.972	8695.24
600.33	8681.68
600.688	8659.31
601.046	8644.62
601.404	8632.19
601.762	8669.48
602.12	8646.2
602.478	8652.98
602.836	8603.94
603.194	8622.47
603.552	8666.99
603.91	8584.51
604.268	8655.46
604.625	8603.04
604.983	8602.58
605.341	8566.88
605.698	8635.35
606.056	8633.09
606.413	8602.36
606.771	8667.67
607.128	8667.67
607.485	8627.22
607.843	8597.61
608.2	8639.65
608.557	8671.06
608.914	8644.84
609.272	8719.19
609.629	8734.56
609.986	8690.27
610.343	8715.35
610.7	8756.93
611.057	8665.86
611.414	8698.63
611.771	8671.51
612.127	8683.71
612.484	8757.61
612.841	8808.91
613.198	8711.73
613.554	8710.6
613.911	8730.49
614.267	8783.37
614.624	8753.99
614.98	8791.51
615.337	8783.6
615.693	8735.24
616.05	8778.63
616.406	8785.4
616.762	8830.83
617.118	8782.69
617.475	8760.77
617.831	8827.21
618.187	8810.49
618.543	8807.32
618.899	8859.53
619.255	8821.56
619.611	8810.26
619.967	8856.14
620.323	8848
620.678	8856.82
621.034	8806.2
621.39	8824.73
621.746	8760.32
622.101	8918.51
622.457	8786.76
622.812	8800.32
623.168	8878.28
623.523	8862.46
623.879	8879.64
624.234	8805.74
624.589	8923.93
624.945	8869.92
625.3	8827.21
625.655	8827.44
626.01	8872.41
626.365	8808.45
626.72	8782.01
627.075	8815.91
627.43	8816.82
627.785	8825.86
628.14	8811.39
628.495	8815.23
628.85	8796.03
629.205	8813.65
629.559	8782.92
629.914	8802.81
630.269	8856.36
630.623	8711.51
630.978	8767.78
631.332	8810.49
631.687	8737.72
632.041	8727.33
632.396	8724.84
632.75	8633.77
633.104	8743.15
633.459	8732.75
633.813	8588.57
634.167	8667.67
634.521	8628.8
634.875	8700.44
635.229	8638.29
635.583	8639.42
635.937	8624.5
636.291	8575.01
636.645	8570.27
636.999	8568.91
637.352	8613.43
637.706	8516.03
638.06	8561
638.413	8560.78
638.767	8528.91
639.121	8548.8
639.474	8515.58
639.828	8502.7
640.181	8522.59
640.534	8513.32
640.888	8553.09
641.241	8433.55
641.594	8482.59
641.947	8475.81
642.301	8436.94
642.654	8466.99
643.007	8441.91
643.36	8390.61
643.713	8422.93
644.066	8426.54
644.419	8413.89
644.771	8439.2
645.124	8294.57
645.477	8257.51
645.83	8210.28
646.182	8172.31
646.535	8184.52
646.888	8160.79
647.24	8206.89
647.593	8177.51
647.945	8130.05
648.298	8154.46
648.65	8165.08
649.002	8080.34
649.355	8120.56
649.707	8142.71
650.059	8209.83
650.411	8259.99
650.763	8230.84
651.115	8411.4
651.467	8354.91
651.819	8367.79
652.171	8361.23
652.523	8286.43
652.875	8341.12
653.227	8252.99
653.578	8355.36
653.93	8288.92
654.282	8296.15
654.633	8239.66
654.985	8323.27
655.337	8283.04
655.688	8253.44
656.039	8313.55
656.391	8246.89
656.742	8242.59
657.094	8361.01
657.445	8382.93
657.796	8337.28
658.147	8300.67
658.498	8301.8
658.849	8325.76
659.2	8271.52
659.551	8302.25
659.902	8324.85
660.253	8338.64
660.604	8361.01
660.955	8300.67
661.306	8360.78
661.656	8262.71
662.007	8372.99
662.358	8395.36
662.708	8348.35
663.059	8361.01
663.409	8375.7
663.76	8374.34
664.11	8345.19
664.461	8373.66
664.811	8379.54
665.161	8367.34
665.511	8376.6
665.862	8392.42
666.212	8347.68
666.562	8393.32
666.912	8412.31
667.262	8362.36
667.612	8381.8
667.962	8323.72
668.312	8341.57
668.662	8366.66
669.011	8408.01
669.361	8397.39
669.711	8412.53
670.06	8409.14
670.41	8325.53
670.76	8265.42
671.109	8357.62
671.459	8292.08
671.808	8256.15
672.157	8376.15
672.507	8282.14
672.856	8243.95
673.205	8305.19
673.554	8286.21
673.904	8297.51
674.253	8312.2
674.602	8219.09
674.951	8212.99
675.3	8106.33
675.649	8256.6
675.998	8285.53
676.346	8255.93
676.695	8261.35
677.044	8180.9
677.393	8223.39
677.741	8227.45
678.09	8210.05
678.438	8140.68
678.787	8205.08
679.135	8196.95
679.484	8122.15
679.832	8159.88
680.181	8064.52
680.529	8109.72
680.877	8101.58
681.225	8046.89
681.573	8132.99
681.922	8097.74
682.27	8035.82
682.618	8008.93
682.966	7977.52
683.314	7967.8
683.661	7974.35
684.009	7933.45
684.357	7963.96
684.705	7930.51
685.053	7918.99
685.4	7885.54
685.748	7881.25
686.095	7822.72
686.443	7846.45
686.79	7845.77
687.138	7831.31
687.485	7832.21
687.832	7775.26
688.18	7777.3
688.527	7779.78
688.874	7731.87
689.221	7722.61
689.568	7651.65
689.915	7658.43
690.262	7629.95
690.609	7599
690.956	7541.82
691.303	7555.38
691.65	7570.75
691.997	7499.34
692.344	7458.43
692.69	7448.49
693.037	7423.41
693.383	7470.18
693.73	7344.09
694.077	7405.78
694.423	7318.1
694.769	7389.74
695.116	7297.76
695.462	7217.54
695.808	7238.1
696.155	7238.78
696.501	7221.6
696.847	7189.51
697.193	7149.06
697.539	7143.19
697.885	7122.17
698.231	7085.34
698.577	7023.64
698.923	7060.7
699.269	7050.08
699.614	6970.76
699.96	6979.12
700.306	6968.73
700.651	6892.57
700.997	6855.51
701.342	6850.09
701.688	6829.75
702.033	6801.5
702.379	6796.3
702.724	6774.16
703.069	6791.11
703.415	6708.4
703.76	6671.34
704.105	6674.73
704.45	6648.74
704.795	6621.17
705.14	6600.83
705.485	6601.06
705.83	6560.83
706.175	6569.19
706.52	6563.54
706.865	6519.7
707.209	6530.1
707.554	6507.72
707.899	6458.23
708.243	6380.95
708.588	6372.13
708.932	6319.25
709.277	6294.17
709.621	6384.79
709.966	6361.06
710.31	6336.66
710.654	6308.63
710.998	6298.01
711.342	6302.98
711.687	6277.67
712.031	6283.78
712.375	6167.17
712.719	6208.98
713.063	6259.14
713.407	6195.42
713.75	6168.07
714.094	6168.52
714.438	6157.23
714.782	6203.1
715.125	6153.84
715.469	6152.25
715.812	6153.61
716.156	6081.75
716.499	6133.95
716.843	6080.39
717.186	6085.36
717.53	6091.92
717.873	6104.35
718.216	6084.23
718.559	6071.58
718.902	6011.92
719.246	6009.21
719.589	5973.05
719.932	5967.17
720.275	5980.05
720.617	5906.61
720.96	5949.55
721.303	5967.63
721.646	5972.6
721.989	5982.99
722.331	5971.24
722.674	5974.86
723.016	5995.42
723.359	5938.7
723.701	5968.53
724.044	5898.02
724.386	5904.58
724.729	5908.64
725.071	5983.67
725.413	5891.02
725.755	5935.99
726.097	5879.72
726.439	5817.12
726.782	5899.6
727.124	5872.49
727.465	5866.16
727.807	5860.51
728.149	5851.7
728.491	5857.12
728.833	5924.69
729.175	5858.48
729.516	5857.57
729.858	5814.64
730.199	5853.05
730.541	5879.49
730.882	5834.07
731.224	5810.12
731.565	5825.71
731.906	5899.83
732.248	5823.45
732.589	5823.9
732.93	5829.55
733.271	5790
733.612	5853.5
733.953	5837.46
734.294	5884.46
734.635	5865.71
734.976	5853.73
735.317	5788.2
735.658	5869.32
735.999	5840.4
736.339	5886.5
736.68	5877.46
737.021	5833.62
737.361	5895.31
737.702	5923.56
738.042	5853.73
738.383	5917.68
738.723	5921.3
739.063	5951.13
739.404	5900.28
739.744	5921.53
740.084	5905.93
740.424	5945.93
740.764	6004.91
741.104	5957.68
741.444	5928.76
741.784	5938.47
742.124	6070.45
742.464	5984.57
742.804	5990.9
743.143	6054.63
743.483	6062.09
743.823	6041.3
744.162	6080.39
744.502	6122.42
744.841	6106.38
745.181	6181.18
745.52	6188.64
745.86	6222.99
746.199	6256.21
746.538	6265.02
746.877	6363.1
747.216	6357.22
747.556	6415.75
747.895	6438.8
748.234	6474.28
748.573	6547.5
748.911	6557.21
749.25	6675.18
749.589	6654.16
749.928	6710.66
750.267	6854.16
750.605	6810.32
750.944	6874.72
751.283	6955.62
751.621	7095.96
751.96	7113.81
752.298	7204.43
752.636	7363.52
752.975	7407.14
753.313	7415.95
753.651	7612.1
753.989	7675.83
754.327	7812.77
754.666	7851.42
755.004	8053.9
755.342	8080.11
755.679	8187.45
756.017	8389.26
756.355	8473.1
756.693	8568.24
757.031	8829.25
757.368	8812.3
757.706	9000.09
758.044	9180.65
758.381	9336.35
758.719	9439.17
759.056	9653.18
759.394	9799.62
759.731	9908.31
760.068	10049.1
760.405	10224.91
760.743	10338.81
761.08	10594.17
761.417	10734.51
761.754	10912.81
762.091	11101.05
762.428	11326.13
762.765	11350.53
763.102	11657.87
763.438	11782.84
763.775	11930.41
764.112	12164.98
764.449	12445.65
764.785	12486.78
765.122	12609.71
765.458	12796.82
765.795	13000.66
766.131	13200.43
766.467	13273.2
766.804	13475
