Data from hue_34_FLMS001491_00036.txt Node
Date: Tue Feb 07 17:25:32 GMT 2017
User: dcchb
Spectrometer: FLMS00149
Trigger mode: 0
Integration Time (sec): 2.000000E-2
Scans to average: 10
Electric dark correction enabled: true
Nonlinearity correction enabled: false
Boxcar width: 0
XAxis mode: Wavelengths
Number of Pixels in Spectrum: 2048
>>>>>Begin Spectral Data<<<<<
341.393	-25.49
341.776	-25.49
342.16	-25.49
342.543	-68.88
342.927	-77.47
343.31	-85.61
343.693	-49.9
344.077	-68.43
344.46	-72.72
344.843	-57.36
345.226	-36.34
345.61	-22.33
345.993	-14.65
346.376	-3.8
346.759	15.86
347.142	28.52
347.525	44.56
347.908	65.8
348.291	70.1
348.674	78.68
349.057	107.61
349.44	120.04
349.823	143.77
350.206	168.85
350.588	212.47
350.971	227.83
351.354	225.12
351.737	248.4
352.119	263.54
352.502	257.21
352.884	271.9
353.267	287.72
353.65	304.22
354.032	300.37
354.414	287.27
354.797	327.72
355.179	340.6
355.562	337.89
355.944	321.39
356.326	360.48
356.709	346.25
357.091	326.14
357.473	327.49
357.855	342.86
358.238	358
358.62	358.23
359.002	365
359.384	347.15
359.766	339.24
360.148	356.87
360.53	332.69
360.912	348.96
361.294	333.14
361.676	328.85
362.057	338.11
362.439	336.76
362.821	327.27
363.203	343.08
363.584	316.42
363.966	333.59
364.348	333.59
364.729	333.14
365.111	303.54
365.493	309.41
365.874	327.27
366.256	308.51
366.637	332.91
367.019	328.62
367.4	331.79
367.781	304.67
368.163	323.65
368.544	322.29
368.925	318.68
369.306	290.43
369.688	329.75
370.069	318
370.45	334.5
370.831	325.46
371.212	287.72
371.593	320.94
371.974	312.8
372.355	322.29
372.736	305.57
373.117	306.02
373.498	322.52
373.879	298.11
374.26	328.17
374.641	336.3
375.021	316.87
375.402	332.69
375.783	318
376.163	313.48
376.544	325.91
376.925	321.39
377.305	325.46
377.686	322.97
378.066	337.89
378.447	318.45
378.827	354.16
379.208	332.01
379.588	332.24
379.968	355.29
380.349	334.04
380.729	324.33
381.109	326.81
381.489	328.62
381.87	331.11
382.25	340.6
382.63	352.12
383.01	338.34
383.39	355.97
383.77	358.9
384.15	332.46
384.53	346.47
384.91	356.64
385.29	334.27
385.67	351.45
386.049	348.28
386.429	334.72
386.809	329.3
387.189	353.93
387.568	339.92
387.948	363.65
388.328	347.38
388.707	360.48
389.087	357.32
389.466	340.82
389.846	362.97
390.225	361.16
390.605	364.55
390.984	372.46
391.363	357.1
391.743	359.81
392.122	372.91
392.501	372.91
392.881	377.89
393.26	368.39
393.639	370.2
394.018	386.02
394.397	370.43
394.776	377.43
395.155	362.97
395.534	392.57
395.913	387.15
396.292	357.55
396.671	363.65
397.05	366.81
397.429	376.53
397.808	357.77
398.186	351.45
398.565	390.77
398.944	372.69
399.323	383.76
399.701	401.84
400.08	409.3
400.458	368.85
400.837	407.26
401.215	403.65
401.594	381.05
401.972	414.04
402.351	389.18
402.729	405.23
403.107	400.94
403.486	410.88
403.864	381.05
404.242	445.91
404.62	408.17
404.999	426.25
405.377	394.16
405.755	424.89
406.133	409.07
406.511	414.49
406.889	420.14
407.267	433.48
407.645	443.65
408.023	432.8
408.401	424.89
408.779	447.49
409.156	411.33
409.534	440.48
409.912	447.94
410.29	444.78
410.667	439.35
411.045	433.25
411.422	427.6
411.8	451.1
412.178	469.41
412.555	468.96
412.933	453.36
413.31	486.36
413.687	440.48
414.065	459.24
414.442	458.34
414.819	473.25
415.197	480.71
415.574	487.26
415.951	488.39
416.328	495.85
416.705	470.09
417.082	516.86
417.46	485.23
417.837	481.16
418.214	496.3
418.591	507.6
418.967	495.62
419.344	480.71
419.721	499.92
420.098	503.53
420.475	497.66
420.852	521.38
421.228	509.86
421.605	524.1
421.982	515.28
422.358	521.16
422.735	522.97
423.111	524.1
423.488	542.63
423.864	535.62
424.241	549.86
424.617	546.24
424.994	542.85
425.37	529.75
425.746	525
426.123	543.53
426.499	539.46
426.875	544.89
427.251	560.93
427.627	549.86
428.003	580.37
428.379	598.67
428.756	565.23
429.132	577.88
429.507	602.06
429.883	576.52
430.259	587.37
430.635	618.33
431.011	590.99
431.387	590.54
431.763	604.55
432.138	635.51
432.514	630.08
432.89	607.94
433.265	611.55
433.641	639.35
434.016	621.49
434.392	637.99
434.767	661.95
435.143	654.04
435.518	644.32
435.894	667.6
436.269	654.71
436.644	666.47
437.02	673.92
437.395	694.49
437.77	691.78
438.145	674.83
438.52	689.29
438.895	707.37
439.271	693.36
439.646	717.31
440.021	708.05
440.395	722.96
440.77	691.78
441.145	716.63
441.52	733.13
441.895	733.81
442.27	720.02
442.645	737.88
443.019	754.37
443.394	761.6
443.769	776.97
444.143	742.4
444.518	796.63
444.892	786.91
445.267	762.51
445.641	781.04
446.016	768.38
446.39	769.74
446.764	776.29
447.139	779
447.513	794.15
447.887	795.05
448.262	774.94
448.636	811.09
449.01	814.71
449.384	822.17
449.758	799.8
450.132	814.48
450.506	850.87
450.88	833.69
451.254	837.76
451.628	842.96
452.002	854.48
452.376	849.06
452.75	837.76
453.123	854.26
453.497	869.85
453.871	873.01
454.244	905.33
454.618	874.14
454.992	901.94
455.365	908.27
455.739	927.93
456.112	924.99
456.486	903.52
456.859	956.18
457.232	948.94
457.606	953.01
457.979	957.31
458.352	972.9
458.725	984.2
459.099	995.27
459.472	1007.25
459.845	1016.29
460.218	1016.06
460.591	1027.81
460.964	1033.01
461.337	1058.32
461.71	1081.6
462.083	1076.62
462.456	1091.99
462.829	1100.8
463.201	1124.53
463.574	1103.97
463.947	1120.01
464.32	1144.42
464.692	1135.15
465.065	1170.86
465.438	1166.57
465.81	1206.11
466.183	1213.34
466.555	1227.13
466.928	1240.24
467.3	1233
467.672	1261.03
468.045	1310.29
468.417	1319.78
468.789	1291.53
469.161	1341.48
469.534	1352.1
469.906	1364.98
470.278	1373.34
470.65	1411.3
471.022	1435.71
471.394	1468.03
471.766	1493.56
472.138	1522.94
472.51	1548.02
472.882	1562.04
473.253	1562.26
473.625	1621.69
473.997	1649.26
474.369	1687.23
474.74	1717.96
475.112	1710.51
475.484	1770.62
475.855	1796.61
476.227	1816.94
476.598	1868.47
476.97	1909.82
477.341	1956.6
477.713	1987.11
478.084	1997.96
478.455	2079.31
478.827	2103.94
479.198	2178.29
479.569	2188.23
479.94	2221
480.311	2296.03
480.682	2375.57
481.053	2417.83
481.424	2462.8
481.795	2508.45
482.166	2591.61
482.537	2611.27
482.908	2700.99
483.279	2738.28
483.65	2842.68
484.021	2911.6
484.391	2988.21
484.762	3024.37
485.133	3039.74
485.503	3175.1
485.874	3208.77
486.244	3295.32
486.615	3389.11
486.985	3444.7
487.356	3534.86
487.726	3583.68
488.097	3670
488.467	3741.64
488.837	3800.85
489.207	3923.33
489.578	3970.11
489.948	4052.82
490.318	4128.52
490.688	4177.33
491.058	4310.89
491.428	4333.71
491.798	4420.72
492.168	4540.49
492.538	4601.96
492.908	4674.27
493.278	4766.7
493.648	4795.62
494.017	4914.26
494.387	4973.24
494.757	5038.33
495.126	5161.04
495.496	5162.39
495.866	5244.88
496.235	5288.26
496.605	5401.26
496.974	5495.72
497.344	5560.35
497.713	5582.95
498.082	5685.99
498.452	5728.71
498.821	5800.79
499.19	5868.81
499.559	5885.09
499.928	5964.41
500.298	6033.78
500.667	6102.71
501.036	6129.15
501.405	6249.6
501.774	6271.74
502.143	6315.81
502.512	6296.83
502.88	6415.24
503.249	6470.83
503.618	6545.18
503.987	6588.34
504.356	6635.12
504.724	6669.92
505.093	6752.86
505.462	6773.65
505.83	6794.89
506.199	6885.29
506.567	6972.74
506.936	6953.98
507.304	7058.16
507.672	7082.79
508.041	7165.5
508.409	7176.8
508.777	7271.94
509.145	7308.55
509.514	7260.19
509.882	7388.77
510.25	7367.98
510.618	7438.72
510.986	7489.34
511.354	7560.52
511.722	7612.27
512.09	7739.05
512.458	7675.55
512.826	7762.55
513.193	7814.07
513.561	7864.47
513.929	7928.2
514.297	7982.21
514.664	8021.3
515.032	8101.52
515.4	8087.74
515.767	8117.57
516.135	8163.44
516.502	8184.91
516.869	8259.94
517.237	8266.72
517.604	8296.1
517.972	8412.7
518.339	8399.6
518.706	8470.78
519.073	8461.97
519.44	8515.98
519.808	8644.79
520.175	8593.94
520.542	8670.77
520.909	8692.02
521.276	8713.49
521.643	8798
522.009	8879.58
522.376	8914.16
522.743	8956.19
523.11	9012.01
523.477	9080.71
523.843	9116.19
524.21	9199.8
524.577	9214.26
524.943	9324.54
525.31	9347.82
525.676	9374.71
526.043	9437.53
526.409	9484.99
526.776	9608.6
527.142	9660.81
527.508	9706.23
527.874	9748.49
528.241	9814.93
528.607	9843.17
528.973	9885.21
529.339	9896.96
529.705	9928.59
530.071	10071.64
530.437	10095.14
530.803	10125.88
531.169	10184.63
531.535	10264.41
531.901	10207.23
532.267	10272.09
532.632	10330.39
532.998	10400.67
533.364	10448.36
533.73	10542.14
534.095	10667.78
534.461	10616.03
534.826	10696.03
535.192	10703.49
535.557	10743.49
535.923	10753.88
536.288	10875.69
536.653	10919.53
537.019	10895.8
537.384	10956.82
537.749	10940.77
538.114	11049.92
538.479	10967.21
538.845	11154.78
539.21	11074.55
539.575	11186.41
539.94	11234.1
540.305	11251.95
540.67	11339.86
541.034	11345.28
541.399	11452.4
541.764	11478.38
542.129	11455.56
542.494	11551.83
542.858	11579.17
543.223	11575.78
543.587	11564.48
543.952	11721.32
544.316	11745.27
544.681	11734.65
545.045	11797.7
545.41	11891.03
545.774	11870.01
546.138	12044.47
546.503	12041.31
546.867	11976
547.231	12166.73
547.595	12190.46
547.959	12186.16
548.324	12178.93
548.688	12212.38
549.052	12259.16
549.416	12282.43
549.779	12323.11
550.143	12435.42
550.507	12439.94
550.871	12504.57
551.235	12594.97
551.599	12634.29
551.962	12681.06
552.326	12656.88
552.689	12805.36
553.053	12715.64
553.417	12678.81
553.78	12916.09
554.143	12832.7
554.507	12973.03
554.87	12938.69
555.234	13076.53
555.597	12965.58
555.96	13026.59
556.323	13079.92
556.686	13084.22
557.05	13182.29
557.413	13177.1
557.776	13278.34
558.139	13346.13
558.502	13336.87
558.865	13419.58
559.228	13550.42
559.59	13558.1
559.953	13543.87
560.316	13788.61
560.679	13684.43
561.041	13806.91
561.404	13829.96
561.767	13843.75
562.129	13883.97
562.492	13947.25
562.854	13985.66
563.217	13940.24
563.579	14099.33
563.941	14091.65
564.304	14196.05
564.666	14244.87
565.028	14196.51
565.39	14348.14
565.753	14389.95
566.115	14378.65
566.477	14497.97
566.839	14507.46
567.201	14629.26
567.563	14595.14
567.925	14689.83
568.287	14735.93
568.648	14799.43
569.01	14842.14
569.372	14938.18
569.734	14875.81
570.095	15002.36
570.457	15071.96
570.819	15133.2
571.18	15167.33
571.542	15280.32
571.903	15341.79
572.265	15363.71
572.626	15425.63
572.987	15508.79
573.349	15574.1
573.71	15732.51
574.071	15758.27
574.432	15847.99
574.794	16099.96
575.155	16012.05
575.516	16028.55
575.877	16216.34
576.238	16214.76
576.599	16395.09
576.96	16435.77
577.32	16557.57
577.681	16612.49
578.042	16728.87
578.403	16884.57
578.763	17077.79
579.124	17245.69
579.485	17316.65
579.845	17571.33
580.206	17739.01
580.566	17698.79
580.927	17918.89
581.287	18120.92
581.648	18181.26
582.008	18437.98
582.368	18544.19
582.728	18759.78
583.089	18921.35
583.449	19094
583.809	19265.75
584.169	19440.66
584.529	19613.54
584.889	19901.21
585.249	20008.33
585.609	20167.65
585.969	20499.16
586.329	20679.5
586.688	20964.69
587.048	21085.82
587.408	21334.17
587.768	21585.01
588.127	21798.57
588.487	22034.94
588.846	22408.04
589.206	22464.08
589.565	22824.53
589.925	23137.29
590.284	23232.65
590.643	23485.07
591.003	23877.61
591.362	24132.06
591.721	24300.19
592.08	24668.32
592.44	24945.6
592.799	25180.85
593.158	25334.52
593.517	25634.17
593.876	25934.73
594.235	26181.95
594.593	26331.33
594.952	26733.35
595.311	26856.06
595.67	27153
596.029	27527.45
596.387	27867.11
596.746	28158.85
597.104	28155.91
597.463	28372.63
597.822	28791.38
598.18	28917.02
598.538	29071.59
598.897	29573.95
599.255	29606.5
599.613	30206.03
599.972	30169.42
600.33	30464.33
600.688	30592.46
601.046	30915.84
601.404	31259.56
601.762	31357.41
602.12	31874.46
602.478	31804.63
602.836	32121.68
603.194	32016.15
603.552	32422.69
603.91	32581.33
604.268	32874.21
604.625	32885.28
604.983	33459.73
605.341	33314.65
605.698	33668.08
606.056	33985.14
606.413	34118.24
606.771	34282.3
607.128	34446.82
607.485	34579.02
607.843	34737.43
608.2	35007.94
608.557	35223.07
608.914	35282.05
609.272	35538.77
609.629	35738.09
609.986	36028.47
610.343	35879.32
610.7	36373.78
611.057	36540.78
611.414	36398.86
611.771	36601.57
612.127	36957.04
612.484	36945.74
612.841	37269.8
613.198	37160.87
613.554	37375.33
613.911	37719.5
614.267	37826.39
614.624	37918.14
614.98	38024.58
615.337	38393.84
615.693	38286.04
616.05	38287.17
616.406	38694.17
616.762	38667.05
617.118	38750.89
617.475	38947.04
617.831	39025.68
618.187	39060.03
618.543	39269.74
618.899	39524.2
619.255	39495.28
619.611	39505.44
619.967	39737.75
620.323	39936.62
620.678	39958.54
621.034	39785.21
621.39	39965.77
621.746	39768.49
622.101	40487.34
622.457	40170.29
622.812	40275.14
623.168	40465.65
623.523	40415.25
623.879	40711.74
624.234	40484.63
624.589	40666.54
624.945	40730.72
625.3	40818.18
625.655	40948.8
626.01	40885.3
626.365	40862.24
626.72	41015.01
627.075	40981.56
627.43	40982.69
627.785	40948.34
628.14	40980.89
628.495	41268.79
628.85	41145.18
629.205	41206.42
629.559	41379.07
629.914	41158.06
630.269	41236.7
630.623	41288.45
630.978	41306.53
631.332	41409.58
631.687	41579.97
632.041	41394.66
632.396	41509.91
632.75	41377.49
633.104	41566.41
633.459	41421.1
633.813	41382.01
634.167	41417.48
634.521	41400.31
634.875	41527.99
635.229	41454.55
635.583	41287.77
635.937	41322.57
636.291	41367.54
636.645	41318.96
636.999	41245.06
637.352	41366.19
637.706	41138.62
638.06	41296.58
638.413	41229.01
638.767	41168.9
639.121	41265.17
639.474	41114.44
639.828	41150.15
640.181	41331.84
640.534	41194.44
640.888	40995.12
641.241	40836.26
641.594	41180.88
641.947	41215
642.301	40999.19
642.654	41027.66
643.007	41137.04
643.36	40909.7
643.713	40966.87
644.066	41189.69
644.419	41072.86
644.771	40563.27
645.124	40191.98
645.477	40236.72
645.83	40013.45
646.182	39903.4
646.535	39736.4
646.888	39842.38
647.24	39652.11
647.593	39962.61
647.945	39847.81
648.298	39726
648.65	39645.1
649.002	39525.1
649.355	39663.63
649.707	39654.82
650.059	39824.76
650.411	40230.4
650.763	40404.18
651.115	40738.86
651.467	40607.56
651.819	40506.32
652.171	40460
652.523	40359.21
652.875	40417.74
653.227	40250.74
653.578	40523.95
653.93	40470.62
654.282	40223.17
654.633	40137.97
654.985	40315.37
655.337	40304.29
655.688	40356.95
656.039	40396.04
656.391	40043.96
656.742	40154.01
657.094	40315.82
657.445	40294.35
657.796	40208.7
658.147	40237.18
658.498	40197.4
658.849	40269.04
659.2	40156.5
659.551	40108.37
659.902	40150.85
660.253	40184.07
660.604	40184.75
660.955	39942.04
661.306	40246.44
661.656	40137.74
662.007	40078.54
662.358	40035.15
662.708	40071.08
663.059	40111.76
663.409	39803.06
663.76	40080.57
664.11	40061.36
664.461	39994.92
664.811	40067.92
665.161	40055.03
665.511	39950.18
665.862	40030.63
666.212	40052.1
666.562	40002.83
666.912	39975.26
667.262	39918.09
667.612	39947.24
667.962	39969.61
668.312	39930.74
668.662	40100.23
669.011	40055.94
669.361	40047.35
669.711	39888.26
670.06	39909.28
670.41	39924.64
670.76	39789.96
671.109	39944.98
671.459	40035.6
671.808	39730.75
672.157	39877.19
672.507	39522.17
672.856	39597.19
673.205	39812.33
673.554	39775.49
673.904	39646.23
674.253	39821.59
674.602	39604.2
674.951	39197.43
675.3	38964.89
675.649	39537.76
675.998	39546.12
676.346	39641.26
676.695	39687.13
677.044	39322.4
677.393	39515.84
677.741	39636.29
678.09	39342.51
678.438	39419.34
678.787	39305.68
679.135	39410.31
679.484	39013.71
679.832	39239.24
680.181	39093.7
680.529	39171.67
680.877	39135.51
681.225	39017.1
681.573	39297.31
681.922	38930.77
682.27	38819.81
682.618	38882.18
682.966	38793.37
683.314	38809.87
683.661	38829.98
684.009	38710.66
684.357	38594.51
684.705	38516.54
685.053	38651.46
685.4	38527.62
685.748	38379.37
686.095	38260.96
686.443	38235.65
686.79	38167.17
687.138	38296.66
687.485	38154.52
687.832	37988.87
688.18	38232.48
688.527	37972.15
688.874	37936.9
689.221	37951.59
689.568	37792.49
689.915	37630.92
690.262	37576.68
690.609	37535.33
690.956	37384.82
691.303	37505.27
691.65	37200.42
691.997	37173.08
692.344	36990.93
692.69	36941.9
693.037	36968.11
693.383	36744.16
693.73	36909.81
694.077	36531.51
694.423	36585.07
694.769	36545.52
695.116	36437.73
695.462	36423.27
695.808	36279.31
696.155	36299.43
696.501	36075.48
696.847	36054.01
697.193	35732.21
697.539	35986.89
697.885	35665.77
698.231	35699.89
698.577	35698.76
698.923	35655.15
699.269	35290.41
699.614	35190.3
699.96	35256.52
700.306	35194.15
700.651	35076.41
700.997	35016.07
701.342	34897.2
701.688	34725.91
702.033	34646.36
702.379	34736.3
702.724	34522.75
703.069	34463.77
703.415	34195.75
703.76	34306.94
704.105	34257.45
704.45	34214.51
704.795	34026.72
705.14	33999.15
705.485	33908.76
705.83	33685.26
706.175	33781.08
706.52	33763
706.865	33556.67
707.209	33623.57
707.554	33475.32
707.899	33545.38
708.243	33311.26
708.588	33308.55
708.932	33020.19
709.277	33042.11
709.621	33156.23
709.966	32783.36
710.31	32793.53
710.654	32690.26
710.998	32733.64
711.342	32770.93
711.687	32562.58
712.031	32482.58
712.375	32347.67
712.719	32287.78
713.063	32351.96
713.407	32517.83
713.75	32217.73
714.094	32196.94
714.438	32106.54
714.782	32135.02
715.125	31972.76
715.469	32137.05
715.812	31826.55
716.156	31775.48
716.499	31813.9
716.843	31850.28
717.186	31569.83
717.53	31710.85
717.873	31700.45
718.216	31480.8
718.559	31456.39
718.902	31301.37
719.246	31390.18
719.589	31262.72
719.932	31191.76
720.275	31111.54
720.617	30994.48
720.96	30888.04
721.303	31063.63
721.646	30961.04
721.989	30688.95
722.331	30858.89
722.674	30693.92
723.016	30801.27
723.359	30833.36
723.701	30731.21
724.044	30621.61
724.386	30314.95
724.729	30578.67
725.071	30334.16
725.413	30479.92
725.755	30362.18
726.097	30248.74
726.439	30189.53
726.782	30146.37
727.124	30320.38
727.465	30091.68
727.807	30026.15
728.149	29984.11
728.491	29939.14
728.833	30023.66
729.175	29873.61
729.516	29792.93
729.858	29754.29
730.199	29813.04
730.541	29637
730.882	29695.76
731.224	29636.55
731.565	29467.06
731.906	29557.23
732.248	29558.36
732.589	29455.54
732.93	29279.27
733.271	29273.85
733.612	29338.48
733.953	29251.02
734.294	29285.83
734.635	29099.62
734.976	29154.3
735.317	29084.02
735.658	28995.44
735.999	29018.26
736.339	29039.5
736.68	29020.97
737.021	28986.17
737.361	28877.48
737.702	28919.51
738.042	28824.6
738.383	28774.65
738.723	28749.79
739.063	28601.32
739.404	28665.28
739.744	28720.19
740.084	28480.88
740.424	28532.63
740.764	28469.12
741.104	28592.28
741.444	28351.16
741.784	28316.36
742.124	28388.22
742.464	28350.48
742.804	28235.01
743.143	28292.41
743.483	28337.38
743.823	28076.37
744.162	28172.18
744.502	28043.6
744.841	28031.17
745.181	28063.26
745.52	27935.35
745.86	28041.11
746.199	27999.08
746.538	27823.94
746.877	27891.74
747.216	27939.87
747.556	27860.33
747.895	27811.97
748.234	27626.21
748.573	27588.24
748.911	27528.13
749.25	27649.03
749.589	27431.41
749.928	27461.24
750.267	27443.84
750.605	27492.65
750.944	27257.63
751.283	27319.1
751.621	27389.6
751.96	27129.27
752.298	27197.07
752.636	27228.7
752.975	27021.03
753.313	26895.15
753.651	27018.54
753.989	26901.71
754.327	26810.41
754.666	26738.32
755.004	26799.11
755.342	26724.99
755.679	26693.58
756.017	26557.54
756.355	26703.07
756.693	26475.05
757.031	26470.31
757.368	26285
757.706	26389.4
758.044	26212.01
758.381	26355.28
