Data from hue_220_FLMS001491_00006.txt Node
Date: Tue Feb 07 16:38:27 GMT 2017
User: dcchb
Spectrometer: FLMS00149
Trigger mode: 0
Integration Time (sec): 2.000000E-2
Scans to average: 10
Electric dark correction enabled: true
Nonlinearity correction enabled: false
Boxcar width: 0
XAxis mode: Wavelengths
Number of Pixels in Spectrum: 2048
>>>>>Begin Spectral Data<<<<<
341.393	-18.33
341.776	-18.33
342.16	-18.33
342.543	-68.28
342.927	-72.34
343.31	-73.7
343.693	-83.42
344.077	-87.94
344.46	-55.62
344.843	-53.59
345.226	-54.49
345.61	-20.37
345.993	-15.62
346.376	-6.36
346.759	13.76
347.142	33.64
347.525	32.74
347.908	49.91
348.291	86.3
348.674	115.45
349.057	119.29
349.44	124.94
349.823	146.41
350.206	154.77
350.588	179.63
350.971	211.04
351.354	223.24
351.737	237.03
352.119	246.29
352.502	268.89
352.884	264.6
353.267	274.54
353.65	303.47
354.032	309.34
354.414	303.47
354.797	318.61
355.179	305.5
355.562	344.6
355.944	324.93
356.326	310.7
356.709	344.37
357.091	332.39
357.473	337.59
357.855	338.04
358.238	338.04
358.62	341.66
359.002	339.62
359.384	346.4
359.766	332.62
360.148	338.72
360.53	342.79
360.912	325.61
361.294	348.66
361.676	345.73
362.057	328.1
362.439	324.26
362.821	335.1
363.203	317.7
363.584	313.18
363.966	313.86
364.348	322.45
364.729	308.66
365.111	328.55
365.493	344.82
365.874	314.54
366.256	303.92
366.637	319.96
367.019	303.01
367.4	331.26
367.781	306.4
368.163	321.09
368.544	320.19
368.925	324.71
369.306	306.4
369.688	300.3
370.069	317.7
370.45	314.99
370.831	320.64
371.212	315.9
371.593	307.08
371.974	305.95
372.355	327.87
372.736	317.25
373.117	326.97
373.498	329.91
373.879	310.92
374.26	308.44
374.641	344.37
375.021	304.82
375.402	316.8
375.783	319.51
376.163	316.12
376.544	322.9
376.925	336.23
377.305	329.91
377.686	322.22
378.066	335.1
378.447	336.23
378.827	345.95
379.208	373.07
379.588	329.23
379.968	334.88
380.349	350.7
380.729	336.69
381.109	348.44
381.489	335.33
381.87	342.56
382.25	354.09
382.63	340.53
383.01	344.6
383.39	336.23
383.77	360.64
384.15	333.75
384.53	359.06
384.91	347.53
385.29	345.5
385.67	353.86
386.049	373.3
386.429	339.85
386.809	356.8
387.189	376.91
387.568	367.19
387.948	377.81
388.328	351.6
388.707	357.93
389.087	366.06
389.466	367.19
389.846	363.13
390.225	379.85
390.605	386.85
390.984	376.46
391.363	364.26
391.743	376.91
392.122	392.73
392.501	387.08
392.881	391.83
393.26	362.22
393.639	389.79
394.018	383.24
394.397	371.26
394.776	370.58
395.155	391.83
395.534	397.48
395.913	390.47
396.292	404.93
396.671	406.51
397.05	399.06
397.429	405.16
397.808	379.62
398.186	412.62
398.565	406.29
398.944	409.45
399.323	417.14
399.701	423.92
400.08	436.34
400.458	412.84
400.837	441.54
401.215	427.31
401.594	418.49
401.972	430.02
402.351	439.06
402.729	430.47
403.107	434.76
403.486	465.27
403.864	448.55
404.242	446.29
404.62	441.77
404.999	472.95
405.377	460.75
405.755	453.75
406.133	471.82
406.511	472.05
406.889	485.38
407.267	477.02
407.645	511.82
408.023	477.93
408.401	499.85
408.779	503.91
409.156	524.93
409.534	526.74
409.912	520.18
410.29	541.43
410.667	542.56
411.045	544.59
411.422	556.79
411.8	563.8
412.178	591.37
412.555	591.59
412.933	593.18
413.31	597.24
413.687	598.6
414.065	598.83
414.442	601.54
414.819	638.37
415.197	635.21
415.574	656.23
415.951	649.67
416.328	667.07
416.705	677.47
417.082	702.33
417.46	680.41
417.837	698.26
418.214	700.74
418.591	709.56
418.967	753.17
419.344	716.56
419.721	726.51
420.098	731.03
420.475	765.6
420.852	768.99
421.228	791.14
421.605	799.72
421.982	797.24
422.358	824.36
422.735	849.21
423.111	829.55
423.488	870.91
423.864	874.3
424.241	914.07
424.617	918.37
424.994	926.28
425.37	947.74
425.746	931.47
426.123	947.52
426.499	974.86
426.875	1003.79
427.251	964.01
427.627	1008.08
428.003	1008.76
428.379	1027.06
428.756	1025.03
429.132	1055.54
429.507	1058.25
429.883	1093.73
430.259	1087.85
430.635	1108.19
431.011	1111.35
431.387	1141.18
431.763	1153.16
432.138	1166.49
432.514	1170.79
432.89	1210.56
433.265	1244.46
433.641	1222.09
434.016	1277.9
434.392	1281.07
434.767	1293.27
435.143	1312.25
435.518	1293.05
435.894	1354.51
436.269	1391.8
436.644	1414.17
437.02	1411.91
437.395	1473.83
437.77	1465.02
438.145	1492.14
438.52	1504.56
438.895	1545.24
439.271	1584.79
439.646	1597.9
440.021	1619.36
440.395	1603.32
440.77	1618.46
441.145	1661.17
441.52	1669.53
441.895	1693.03
442.27	1730.32
442.645	1688.29
443.019	1759.02
443.394	1740.72
443.769	1781.17
444.143	1796.08
444.518	1803.99
444.892	1817.55
445.267	1836.99
445.641	1842.64
446.016	1839.02
446.39	1907.72
446.764	1876.31
447.139	1871.56
447.513	1908.4
447.887	1954.72
448.262	1925.12
448.636	1936.42
449.01	1997.21
449.384	1994.5
449.758	2034.27
450.132	2017.32
450.506	2031.78
450.88	2025.23
451.254	2043.99
451.628	2095.06
452.002	2107.94
452.376	2111.78
452.75	2142.51
453.123	2168.95
453.497	2159.46
453.871	2192.46
454.244	2262.51
454.618	2225
454.992	2284.66
455.365	2278.56
455.739	2329.85
456.112	2353.81
456.486	2364.2
456.859	2406.91
457.232	2432.68
457.606	2446.46
457.979	2445.56
458.352	2501.15
458.725	2493.92
459.099	2519.45
459.472	2600.36
459.845	2604.88
460.218	2622.05
460.591	2626.57
460.964	2658.66
461.337	2697.98
461.71	2693.69
462.083	2792.67
462.456	2773.01
462.829	2754.48
463.201	2836.28
463.574	2825.66
463.947	2899.1
464.32	2967.35
464.692	2954.02
465.065	2985.66
465.438	3052.55
465.81	3036.05
466.183	3085.99
466.555	3150.62
466.928	3170.28
467.3	3123.51
467.672	3229.27
468.045	3229.27
468.417	3288.7
468.789	3309.94
469.161	3348.36
469.534	3389.94
469.906	3462.48
470.278	3495.02
470.65	3494.8
471.022	3520.78
471.394	3627.9
471.766	3655.47
472.138	3696.37
472.51	3748.35
472.882	3845.97
473.253	3843.94
473.625	3866.54
473.997	3943.82
474.369	3921.45
474.74	3993.77
475.112	4069.7
475.484	4116.25
475.855	4175.46
476.227	4196.92
476.598	4323.47
476.97	4340.2
477.341	4433.3
477.713	4477.82
478.084	4484.37
478.455	4556.69
478.827	4645.95
479.198	4744.03
479.569	4760.3
479.94	4837.36
480.311	4920.07
480.682	4992.38
481.053	5109.89
481.424	5144.24
481.795	5184.47
482.166	5248.2
482.537	5279.83
482.908	5372.94
483.279	5428.98
483.65	5530.45
484.021	5647.51
484.391	5656.32
484.762	5721.4
485.133	5703.78
485.503	5811.12
485.874	5923.88
486.244	5946.71
486.615	6047.95
486.985	6108.96
487.356	6237.1
487.726	6227.15
488.097	6387.15
488.467	6337.43
488.837	6460.37
489.207	6494.49
489.578	6589.4
489.948	6642.28
490.318	6741.26
490.688	6726.8
491.058	6863.29
491.428	6878.21
491.798	6958.43
492.168	7063.74
492.538	7025.55
492.908	7095.83
493.278	7188.03
493.648	7189.84
494.017	7234.36
494.387	7351.19
494.757	7343.28
495.126	7417.63
495.496	7481.36
495.866	7458.31
496.235	7537.85
496.605	7561.58
496.974	7617.17
497.344	7711.86
497.713	7751.63
498.082	7760.67
498.452	7867.11
498.821	7893.32
499.19	7877.5
499.559	7943.49
499.928	7959.08
500.298	8018.74
500.667	7999.99
501.036	8025.75
501.405	8097.16
501.774	8089.25
502.143	8179.64
502.512	8182.13
502.88	8234.33
503.249	8258.74
503.618	8268
503.987	8254.22
504.356	8252.64
504.724	8289.92
505.093	8371.73
505.462	8332.63
505.83	8430.03
506.199	8398.85
506.567	8502.35
506.936	8481.56
507.304	8593.64
507.672	8535.57
508.041	8572.85
508.409	8634.77
508.777	8714.09
509.145	8727.43
509.514	8712.96
509.882	8703.92
510.25	8675.45
510.618	8746.63
510.986	8739.85
511.354	8777.82
511.722	8832.51
512.09	8886.29
512.458	8819.63
512.826	8930.81
513.193	8899.85
513.561	8907.53
513.929	8915.67
514.297	8952.73
514.664	9060.98
515.032	8954.54
515.4	8988.44
515.767	9059.17
516.135	8994.76
516.502	8971.26
516.869	9116.34
517.237	9074.31
517.604	9052.16
517.972	9111.6
518.339	9096
518.706	9061.43
519.073	9051.49
519.44	9130.58
519.808	9154.31
520.175	9143.01
520.542	9188.43
520.909	9195.66
521.276	9178.71
521.643	9236.34
522.009	9240.41
522.376	9233.4
522.743	9252.16
523.11	9257.36
523.477	9349.56
523.843	9335.09
524.21	9377.13
524.577	9426.39
524.943	9387.3
525.31	9384.36
525.676	9465.71
526.043	9390.01
526.409	9463
526.776	9572.6
527.142	9477.91
527.508	9461.87
527.874	9493.06
528.241	9523.79
528.607	9500.51
528.973	9553.17
529.339	9596.33
529.705	9554.3
530.071	9607.63
530.437	9559.27
530.803	9596.33
531.169	9602.43
531.535	9551.13
531.901	9587.06
532.267	9527.18
532.632	9560.62
532.998	9599.27
533.364	9538.93
533.73	9522.66
534.095	9604.92
534.461	9547.97
534.826	9572.15
535.192	9530.12
535.557	9582.09
535.923	9522.21
536.288	9485.82
536.653	9485.37
537.019	9455.32
537.384	9459.61
537.749	9449.89
538.114	9404.47
538.479	9480.63
538.845	9464.81
539.21	9286.06
539.575	9265.04
539.94	9356.11
540.305	9349.78
540.67	9435.88
541.034	9370.35
541.399	9330.12
541.764	9303
542.129	9266.17
542.494	9224.81
542.858	9228.2
543.223	9163.57
543.587	9257.13
543.952	9154.53
544.316	9231.59
544.681	9102.33
545.045	9166.06
545.41	9175.55
545.774	9140.52
546.138	9132.39
546.503	9100.75
546.867	9096.91
547.231	9117.7
547.595	9027.31
547.959	9061.43
548.324	9025.05
548.688	9044.03
549.052	8983.69
549.416	8983.69
549.779	8916.12
550.143	8947.53
550.507	8952.73
550.871	8926.74
551.235	8952.73
551.599	8907.31
551.962	8807.2
552.326	8920.87
552.689	8859.4
553.053	8754.09
553.417	8696.47
553.78	8809.23
554.143	8751.38
554.507	8779.85
554.87	8863.02
555.234	8751.83
555.597	8725.17
555.96	8732.85
556.323	8729.91
556.686	8722.23
557.05	8787.76
557.413	8767.65
557.776	8703.7
558.139	8826.18
558.502	8757.26
558.865	8764.49
559.228	8747.31
559.59	8781.66
559.953	8739.18
560.316	8849.91
560.679	8721.32
561.041	8808.78
561.404	8749.57
561.767	8821.66
562.129	8801.77
562.492	8839.51
562.854	8797.25
563.217	8810.36
563.579	8761.1
563.941	8809.46
564.304	8830.93
564.666	8899.17
565.028	8878.38
565.39	8877.48
565.753	8919.29
566.115	8893.52
566.477	8937.82
566.839	8949.34
567.201	8968.78
567.563	8964.48
567.925	9002.9
568.287	8953.18
568.648	9015.78
569.01	9063.91
569.372	9086.06
569.734	8987.53
570.095	9081.31
570.457	9070.24
570.819	9115.89
571.18	9164.25
571.542	9176.68
571.903	9194.98
572.265	9179.39
572.626	9234.53
572.987	9229.11
573.349	9264.13
573.71	9314.98
574.071	9237.69
574.432	9276.56
574.794	9281.08
575.155	9300.52
575.516	9332.83
575.877	9325.83
576.238	9449.67
576.599	9462.77
576.96	9472.04
577.32	9403.79
577.681	9478.14
578.042	9503.45
578.403	9491.93
578.763	9532.15
579.124	9540.51
579.485	9540.96
579.845	9535.31
580.206	9606.95
580.566	9626.16
580.927	9644.92
581.287	9651.24
581.648	9617.12
582.008	9670.9
582.368	9633.16
582.728	9733.28
583.089	9694.86
583.449	9696.89
583.809	9813.27
584.169	9772.14
584.529	9690.11
584.889	9827.51
585.249	9774.63
585.609	9720.62
585.969	9874.51
586.329	9881.52
586.688	9874.06
587.048	9890.11
587.408	9868.19
587.768	9888.3
588.127	9918.58
588.487	9908.41
588.846	9967.17
589.206	9977.34
589.565	9952.93
589.925	9987.96
590.284	9970.56
590.643	10046.94
591.003	10057.79
591.362	10132.81
591.721	10087.62
592.08	10031.57
592.44	10056.88
592.799	10025.47
593.158	10129.87
593.517	10116.77
593.876	10037.45
594.235	10101.4
594.593	10148.86
594.952	10154.28
595.311	10147.95
595.67	10144.79
596.029	10260.72
596.387	10166.71
596.746	10165.13
597.104	10199.25
597.463	10168.29
597.822	10265.69
598.18	10226.37
598.538	10207.39
598.897	10264.11
599.255	10223.66
599.613	10318.57
599.972	10235.86
600.33	10265.69
600.688	10223.88
601.046	10290.77
601.404	10362.64
601.762	10335.52
602.12	10363.77
602.478	10339.36
602.836	10332.36
603.194	10241.28
603.552	10343.43
603.91	10289.42
604.268	10389.3
604.625	10259.81
604.983	10400.83
605.341	10269.53
605.698	10324.67
606.056	10405.35
606.413	10407.38
606.771	10390.66
607.128	10457.32
607.485	10414.39
607.843	10367.16
608.2	10449.19
608.557	10506.36
608.914	10480.6
609.272	10475.63
609.629	10481.28
609.986	10507.27
610.343	10528.96
610.7	10572.58
611.057	10587.04
611.414	10551.33
611.771	10526.02
612.127	10593.59
612.484	10570.32
612.841	10498.68
613.198	10593.82
613.554	10491.9
613.911	10597.89
614.267	10561.28
614.624	10564.89
614.98	10639.01
615.337	10700.26
615.693	10639.01
616.05	10662.06
616.406	10701.16
616.762	10689.63
617.118	10639.69
617.475	10639.69
617.831	10735.73
618.187	10796.75
618.543	10747.49
618.899	10772.57
619.255	10722.85
619.611	10742.06
619.967	10807.82
620.323	10774.15
620.678	10806.02
621.034	10739.12
621.39	10679.92
621.746	10679.46
622.101	10868.61
622.457	10727.83
622.812	10691.44
623.168	10766.69
623.523	10793.59
623.879	10817.54
624.234	10672.46
624.589	10796.3
624.945	10739.12
625.3	10786.81
625.655	10765.56
626.01	10789.74
626.365	10750.42
626.72	10780.71
627.075	10715.17
627.43	10776.86
627.785	10744.32
628.14	10763.08
628.495	10825
628.85	10748.84
629.205	10697.54
629.559	10726.7
629.914	10764.43
630.269	10725.79
630.623	10647.83
630.978	10579.13
631.332	10715.62
631.687	10669.75
632.041	10590.88
632.396	10734.38
632.75	10620.71
633.104	10671.56
633.459	10569.41
633.813	10569.86
634.167	10625.23
634.521	10584.1
634.875	10638.11
635.229	10605.79
635.583	10552.01
635.937	10504.78
636.291	10569.64
636.645	10473.14
636.999	10436.53
637.352	10458.91
637.706	10377.55
638.06	10449.87
638.413	10498.23
638.767	10421.17
639.121	10500.03
639.474	10420.49
639.828	10396.76
640.181	10385.24
640.534	10395.63
640.888	10356.76
641.241	10306.37
641.594	10314.28
641.947	10378.46
642.301	10392.92
642.654	10249.87
643.007	10372.81
643.36	10356.54
643.713	10258.91
644.066	10397.66
644.419	10266.37
644.771	10301.85
645.124	10098.46
645.477	10115.86
645.83	10079.25
646.182	10011.69
646.535	10007.39
646.888	10004.45
647.24	10008.52
647.593	10011.23
647.945	9948.41
648.298	9919.48
648.65	9945.02
649.002	9940.05
649.355	10014.4
649.707	9941.18
650.059	10014.17
650.411	10130.78
650.763	10138.46
651.115	10210.32
651.467	10078.58
651.819	10100.27
652.171	10154.73
652.523	10178.01
652.875	10171.68
653.227	10164
653.578	10202.64
653.93	10212.81
654.282	10192.47
654.633	10127.62
654.985	10140.95
655.337	10166.94
655.688	10151.34
656.039	10219.59
656.391	10158.35
656.742	10144.34
657.094	10115.64
657.445	10199.48
657.796	10158.12
658.147	10167.84
658.498	10093.72
658.849	10121.97
659.2	10101.4
659.551	10168.74
659.902	10094.4
660.253	10182.53
660.604	10173.04
660.955	10138.91
661.306	10213.94
661.656	10175.75
662.007	10176.65
662.358	10232.25
662.708	10226.82
663.059	10206.71
663.409	10155.64
663.76	10222.75
664.11	10214.17
664.461	10210.32
664.811	10282.87
665.161	10253.49
665.511	10261.85
665.862	10242.41
666.212	10267.95
666.562	10233.6
666.912	10254.84
667.262	10285.58
667.612	10223.21
667.962	10283.09
668.312	10197.22
668.662	10260.94
669.011	10206.26
669.361	10201.96
669.711	10230.21
670.06	10198.12
670.41	10168.07
670.76	10095.53
671.109	10168.74
671.459	10185.24
671.808	10260.94
672.157	10137.33
672.507	10129.65
672.856	10071.8
673.205	10129.65
673.554	10128.07
673.904	10165.35
674.253	10197.67
674.602	10059.82
674.951	9959.26
675.3	9935.76
675.649	10034.06
675.998	10007.84
676.346	9983.89
676.695	10079.93
677.044	10003.32
677.393	10026.15
677.741	10065.47
678.09	10008.07
678.438	9975.53
678.787	10042.42
679.135	10049.65
679.484	9951.12
679.832	9965.36
680.181	9902.31
680.529	9914.29
680.877	9961.97
681.225	9909.32
681.573	9949.31
681.922	9903.44
682.27	9774.4
682.618	9815.98
682.966	9765.14
683.314	9791.13
683.661	9825.7
684.009	9712.71
684.357	9728.98
684.705	9732.82
685.053	9745.25
685.4	9716.55
685.748	9653.5
686.095	9670.45
686.443	9517.24
686.79	9514.98
687.138	9648.76
687.485	9551.81
687.832	9512.26
688.18	9600.17
688.527	9446.5
688.874	9486.73
689.221	9445.15
689.568	9408.09
689.915	9345.26
690.262	9380.74
690.609	9340.52
690.956	9283.12
691.303	9302.33
691.65	9339.61
691.997	9239.5
692.344	9227.3
692.69	9160.63
693.037	9136.91
693.383	9088.09
693.73	9124.25
694.077	9078.38
694.423	9010.81
694.769	8984.37
695.116	8914.99
695.462	8923.35
695.808	8892.39
696.155	8880.87
696.501	8808.78
696.847	8790.02
697.193	8758.39
697.539	8770.59
697.885	8686.3
698.231	8662.79
698.577	8612.63
698.923	8687.2
699.269	8573.53
699.614	8511.84
699.96	8538.28
700.306	8474.1
700.651	8491.27
700.997	8460.99
701.342	8367.21
701.688	8355.01
702.033	8315.01
702.379	8318.4
702.724	8337.83
703.069	8295.35
703.415	8190.04
703.76	8177.38
704.105	8212.19
704.45	8176.93
704.795	8112.53
705.14	8196.37
705.485	8139.87
705.83	8077.95
706.175	8085.63
706.52	8012.64
706.865	7985.3
707.209	7985.07
707.554	7952.76
707.899	7951.18
708.243	7946.88
708.588	7923.61
708.932	7881.35
709.277	7847.45
709.621	7845.87
709.966	7769.94
710.31	7772.65
710.654	7673.89
710.998	7769.03
711.342	7701.24
711.687	7684.06
712.031	7683.61
712.375	7655.36
712.719	7613.1
713.063	7690.39
713.407	7655.36
713.75	7642.48
714.094	7630.96
714.438	7519.1
714.782	7557.74
715.125	7528.36
715.469	7545.54
715.812	7485.88
716.156	7422.15
716.499	7508.02
716.843	7491.07
717.186	7383.05
717.53	7486.78
717.873	7438.87
718.216	7406.33
718.559	7462.6
718.902	7362.26
719.246	7324.52
719.589	7364.98
719.932	7331.76
720.275	7320.68
720.617	7304.86
720.96	7289.05
721.303	7246.11
721.646	7323.17
721.989	7284.75
722.331	7292.44
722.674	7290.85
723.016	7316.39
723.359	7266
723.701	7322.04
724.044	7220.35
724.386	7174.47
724.729	7291.53
725.071	7208.14
725.413	7209.73
725.755	7213.79
726.097	7224.64
726.439	7190.29
726.782	7160.69
727.124	7199.1
727.465	7146
727.807	7162.27
728.149	7195.49
728.491	7197.52
728.833	7228.93
729.175	7108.03
729.516	7139.22
729.858	7184.42
730.199	7166.79
730.541	7154.36
730.882	7147.81
731.224	7182.38
731.565	7116.17
731.906	7111.2
732.248	7174.02
732.589	7099.22
732.93	7111.42
733.271	7105.55
733.612	7106.68
733.953	7189.16
734.294	7108.49
734.635	7127.02
734.976	7077.98
735.317	7112.1
735.658	7107.81
735.999	7125.43
736.339	7141.03
736.68	7135.6
737.021	7167.47
737.361	7108.03
737.702	7174.25
738.042	7195.26
738.383	7195.94
738.723	7149.16
739.063	7137.86
739.404	7243.85
739.744	7186.22
740.084	7191.2
740.424	7190.29
740.764	7250.4
741.104	7268.93
741.444	7247.46
741.784	7260.8
742.124	7331.08
742.464	7301.7
742.804	7298.54
743.143	7300.57
743.483	7270.97
743.823	7335.15
744.162	7341.7
744.502	7469.38
744.841	7416.5
745.181	7482.26
745.52	7484.97
745.86	7552.32
746.199	7551.86
746.538	7578.3
746.877	7596.38
747.216	7695.36
747.556	7732.88
747.895	7832.53
748.234	7814.68
748.573	7872.99
748.911	7894.45
749.25	7991.4
749.589	8000.21
749.928	8071.4
750.267	8195.01
750.605	8254.22
750.944	8353.42
751.283	8360.2
751.621	8474.1
751.96	8554.1
752.298	8602.46
752.636	8688.33
752.975	8789.35
753.313	8827.31
753.651	8946.86
753.989	9067.76
754.327	9140.07
754.666	9250.35
755.004	9397.46
755.342	9558.14
755.679	9637.01
756.017	9746.38
756.355	9993.61
756.693	10023.44
757.031	10097.79
757.368	10317.44
757.706	10444.44
758.044	10581.61
758.381	10699.13
758.719	10936.18
759.056	11120.58
759.394	11200.81
759.731	11355.38
760.068	11542.95
760.405	11649.38
760.743	11842.37
761.08	12015.25
761.417	12230.38
761.754	12416.59
762.091	12563.71
762.428	12772.52
762.765	12862.68
763.102	13113.3
763.438	13247.31
763.775	13388.09
