Data from hue_290_FLMS001491_00016.txt Node
Date: Tue Feb 07 15:52:23 GMT 2017
User: dcchb
Spectrometer: FLMS00149
Trigger mode: 0
Integration Time (sec): 2.000000E-2
Scans to average: 10
Electric dark correction enabled: true
Nonlinearity correction enabled: false
Boxcar width: 0
XAxis mode: Wavelengths
Number of Pixels in Spectrum: 2048
>>>>>Begin Spectral Data<<<<<
341.393	-19.08
341.776	-19.08
342.16	-19.08
342.543	-60.44
342.927	-84.62
343.31	-62.47
343.693	-77.16
344.077	-69.7
344.46	-66.09
344.843	-38.52
345.226	-39.65
345.61	-39.65
345.993	1.48
346.376	5.55
346.759	10.52
347.142	25.89
347.525	38.54
347.908	55.72
348.291	53.01
348.674	86.9
349.057	115.6
349.44	110.86
349.823	160.8
350.206	138.65
350.588	190.86
350.971	202.83
351.354	210.07
351.737	244.41
352.119	259.56
352.502	253.23
352.884	269.5
353.267	262.49
353.65	288.26
354.032	291.42
354.414	297.29
354.797	316.05
355.179	300.68
355.562	330.51
355.944	336.39
356.326	335.03
356.709	321.02
357.091	330.51
357.473	333.45
357.855	347.24
358.238	343.85
358.62	320.57
359.002	332.77
359.384	339.1
359.766	325.99
360.148	348.82
360.53	331.64
360.912	320.8
361.294	315.83
361.676	333
362.057	327.12
362.439	306.79
362.821	312.89
363.203	328.03
363.584	307.69
363.966	326.67
364.348	303.85
364.729	302.94
365.111	332.32
365.493	332.32
365.874	315.37
366.256	303.4
366.637	322.6
367.019	318.54
367.4	316.5
367.781	318.54
368.163	329.16
368.544	314.47
368.925	313.11
369.306	318.08
369.688	305.66
370.069	300.23
370.45	297.97
370.831	317.86
371.212	294.58
371.593	322.38
371.974	298.42
372.355	304.07
372.736	312.21
373.117	333.45
373.498	314.92
373.879	288.48
374.26	325.77
374.641	305.66
375.021	300.46
375.402	318.31
375.783	322.38
376.163	298.42
376.544	326.22
376.925	311.76
377.305	315.6
377.686	311.31
378.066	315.37
378.447	338.42
378.827	321.7
379.208	319.67
379.588	317.63
379.968	317.41
380.349	320.57
380.729	321.93
381.109	325.77
381.489	319.89
381.87	354.47
382.25	334.36
382.63	343.17
383.01	347.46
383.39	334.36
383.77	340.68
384.15	357.18
384.53	323.06
384.91	342.94
385.29	361.93
385.67	354.02
386.049	354.02
386.429	327.8
386.809	347.01
387.189	348.59
387.568	355.15
387.948	358.08
388.328	350.63
388.707	345.43
389.087	369.61
389.466	348.82
389.846	361.93
390.225	371.19
390.605	358.54
390.984	355.15
391.363	365.09
391.743	355.82
392.122	351.53
392.501	375.48
392.881	359.44
393.26	377.52
393.639	388.14
394.018	361.02
394.397	386.33
394.776	381.36
395.155	384.52
395.534	390.17
395.913	395.82
396.292	377.74
396.671	386.33
397.05	394.47
397.429	380.91
397.808	380.23
398.186	392.21
398.565	394.92
398.944	399.44
399.323	400.12
399.701	419.33
400.08	398.76
400.458	408.7
400.837	393.34
401.215	430.4
401.594	409.38
401.972	419.55
402.351	404.41
402.729	409.83
403.107	413.68
403.486	435.37
403.864	419.78
404.242	442.15
404.62	435.37
404.999	428.82
405.377	439.44
405.755	427.23
406.133	431.98
406.511	448.93
406.889	457.06
407.267	460
407.645	470.4
408.023	481.47
408.401	481.7
408.779	452.09
409.156	480.34
409.534	475.14
409.912	489.83
410.29	498.19
410.667	503.84
411.045	518.53
411.422	517.63
411.8	493
412.178	507.23
412.555	524.86
412.933	539.32
413.31	529.83
413.687	562.82
414.065	544.75
414.442	556.04
414.819	603.5
415.197	580
415.574	578.64
415.951	605.08
416.328	598.08
416.705	605.76
417.082	623.61
417.46	612.31
417.837	624.52
418.214	658.41
418.591	679.21
418.967	636.27
419.344	673.78
419.721	684.85
420.098	657.28
420.475	677.62
420.852	690.28
421.228	696.83
421.605	695.7
421.982	716.04
422.358	737.28
422.735	711.52
423.111	717.85
423.488	751.29
423.864	735.48
424.241	766.43
424.617	763.04
424.994	798.75
425.37	772.08
425.746	769.15
426.123	787.23
426.499	792.87
426.875	830.39
427.251	832.65
427.627	855.25
428.003	841.46
428.379	863.16
428.756	861.35
429.132	893.21
429.507	913.32
429.883	894.11
430.259	929.37
430.635	921.01
431.011	918.97
431.387	939.31
431.763	965.53
432.138	965.98
432.514	987.45
432.89	958.29
433.265	998.97
433.641	1005.52
434.016	1017.73
434.392	1042.13
434.767	1048.24
435.143	1042.59
435.518	1073.32
435.894	1091.62
436.269	1085.97
436.644	1092.75
437.02	1122.58
437.395	1117.16
437.77	1157.16
438.145	1154.22
438.52	1171.17
438.895	1168.46
439.271	1143.15
439.646	1212.75
440.021	1204.39
440.395	1216.82
440.77	1213.43
441.145	1231.73
441.52	1225.41
441.895	1243.94
442.27	1260.88
442.645	1243.26
443.019	1274.44
443.394	1295.01
443.769	1280.55
444.143	1275.12
444.518	1301.34
444.892	1278.74
445.267	1309.7
445.641	1295.01
446.016	1344.5
446.39	1324.84
446.764	1343.14
447.139	1332.07
447.513	1333.65
447.887	1333.88
448.262	1352.18
448.636	1327.55
449.01	1366.64
449.384	1377.94
449.758	1376.81
450.132	1411.84
450.506	1398.73
450.88	1412.29
451.254	1388.34
451.628	1430.37
452.002	1433.08
452.376	1415.01
452.75	1442.35
453.123	1439.64
453.497	1479.64
453.871	1479.41
454.244	1489.13
454.618	1493.65
454.992	1518.05
455.365	1527.09
455.739	1543.36
456.112	1551.5
456.486	1560.09
456.859	1575
457.232	1600.76
457.606	1545.85
457.979	1605.96
458.352	1622.68
458.725	1641.21
459.099	1615.23
459.472	1629.01
459.845	1662.91
460.218	1691.83
460.591	1706.75
460.964	1697.03
461.337	1697.94
461.71	1730.7
462.083	1747.43
462.456	1766.18
462.829	1749.23
463.201	1793.3
463.574	1783.58
463.947	1803.02
464.32	1841.89
464.692	1847.76
465.065	1850.02
465.438	1855.9
465.81	1881.43
466.183	1906.74
466.555	1913.98
466.928	1949
467.3	1913.07
467.672	1989.23
468.045	1995.55
468.417	1994.88
468.789	2015.89
469.161	2039.62
469.534	2043.69
469.906	2060.64
470.278	2089.79
470.65	2091.37
471.022	2150.58
471.394	2123.69
471.766	2163.46
472.138	2189.9
472.51	2242.1
472.882	2238.26
473.253	2293.4
473.625	2299.28
473.997	2296.79
474.369	2302.67
474.74	2361.87
475.112	2362.32
475.484	2421.31
475.855	2427.41
476.227	2448.88
476.598	2508.99
476.97	2507.18
477.341	2551.25
477.713	2585.37
478.084	2546.95
478.455	2626.5
478.827	2670.57
479.198	2705.14
479.569	2715.54
479.94	2739.72
480.311	2766.61
480.682	2786.04
481.053	2868.98
481.424	2879.6
481.795	2873.5
482.166	2920.5
482.537	2953.04
482.908	3030.33
483.279	3009.77
483.65	3073.72
484.021	3091.57
484.391	3142.87
484.762	3134.51
485.133	3151.91
485.503	3201.17
485.874	3253.83
486.244	3239.82
486.615	3303.77
486.985	3329.98
487.356	3332.92
487.726	3344.67
488.097	3385.8
488.467	3473.93
488.837	3499.24
489.207	3543.08
489.578	3564.78
489.948	3553.25
490.318	3627.6
490.688	3626.92
491.058	3693.14
491.428	3674.83
491.798	3745.57
492.168	3795.96
492.538	3790.54
492.908	3795.96
493.278	3894.04
493.648	3894.71
494.017	3901.49
494.387	3950.08
494.757	3948.05
495.126	3974.49
495.496	3986.91
495.866	4022.39
496.235	4026.01
496.605	4065.1
496.974	4056.07
497.344	4117.08
497.713	4074.14
498.082	4140.81
498.452	4185.78
498.821	4156.18
499.19	4167.48
499.559	4204.54
499.928	4227.13
500.298	4236.17
500.667	4303.74
501.036	4222.16
501.405	4273.46
501.774	4314.82
502.143	4282.27
502.512	4317.75
502.88	4376.96
503.249	4361.37
503.618	4370.86
503.987	4353.68
504.356	4428.94
504.724	4438.88
505.093	4416.06
505.462	4426.9
505.83	4450.63
506.199	4474.36
506.567	4552.78
506.936	4520.01
507.304	4529.27
507.672	4583.28
508.041	4588.03
508.409	4561.36
508.777	4632.1
509.145	4657.63
509.514	4650.63
509.882	4637.97
510.25	4654.92
510.618	4643.62
510.986	4717.97
511.354	4714.13
511.722	4728.36
512.09	4768.14
512.458	4756.84
512.826	4784.86
513.193	4818.98
513.561	4788.48
513.929	4810.4
514.297	4870.51
514.664	4867.57
515.032	4917.74
515.4	4854.01
515.767	4911.41
516.135	4914.12
516.502	4893.56
516.869	4950.96
517.237	4895.37
517.604	4920.9
517.972	4966.32
518.339	4963.61
518.706	5006.32
519.073	4979.43
519.44	5006.55
519.808	5026.21
520.175	4986.66
520.542	5076.38
520.909	5091.07
521.276	5079.99
521.643	5105.53
522.009	5115.7
522.376	5166.09
522.743	5162.03
523.11	5202.02
523.477	5266.2
523.843	5264.62
524.21	5266.43
524.577	5284.28
524.943	5315.02
525.31	5314.11
525.676	5385.07
526.043	5381.23
526.409	5405.63
526.776	5442.24
527.142	5447.67
527.508	5444.5
527.874	5549.81
528.241	5506.42
528.607	5538.29
528.973	5598.85
529.339	5577.61
529.705	5581.68
530.071	5621
530.437	5632.75
530.803	5689.47
531.169	5638.85
531.535	5686.08
531.901	5703.48
532.267	5716.36
532.632	5733.31
532.998	5764.72
533.364	5757.94
533.73	5804.27
534.095	5828.45
534.461	5851.05
534.826	5844.72
535.192	5895.57
535.557	5912.74
535.923	5882.91
536.288	5941.21
536.653	5911.61
537.019	5911.16
537.384	5923.81
537.749	5966.52
538.114	6008.1
538.479	6013.53
538.845	6016.47
539.21	6056.24
539.575	6007.2
539.94	6099.85
540.305	6105.05
540.67	6101.89
541.034	6124.03
541.399	6161.77
541.764	6148.67
542.129	6164.03
542.494	6234.54
542.858	6237.03
543.223	6176.46
543.587	6284.93
543.952	6248.32
544.316	6227.76
544.681	6308.89
545.045	6331.03
545.41	6345.05
545.774	6323.35
546.138	6385.72
546.503	6323.8
546.867	6347.76
547.231	6434.99
547.595	6374.65
547.959	6435.44
548.324	6441.99
548.688	6444.03
549.052	6525.83
549.416	6451.26
549.779	6524.93
550.143	6446.74
550.507	6510.69
550.871	6539.39
551.235	6544.81
551.599	6556.56
551.962	6579.84
552.326	6627.07
552.689	6606.96
553.053	6575.32
553.417	6627.07
553.78	6665.26
554.143	6586.62
554.507	6632.72
554.87	6679.27
555.234	6714.07
555.597	6696.22
555.96	6695.54
556.323	6759.5
556.686	6716.56
557.05	6728.54
557.413	6780.74
557.776	6795.43
558.139	6817.12
558.502	6885.14
558.865	6892.6
559.228	6867.74
559.59	6903.22
559.953	6912.71
560.316	6931.02
560.679	6933.5
561.041	7039.04
561.404	7023.67
561.767	7002.88
562.129	7015.08
562.492	7115.19
562.854	7100.96
563.217	7050.34
563.579	7133.27
563.941	7091.01
564.304	7145.93
564.666	7218.47
565.028	7202.2
565.39	7219.82
565.753	7219.6
566.115	7321.52
566.477	7261.41
566.839	7274.06
567.201	7365.81
567.563	7388.86
567.925	7369.65
568.287	7420.95
568.648	7387.05
569.01	7441.51
569.372	7509.53
569.734	7427.95
570.095	7549.31
570.457	7648.06
570.819	7616.65
571.18	7657.78
571.542	7686.7
571.903	7656.42
572.265	7691
572.626	7732.13
572.987	7815.97
573.349	7785.91
573.71	7853.25
574.071	7845.34
574.432	7952.46
574.794	7988.39
575.155	7955.17
575.516	7981.84
575.877	7997.88
576.238	8094.83
576.599	8176.18
576.96	8243.07
577.32	8231.78
577.681	8316.52
578.042	8310.19
578.403	8352.22
578.763	8416.85
579.124	8436.06
579.485	8586.79
579.845	8678.32
580.206	8635.15
580.566	8771.2
580.927	8782.72
581.287	8897.07
581.648	8907.92
582.008	9098.19
582.368	9094.35
582.728	9205.31
583.089	9281.69
583.449	9352.2
583.809	9452.53
584.169	9481.01
584.529	9606.65
584.889	9794.9
585.249	9807.33
585.609	9903.37
585.969	9976.59
586.329	10066.08
586.688	10293.64
587.048	10390.14
587.408	10521.88
587.768	10610.7
588.127	10747.19
588.487	10762.78
588.846	11011.36
589.206	10982.66
589.565	11144.01
589.925	11384.23
590.284	11470.33
590.643	11642.31
591.003	11762.98
591.362	11897.44
591.721	12017.89
592.08	12109.19
592.44	12315.28
592.799	12498.1
593.158	12518.22
593.517	12621.94
593.876	12829.62
594.235	12946.91
594.593	13134.47
594.952	13225.99
595.311	13324.75
595.67	13571.52
596.029	13718.64
596.387	13823.49
596.746	14018.06
597.104	14084.28
597.463	14143.26
597.822	14284.95
598.18	14362.69
598.538	14583.92
598.897	14785.73
599.255	14740.53
599.613	15065.04
599.972	15109.33
600.33	15162.44
600.688	15267.3
601.046	15460.51
601.404	15631.13
601.762	15696.21
602.12	15767.17
602.478	15902.53
602.836	16006.49
603.194	16113.6
603.552	16216.2
603.91	16229.3
604.268	16355.18
604.625	16468.39
604.983	16632.91
605.341	16703.19
605.698	16758.78
606.056	16947.03
606.413	16922.62
606.771	17091.66
607.128	17120.58
607.485	17213.46
607.843	17291.88
608.2	17511.31
608.557	17517.18
608.914	17552.21
609.272	17696.84
609.629	17844.63
609.986	17987.22
610.343	17819.55
610.7	18061.8
611.057	18076.26
611.414	18251.4
611.771	18239.2
612.127	18426.54
612.484	18403.71
612.841	18586.31
613.198	18471.96
613.554	18496.59
613.911	18672.18
614.267	18712.18
614.624	18857.26
614.98	18890.48
615.337	19026.29
615.693	19054.54
616.05	18949.46
616.406	19269.68
616.762	19120.98
617.118	19163.69
617.475	19223.8
617.831	19425.38
618.187	19326.85
618.543	19488.65
618.899	19525.94
619.255	19536.56
619.611	19560.52
619.967	19648.42
620.323	19789.89
620.678	19708.99
621.034	19683.9
621.39	19697.01
621.746	19772.26
622.101	20035.53
622.457	19923.67
622.812	19875.31
623.168	20048.87
623.523	20045.02
623.879	20021.07
624.234	19954.63
624.589	19957.12
624.945	20080.96
625.3	20156.21
625.655	20155.3
626.01	20176.32
626.365	20180.39
626.72	20311.68
627.075	20211.57
627.43	20284.34
627.785	20109.88
628.14	20234.85
628.495	20159.37
628.85	20213.61
629.205	20204.12
629.559	20378.35
629.914	20195.3
630.269	20405.24
630.623	20266.71
630.978	20279.59
631.332	20328.86
631.687	20403.88
632.041	20199.14
632.396	20411.57
632.75	20268.29
633.104	20390.55
633.459	20218.13
633.813	20268.52
634.167	20237.11
634.521	20159.6
634.875	20218.8
635.229	20252.25
635.583	20192.82
635.937	20216.32
636.291	20130.45
636.645	20181.52
636.999	20090.45
637.352	20259.26
637.706	20160.27
638.06	20222.87
638.413	20101.29
638.767	20143.55
639.121	20114.85
639.474	20026.95
639.828	19925.03
640.181	20039.37
640.534	20101.29
640.888	20030.11
641.241	19958.92
641.594	19964.57
641.947	19992.6
642.301	20022.43
642.654	20075.53
643.007	20154.85
643.36	20011.58
643.713	20136.77
644.066	20000.28
644.419	19975.2
644.771	19794.63
645.124	19644.36
645.477	19647.97
645.83	19494.3
646.182	19467.41
646.535	19413.4
646.888	19370.47
647.24	19365.72
647.593	19487.3
647.945	19468.09
648.298	19408.66
648.65	19316
649.002	19330.69
649.355	19358.04
649.707	19389
650.059	19446.17
650.411	19707.86
650.763	19775.43
651.115	19803.9
651.467	19776.56
651.819	19796.67
652.171	19764.81
652.523	19730.68
652.875	19771.58
653.227	19627.63
653.578	19895.88
653.93	19802.77
654.282	19730.23
654.633	19672.83
654.985	19698.14
655.337	19866.5
655.688	19674.64
656.039	19837.35
656.391	19760.96
656.742	19782.21
657.094	19860.4
657.445	19823.56
657.796	19727.29
658.147	19769.1
658.498	19654.3
658.849	19857.46
659.2	19788.08
659.551	19807.97
659.902	19843.45
660.253	19802.32
660.604	19858.36
660.955	19798.25
661.306	19889.55
661.656	19791.7
662.007	19831.92
662.358	19864.24
662.708	19922.54
663.059	19878.7
663.409	19822.88
663.76	19913.73
664.11	19906.72
664.461	19929.55
664.811	19836.89
665.161	19837.57
665.511	19878.7
665.862	19876.67
666.212	19895.42
666.562	19993.27
666.912	19914.63
667.262	19865.37
667.612	19887.51
667.962	19931.13
668.312	19880.96
668.662	20002.77
669.011	19936.78
669.361	19943.78
669.711	19898.13
670.06	19842.32
670.41	19775.2
670.76	19665.37
671.109	19903.11
671.459	19735.43
671.808	19854.52
672.157	19793.5
672.507	19665.15
672.856	19663.34
673.205	19777.01
673.554	19770
673.904	19769.55
674.253	19812.26
674.602	19670.57
674.951	19438.94
675.3	19361.88
675.649	19667.18
675.998	19696.11
676.346	19704.92
676.695	19656.33
677.044	19581.53
677.393	19533.85
677.741	19623.57
678.09	19454.08
678.438	19466.28
678.787	19534.75
679.135	19489.33
679.484	19445.72
679.832	19544.25
680.181	19265.38
680.529	19431.03
680.877	19344.03
681.225	19264.25
681.573	19383.12
681.922	19302.67
682.27	19149.45
682.618	19304.25
682.966	19051.6
683.314	19195.78
683.661	19096.57
684.009	19052.28
684.357	18999.85
684.705	18911.49
685.053	19003.7
685.4	18959.4
685.748	18831.72
686.095	18826.98
686.443	18789.01
686.79	18777.49
687.138	18771.38
687.485	18740.43
687.832	18777.26
688.18	18629.47
688.527	18527.55
688.874	18579.75
689.221	18511.73
689.568	18414.78
689.915	18412.3
690.262	18376.37
690.609	18360.1
690.956	18246.65
691.303	18216.37
691.65	18138.18
691.997	18203.26
692.344	18012.08
692.69	18057.28
693.037	18072.65
693.383	17840.79
693.73	17981.12
694.077	17782.26
694.423	17816.16
694.769	17723.5
695.116	17653.22
695.462	17754.46
695.808	17700
696.155	17599.21
696.501	17516.05
696.847	17619.32
697.193	17352.67
697.539	17401.93
697.885	17335.49
698.231	17205.55
698.577	17242.39
698.923	17140.92
699.269	17156.29
699.614	16999.91
699.96	16906.35
700.306	16869.74
700.651	16805.56
700.997	16758.1
701.342	16747.03
701.688	16677.43
702.033	16555.85
702.379	16635.62
702.724	16456.87
703.069	16507.04
703.415	16272.69
703.76	16376.42
704.105	16352.47
704.45	16242.64
704.795	16120.61
705.14	16081.29
705.485	16098.23
705.83	16040.16
706.175	16021.4
706.52	15960.61
706.865	15853.27
707.209	15876.55
707.554	15827.96
707.899	15833.84
708.243	15753.84
708.588	15752.03
708.932	15709.32
709.277	15729.21
709.621	15630.68
709.966	15506.39
710.31	15562.2
710.654	15309.56
710.998	15446.95
711.342	15429.78
711.687	15345.71
712.031	15322.89
712.375	15305.49
712.719	15305.04
713.063	15209.9
713.407	15247.18
713.75	15091.93
714.094	15153.4
714.438	15113.18
714.782	15026.85
715.125	15031.82
715.469	14933.97
715.812	14954.08
716.156	14801.55
716.499	14915.22
716.843	14860.53
717.186	14836.57
717.53	14812.39
717.873	14840.64
718.216	14754.32
718.559	14765.61
718.902	14639.29
719.246	14744.6
719.589	14634.09
719.932	14634.32
720.275	14588.22
720.617	14660.08
720.96	14544.38
721.303	14539.18
721.646	14582.79
721.989	14478.16
722.331	14499.18
722.674	14498.73
723.016	14517.03
723.359	14505.51
723.701	14519.29
724.044	14386.87
724.386	14311.62
724.729	14390.48
725.071	14349.81
725.413	14355.91
725.755	14418.28
726.097	14318.62
726.439	14318.17
726.782	14221.9
727.124	14331.5
727.465	14261.9
727.807	14316.59
728.149	14230.49
728.491	14251.96
728.833	14257.61
729.175	14159.75
729.516	14119.76
729.858	14200.66
730.199	14129.47
730.541	14213.54
730.882	14156.14
731.224	14122.47
731.565	14120.43
731.906	14057.61
732.248	14173.77
732.589	14022.81
732.93	14021
733.271	14053.77
733.612	14077.05
733.953	14061.45
734.294	14045.63
734.635	14114.78
734.976	14043.83
735.317	14033.88
735.658	14008.12
735.999	14056.71
736.339	13982.81
736.68	14112.98
737.021	14020.32
737.361	14005.63
737.702	14084.73
738.042	14093.54
738.383	14057.84
738.723	14011.28
739.063	14073.43
739.404	14103.26
739.744	13994.11
740.084	13936.94
740.424	14038.18
740.764	14059.64
741.104	14147.55
741.444	14036.59
741.784	14072.98
742.124	14025.75
742.464	14152.07
742.804	14102.81
743.143	14068.91
743.483	14178.96
743.823	14119.08
744.162	14148
744.502	14222.35
744.841	14197.95
745.181	14214.22
745.52	14267.77
745.86	14249.02
746.199	14280.2
746.538	14372.4
746.877	14376.02
747.216	14508.67
747.556	14436.81
747.895	14485.17
748.234	14476.13
748.573	14583.7
748.911	14644.04
749.25	14693.75
749.589	14677.93
749.928	14795.9
750.267	14914.99
750.605	14912.96
750.944	15019.62
751.283	15013.52
751.621	15199.28
751.96	15145.94
752.298	15163.34
752.636	15318.82
752.975	15415.99
753.313	15364.24
753.651	15599.72
753.989	15567.85
754.327	15681.52
754.666	15731.92
755.004	15890.56
755.342	16073.6
755.679	16072.02
756.017	16156.54
756.355	16256.65
756.693	16340.26
757.031	16520.14
757.368	16571.44
757.706	16686.47
758.044	16695.73
758.381	16820.93
758.719	16907.71
759.056	17022.73
759.394	17108.6
759.731	17139.34
760.068	17313.34
