Data from hue_60_FLMS001491_32.txt Node
Date: Mon Feb 06 15:17:17 GMT 2017
User: dcchb
Spectrometer: FLMS00149
Trigger mode: 0
Integration Time (sec): 2.000000E-2
Scans to average: 10
Electric dark correction enabled: true
Nonlinearity correction enabled: false
Boxcar width: 0
XAxis mode: Wavelengths
Number of Pixels in Spectrum: 2048
>>>>>Begin Spectral Data<<<<<
341.393	6.62
341.776	6.62
342.16	6.62
342.543	-53.04
342.927	-74.28
343.31	-70.66
343.693	-96.88
344.077	-71.57
344.46	-69.53
344.843	-65.24
345.226	-36.54
345.61	-33.6
345.993	-14.17
346.376	-9.87
346.759	30.13
347.142	40.97
347.525	44.59
347.908	59.73
348.291	75.32
348.674	106.96
349.057	110.35
349.44	117.81
349.823	127.75
350.206	156.9
350.588	193.29
350.971	206.62
351.354	239.16
351.737	233.96
352.119	245.49
352.502	261.76
352.884	266.05
353.267	295.2
353.65	307.63
354.032	301.76
354.414	308.76
354.797	313.73
355.179	304.7
355.562	318.71
355.944	318.03
356.326	341.98
356.709	336.33
357.091	334.07
357.473	335.88
357.855	333.17
358.238	346.73
358.62	333.17
359.002	374.75
359.384	347.41
359.766	360.74
360.148	345.37
360.53	334.53
360.912	340.85
361.294	315.09
361.676	336.33
362.057	338.82
362.439	333.17
362.821	348.99
363.203	344.24
363.584	318.93
363.966	315.99
364.348	317.12
364.729	302.21
365.111	315.99
365.493	316.22
365.874	323
366.256	309.22
366.637	310.57
367.019	324.13
367.4	327.29
367.781	303.57
368.163	307.41
368.544	317.8
368.925	323
369.306	329.55
369.688	297.92
370.069	341.76
370.45	331.14
370.831	325.03
371.212	306.5
371.593	320.51
371.974	308.09
372.355	302.89
372.736	330.91
373.117	293.4
373.498	304.7
373.879	303.79
374.26	312.83
374.641	313.73
375.021	286.84
375.402	332.49
375.783	322.32
376.163	331.59
376.544	346.73
376.925	314.64
377.305	325.94
377.686	324.13
378.066	299.27
378.447	319.38
378.827	324.36
379.208	329.55
379.588	339.95
379.968	333.85
380.349	322.55
380.729	319.16
381.109	343.56
381.489	332.94
381.87	340.4
382.25	341.3
382.63	308.31
383.01	330.91
383.39	328.88
383.77	341.53
384.15	354.41
384.53	315.09
384.91	337.46
385.29	333.62
385.67	334.3
386.049	359.38
386.429	348.99
386.809	352.83
387.189	356.9
387.568	330.46
387.948	306.73
388.328	335.43
388.707	356.45
389.087	350.8
389.466	357.35
389.846	322.77
390.225	344.02
390.605	342.66
390.984	373.17
391.363	353.96
391.743	383.56
392.122	366.39
392.501	371.59
392.881	364.58
393.26	346.73
393.639	367.97
394.018	384.47
394.397	357.8
394.776	367.97
395.155	349.44
395.534	373.62
395.913	357.58
396.292	364.35
396.671	388.53
397.05	374.98
397.429	385.37
397.808	379.04
398.186	374.07
398.565	368.87
398.944	374.98
399.323	400.29
399.701	373.39
400.08	362.32
400.458	386.05
400.837	386.95
401.215	379.27
401.594	400.29
401.972	387.41
402.351	377.91
402.729	384.47
403.107	395.99
403.486	394.86
403.864	404.13
404.242	389.21
404.62	410
404.999	391.02
405.377	411.59
405.755	415.2
406.133	388.31
406.511	392.38
406.889	421.08
407.267	405.94
407.645	414.97
408.023	418.59
408.401	439.38
408.779	427.86
409.156	415.43
409.534	413.85
409.912	428.31
410.29	428.53
410.667	433.05
411.045	443
411.422	436.67
411.8	444.58
412.178	430.57
412.555	441.64
412.933	431.92
413.31	441.19
413.687	446.84
414.065	466.27
414.442	452.49
414.819	469.89
415.197	458.36
415.574	448.42
415.951	481.87
416.328	477.12
416.705	480.96
417.082	472.15
417.46	484.13
417.837	461.3
418.214	502.2
418.591	502.2
418.967	462.66
419.344	467.18
419.721	481.41
420.098	471.24
420.475	492.04
420.852	485.48
421.228	489.55
421.605	507.4
421.982	497.91
422.358	508.08
422.735	515.31
423.111	513.05
423.488	531.81
423.864	527.97
424.241	502.43
424.617	528.19
424.994	537.91
425.37	524.12
425.746	534.97
426.123	543.11
426.499	536.33
426.875	550.11
427.251	558.25
427.627	552.6
428.003	550.11
428.379	548.3
428.756	537.46
429.132	544.24
429.507	553.95
429.883	553.28
430.259	580.62
430.635	584.46
431.011	582.43
431.387	568.42
431.763	599.6
432.138	586.27
432.514	600.51
432.89	583.56
433.265	611.13
433.641	618.81
434.016	623.33
434.392	624.01
434.767	621.07
435.143	624.91
435.518	625.36
435.894	641.41
436.269	638.25
436.644	663.1
437.02	635.76
437.395	635.99
437.77	648.42
438.145	665.82
438.52	671.92
438.895	665.59
439.271	667.85
439.646	669.88
440.021	681.41
440.395	688.19
440.77	696.1
441.145	668.75
441.52	731.35
441.895	708.07
442.27	701.07
442.645	708.53
443.019	720.05
443.394	731.58
443.769	740.84
444.143	729.09
444.518	714.4
444.892	723.89
445.267	732.03
445.641	744.01
446.016	757.34
446.39	730.67
446.764	751.01
447.139	748.98
447.513	755.53
447.887	762.76
448.262	782.42
448.636	796.89
449.01	752.59
449.384	758.92
449.758	807.51
450.132	783.55
450.506	803.44
450.88	786.72
451.254	791.24
451.628	783.1
452.002	834.62
452.376	833.5
452.75	825.81
453.123	814.74
453.497	826.94
453.871	845.92
454.244	841.63
454.618	864.68
454.992	853.61
455.365	868.97
455.739	887.73
456.112	878.24
456.486	899.48
456.859	916.88
457.232	922.76
457.606	902.19
457.979	951.68
458.352	940.84
458.725	957.56
459.099	949.2
459.472	985.36
459.845	973.15
460.218	993.04
460.591	1008.18
460.964	1009.54
461.337	1031.46
461.71	1015.86
462.083	1049.76
462.456	1047.95
462.829	1062.87
463.201	1096.99
463.574	1071
463.947	1094.73
464.32	1122.53
464.692	1136.99
465.065	1122.98
465.438	1181.73
465.81	1158.46
466.183	1183.77
466.555	1210.43
466.928	1254.05
467.3	1257.66
467.672	1273.03
468.045	1306.02
468.417	1293.14
468.789	1321.39
469.161	1343.54
469.534	1375.4
469.906	1411.11
470.278	1422.86
470.65	1437.55
471.022	1466.7
471.394	1488.17
471.766	1507.38
472.138	1565.91
472.51	1573.14
472.882	1619.92
473.253	1653.13
473.625	1680.48
473.997	1715.51
474.369	1750.76
474.74	1751.66
475.112	1847.03
475.484	1867.82
475.855	1920.25
476.227	1962.96
476.598	2009.28
476.97	2073.69
477.341	2137.87
477.713	2150.97
478.084	2225.32
478.455	2269.16
478.827	2332.89
479.198	2398.65
479.569	2482.94
479.94	2571.08
480.311	2634.35
480.682	2710.96
481.053	2842.03
481.424	2875.48
481.795	2946.21
482.166	3033.44
482.537	3129.48
482.908	3214.22
483.279	3275.46
483.65	3392.52
484.021	3499.19
484.391	3619.64
484.762	3712.06
485.133	3772.85
485.503	3863.02
485.874	4070.7
486.244	4149.34
486.615	4247.87
486.985	4351.82
487.356	4518.6
487.726	4643.11
488.097	4779.15
488.467	4862.99
488.837	5011.24
489.207	5171.69
489.578	5216.43
489.948	5402.19
490.318	5536.42
490.688	5633.37
491.058	5818.22
491.428	5960.37
491.798	6126.01
492.168	6271.32
492.538	6394.25
492.908	6526
493.278	6714.24
493.648	6845.77
494.017	7000.79
494.387	7153.33
494.757	7244.85
495.126	7390.61
495.496	7564.17
495.866	7661.11
496.235	7891.61
496.605	8075.34
496.974	8157.82
497.344	8359.85
497.713	8521.88
498.082	8536.34
498.452	8774.98
498.821	8890.91
499.19	8950.12
499.559	9212.48
499.928	9322.76
500.298	9534.51
500.667	9592.59
501.036	9673.49
501.405	9907.15
501.774	9941.05
502.143	10120.26
502.512	10299.23
502.88	10350.53
503.249	10503.07
503.618	10598.21
503.987	10814.25
504.356	10917.52
504.724	10979.22
505.093	11195.26
505.462	11248.59
505.83	11419.43
506.199	11567
506.567	11837.73
506.936	11814.68
507.304	12054.22
507.672	12177.38
508.041	12230.94
508.409	12352.29
508.777	12594.99
509.145	12722.45
509.514	12819.85
509.882	12946.17
510.25	12999.28
510.618	13141.65
510.986	13253.51
511.354	13414.41
511.722	13645.14
512.09	13786.83
512.458	13835.64
512.826	14005.13
513.193	14067.5
513.561	14167.61
513.929	14283.08
514.297	14483.98
514.664	14584.32
515.032	14711.77
515.4	14947.47
515.767	15045.78
516.135	15109.28
516.502	15041.71
516.869	15330.74
517.237	15501.36
517.604	15462.04
517.972	15643.05
518.339	15846.21
518.706	15929.6
519.073	16069.25
519.44	16072.19
519.808	16349.47
520.175	16369.36
520.542	16663.14
520.909	16840.08
521.276	16760.76
521.643	17066.06
522.009	17167.08
522.376	17270.8
522.743	17383.12
523.11	17567.74
523.477	17772.48
523.843	17835.08
524.21	18055.42
524.577	18204.11
524.943	18340.15
525.31	18431.9
525.676	18634.16
526.043	18750.76
526.409	18826.69
526.776	19028.5
527.142	19024.2
527.508	19227.14
527.874	19438.2
528.241	19563.4
528.607	19704.64
528.973	19808.59
529.339	19892.88
529.705	20032.76
530.071	20180.1
530.437	20200.44
530.803	20481.57
531.169	20461.68
531.535	20503.49
531.901	20578.96
532.267	20725.4
532.632	20954.1
532.998	20865.28
533.364	21016.47
533.73	21072.74
534.095	21347.08
534.461	21355.67
534.826	21569
535.192	21659.16
535.557	21738.26
535.923	21773.74
536.288	21936.67
536.653	22073.39
537.019	22020.06
537.384	22100.28
537.749	22249.88
538.114	22312.7
538.479	22222.09
538.845	22403.55
539.21	22479.93
539.575	22553.83
539.94	22688.06
540.305	22788.4
540.67	22830.2
541.034	22918.11
541.399	23033.14
541.764	22992.69
542.129	23227.48
542.494	23087.15
542.858	23324.66
543.223	23249.4
543.587	23496.18
543.952	23556.06
544.316	23639.22
544.681	23709.5
545.045	23749.05
545.41	23886
545.774	23853.23
546.138	23912.89
546.503	23959.44
546.867	24031.08
547.231	24304.97
547.595	24169.38
547.959	24315.14
548.324	24390.62
548.688	24411.41
549.052	24488.92
549.416	24659.99
549.779	24575.02
550.143	24667.22
550.507	24831.28
550.871	24952.86
551.235	24968.23
551.599	25093.65
551.962	25196.24
552.326	25263.81
552.689	25493.64
553.053	25372.96
553.417	25379.74
553.78	25792.39
554.143	25798.49
554.507	25762.33
554.87	25846.4
555.234	26074.64
555.597	25980.63
555.96	26114.41
556.323	26301.98
556.686	26316.44
557.05	26579.03
557.413	26574.74
557.776	26698.13
558.139	26790.55
558.502	26898.8
558.865	26974.28
559.228	27166.36
559.59	27301.27
559.953	27244.33
560.316	27610.19
560.679	27589.4
561.041	27684.31
561.404	27820.13
561.767	28021.48
562.129	28022.61
562.492	28333.11
562.854	28336.27
563.217	28368.14
563.579	28435.03
563.941	28661.92
564.304	28729.26
564.666	28936.26
565.028	28963.38
565.39	29109.14
565.753	29290.37
566.115	29297.83
566.477	29524.27
566.839	29622.34
567.201	29863.01
567.563	29716.13
567.925	29785.73
568.287	30018.26
568.648	30013.97
569.01	30262.1
569.372	30445.15
569.734	30364.47
570.095	30564.46
570.457	30607.63
570.819	30695.99
571.18	30872.25
571.542	30895.76
571.903	30911.57
572.265	31022.08
572.626	31186.6
572.987	31206.48
573.349	31352.24
573.71	31642.85
574.071	31562.18
574.432	31754.49
574.794	31890.98
575.155	31949.29
575.516	31695.73
575.877	31970.53
576.238	32016.63
576.599	32167.36
576.96	32226.12
577.32	32234.48
577.681	32469.5
578.042	32432.66
578.403	32502.49
578.763	32612.32
579.124	32596.28
579.485	32718.08
579.845	32834.91
580.206	32693.22
580.566	32769.15
580.927	32836.5
581.287	32989.26
581.648	32930.96
582.008	32893.67
582.368	32863.84
582.728	32959.2
583.089	32897.51
583.449	32911.75
583.809	32973.21
584.169	33068.58
584.529	32997.4
584.889	33250.04
585.249	33062.7
585.609	33008.69
585.969	33309.93
586.329	33122.36
586.688	33187.9
587.048	33307.22
587.408	33203.27
587.768	33307.44
588.127	33223.38
588.487	33077.62
588.846	33433.99
589.206	33088.92
589.565	33337.5
589.925	33545.63
590.284	33354
590.643	33248.69
591.003	33558.28
591.362	33500.21
591.721	33372.75
592.08	33414.11
592.44	33619.75
592.799	33574.56
593.158	33450.49
593.517	33675.57
593.876	33683.48
594.235	33549.92
594.593	33706.53
594.952	33706.75
595.311	33595.12
595.67	33797.83
596.029	33998.05
596.387	33844.6
596.746	33977.48
597.104	33871.95
597.463	33771.84
597.822	33956.69
598.18	33843.93
598.538	33962.79
598.897	34066.97
599.255	33833.08
599.613	34440.07
599.972	34146.07
600.33	34123.69
600.688	34059.06
601.046	34261.09
601.404	34412.05
601.762	34276.68
602.12	34417.7
602.478	34412.95
602.836	34471.71
603.194	34420.86
603.552	34521.65
603.91	34365.49
604.268	34619.73
604.625	34549.44
604.983	34659.5
605.341	34536.56
605.698	34674.41
606.056	34799.61
606.413	34834.63
606.771	34808.65
607.128	34971.35
607.485	34888.64
607.843	34881.87
608.2	35170.67
608.557	35293.15
608.914	35165.02
609.272	35197.79
609.629	35357.11
609.986	35517.55
610.343	35324.79
610.7	35698.79
611.057	35577.89
611.414	35612.92
611.771	35587.38
612.127	35834.61
612.484	35920.26
612.841	35912.57
613.198	35710.32
613.554	35850.2
613.911	36066.92
614.267	36105.11
614.624	36035.73
614.98	36215.62
615.337	36241.6
615.693	36430.75
616.05	36115.28
616.406	36493.57
616.762	36388.49
617.118	36311.43
617.475	36518.21
617.831	36597.53
618.187	36576.28
618.543	36571.31
618.899	36750.06
619.255	36702.16
619.611	36832.32
619.967	36949.16
620.323	36956.39
620.678	36817.86
621.034	36861.02
621.39	36741.7
621.746	36866.67
622.101	37263.95
622.457	36893.79
622.812	37006.1
623.168	37292.2
623.523	37091.52
623.879	37336.04
624.234	36934.47
624.589	37284.74
624.945	37314.34
625.3	37340.78
625.655	37329.48
626.01	37270.5
626.365	37338.52
626.72	37350.73
627.075	37256.72
627.43	37297.4
627.785	37328.58
628.14	37335.81
628.495	37514.56
628.85	37359.99
629.205	37357.73
629.559	37510.95
629.914	37499.42
630.269	37380.56
630.623	37224.63
630.978	37278.41
631.332	37350.27
631.687	37456.71
632.041	37289.71
632.396	37255.81
632.75	37176.04
633.104	37445.87
633.459	37085.2
633.813	37077.51
634.167	37173.78
634.521	37160.68
634.875	37242.26
635.229	37173.33
635.583	36841.59
635.937	36991.19
636.291	37010.85
636.645	37029.38
636.999	36828.71
637.352	36995.71
637.706	36684.98
638.06	36972.88
638.413	36811.08
638.767	36788.26
639.121	36977.63
639.474	36807.92
639.828	36791.42
640.181	36817.63
640.534	36810.85
640.888	36610.86
641.241	36553.01
641.594	36590.29
641.947	36800.46
642.301	36694.7
642.654	36709.39
643.007	36626
643.36	36665.32
643.713	36547.58
644.066	36685.89
644.419	36418.77
644.771	36203.64
645.124	35918.9
645.477	35880.71
645.83	35580.15
646.182	35562.75
646.535	35443.43
646.888	35315.07
647.24	35251.57
647.593	35434.17
647.945	35438.23
648.298	35169.09
648.65	35115.31
649.002	35095.42
649.355	35326.6
649.707	35093.16
650.059	35282.08
650.411	35795.06
650.763	35722.97
651.115	36088.16
651.467	35945.34
651.819	35953.25
652.171	35819.92
652.523	35852.24
652.875	35882.52
653.227	35640.49
653.578	35900.37
653.93	35757.77
654.282	35674.84
654.633	35568.17
654.985	35668.96
655.337	35721.84
655.688	35780.6
656.039	35743.09
656.391	35443.43
656.742	35588.06
657.094	35608.85
657.445	35717.1
657.796	35600.49
658.147	35519.36
658.498	35544.22
658.849	35525.24
659.2	35482.3
659.551	35480.04
659.902	35580.83
660.253	35606.37
660.604	35513.04
660.955	35412.47
661.306	35412.25
661.656	35472.58
662.007	35424.68
662.358	35422.87
662.708	35359.37
663.059	35469.42
663.409	35249.77
663.76	35384
664.11	35356.88
664.461	35418.8
664.811	35310.78
665.161	35423.09
665.511	35348.07
665.862	35181.07
666.212	35421.74
666.562	35356.2
666.912	35239.37
667.262	35371.8
667.612	35285.47
667.962	35409.99
668.312	35322.08
668.662	35388.29
669.011	35374.28
669.361	35187.17
669.711	35196.89
670.06	35095.87
670.41	35108.53
670.76	34965.93
671.109	35241.63
671.459	35139.71
671.808	35063.1
672.157	35187.39
672.507	34936.55
672.856	35015.42
673.205	35039.83
673.554	35101.52
673.904	35027.85
674.253	35109.66
674.602	34934.75
674.951	34412.05
675.3	34387.19
675.649	34923.22
675.998	34858.82
676.346	34955.31
676.695	35132.71
677.044	34762.77
677.393	34866.27
677.741	34915.31
678.09	34843
678.438	34751.7
678.787	34738.82
679.135	34746.73
679.484	34529.33
679.832	34697.46
680.181	34429.67
680.529	34694.98
680.877	34553.51
681.225	34424.93
681.573	34707.18
681.922	34340.64
682.27	34306.06
682.618	34246.63
682.966	34233.97
683.314	34244.82
683.661	34069.46
684.009	34058.84
684.357	33983.58
684.705	33984.94
685.053	33932.74
685.4	33869.01
685.748	33768
686.095	33731.39
686.443	33489.13
686.79	33623.59
687.138	33668.79
687.485	33561.9
687.832	33498.17
688.18	33514.9
688.527	33203.94
688.874	33323.26
689.221	33249.82
689.568	33110.16
689.915	32992.2
690.262	33127.34
690.609	33013.89
690.956	32891.18
691.303	32825.42
691.65	32697.29
691.997	32661.36
692.344	32565.54
692.69	32460.23
693.037	32581.59
693.383	32212.56
693.73	32348.82
694.077	32092.11
694.423	32149.06
694.769	32125.55
695.116	31972.56
695.462	31864.32
695.808	31767.6
696.155	31873.13
696.501	31648.96
696.847	31642.85
697.193	31369.42
697.539	31440.37
697.885	31313.15
698.231	31178.01
698.577	31268.63
698.923	31087.61
699.269	30915.19
699.614	30863.67
699.96	30847.17
700.306	30776.44
700.651	30749.77
700.997	30581.41
701.342	30560.85
701.688	30592.26
702.033	30418.48
702.379	30263.23
702.724	30307.3
703.069	30313.85
703.415	30119.5
703.76	30046.74
704.105	30051.48
704.45	30098.71
704.795	29769.46
705.14	29772.17
705.485	29555.68
705.83	29593.19
706.175	29571.27
706.52	29658.5
706.865	29439.52
707.209	29415.79
707.554	29301.9
707.899	29266.19
708.243	29190.26
708.588	29065.52
708.932	28986.43
709.277	28860.55
709.621	28815.36
709.966	28787.34
710.31	28825.3
710.654	28578.08
710.998	28703.04
711.342	28657.17
711.687	28533.78
712.031	28382.15
712.375	28276.16
712.719	28268.71
713.063	28333.56
713.407	28373.56
713.75	28125.66
714.094	28167.69
714.438	28103.29
714.782	28109.61
715.125	27969.96
715.469	28052.89
715.812	27860.13
716.156	27682.96
716.499	27753.47
716.843	27865.33
717.186	27555.28
717.53	27696.74
717.873	27723.18
718.216	27680.7
718.559	27470.76
718.902	27311.89
719.246	27439.35
719.589	27325.45
719.932	27194.84
720.275	27268.28
720.617	27125.91
720.96	27174.72
721.303	27083.43
721.646	27047.04
721.989	26981.06
722.331	27001.62
722.674	26969.08
723.016	26936.54
723.359	27000.04
723.701	26869.42
724.044	26720.95
724.386	26604.79
724.729	26695.64
725.071	26602.99
725.413	26557.79
725.755	26645.47
726.097	26545.36
726.439	26373.16
726.782	26249.78
727.124	26538.36
727.465	26192.38
727.807	26167.74
728.149	26225.14
728.491	26194.86
728.833	26265.59
729.175	26071.02
729.516	26038.93
729.858	25957.35
730.199	26026.73
730.541	25907.86
730.882	25901.08
731.224	25847.75
731.565	25647.31
731.906	25804.82
732.248	25730.69
732.589	25649.57
732.93	25591.71
733.271	25679.4
733.612	25567.99
733.953	25654.31
734.294	25529.12
734.635	25387.2
734.976	25606.18
735.317	25310.37
735.658	25306.98
735.999	25371.38
736.339	25261.55
736.68	25273.53
737.021	25196.24
737.361	25080.09
737.702	25255.9
738.042	25219.75
738.383	25090.71
738.723	25179.07
739.063	25043.71
739.404	25054.78
739.744	24971.62
740.084	24837.38
740.424	25027.89
740.764	24801.9
741.104	24966.87
741.444	24865.63
741.784	24783.83
742.124	24826.99
742.464	24635.58
742.804	24704.05
743.143	24590.84
743.483	24563.72
743.823	24426.1
744.162	24556.26
744.502	24550.61
744.841	24379.32
745.181	24494.79
745.52	24273.33
745.86	24384.29
746.199	24265.65
746.538	24263.16
746.877	24330.05
747.216	24202.37
747.556	24106.78
747.895	24136.61
748.234	24111.3
748.573	24011.87
748.911	23924.87
749.25	23941.14
749.589	23897.52
749.928	23889.16
750.267	23832.44
750.605	23798.99
750.944	23703.4
751.283	23715.15
751.621	23681.03
751.96	23538.89
752.298	23576.17
752.636	23580.92
752.975	23568.94
753.313	23354.03
753.651	23397.42
753.989	23269.29
754.327	23406.46
754.666	23187.26
755.004	23305.67
755.342	23207.6
755.679	23134.6
756.017	22926.93
756.355	22961.95
756.693	22881.05
757.031	22937.32
