Data from hue_36_FLMS001491_00052.txt Node
Date: Tue Feb 07 17:29:59 GMT 2017
User: dcchb
Spectrometer: FLMS00149
Trigger mode: 0
Integration Time (sec): 2.000000E-2
Scans to average: 10
Electric dark correction enabled: true
Nonlinearity correction enabled: false
Boxcar width: 0
XAxis mode: Wavelengths
Number of Pixels in Spectrum: 2048
>>>>>Begin Spectral Data<<<<<
341.393	-12.66
341.776	-12.66
342.16	-12.66
342.543	-58.76
342.927	-37.97
343.31	-92.43
343.693	-62.6
344.077	-67.79
344.46	-66.66
344.843	-55.37
345.226	-46.78
345.61	-37.74
345.993	-7.01
346.376	-4.97
346.759	11.98
347.142	33.9
347.525	40.45
347.908	39.77
348.291	90.62
348.674	96.95
349.057	127.68
349.44	162.93
349.823	136.49
350.206	180.33
350.588	208.58
350.971	226.66
351.354	217.4
351.737	241.8
352.119	246.77
352.502	279.54
352.884	255.13
353.267	281.8
353.65	292.42
354.032	316.6
354.414	311.63
354.797	330.39
355.179	339.2
355.562	343.49
355.944	354.34
356.326	338.52
356.709	352.08
357.091	372.65
357.473	355.24
357.855	348.69
358.238	353.44
358.62	335.36
359.002	354.11
359.384	339.43
359.766	350.5
360.148	360.22
360.53	350.73
360.912	349.82
361.294	357.05
361.676	316.38
362.057	338.97
362.439	342.36
362.821	346.43
363.203	339.65
363.584	339.65
363.966	341.69
364.348	343.72
364.729	337.17
365.111	341.91
365.493	324.51
365.874	337.39
366.256	321.8
366.637	305.08
367.019	317.96
367.4	321.12
367.781	304.4
368.163	320.44
368.544	323.61
368.925	350.5
369.306	313.21
369.688	331.97
370.069	312.53
370.45	301.24
370.831	316.38
371.212	321.35
371.593	333.55
371.974	322.48
372.355	315.02
372.736	336.94
373.117	337.17
373.498	324.51
373.879	299.2
374.26	338.97
374.641	332.65
375.021	341.01
375.402	333.78
375.783	342.14
376.163	326.77
376.544	323.61
376.925	341.23
377.305	332.42
377.686	340.1
378.066	337.62
378.447	334.68
378.827	344.85
379.208	328.13
379.588	333.1
379.968	348.01
380.349	339.88
380.729	339.2
381.109	339.43
381.489	323.16
381.87	331.52
382.25	376.94
382.63	347.34
383.01	347.79
383.39	352.53
383.77	335.81
384.15	341.46
384.53	356.6
384.91	335.36
385.29	360.44
385.67	363.38
386.049	363.83
386.429	345.53
386.809	359.09
387.189	335.81
387.568	340.1
387.948	390.5
388.328	359.54
388.707	353.21
389.087	375.58
389.466	368.58
389.846	381.68
390.225	381.23
390.605	374.91
390.984	381.01
391.363	367.22
391.743	360.44
392.122	360.67
392.501	378.97
392.881	378.97
393.26	391.63
393.639	368.58
394.018	374.91
394.397	391.63
394.776	382.59
395.155	363.83
395.534	378.97
395.913	386.66
396.292	395.47
396.671	378.3
397.05	377.17
397.429	368.13
397.808	402.02
398.186	401.12
398.565	394.57
398.944	383.49
399.323	397.28
399.701	383.94
400.08	404.28
400.458	421.46
400.837	401.12
401.215	406.99
401.594	368.35
401.972	418.29
402.351	418.75
402.729	400.22
403.107	396.6
403.486	387.33
403.864	414.68
404.242	406.99
404.62	420.1
404.999	402.7
405.377	415.13
405.755	424.4
406.133	420.33
406.511	411.97
406.889	425.75
407.267	423.72
407.645	451.97
408.023	434.79
408.401	454
408.779	437.5
409.156	433.21
409.534	429.14
409.912	444.28
410.29	454
410.667	442.7
411.045	446.54
411.422	452.19
411.8	452.42
412.178	452.19
412.555	465.3
412.933	468.24
413.31	468.24
413.687	455.81
414.065	464.62
414.442	464.85
414.819	468.01
415.197	485.18
415.574	481.34
415.951	485.41
416.328	481.12
416.705	482.02
417.082	483.38
417.46	479.08
417.837	474.34
418.214	474.34
418.591	489.25
418.967	495.58
419.344	505.07
419.721	498.29
420.098	529.7
420.475	530.61
420.852	521.79
421.228	491.96
421.605	513.43
421.982	505.98
422.358	521.79
422.735	523.83
423.111	521.34
423.488	534.68
423.864	526.54
424.241	537.84
424.617	529.93
424.994	538.29
425.37	552.75
425.746	527.9
426.123	552.53
426.499	529.48
426.875	548.23
427.251	539.87
427.627	564.73
428.003	559.76
428.379	569.93
428.756	563.6
429.132	583.71
429.507	596.59
429.883	568.8
430.259	590.04
430.635	614.9
431.011	609.93
431.387	603.15
431.763	616.48
432.138	625.75
432.514	595.24
432.89	625.07
433.265	620.77
433.641	646.54
434.016	638.63
434.392	631.4
434.767	663.03
435.143	633.43
435.518	618.06
435.894	669.13
436.269	661.68
436.644	661.23
437.02	649.93
437.395	662.81
437.77	676.37
438.145	686.99
438.52	684.95
438.895	673.43
439.271	691.28
439.646	688.57
440.021	704.61
440.395	718.85
440.77	690.15
441.145	707.55
441.52	718.85
441.895	718.17
442.27	734.67
442.645	709.59
443.019	735.8
443.394	713.2
443.769	747.55
444.143	725.86
444.518	734.9
444.892	747.1
445.267	766.53
445.641	749.81
446.016	763.82
446.39	773.99
446.764	769.47
447.139	773.76
447.513	773.31
447.887	776.25
448.262	771.73
448.636	784.39
449.01	776.02
449.384	784.61
449.758	816.93
450.132	807.44
450.506	785.29
450.88	821.67
451.254	795.69
451.628	815.8
452.002	839.53
452.376	823.71
452.75	838.62
453.123	835.46
453.497	860.32
453.871	857.6
454.244	882.46
454.618	858.73
454.992	859.64
455.365	882.46
455.739	884.5
456.112	903.71
456.486	928.34
456.859	921.11
457.232	926.53
457.606	913.87
457.979	911.39
458.352	964.95
458.725	958.17
459.099	963.14
459.472	979.18
459.845	983.93
460.218	1000.65
460.591	986.41
460.964	1021.44
461.337	1028.45
461.71	1020.76
462.083	1049.24
462.456	1054.66
462.829	1058.05
463.201	1072.51
463.574	1084.94
463.947	1100.76
464.32	1115
464.692	1133.98
465.065	1136.47
465.438	1141.66
465.81	1177.14
466.183	1175.11
466.555	1210.59
466.928	1229.12
467.3	1225.73
467.672	1239.74
468.045	1223.7
468.417	1294.2
468.789	1290.14
469.161	1314.99
469.534	1322.45
469.906	1362.9
470.278	1370.81
470.65	1366.07
471.022	1415.1
471.394	1472.96
471.766	1481.32
472.138	1495.1
472.51	1508.43
472.882	1551.15
473.253	1567.64
473.625	1621.43
473.997	1614.87
474.369	1663.23
474.74	1658.71
475.112	1714.08
475.484	1762.89
475.855	1795.21
476.227	1836.11
476.598	1877.46
476.97	1904.58
477.341	1982.55
477.713	2009.44
478.084	2044.01
478.455	2087.18
478.827	2114.75
479.198	2240.39
479.569	2231.58
479.94	2326.04
480.311	2393.38
480.682	2455.98
481.053	2528.75
481.424	2607.39
481.795	2622.98
482.166	2694.39
482.537	2738.46
482.908	2816.2
483.279	2879.02
483.65	2986.59
484.021	3045.12
484.391	3071.33
484.762	3184.1
485.133	3239.46
485.503	3310.87
485.874	3458.21
486.244	3507.25
486.615	3617.08
486.985	3673.8
487.356	3839.9
487.726	3857.53
488.097	3975.94
488.467	4055.94
488.837	4136.84
489.207	4254.8
489.578	4360.56
489.948	4422.48
490.318	4539.09
490.688	4598.98
491.058	4705.86
491.428	4807.11
491.798	4908.57
492.168	5066.08
492.538	5163.71
492.908	5261.1
493.278	5356.47
493.648	5367.77
494.017	5460.2
494.387	5587.65
494.757	5724.6
495.126	5769.11
495.496	5835.1
495.866	5960.3
496.235	6026.06
496.605	6162.78
496.974	6176.33
497.344	6331.36
497.713	6380.62
498.082	6454.75
498.452	6580.84
498.821	6705.81
499.19	6728.64
499.559	6829.88
499.928	6924.79
500.298	6960.95
500.667	7089.31
501.036	7088.85
501.405	7196.65
501.774	7241.84
502.143	7335.4
502.512	7383.31
502.88	7598.9
503.249	7566.81
503.618	7634.6
503.987	7654.49
504.356	7776.52
504.724	7895.16
505.093	7943.52
505.462	7968.15
505.83	8140.12
506.199	8160.01
506.567	8223.74
506.936	8327.01
507.304	8479.55
507.672	8482.71
508.041	8560.23
508.409	8612.88
508.777	8653.11
509.145	8707.79
509.514	8778.98
509.882	8876.15
510.25	8861.69
510.618	8912.99
510.986	9068.01
511.354	9186.88
511.722	9196.82
512.09	9317.5
512.458	9299.87
512.826	9360.66
513.193	9453.76
513.561	9440.88
513.929	9543.93
514.297	9662.8
514.664	9724.49
515.032	9753.42
515.4	9835
515.767	9885.16
516.135	9968.33
516.502	9867.99
516.869	10105.72
517.237	10079.28
517.604	10105.95
517.972	10237.02
518.339	10229.79
518.706	10303.46
519.073	10317.47
519.44	10439.95
519.808	10492.15
520.175	10535.09
520.542	10686.5
520.909	10750.45
521.276	10686.27
521.643	10868.64
522.009	10797
522.376	10884.69
522.743	11001.74
523.11	11089.43
523.477	11130.78
523.843	11302.3
524.21	11399.47
524.577	11444.9
524.943	11497.32
525.31	11551.79
525.676	11637.21
526.043	11711.78
526.409	11817.77
526.776	11909.52
527.142	11904.55
527.508	12057.76
527.874	12113.58
528.241	12200.36
528.607	12238.77
528.973	12354.03
529.339	12342.27
529.705	12469.05
530.071	12512.89
530.437	12523.74
530.803	12622.49
531.169	12792.21
531.535	12711.98
531.901	12772.77
532.267	12898.87
532.632	12944.97
532.998	12957.85
533.364	13019.54
533.73	13074.46
534.095	13223.16
534.461	13222.25
534.826	13262.48
535.192	13371.85
535.557	13412.3
535.923	13387.22
536.288	13499.31
536.653	13528.68
537.019	13515.35
537.384	13649.58
537.749	13600.09
538.114	13717.61
538.479	13715.8
538.845	13863.59
539.21	13859.3
539.575	13879.86
539.94	13963.47
540.305	14048.67
540.67	14014.09
541.034	14129.35
541.399	14127.31
541.764	14266.74
542.129	14254.77
542.494	14325.05
542.858	14373.18
543.223	14469.45
543.587	14538.37
543.952	14519.62
544.316	14603.23
544.681	14544.7
545.045	14729.1
545.41	14739.95
545.774	14801.19
546.138	14794.64
546.503	14928.87
546.867	14878.03
547.231	15090.68
547.595	15065.14
547.959	15144.69
548.324	15117.12
548.688	15182.65
549.052	15281.18
549.416	15312.82
549.779	15313.27
550.143	15311.69
550.507	15462.19
550.871	15619.02
551.235	15579.48
551.599	15670.77
551.962	15660.38
552.326	15753.48
552.689	15805.01
553.053	15778.57
553.417	15761.39
553.78	16053.82
554.143	15959.58
554.507	16055.85
554.87	16108.28
555.234	16246.13
555.597	16137.43
555.96	16194.15
556.323	16354.37
556.686	16336.97
557.05	16415.16
557.413	16522.73
557.776	16612.67
558.139	16606.57
558.502	16651.31
558.865	16660.35
559.228	16809.95
559.59	16880.01
559.953	16882.72
560.316	17071.87
560.679	17043.85
561.041	17179.21
561.404	17161.13
561.767	17304.4
562.129	17211.75
562.492	17474.79
562.854	17455.36
563.217	17444.29
563.579	17532.65
563.941	17600.22
564.304	17694.9
564.666	17820.1
565.028	17823.03
565.39	17924.95
565.753	17973.54
566.115	17984.61
566.477	18218.28
566.839	18150.03
567.201	18368.56
567.563	18148.9
567.925	18404.26
568.287	18393.19
568.648	18503.92
569.01	18542.56
569.372	18685.61
569.734	18689.23
570.095	18865.72
570.457	18922.67
570.819	18878.37
571.18	18936.9
571.542	19060.06
571.903	19088.31
572.265	19096.9
572.626	19286.5
572.987	19413.5
573.349	19418.47
573.71	19576.89
574.071	19609.43
574.432	19728.97
574.794	19946.59
575.155	19850.33
575.516	19884.22
575.877	20101.17
576.238	20146.36
576.599	20334.38
576.96	20465.68
577.32	20404.66
577.681	20629.74
578.042	20712.45
578.403	20801.26
578.763	20935.95
579.124	21095.49
579.485	21228.59
579.845	21429.04
580.206	21536.38
580.566	21567.12
580.927	21869.26
581.287	22005.75
581.648	22080.32
582.008	22288.68
582.368	22345.85
582.728	22481.89
583.089	22708.33
583.449	22875.33
583.809	22982.22
584.169	23257.02
584.529	23289.56
584.889	23686.16
585.249	23735.42
585.609	23848.41
585.969	24228.74
586.329	24222.64
586.688	24550.77
587.048	24690.42
587.408	24835.96
587.768	25059.91
588.127	25228.26
588.487	25451.31
588.846	25801.13
589.206	25839.32
589.565	26065.3
589.925	26428.91
590.284	26535.8
590.643	26656.02
591.003	27040.64
591.362	27338.49
591.721	27375.33
592.08	27649.22
592.44	27957.23
592.799	28083.78
593.158	28196.77
593.517	28486.03
593.876	28638.8
594.235	28796.76
594.593	29070.2
594.952	29301.38
595.311	29443.52
595.67	29822.04
596.029	30116.04
596.387	30256.38
596.746	30570.27
597.104	30585.64
597.463	30776.59
597.822	31121.67
598.18	31167.77
598.538	31338.61
598.897	31743.8
599.255	31607.08
599.613	32292.03
599.972	32188.08
600.33	32477.11
600.688	32557.79
601.046	32779.7
601.404	33100.82
601.762	33190.31
602.12	33384.43
602.478	33602.28
602.836	33784.2
603.194	33817.19
603.552	33889.28
603.91	34076.39
604.268	34513.44
604.625	34370.17
604.983	34813.32
605.341	34722.02
605.698	34887.44
606.056	35075.01
606.413	35243.82
606.771	35475.68
607.128	35598.39
607.485	35703.92
607.843	35718.61
608.2	36072.05
608.557	36193.62
608.914	36226.17
609.272	36591.81
609.629	36713.61
609.986	36898.69
610.343	36902.53
610.7	37221.85
611.057	37182.75
611.414	37319.47
611.771	37410.54
612.127	37658.22
612.484	37718.56
612.841	37915.39
613.198	38011.66
613.554	38025.67
613.911	38378.88
614.267	38295.04
614.624	38500.23
614.98	38562.38
615.337	38901.8
615.693	38807.12
616.05	38958.3
616.406	39225.64
616.762	39260.21
617.118	39149.03
617.475	39261.79
617.831	39438.74
618.187	39619.75
618.543	39681.22
618.899	39856.13
619.255	39857.48
619.611	39831.72
619.967	39943.58
620.323	40135.22
620.678	40066.52
621.034	40086.86
621.39	40061.77
621.746	40175.67
622.101	40555.09
622.457	40277.59
622.812	40466.51
623.168	40479.84
623.523	40611.59
623.879	40691.13
624.234	40657.91
624.589	40709.44
624.945	40889.55
625.3	40999.83
625.655	40880.06
626.01	41138.35
626.365	41064.91
626.72	41064.23
627.075	41073.95
627.43	41160.27
627.785	41009.09
628.14	41162.76
628.495	41194.85
628.85	41222.19
629.205	41216.09
629.559	41368.4
629.914	41184.68
630.269	41206.6
630.623	41192.59
630.978	41128.86
631.332	41369.99
631.687	41468.51
632.041	41251.57
632.396	41469.64
632.75	41232.14
633.104	41262.19
633.459	41204.79
633.813	41255.41
634.167	41287.28
634.521	41218.35
634.875	41369.76
635.229	41386.26
635.583	41181.52
635.937	41362.08
636.291	41339.93
636.645	41270.78
636.999	41190.56
637.352	41323.89
637.706	41087.51
638.06	41267.84
638.413	41126.83
638.767	41046.15
639.121	41194.4
639.474	40883.9
639.828	40983.78
640.181	41108.98
640.534	41124.57
640.888	40913.73
641.241	40752.6
641.594	40943.56
641.947	40990.56
642.301	40826.27
642.654	41120.5
643.007	41036.89
643.36	40828.76
643.713	40988.53
644.066	41081.41
644.419	40825.14
644.771	40585.6
645.124	40206.85
645.477	40179.73
645.83	39908.78
646.182	39889.35
646.535	39855.22
646.888	39804.6
647.24	39697.04
647.593	39791.72
647.945	39728.45
648.298	39525.74
648.65	39563.93
649.002	39416.82
649.355	39594.89
649.707	39521.45
650.059	39723.02
650.411	40107.87
650.763	40082.56
651.115	40548.09
651.467	40389.67
651.819	40401.2
652.171	40318.26
652.523	40377.7
652.875	40391.48
653.227	39975.67
653.578	40319.84
653.93	40403.91
654.282	40174.99
654.633	40070.81
654.985	40139.96
655.337	40322.56
655.688	40163.92
656.039	40318.26
656.391	40039.85
656.742	40221.32
657.094	40161.43
657.445	40266.29
657.796	40108.78
658.147	39996.01
658.498	40195.1
658.849	40202.33
659.2	40116.46
659.551	39902.91
659.902	40264.25
660.253	40083.01
660.604	40085.73
660.955	39913.75
661.306	40050.7
661.656	39939.29
662.007	39998.72
662.358	39983.81
662.708	40014.54
663.059	39934.77
663.409	39715.79
663.76	40090.7
664.11	39936.58
664.461	40040.76
664.811	40053.86
665.161	39865.39
665.511	39845.51
665.862	39869.91
666.212	39918.5
666.562	39890.7
666.912	39860.19
667.262	39809.57
667.612	39830.14
667.962	39954.43
668.312	39810.03
668.662	39957.37
669.011	39965.5
669.361	39901.1
669.711	39856.81
670.06	39721.22
670.41	39749.01
670.76	39589.47
671.109	39783.13
671.459	39644.61
671.808	39523.71
672.157	39706.75
672.507	39518.96
672.856	39572.29
673.205	39622.24
673.554	39691.84
673.904	39654.55
674.253	39751.5
674.602	39551.5
674.951	39212.75
675.3	38914.91
675.649	39658.17
675.998	39578.39
676.346	39505.85
676.695	39754.89
677.044	39367.55
677.393	39543.82
677.741	39569.13
678.09	39486.42
678.438	39266.31
678.787	39405.74
679.135	39482.13
679.484	39203.04
679.832	39294.11
680.181	39023.38
680.529	39266.31
680.877	39192.42
681.225	38991.07
681.573	39368.68
681.922	38942.03
682.27	38859.09
682.618	38925.08
682.966	38676.72
683.314	38834.91
683.661	38704.75
684.009	38606.44
684.357	38432.21
684.705	38423.85
685.053	38497.74
685.4	38501.36
685.748	38224.31
686.095	38281.71
686.443	38194.25
686.79	38224.98
687.138	38307.47
687.485	38117.64
687.832	38066.57
688.18	38108.6
688.527	37907.48
688.874	37936.63
689.221	37919.91
689.568	37760.14
689.915	37635.85
690.262	37595.4
690.609	37618.67
690.956	37391.11
691.303	37395.17
691.65	37224.78
691.997	37224.11
692.344	37056.2
692.69	36996.09
693.037	36985.02
693.383	36756.1
693.73	36770.78
694.077	36597.46
694.423	36605.59
694.769	36500.06
695.116	36509.32
695.462	36363.79
695.808	36407.86
696.155	36257.35
696.501	36102.1
696.847	36093.51
697.193	35765.16
697.539	35964.25
697.885	35677.93
698.231	35681.1
698.577	35562.91
698.923	35496.69
699.269	35270.03
699.614	35235.68
699.96	35181.22
700.306	35211.96
700.651	35036.59
700.997	35058.74
701.342	34825.75
701.688	34849.25
702.033	34778.97
702.379	34600.45
702.724	34596.38
703.069	34722.48
703.415	34204.07
703.76	34392.32
704.105	34392.09
704.45	34299.66
704.795	34063.96
705.14	33997.07
705.485	33936.28
705.83	33792.33
706.175	33895.38
706.52	33767.47
706.865	33708.49
707.209	33660.36
707.554	33483.19
707.899	33481.61
708.243	33426.01
708.588	33322.29
708.932	33070.32
709.277	33205.91
709.621	33075.06
709.966	32880.04
710.31	33014.73
710.654	32727.95
710.998	32748.74
711.342	32745.81
711.687	32568.86
712.031	32523.44
712.375	32499.48
712.719	32409.32
713.063	32374.97
713.407	32454.06
713.75	32289.09
714.094	32207.51
714.438	32029.89
714.782	32070.34
715.125	32071.7
715.469	32164.35
715.812	31938.6
716.156	31763.46
716.499	31710.13
716.843	31871.03
717.186	31525.27
717.53	31786.06
717.873	31793.29
718.216	31581.32
718.559	31464.03
718.902	31232.4
719.246	31335
719.589	31251.61
719.932	31165.96
720.275	31168.22
720.617	31196.02
720.96	30999.86
721.303	31079.18
721.646	31006.19
721.989	30867.89
722.331	30947.66
722.674	30836.7
723.016	30892.75
723.359	30849.81
723.701	30860.88
724.044	30566.65
724.386	30548.35
724.729	30641.23
725.071	30503.83
725.413	30478.52
725.755	30398.52
726.097	30369.82
726.439	30216.83
726.782	30184.74
727.124	30428.8
727.465	30216.83
727.807	30066.78
728.149	30048.7
728.491	29938.2
728.833	29999.89
729.175	29828.59
729.516	29796.5
729.858	29815.04
730.199	29931.19
730.541	29725.09
730.882	29798.09
731.224	29747.92
731.565	29619.11
731.906	29696.62
732.248	29645.1
732.589	29546.57
732.93	29321.26
733.271	29368.04
733.612	29393.13
733.953	29389.74
734.294	29283.07
734.635	29234.03
734.976	29288.95
735.317	29181.38
735.658	29162.4
735.999	29143.19
736.339	29053.93
736.68	29185.9
737.021	28897.32
737.361	28809.41
737.702	29045.34
738.042	28889.41
738.383	28709.3
738.723	28992.68
739.063	28765.8
739.404	28767.15
739.744	28629.76
740.084	28546.14
740.424	28677.21
740.764	28615.97
741.104	28721.5
741.444	28447.61
741.784	28376.88
742.124	28488.52
742.464	28344.79
742.804	28322.19
743.143	28258.69
743.483	28246.94
743.823	28052.37
744.162	28142.31
744.502	28148.64
744.841	28054.63
745.181	28197.9
745.52	27971.24
745.86	28092.37
746.199	27967.63
746.538	27908.42
746.877	28011.69
747.216	27988.64
747.556	27836.33
747.895	27927.63
748.234	27751.13
748.573	27693.51
748.911	27612.61
749.25	27565.6
749.589	27471.37
749.928	27648.09
750.267	27501.88
750.605	27413.97
750.944	27380.97
751.283	27241.54
751.621	27248.55
751.96	27269.79
752.298	27139.85
752.636	27241.09
752.975	27023.92
753.313	26959.29
753.651	26981.89
753.989	26905.28
754.327	26929.01
754.666	26841.33
755.004	26820.54
755.342	26759.3
755.679	26788.45
756.017	26630.03
756.355	26625.51
756.693	26465.29
757.031	26624.84
757.368	26468.91
757.706	26338.52
