Data from hue_120_FLMS001491_00065.txt Node
Date: Tue Feb 07 16:59:49 GMT 2017
User: dcchb
Spectrometer: FLMS00149
Trigger mode: 0
Integration Time (sec): 2.000000E-2
Scans to average: 10
Electric dark correction enabled: true
Nonlinearity correction enabled: false
Boxcar width: 0
XAxis mode: Wavelengths
Number of Pixels in Spectrum: 2048
>>>>>Begin Spectral Data<<<<<
341.393	2.53
341.776	2.53
342.16	2.53
342.543	-53.97
342.927	-66.4
343.31	-57.58
343.693	-56.91
344.077	-61.42
344.46	-70.92
344.843	-76.57
345.226	-27.08
345.61	-31.14
345.993	-18.71
346.376	-1.77
346.759	2.98
347.142	6.82
347.525	59.7
347.908	58.12
348.291	82.98
348.674	95.63
349.057	95.86
349.44	122.98
349.823	127.95
350.206	176.08
350.588	198.68
350.971	220.83
351.354	245.01
351.737	226.48
352.119	243.2
352.502	243.88
352.884	259.92
353.267	302.41
353.65	300.37
354.032	299.47
354.414	295.4
354.797	328.85
355.179	312.8
355.562	318.23
355.944	311.67
356.326	328.85
356.709	337.66
357.091	325.01
357.473	339.47
357.855	372.01
358.238	331.79
358.62	334.95
359.002	345.8
359.384	349.41
359.766	329.07
360.148	332.69
360.53	358.9
360.912	344.44
361.294	339.24
361.676	337.89
362.057	344.67
362.439	340.82
362.821	343.08
363.203	316.19
363.584	325.91
363.966	330.88
364.348	312.12
364.729	334.5
365.111	313.48
365.493	337.21
365.874	316.42
366.256	321.62
366.637	312.58
367.019	300.83
367.4	316.64
367.781	307.6
368.163	319.36
368.544	324.78
368.925	308.96
369.306	318.9
369.688	294.72
370.069	300.6
370.45	306.47
370.831	303.76
371.212	311.45
371.593	300.37
371.974	310.77
372.355	328.85
372.736	306.25
373.117	319.81
373.498	298.34
373.879	309.19
374.26	321.16
374.641	323.88
375.021	324.1
375.402	317.32
375.783	298.11
376.163	311.67
376.544	325.68
376.925	333.82
377.305	358.68
377.686	347.83
378.066	339.92
378.447	343.54
378.827	353.48
379.208	341.5
379.588	324.33
379.968	334.5
380.349	338.11
380.729	337.21
381.109	324.78
381.489	317.1
381.87	357.55
382.25	338.11
382.63	328.4
383.01	353.48
383.39	349.19
383.77	353.93
384.15	334.72
384.53	339.92
384.91	360.26
385.29	361.84
385.67	343.76
386.049	372.24
386.429	365.68
386.809	370.2
387.189	356.64
387.568	363.87
387.948	355.29
388.328	369.52
388.707	383.31
389.087	348.06
389.466	358.45
389.846	379.69
390.225	381.73
390.605	385.12
390.984	383.08
391.363	370.43
391.743	366.13
392.122	374.72
392.501	377.43
392.881	384.21
393.26	381.73
393.639	409.3
394.018	386.47
394.397	401.39
394.776	419.47
395.155	394.61
395.534	396.87
395.913	398
396.292	399.81
396.671	414.95
397.05	385.79
397.429	387.6
397.808	418.56
398.186	418.34
398.565	395.51
398.944	407.94
399.323	429.86
399.701	421.95
400.08	400.26
400.458	438.9
400.837	420.37
401.215	432.8
401.594	432.57
401.972	414.04
402.351	402.97
402.729	424.89
403.107	431.22
403.486	425.12
403.864	465.79
404.242	457.88
404.62	431.67
404.999	436.42
405.377	449.97
405.755	450.43
406.133	457.66
406.511	439.58
406.889	476.41
407.267	470.54
407.645	448.84
408.023	454.72
408.401	482.97
408.779	468.5
409.156	485.91
409.534	469.41
409.912	483.87
410.29	482.52
410.667	499.69
411.045	483.87
411.422	508.28
411.8	493.81
412.178	504.44
412.555	505.57
412.933	500.82
413.31	493.81
413.687	501.72
414.065	489.97
414.442	527.71
414.819	561.16
415.197	525.68
415.574	523.87
415.951	523.87
416.328	567.03
416.705	561.38
417.082	540.59
417.46	543.98
417.837	556.64
418.214	557.99
418.591	553.7
418.967	557.09
419.344	577.43
419.721	567.03
420.098	582.85
420.475	582.17
420.852	574.26
421.228	585.34
421.605	596.64
421.982	581.27
422.358	603.19
422.735	621.72
423.111	593.02
423.488	607.71
423.864	610.2
424.241	627.82
424.617	614.72
424.994	610.42
425.37	619.01
425.746	643.42
426.123	624.21
426.499	627.37
426.875	669.4
427.251	663.3
427.627	645.68
428.003	676.18
428.379	665.56
428.756	680.25
429.132	705.33
429.507	684.32
429.883	687.71
430.259	704.2
430.635	719.57
431.011	727.25
431.387	717.09
431.763	759.12
432.138	732.68
432.514	745.11
432.89	744.88
433.265	754.82
433.641	767.93
434.016	785.56
434.392	781.94
434.767	787.82
435.143	775.16
435.518	793.69
435.894	796.41
436.269	829.17
436.644	807.93
437.02	832.11
437.395	823.52
437.77	833.01
438.145	861.49
438.52	861.49
438.895	890.64
439.271	852.45
439.646	884.09
440.021	882.28
440.395	888.38
440.77	901.94
441.145	932
441.52	926.35
441.895	915.72
442.27	913.24
442.645	931.77
443.019	931.32
443.394	950.75
443.769	940.36
444.143	935.84
444.518	966.8
444.892	971.32
445.267	984.65
445.641	988.94
446.016	986.23
446.39	1004.54
446.764	1001.82
447.139	993.91
447.513	1007.25
447.887	1013.58
448.262	1027.81
448.636	1009.28
449.01	1027.81
449.384	1042.5
449.758	1053.35
450.132	1041.37
450.506	1037.76
450.88	1057.42
451.254	1060.35
451.628	1099.45
452.002	1140.13
452.376	1105.78
452.75	1106.91
453.123	1129.05
453.497	1150.07
453.871	1138.77
454.244	1161.37
454.618	1178.54
454.992	1210.86
455.365	1211.99
455.739	1248.15
456.112	1222.84
456.486	1232.78
456.859	1280.46
457.232	1267.35
457.606	1283.17
457.979	1280.91
458.352	1280.69
458.725	1355.94
459.099	1336.28
459.472	1384.64
459.845	1369.95
460.218	1387.8
460.591	1414.24
460.964	1444.07
461.337	1440.91
461.71	1479.1
462.083	1482.49
462.456	1481.59
462.829	1535.6
463.201	1527.23
463.574	1536.95
463.947	1592.09
464.32	1569.27
464.692	1607.01
465.065	1657.85
465.438	1660.11
465.81	1666.44
466.183	1677.51
466.555	1728.36
466.928	1738.98
467.3	1766.32
467.672	1794.12
468.045	1847.45
468.417	1861.91
468.789	1877.51
469.161	1890.84
469.534	1943.04
469.906	1990.5
470.278	2024.62
470.65	2055.81
471.022	2110.04
471.394	2120.44
471.766	2165.86
472.138	2258.29
472.51	2237.5
472.882	2281.34
473.253	2353.43
473.625	2412.86
473.997	2455.12
474.369	2507.55
474.74	2504.61
475.112	2600.65
475.484	2672.97
475.855	2743.47
476.227	2771.72
476.598	2871.38
476.97	2917.93
477.341	2987.31
477.713	3049.45
478.084	3095.78
478.455	3228.21
478.827	3279.5
479.198	3406.05
479.569	3439.27
479.94	3554.75
480.311	3650.34
480.682	3753.84
481.053	3848.53
481.424	3965.59
481.795	4039.03
482.166	4180.72
482.537	4208.52
482.908	4364.9
483.279	4495.52
483.65	4587.27
484.021	4771.44
484.391	4863.64
484.762	4935.73
485.133	5042.85
485.503	5210.98
485.874	5303.63
486.244	5487.36
486.615	5657.97
486.985	5760.57
487.356	5854.8
487.726	6027.68
488.097	6203.5
488.467	6302.7
488.837	6466.99
489.207	6601.22
489.578	6761.45
489.948	6906.3
490.318	7041.44
490.688	7162.34
491.058	7368.66
491.428	7548.32
491.798	7631.25
492.168	7880.06
492.538	8037.8
492.908	8157.34
493.278	8331.12
493.648	8487.95
494.017	8594.39
494.387	8805.23
494.757	8910.77
495.126	9072.12
495.496	9122.29
495.866	9312.57
496.235	9499.68
496.605	9615.38
496.974	9685.44
497.344	9940.8
497.713	9986.9
498.082	10129.27
498.452	10313.67
498.821	10361.58
499.19	10539.65
499.559	10674.11
499.928	10813.77
500.298	10852.19
500.667	11065.74
501.036	11076.59
501.405	11218.96
501.774	11307.54
502.143	11372.62
502.512	11541.66
502.88	11658.04
503.249	11694.88
503.618	11841.09
503.987	11904.14
504.356	12010.35
504.724	12112.04
505.093	12227.29
505.462	12254.86
505.83	12315.42
506.199	12459.6
506.567	12623.67
506.936	12717.67
507.304	12848.29
507.672	12861.17
508.041	12962.41
508.409	12983.66
508.777	13184.33
509.145	13285.12
509.514	13237.66
509.882	13370.31
510.25	13360.37
510.618	13513.13
510.986	13575.73
511.354	13742.73
511.722	13741.15
512.09	13874.03
512.458	13831.77
512.826	13920.13
513.193	14062.27
513.561	14062.72
513.929	14185.66
514.297	14270.18
514.664	14327.58
515.032	14323.96
515.4	14470.85
515.767	14487.35
516.135	14514.01
516.502	14447.57
516.869	14721.69
517.237	14603.73
517.604	14704.06
517.972	14742.25
518.339	14814.12
518.706	14835.81
519.073	14853.44
519.44	14952.64
519.808	15076.26
520.175	15009.14
520.542	15132.07
520.909	15215.24
521.276	15173.88
521.643	15327.32
522.009	15308.57
522.376	15403.71
522.743	15425.4
523.11	15588.11
523.477	15560.54
523.843	15605.96
524.21	15721.21
524.577	15800.3
524.943	15713.53
525.31	15876.69
525.676	15939.96
526.043	15977.93
526.409	16026.74
526.776	16152.39
527.142	16124.59
527.508	16067.42
527.874	16231.71
528.241	16150.13
528.607	16153.52
528.973	16267.19
529.339	16199.84
529.705	16303.57
530.071	16273.06
530.437	16391.02
530.803	16466.73
531.169	16385.6
531.535	16417.01
531.901	16283.46
532.267	16385.6
532.632	16364.81
532.998	16333.4
533.364	16424.7
533.73	16383.57
534.095	16440.51
534.461	16364.13
534.826	16404.36
535.192	16383.34
535.557	16469.44
535.923	16485.03
536.288	16392.83
536.653	16390.57
537.019	16273.51
537.384	16334.75
537.749	16301.31
538.114	16259.28
538.479	16322.55
538.845	16349.67
539.21	16194.64
539.575	16243.68
539.94	16161.88
540.305	16269.22
540.67	16088.21
541.034	16202.1
541.399	16208.88
541.764	16171.82
542.129	16125.04
542.494	16098.83
542.858	16097.92
543.223	15959.4
543.587	16123.23
543.952	15972.5
544.316	15979.51
544.681	15845.05
545.045	15843.47
545.41	15892.51
545.774	15784.49
546.138	15784.03
546.503	15799.17
546.867	15683.47
547.231	15796.92
547.595	15766.41
547.959	15725.28
548.324	15603.47
548.688	15639.18
549.052	15565.96
549.416	15636.24
549.779	15608.9
550.143	15495.23
550.507	15567.54
550.871	15510.59
551.235	15468.11
551.599	15547.88
551.962	15528.67
552.326	15437.83
552.689	15348.79
553.053	15358.28
553.417	15367.77
553.78	15456.13
554.143	15332.97
554.507	15325.29
554.87	15340.2
555.234	15399.86
555.597	15282.8
555.96	15331.16
556.323	15302.46
556.686	15229.92
557.05	15334.33
557.413	15357.83
557.776	15287.55
558.139	15282.35
558.502	15328.68
558.865	15248.91
559.228	15241
559.59	15322.58
559.953	15206.2
560.316	15340.88
560.679	15281.9
561.041	15302.92
561.404	15365.74
561.767	15459.07
562.129	15336.81
562.492	15432.18
562.854	15403.03
563.217	15318.74
563.579	15319.19
563.941	15408.68
564.304	15414.33
564.666	15507.21
565.028	15514.44
565.39	15486.64
565.753	15538.62
566.115	15593.08
566.477	15597.37
566.839	15540.42
567.201	15612.29
567.563	15558.5
567.925	15734.77
568.287	15678.95
568.648	15643.25
569.01	15759.85
569.372	15728.22
569.734	15688.44
570.095	15805.95
570.457	15851.6
570.819	15832.62
571.18	15729.57
571.542	15769.35
571.903	15835.56
572.265	15814.32
572.626	15904.48
572.987	15874.2
573.349	15946.06
573.71	15848.67
574.071	15937.93
574.432	15938.38
574.794	16043.69
575.155	16000.07
575.516	15954.65
575.877	15960.07
576.238	16032.16
576.599	16022.67
576.96	16045.72
577.32	15977.25
577.681	16103.8
578.042	16116.91
578.403	16052.73
578.763	16083.46
579.124	16149
579.485	16116
579.845	16144.25
580.206	16085.95
580.566	16043.24
580.927	16069.68
581.287	16174.98
581.648	16018.15
582.008	16065.83
582.368	16132.73
582.728	16107.64
583.089	16145.61
583.449	16075.78
583.809	16053.63
584.169	16091.6
584.529	16047.98
584.889	16095.89
585.249	16039.85
585.609	15978.38
585.969	16043.91
586.329	16010.69
586.688	16009.79
587.048	16052.73
587.408	15984.93
587.768	15965.27
588.127	15859.06
588.487	15862.9
588.846	15965.95
589.206	15886.86
589.565	15854.09
589.925	16006.4
590.284	15888.89
590.643	15911.71
591.003	15965.27
591.362	15883.69
591.721	15888.44
592.08	15913.3
592.44	15898.83
592.799	15905.61
593.158	15946.29
593.517	15866.07
593.876	15901.77
594.235	15841.43
594.593	15820.64
594.952	15911.04
595.311	15782.9
595.67	15865.84
596.029	15988.32
596.387	15866.52
596.746	15896.12
597.104	15812.96
597.463	15830.13
597.822	15837.82
598.18	15805.73
598.538	15794.88
598.897	15821.77
599.255	15752.85
599.613	15841.89
599.972	15825.39
600.33	15845.05
600.688	15886.86
601.046	15880.98
601.404	15944.03
601.762	15889.34
602.12	15925.73
602.478	15928.66
602.836	15820.19
603.194	15750.59
603.552	15907.65
603.91	15776.12
604.268	15852.05
604.625	15709.23
604.983	15839.4
605.341	15754.2
605.698	15785.16
606.056	15852.51
606.413	15845.73
606.771	15821.1
607.128	15920.75
607.485	15767.54
607.843	15777.93
608.2	15965.5
608.557	15958.49
608.914	15921.66
609.272	15902.68
609.629	16016.8
609.986	16139.96
610.343	15913.07
610.7	15970.92
611.057	16063.35
611.414	16032.62
611.771	16075.1
612.127	16068.32
612.484	16087.53
612.841	16158.49
613.198	16008.66
613.554	16064.03
613.911	16158.49
614.267	16096.34
614.624	16096.79
614.98	16035.55
615.337	16149
615.693	16132.05
616.05	16036.46
616.406	16140.18
616.762	16149
617.118	16224.93
617.475	16209.11
617.831	16199.62
618.187	16254.3
618.543	16338.14
618.899	16351.7
619.255	16328.65
619.611	16273.96
619.967	16402.55
620.323	16388.76
620.678	16323.23
621.034	16263.34
621.39	16206.85
621.746	16336.11
622.101	16440.51
622.457	16309.67
622.812	16387.63
623.168	16358.93
623.523	16278.26
623.879	16327.07
624.234	16278.94
624.589	16356.67
624.945	16385.83
625.3	16350.8
625.655	16411.59
626.01	16338.37
626.365	16334.53
626.72	16266.73
627.075	16304.25
627.43	16312.61
627.785	16316.9
628.14	16356.9
628.495	16311.7
628.85	16336.11
629.205	16253.63
629.559	16344.47
629.914	16203.23
630.269	16234.64
630.623	16211.82
630.978	16160.07
631.332	16326.84
631.687	16261.08
632.041	16163.46
632.396	16226.96
632.75	16168.88
633.104	16159.39
633.459	16015.44
633.813	15972.73
634.167	16005.72
634.521	16015.44
634.875	16071.03
635.229	16006.4
635.583	15893.18
635.937	15941.32
636.291	16021.54
636.645	15999.17
636.999	15796.24
637.352	15978.38
637.706	15843.02
638.06	15854.77
638.413	15899.74
638.767	15846.86
639.121	15958.72
639.474	15718.73
639.828	15873.52
640.181	15737.71
640.534	15823.58
640.888	15704.26
641.241	15626.07
641.594	15720.98
641.947	15763.92
642.301	15702.45
642.654	15699.06
643.007	15718.95
643.36	15778.16
643.713	15726.41
644.066	15679.63
644.419	15583.81
644.771	15513.53
645.124	15404.38
645.477	15360.99
645.83	15254.78
646.182	15173.2
646.535	15211.39
646.888	15213.88
647.24	15107.89
647.593	15146.99
647.945	15082.36
648.298	15073.77
648.65	15059.53
649.002	14947.22
649.355	15021.34
649.707	15066.54
650.059	15184.95
650.411	15272.86
650.763	15348.34
651.115	15497.94
651.467	15469.01
651.819	15378.4
652.171	15411.84
652.523	15429.92
652.875	15412.29
653.227	15304.27
653.578	15543.59
653.93	15409.81
654.282	15436.7
654.633	15325.74
654.985	15341.11
655.337	15465.4
655.688	15503.59
656.039	15533.19
656.391	15354.21
656.742	15426.76
657.094	15341.33
657.445	15480.31
657.796	15432.18
658.147	15463.59
658.498	15310.37
658.849	15457.26
659.2	15480.09
659.551	15364.61
659.902	15441.44
660.253	15445.06
660.604	15392.86
660.955	15386.08
661.306	15371.39
661.656	15454.55
662.007	15457.94
662.358	15438.05
662.708	15448.45
663.059	15464.49
663.409	15274.22
663.76	15467.43
664.11	15477.83
664.461	15485.96
664.811	15446.87
665.161	15380.65
665.511	15457.04
665.862	15397.6
666.212	15463.36
666.562	15413.87
666.912	15447.32
667.262	15441.22
667.612	15541.1
667.962	15466.3
668.312	15478.05
668.662	15445.51
669.011	15409.58
669.361	15373.2
669.711	15438.05
670.06	15417.49
670.41	15441.9
670.76	15379.52
671.109	15392.63
671.459	15323.71
671.808	15349.24
672.157	15458.62
672.507	15238.96
672.856	15302.92
673.205	15343.59
673.554	15352.63
673.904	15320.54
674.253	15457.26
674.602	15331.39
674.951	15121.68
675.3	15005.3
675.649	15206.65
675.998	15184.73
676.346	15222.69
676.695	15208.68
677.044	15130.72
677.393	15186.08
677.741	15166.2
678.09	15165.97
678.438	15082.13
678.787	15109.93
679.135	15061.79
679.484	15010.5
679.832	14989.7
680.181	14973.66
680.529	14938.41
680.877	14949.71
681.225	14950.16
681.573	15025.41
681.922	14881.91
682.27	14833.32
682.618	14875.36
682.966	14848.24
683.314	14841.91
683.661	14758.07
684.009	14733.44
684.357	14738.64
684.705	14693.89
685.053	14698.19
685.4	14597.85
685.748	14596.04
686.095	14541.35
686.443	14484.63
686.79	14418.19
687.138	14505.88
687.485	14386.33
687.832	14441.02
688.18	14469.72
688.527	14288.93
688.874	14284.64
689.221	14258.2
689.568	14150.4
689.915	14178.2
690.262	14075.83
690.609	14094.59
690.956	13975.95
691.303	13982.05
691.65	13965.55
691.997	13924.65
692.344	13839.9
692.69	13786.57
693.037	13775.05
693.383	13666.58
693.73	13831.32
694.077	13644.43
694.423	13639.91
694.769	13604.66
695.116	13533.25
695.462	13580.7
695.808	13509.52
696.155	13486.24
696.501	13453.02
696.847	13345
697.193	13354.72
697.539	13357.43
697.885	13246.7
698.231	13186.14
698.577	13207.38
698.923	13088.06
699.269	13003.54
699.614	13020.72
699.96	12966.03
700.306	12898.01
700.651	12899.36
700.997	12831.34
701.342	12786.82
701.688	12753.38
702.033	12703.66
702.379	12706.6
702.724	12622.76
703.069	12633.61
703.415	12376.67
703.76	12445.14
704.105	12491.47
704.45	12443.33
704.795	12371.92
705.14	12305.26
705.485	12268.65
705.83	12267.06
706.175	12232.26
706.52	12112.04
706.865	12140.06
707.209	12149.1
707.554	12038.82
707.899	12141.19
708.243	12023.68
708.588	12004.92
708.932	11876.57
709.277	11835.89
709.621	11898.49
709.966	11745.27
710.31	11807.42
710.654	11777.59
710.998	11667.31
711.342	11736
711.687	11708.21
712.031	11607.87
712.375	11632.05
712.719	11602.22
713.063	11533.3
713.407	11621.21
713.75	11509.8
714.094	11474.09
714.438	11464.37
714.782	11488.33
715.125	11453.53
715.469	11497.14
715.812	11386.41
716.156	11282.68
716.499	11311.84
716.843	11331.27
717.186	11284.72
717.53	11308.67
717.873	11356.81
718.216	11311.38
718.559	11209.24
718.902	11157.94
719.246	11165.85
719.589	11114.33
719.932	11131.73
720.275	11075.01
720.617	11058.96
720.96	11110.94
721.303	11134.66
721.646	11190.93
721.989	11069.36
722.331	11097.6
722.674	11078.17
723.016	11074.1
723.359	11061.45
723.701	11085.63
724.044	10971.73
724.386	10904.84
724.729	11061.9
725.071	10933.77
725.413	11052.41
725.755	10943.71
726.097	10950.04
726.439	10854.22
726.782	10832.07
727.124	10880.89
727.465	10864.16
727.807	10884.5
728.149	10879.76
728.491	10760.21
728.833	10877.27
729.175	10832.98
729.516	10775.13
729.858	10752.53
730.199	10836.37
730.541	10791.17
730.882	10772.87
731.224	10773.54
731.565	10790.27
731.906	10778.52
732.248	10728.8
732.589	10844.73
732.93	10751.4
733.271	10709.82
733.612	10695.13
733.953	10764.96
734.294	10722.25
734.635	10692.42
734.976	10677.95
735.317	10693.77
735.658	10669.59
735.999	10711.4
736.339	10640.44
736.68	10778.06
737.021	10749.36
737.361	10673.43
737.702	10718.86
738.042	10734.22
738.383	10747.56
738.723	10791.4
739.063	10679.76
739.404	10764.96
739.744	10703.26
740.084	10735.58
740.424	10775.13
740.764	10766.54
741.104	10810.83
741.444	10794.11
741.784	10821.9
742.124	10802.24
742.464	10825.07
742.804	10853.77
743.143	10871.62
743.483	10851.51
743.823	10813.54
744.162	10917.04
744.502	10965.86
744.841	11023.26
745.181	10998.4
745.52	11035.68
745.86	11058.51
746.199	11097.15
746.538	11104.84
746.877	11174.89
747.216	11270.03
747.556	11322.68
747.895	11371.04
748.234	11321.1
748.573	11380.53
748.911	11510.02
749.25	11547.31
749.589	11582.34
749.928	11689.68
750.267	11770.58
750.605	11821.65
750.944	11927.86
751.283	11989.56
751.621	12132.15
751.96	12175.32
752.298	12204.69
752.636	12389.1
752.975	12429.55
753.313	12443.33
753.651	12694.4
753.989	12765.13
754.327	12850.33
754.666	12903.21
755.004	13070.21
755.342	13302.97
755.679	13329.64
756.017	13425.9
