Data from hue_100_FLMS001491_00012.txt Node
Date: Tue Feb 07 17:02:42 GMT 2017
User: dcchb
Spectrometer: FLMS00149
Trigger mode: 0
Integration Time (sec): 2.000000E-2
Scans to average: 10
Electric dark correction enabled: true
Nonlinearity correction enabled: false
Boxcar width: 0
XAxis mode: Wavelengths
Number of Pixels in Spectrum: 2048
>>>>>Begin Spectral Data<<<<<
341.393	-11.91
341.776	-11.91
342.16	-11.91
342.543	-66.37
342.927	-69.76
343.31	-77.22
343.693	-68.4
344.077	-62.98
344.46	-66.14
344.843	-63.2
345.226	-29.76
345.61	-29.76
345.993	-21.17
346.376	-7.84
346.759	30.35
347.142	28.09
347.525	39.39
347.908	50.01
348.291	81.2
348.674	79.62
349.057	117.81
349.44	115.55
349.823	147.64
350.206	167.3
350.588	169.78
350.971	215.66
351.354	217.92
351.737	234.41
352.119	259.5
352.502	254.3
352.884	268.99
353.267	281.65
353.65	292.04
354.032	308.31
354.414	327.97
354.797	311.93
355.179	315.32
355.562	334.3
355.944	337.24
356.326	331.81
356.709	309.67
357.091	331.59
357.473	337.91
357.855	353.73
358.238	361.64
358.62	320.97
359.002	339.72
359.384	324.58
359.766	370.46
360.148	344.24
360.53	351.02
360.912	327.75
361.294	315.54
361.676	336.56
362.057	341.3
362.439	341.08
362.821	309.22
363.203	315.77
363.584	336.33
363.966	317.12
364.348	324.81
364.729	308.76
365.111	320.51
365.493	309.22
365.874	343.11
366.256	332.27
366.637	326.84
367.019	310.12
367.4	314.41
367.781	319.84
368.163	315.99
368.544	332.94
368.925	305.6
369.306	318.25
369.688	306.96
370.069	307.18
370.45	306.28
370.831	328.2
371.212	306.5
371.593	297.92
371.974	330.01
372.355	323.68
372.736	324.36
373.117	319.84
373.498	314.64
373.879	326.84
374.26	340.17
374.641	315.32
375.021	307.63
375.402	308.54
375.783	328.2
376.163	325.94
376.544	318.48
376.925	309.44
377.305	319.61
377.686	340.63
378.066	334.98
378.447	338.59
378.827	338.59
379.208	344.24
379.588	316.9
379.968	345.37
380.349	335.2
380.729	331.14
381.109	327.29
381.489	347.18
381.87	337.91
382.25	339.04
382.63	337.91
383.01	361.64
383.39	344.02
383.77	345.6
384.15	356.67
384.53	354.41
384.91	352.38
385.29	361.64
385.67	350.57
386.049	366.39
386.429	363.9
386.809	351.93
387.189	350.8
387.568	347.63
387.948	364.58
388.328	358.25
388.707	373.62
389.087	387.41
389.466	339.72
389.846	372.94
390.225	358.71
390.605	384.02
390.984	368.42
391.363	366.61
391.743	370.46
392.122	389.89
392.501	379.04
392.881	400.29
393.26	399.38
393.639	374.98
394.018	374.75
394.397	389.89
394.776	402.55
395.155	416.56
395.534	404.13
395.913	400.29
396.292	390.34
396.671	399.16
397.05	388.31
397.429	401.42
397.808	390.79
398.186	409.1
398.565	407.74
398.944	416.1
399.323	403
399.701	428.08
400.08	380.4
400.458	409.1
400.837	408.2
401.215	412.04
401.594	435.09
401.972	434.18
402.351	411.36
402.729	425.14
403.107	401.19
403.486	440.74
403.864	432.15
404.242	433.28
404.62	443.67
404.999	428.31
405.377	411.36
405.755	439.83
406.133	432.6
406.511	440.06
406.889	441.41
407.267	455.43
407.645	469.21
408.023	468.08
408.401	441.41
408.779	464.24
409.156	463.11
409.534	460.4
409.912	476.44
410.29	520.73
410.667	511.7
411.045	465.37
411.422	506.5
411.8	490.23
412.178	498.59
412.555	508.31
412.933	508.08
413.31	497.68
413.687	486.39
414.065	493.62
414.442	508.53
414.819	516.22
415.197	505.82
415.574	533.84
415.951	532.49
416.328	547.17
416.705	526.84
417.082	551.24
417.46	545.82
417.837	511.02
418.214	551.69
418.591	537.01
418.967	534.29
419.344	554.63
419.721	584.46
420.098	551.92
420.475	565.03
420.852	576.1
421.228	581.75
421.605	578.36
421.982	594.86
422.358	568.42
422.735	611.35
423.111	583.33
423.488	591.47
423.864	596.89
424.241	582.43
424.617	583.56
424.994	617
425.37	620.17
425.746	618.59
426.123	637.57
426.499	621.75
426.875	633.73
427.251	605.7
427.627	641.86
428.003	648.42
428.379	655.19
428.756	657.45
429.132	680.28
429.507	645.25
429.883	664.91
430.259	678.92
430.635	668.53
431.011	687.28
431.387	695.19
431.763	696.32
432.138	722.54
432.514	731.12
432.89	725.48
433.265	745.36
433.641	760.28
434.016	753.95
434.392	761.63
434.767	800.5
435.143	783.78
435.518	774.74
435.894	777.9
436.269	783.78
436.644	818.13
437.02	779.71
437.395	808.64
437.77	809.31
438.145	832.59
438.52	831.01
438.895	829.43
439.271	825.81
439.646	866.71
440.021	851.57
440.395	839.14
440.77	835.3
441.145	871.46
441.52	897.22
441.895	877.79
442.27	905.58
442.645	878.47
443.019	915.53
443.394	891.12
443.769	897.9
444.143	937.22
444.518	910.56
444.892	914.17
445.267	932.7
445.641	961.18
446.016	945.13
446.39	952.59
446.764	934.74
447.139	979.48
447.513	978.8
447.887	998.69
448.262	974.28
448.636	988.97
449.01	993.94
449.384	975.64
449.758	1018.8
450.132	1022.64
450.506	1011.12
450.88	1037.33
451.254	1022.42
451.628	1048.4
452.002	1045.24
452.376	1068.74
452.75	1073.26
453.123	1084.11
453.497	1084.56
453.871	1091.34
454.244	1132.24
454.618	1134.28
454.992	1159.36
455.365	1137.89
455.739	1156.88
456.112	1175.63
456.486	1174.28
456.859	1192.81
457.232	1236.65
457.606	1220.6
457.979	1219.25
458.352	1272.81
458.725	1242.07
459.099	1293.82
459.472	1313.48
459.845	1328.85
460.218	1335.63
460.591	1373.59
460.964	1339.92
461.337	1390.99
461.71	1419.02
462.083	1417.21
462.456	1428.73
462.829	1452.01
463.201	1445.46
463.574	1483.87
463.947	1527.04
464.32	1540.14
464.692	1582.4
465.065	1580.59
465.438	1615.62
465.81	1637.54
466.183	1628.05
466.555	1652.68
466.928	1699.01
467.3	1705.56
467.672	1721.83
468.045	1755.73
468.417	1793.02
468.789	1832.56
469.161	1839.57
469.534	1871.21
469.906	1902.85
470.278	1967.25
470.65	1981.04
471.022	2044.54
471.394	2095.38
471.766	2100.13
472.138	2150.75
472.51	2204.31
472.882	2204.53
473.253	2232.78
473.625	2316.17
473.997	2370.86
474.369	2421.93
474.74	2500.12
475.112	2522.26
475.484	2592.54
475.855	2609.95
476.227	2654.92
476.598	2791.86
476.97	2819.21
477.341	2901.69
477.713	2966.55
478.084	3004.74
478.455	3124.06
478.827	3183.94
479.198	3331.96
479.569	3402.02
479.94	3495.57
480.311	3573.08
480.682	3652.18
481.053	3779.18
481.424	3813.3
481.795	3963.81
482.166	4089.23
482.537	4165.84
482.908	4267.76
483.279	4387.07
483.65	4531.02
484.021	4630.23
484.391	4745.26
484.762	4891.02
485.133	4963.78
485.503	5073.61
485.874	5215.3
486.244	5391.57
486.615	5516.99
486.985	5651.67
487.356	5786.36
487.726	5895.73
488.097	6141.83
488.467	6230.42
488.837	6457.3
489.207	6538.2
489.578	6733
489.948	6789.5
490.318	7003.05
490.688	7128.7
491.058	7335.02
491.428	7473.55
491.798	7622.24
492.168	7845.06
492.538	7996.7
492.908	8125.51
493.278	8235.56
493.648	8422.9
494.017	8528.66
494.387	8736.56
494.757	8813.62
495.126	9087.74
495.496	9122.99
495.866	9192.37
496.235	9429.88
496.605	9577.67
496.974	9731.79
497.344	9876.2
497.713	9954.84
498.082	10119.35
498.452	10242.51
498.821	10375.84
499.19	10454.71
499.559	10643.18
499.928	10749.39
500.298	10875.72
500.667	10961.14
501.036	11075.49
501.405	11184.64
501.774	11273.67
502.143	11429.15
502.512	11516.6
502.88	11691.97
503.249	11698.97
503.618	11757.73
503.987	11953.43
504.356	12051.05
504.724	12119.75
505.093	12182.8
505.462	12251.95
505.83	12350.03
506.199	12547.54
506.567	12599.06
506.936	12566.52
507.304	12905.27
507.672	12876.12
508.041	12936.23
508.409	13105.26
508.777	13107.52
509.145	13267.52
509.514	13312.71
509.882	13350.68
510.25	13446.5
510.618	13501.18
510.986	13517.46
511.354	13633.84
511.722	13842.87
512.09	13955.41
512.458	13834.06
512.826	13960.16
513.193	14025.01
513.561	14065.24
513.929	14202.18
514.297	14293.25
514.664	14332.12
515.032	14372.35
515.4	14479.69
515.767	14477.66
516.135	14539.58
516.502	14421.84
516.869	14695.05
517.237	14686.92
517.604	14587.94
517.972	14825.67
518.339	14835.61
518.706	14872.67
519.073	14831.09
519.44	14842.17
519.808	15043.06
520.175	15010.52
520.542	15185.89
520.909	15182.5
521.276	15198.99
521.643	15261.59
522.009	15358.31
522.376	15427.46
522.743	15427.91
523.11	15472.66
523.477	15520.57
523.843	15629.72
524.21	15649.15
524.577	15716.49
524.943	15744.97
525.31	15799.2
525.676	15813.89
526.043	15963.27
526.409	15869.26
526.776	16060.89
527.142	15981.35
527.508	15964.85
527.874	16018.86
528.241	16071.29
528.607	16064.28
528.973	16146.09
529.339	16091.62
529.705	16191.74
530.071	16242.58
530.437	16314.67
530.803	16245.29
531.169	16330.26
531.535	16183.37
531.901	16349.02
532.267	16267.21
532.632	16290.72
532.998	16220.89
533.364	16298.63
533.73	16270.83
534.095	16384.5
534.461	16294.11
534.826	16184.05
535.192	16276.03
535.557	16433.08
535.923	16206.42
536.288	16168.91
536.653	16233.54
537.019	16075.58
537.384	16110.16
537.749	16176.14
538.114	16132.53
538.479	16160.55
538.845	16215.24
539.21	16019.31
539.575	16027.67
539.94	16129.36
540.305	16129.36
540.67	15958.07
541.034	15954.91
541.399	15907.45
541.764	15922.59
542.129	15955.13
542.494	15876.04
542.858	15853.89
543.223	15793.33
543.587	15889.82
543.952	15714.01
544.316	15737.74
544.681	15693.22
545.045	15732.99
545.41	15763.5
545.774	15641.92
546.138	15554.69
546.503	15511.98
546.867	15488.93
547.231	15524.63
547.595	15467.01
547.959	15477.4
548.324	15428.82
548.688	15410.06
549.052	15456.61
549.416	15360.8
549.779	15283.74
550.143	15275.6
550.507	15304.07
550.871	15332.32
551.235	15305.2
551.599	15311.31
551.962	15148.6
552.326	15147.92
552.689	15193.12
553.053	15096.85
553.417	15023.63
553.78	15189.73
554.143	15082.16
554.507	14997.64
554.87	15062.73
555.234	15130.07
555.597	14992.67
555.96	15102.05
556.323	15080.58
556.686	14977.08
557.05	15048.94
557.413	15054.14
557.776	14968.72
558.139	15060.92
558.502	15017.08
558.865	14995.38
559.228	14988.6
559.59	15034.48
559.953	14939.79
560.316	15080.13
560.679	15042.84
561.041	15108.83
561.404	15028.15
561.767	15211.42
562.129	15050.97
562.492	15107.47
562.854	15049.84
563.217	15013.24
563.579	15119.9
563.941	15102.72
564.304	15062.27
564.666	15234.02
565.028	15267.01
565.39	15084.42
565.753	15121.48
566.115	15197.86
566.477	15161.93
566.839	15233.34
567.201	15353.11
567.563	15238.09
567.925	15290.74
568.287	15310.4
568.648	15269.73
569.01	15327.35
569.372	15455.71
569.734	15311.98
570.095	15410.06
570.457	15449.16
570.819	15489.38
571.18	15475.37
571.542	15522.83
571.903	15537.52
572.265	15511.98
572.626	15515.59
572.987	15561.24
573.349	15539.78
573.71	15627
574.071	15556.05
574.432	15563.96
574.794	15628.59
575.155	15577.51
575.516	15634.91
575.877	15750.39
576.238	15620.9
576.599	15669.49
576.96	15631.52
577.32	15648.47
577.681	15777.73
578.042	15734.57
578.403	15624.97
578.763	15729.83
579.124	15758.3
579.485	15633.78
579.845	15822.03
580.206	15747.23
580.566	15708.81
580.927	15699.09
581.287	15772.76
581.648	15684.63
582.008	15700
582.368	15644.86
582.728	15716.27
583.089	15601.47
583.449	15662.71
583.809	15652.54
584.169	15732.76
584.529	15556.72
584.889	15676.72
585.249	15636.04
585.609	15574.8
585.969	15591.3
586.329	15540.68
586.688	15543.84
587.048	15619.09
587.408	15542.71
587.768	15586.78
588.127	15566.67
588.487	15518.08
588.846	15518.53
589.206	15525.99
589.565	15510.62
589.925	15669.49
590.284	15488.7
590.643	15500.45
591.003	15503.17
591.362	15536.39
591.721	15448.03
592.08	15473.11
592.44	15558.53
592.799	15422.04
593.158	15424.07
593.517	15422.72
593.876	15470.62
594.235	15388.82
594.593	15323.51
594.952	15426.11
595.311	15457.29
595.67	15389.72
596.029	15485.09
596.387	15477.18
596.746	15575.03
597.104	15345.43
597.463	15430.17
597.822	15414.58
598.18	15250.29
598.538	15298.65
598.897	15431.3
599.255	15193.8
599.613	15500.91
599.972	15343.85
600.33	15319.67
600.688	15344.3
601.046	15436.5
601.404	15425.65
601.762	15378.2
602.12	15465.65
602.478	15413
602.836	15417.07
603.194	15296.84
603.552	15414.35
603.91	15245.77
604.268	15392.43
604.625	15333.68
604.983	15415.94
605.341	15269.5
605.698	15427.24
606.056	15403.51
606.413	15419.55
606.771	15476.5
607.128	15433.56
607.485	15382.27
607.843	15330.29
608.2	15473.11
608.557	15436.95
608.914	15355.37
609.272	15511.53
609.629	15486.44
609.986	15504.3
610.343	15435.82
610.7	15552.88
611.057	15500.68
611.414	15524.41
611.771	15513.11
612.127	15573.45
612.484	15607.8
612.841	15634.46
613.198	15522.6
613.554	15571.41
613.911	15636.27
614.267	15647.34
614.624	15668.59
614.98	15598.3
615.337	15741.58
615.693	15711.75
616.05	15717.62
616.406	15729.15
616.762	15766.89
617.118	15688.02
617.475	15702.26
617.831	15799.43
618.187	15724.4
618.543	15738.19
618.899	15838.07
619.255	15797.4
619.611	15788.36
619.967	15842.14
620.323	15885.3
620.678	15829.26
621.034	15775.93
621.39	15778.19
621.746	15834
622.101	15880.11
622.457	15809.15
622.812	15838.52
623.168	15912.87
623.523	15813.89
623.879	15848.47
624.234	15752.88
624.589	15861.12
624.945	15935.47
625.3	15879.43
625.655	15802.37
626.01	15824.74
626.365	15914.23
626.72	15908.35
627.075	15802.14
627.43	15836.26
627.785	15812.31
628.14	15819.32
628.495	15822.93
628.85	15914.23
629.205	15788.36
629.559	15832.42
629.914	15727.11
630.269	15770.05
630.623	15705.65
630.978	15657.06
631.332	15755.59
631.687	15748.13
632.041	15664.52
632.396	15661.58
632.75	15566.67
633.104	15616.61
633.459	15597.63
633.813	15510.85
634.167	15508.59
634.521	15600.56
634.875	15560.57
635.229	15522.83
635.583	15478.99
635.937	15500
636.291	15453.68
636.645	15457.29
636.999	15396.73
637.352	15474.69
637.706	15441.25
638.06	15424.75
638.413	15358.76
638.767	15397.41
639.121	15447.57
639.474	15243.74
639.828	15220.91
640.181	15302.95
640.534	15310.85
640.888	15242.83
641.241	15109.28
641.594	15272.44
641.947	15240.57
642.301	15191.08
642.654	15152.89
643.007	15278.76
643.36	15244.19
643.713	15171.88
644.066	15203.06
644.419	15128.94
644.771	15050.07
645.124	14891.88
645.477	14935.72
645.83	14841.04
646.182	14730.53
646.535	14714.03
646.888	14751.77
647.24	14575.51
647.593	14721.94
647.945	14646.69
648.298	14600.82
648.65	14578.22
649.002	14573.7
649.355	14727.59
649.707	14656.63
650.059	14723.53
650.411	14948.38
650.763	14860.7
651.115	15031.54
651.467	15036.74
651.819	14952.45
652.171	14991.54
652.523	14901.83
652.875	14932.11
653.227	14880.13
653.578	14975.5
653.93	14858.21
654.282	14866.57
654.633	14806.91
654.985	14921.03
655.337	14972.33
655.688	14920.36
656.039	14994.25
656.391	14860.02
656.742	14976.85
657.094	14826.8
657.445	14929.4
657.796	14918.55
658.147	14835.39
658.498	14879.23
658.849	14936.18
659.2	14913.12
659.551	14926.46
659.902	14983.63
660.253	14923.52
660.604	14911.99
660.955	14956.51
661.306	15014.14
661.656	14991.31
662.007	15003.29
662.358	15016.85
662.708	15053.46
663.059	14981.15
663.409	14905.67
663.76	15079.67
664.11	15020.24
664.461	15016.85
664.811	15089.84
665.161	15030.64
665.511	14991.54
665.862	15075.15
666.212	15011.88
666.562	15068.83
666.912	15048.04
667.262	15004.42
667.612	14987.02
667.962	15036.29
668.312	14920.58
668.662	15068.83
669.011	15013.01
669.361	15037.87
669.711	14972.78
670.06	14933.69
670.41	15011.65
670.76	14976.63
671.109	15089.62
671.459	15016.4
671.808	14999.45
672.157	14952.22
672.507	14843.52
672.856	14869.51
673.205	14939.11
673.554	14905.44
673.904	14812.34
674.253	14938.21
674.602	14902.5
674.951	14674.04
675.3	14564.89
675.649	14798.1
675.998	14740.02
676.346	14746.58
676.695	14772.56
677.044	14708.38
677.393	14751.32
677.741	14712.9
678.09	14665.67
678.438	14682.62
678.787	14732.56
679.135	14715.62
679.484	14585
679.832	14669.29
680.181	14475.17
680.529	14553.81
680.877	14523.3
681.225	14496.19
681.573	14580.93
681.922	14541.84
682.27	14459.8
682.618	14421.16
682.966	14340.26
683.314	14389.07
683.661	14360.15
684.009	14286.02
684.357	14226.59
684.705	14264.78
685.053	14301.16
685.4	14309.98
685.748	14175.52
686.095	14220.94
686.443	14163.77
686.79	14086.93
687.138	14127.83
687.485	14122.86
687.832	14047.84
688.18	14050.55
688.527	13890.1
688.874	13876.77
689.221	13770.78
689.568	13761.29
689.915	13781.86
690.262	13798.13
690.609	13773.95
690.956	13700.95
691.303	13591.8
691.65	13602.65
691.997	13543.67
692.344	13500.51
692.69	13449.66
693.037	13503.44
693.383	13393.62
693.73	13405.82
694.077	13279.72
694.423	13219.84
694.769	13241.53
695.116	13205.15
695.462	13137.8
695.808	13099.16
696.155	13070.24
696.501	12928.54
696.847	13015.1
697.193	12891.26
697.539	12945.04
697.885	12841.77
698.231	12739.85
698.577	12805.84
698.923	12718.38
699.269	12591.15
699.614	12560.87
699.96	12546.41
700.306	12507.31
700.651	12458.27
700.997	12452.17
701.342	12428.44
701.688	12362.91
702.033	12287.21
702.379	12216.25
702.724	12153.65
703.069	12228.9
703.415	12100.77
703.76	12051.28
704.105	12078.17
704.45	12047.44
704.795	12015.8
705.14	11935.12
705.485	11947.78
705.83	11814.68
706.175	11888.35
706.52	11896.03
706.865	11830.95
707.209	11684.06
707.554	11659.43
707.899	11709.59
708.243	11732.87
708.588	11601.57
708.932	11580.78
709.277	11520.9
709.621	11503.72
709.966	11474.12
710.31	11377.17
710.654	11356.83
710.998	11332.65
711.342	11379.21
711.687	11293.78
712.031	11255.14
712.375	11211.08
712.719	11278.87
713.063	11173.11
713.407	11234.35
713.75	11155.94
714.094	11160.46
714.438	11092.89
714.782	11132.21
715.125	11055.6
715.469	11054.24
715.812	10939.67
716.156	10960.91
716.499	10972.21
716.843	10984.41
717.186	10876.17
717.53	10985.77
717.873	10901.25
718.216	10896.28
718.559	10838.43
718.902	10816.96
719.246	10896.96
719.589	10791.2
719.932	10677.53
720.275	10804.08
720.617	10783.06
720.96	10759.56
721.303	10745.78
721.646	10735.38
721.989	10665.78
722.331	10703.97
722.674	10707.81
723.016	10723.86
723.359	10617.42
723.701	10708.04
724.044	10667.36
724.386	10611.54
724.729	10680.47
725.071	10701.48
725.413	10711.88
725.755	10619
726.097	10596.18
726.439	10534.48
726.782	10527.7
727.124	10540.36
727.465	10484.77
727.807	10468.95
728.149	10512.11
728.491	10477.08
728.833	10522.51
729.175	10500.13
729.516	10455.39
729.858	10518.21
730.199	10548.72
730.541	10478.44
730.882	10454.94
731.224	10473.92
731.565	10418.55
731.906	10422.62
732.248	10428.95
732.589	10415.62
732.93	10387.82
733.271	10368.84
733.612	10418.1
733.953	10427.82
734.294	10473.69
734.635	10405.67
734.976	10425.33
735.317	10339.91
735.658	10369.06
735.999	10435.28
736.339	10392.11
736.68	10455.84
737.021	10435.73
737.361	10423.75
737.702	10485.22
738.042	10441.6
738.383	10384.2
738.723	10446.8
739.063	10480.7
739.404	10484.31
739.744	10449.06
740.084	10448.61
740.424	10525.22
740.764	10500.81
741.104	10524.54
741.444	10554.82
741.784	10463.3
742.124	10589.62
742.464	10516.86
742.804	10663.52
743.143	10579.91
743.483	10618.32
743.823	10636.63
744.162	10654.93
744.502	10769.28
744.841	10706.46
745.181	10812.22
745.52	10783.74
745.86	10910.52
746.199	10941.93
746.538	10988.71
746.877	10976.51
747.216	11064.41
747.556	11154.81
747.895	11117.52
748.234	11073.23
748.573	11248.81
748.911	11303.73
749.25	11358.64
749.589	11366.33
749.928	11457.62
750.267	11618.97
750.605	11654.45
750.944	11762.47
751.283	11829.82
751.621	11851.28
751.96	11913.66
752.298	12184.61
752.636	12243.59
752.975	12280.2
753.313	12379.86
753.651	12528.78
753.989	12627.08
754.327	12659.4
754.666	12801.32
755.004	13023.91
755.342	13166.5
755.679	13313.62
756.017	13313.84
