Data from hue_250_FLMS001491_00072.txt Node
Date: Tue Feb 07 16:01:26 GMT 2017
User: dcchb
Spectrometer: FLMS00149
Trigger mode: 0
Integration Time (sec): 2.000000E-2
Scans to average: 10
Electric dark correction enabled: true
Nonlinearity correction enabled: false
Boxcar width: 0
XAxis mode: Wavelengths
Number of Pixels in Spectrum: 2048
>>>>>Begin Spectral Data<<<<<
341.393	-1.61
341.776	-1.61
342.16	-1.61
342.543	-41.61
342.927	-74.38
343.31	-75.73
343.693	-85
344.077	-84.55
344.46	-60.59
344.843	-50.2
345.226	-58.56
345.61	-7.26
345.993	-12.91
346.376	-3.64
346.759	22.57
347.142	37.94
347.525	35.9
347.908	62.34
348.291	70.03
348.674	93.3
349.057	116.35
349.44	112.29
349.823	132.62
350.206	153.87
350.588	199.06
350.971	203.58
351.354	208.55
351.737	239.97
352.119	235.45
352.502	248.78
352.884	267.76
353.267	295.11
353.65	277.25
354.032	281.55
354.414	292.17
354.797	298.04
355.179	301.43
355.562	313.41
355.944	305.27
356.326	319.96
356.709	340.75
357.091	308.21
357.473	332.39
357.855	347.76
358.238	337.59
358.62	333.07
359.002	363.35
359.384	336.23
359.766	306.86
360.148	322
360.53	327.87
360.912	326.74
361.294	331.94
361.676	326.74
362.057	320.42
362.439	317.93
362.821	329.68
363.203	327.19
363.584	328.55
363.966	304.6
364.348	307.76
364.729	315.44
365.111	338.27
365.493	312.51
365.874	332.39
366.256	311.15
366.637	328.1
367.019	298.95
367.4	324.71
367.781	303.69
368.163	299.62
368.544	324.26
368.925	303.92
369.306	301.43
369.688	283.81
370.069	301.66
370.45	275.67
370.831	322.22
371.212	306.63
371.593	306.4
371.974	294.43
372.355	307.53
372.736	286.97
373.117	319.06
373.498	331.04
373.879	317.93
374.26	316.12
374.641	313.18
375.021	296.69
375.402	312.28
375.783	313.64
376.163	314.99
376.544	316.12
376.925	328.55
377.305	320.19
377.686	338.49
378.066	328.32
378.447	321.77
378.827	330.36
379.208	320.42
379.588	315.44
379.968	332.17
380.349	326.52
380.729	337.59
381.109	316.8
381.489	331.04
381.87	335.78
382.25	340.53
382.63	330.58
383.01	337.82
383.39	357.48
383.77	333.75
384.15	354.76
384.53	347.76
384.91	352.28
385.29	361.54
385.67	340.53
386.049	350.47
386.429	343.24
386.809	354.54
387.189	343.47
387.568	349.12
387.948	358.38
388.328	350.25
388.707	343.69
389.087	360.19
389.466	358.83
389.846	354.76
390.225	368.78
390.605	388.44
390.984	364.71
391.363	387.98
391.743	374.43
392.122	352.05
392.501	381.66
392.881	367.19
393.26	376.01
393.639	393.18
394.018	353.86
394.397	372.84
394.776	385.27
395.155	385.5
395.534	384.82
395.913	389.57
396.292	394.31
396.671	391.83
397.05	403.58
397.429	386.85
397.808	418.04
398.186	384.37
398.565	393.63
398.944	407.42
399.323	426.63
399.701	406.51
400.08	405.84
400.458	397.7
400.837	399.06
401.215	413.07
401.594	426.63
401.972	428.21
402.351	434.99
402.729	421.2
403.107	430.92
403.486	443.35
403.864	430.47
404.242	452.16
404.62	431.37
404.999	435.44
405.377	432.95
405.755	451.71
406.133	461.43
406.511	448.55
406.889	470.02
407.267	474.76
407.645	472.95
408.023	457.59
408.401	472.05
408.779	490.35
409.156	488.32
409.534	499.39
409.912	499.39
410.29	511.37
410.667	522.22
411.045	527.87
411.422	536
411.8	528.55
412.178	540.75
412.555	556.79
412.933	533.52
413.31	554.08
413.687	561.09
414.065	561.31
414.442	578.71
414.819	566.96
415.197	598.6
415.574	583.69
415.951	596.11
416.328	607.64
416.705	603.8
417.082	615.77
417.46	658.03
417.837	635.66
418.214	635.44
418.591	639.5
418.967	647.41
419.344	671.59
419.721	685.83
420.098	683.34
420.475	693.96
420.852	675.21
421.228	691.48
421.605	701.65
421.982	715.21
422.358	731.03
422.735	752.27
423.111	747.52
423.488	742.78
423.864	780.52
424.241	775.77
424.617	769.67
424.994	802.44
425.37	789.78
425.746	796.56
426.123	809.22
426.499	816
426.875	817.58
427.251	827.07
427.627	867.29
428.003	875.65
428.379	872.04
428.756	878.37
429.132	907.74
429.507	903
429.883	919.27
430.259	929.44
430.635	943
431.011	939.16
431.387	960.62
431.763	960.85
432.138	984.13
432.514	998.14
432.89	1005.37
433.265	1041.07
433.641	1054.86
434.016	1041.98
434.392	1074.29
434.767	1078.36
435.143	1097.12
435.518	1118.81
435.894	1149.09
436.269	1138.25
436.644	1155.42
437.02	1184.8
437.395	1191.35
437.77	1230
438.145	1215.08
438.52	1225.7
438.895	1264.35
439.271	1249.2
439.646	1286.27
440.021	1304.57
440.395	1324
440.77	1297.56
441.145	1347.05
441.52	1343.21
441.895	1371.01
442.27	1378.47
442.645	1378.69
443.019	1417.79
443.394	1406.49
443.769	1437.9
444.143	1454.17
444.518	1472.93
444.892	1432.7
445.267	1429.54
445.641	1481.29
446.016	1513.15
446.39	1476.54
446.764	1506.82
447.139	1518.58
447.513	1538.24
447.887	1535.75
448.262	1535.75
448.636	1545.92
449.01	1567.84
449.384	1580.95
449.758	1607.84
450.132	1633.15
450.506	1628.63
450.88	1665.69
451.254	1611.45
451.628	1622.53
452.002	1681.74
452.376	1657.56
452.75	1686.71
453.123	1710.44
453.497	1740.72
453.871	1729.42
454.244	1766.7
454.618	1782.07
454.992	1792.69
455.365	1794.73
455.739	1832.47
456.112	1886.93
456.486	1890.09
456.859	1901.84
457.232	1933.93
457.606	1930.32
457.979	1967.83
458.352	1969.41
458.725	2001.05
459.099	2017.55
459.472	2056.41
459.845	2068.39
460.218	2085.11
460.591	2125.57
460.964	2101.16
461.337	2116.75
461.71	2209.18
462.083	2196.3
462.456	2173.25
462.829	2241.49
463.201	2291.89
463.574	2250.76
463.947	2291.66
464.32	2353.58
464.692	2327.14
465.065	2389.74
465.438	2401.72
465.81	2419.8
466.183	2469.51
466.555	2462.51
466.928	2503.18
467.3	2512.9
467.672	2541.6
468.045	2590.19
468.417	2615.27
468.789	2635.38
469.161	2657.3
469.534	2728.49
469.906	2772.78
470.278	2755.83
470.65	2784.08
471.022	2796.51
471.394	2886.45
471.766	2919.89
472.138	2963.06
472.51	2977.29
472.882	3026.78
473.253	3094.13
473.625	3119.66
473.997	3156.5
474.369	3138.19
474.74	3191.53
475.112	3257.51
475.484	3260.9
475.855	3334.57
476.227	3362.82
476.598	3439.66
476.97	3473.1
477.341	3511.52
477.713	3553.1
478.084	3633.32
478.455	3694.34
478.827	3726.88
479.198	3786.76
479.569	3792.87
479.94	3867.67
480.311	3934.56
480.682	4031.96
481.053	4073.76
481.424	4107.43
481.795	4184.27
482.166	4196.92
482.537	4226.53
482.908	4310.82
483.279	4343.13
483.65	4494.09
484.021	4492.28
484.391	4601.88
484.762	4543.36
485.133	4612.51
485.503	4697.25
485.874	4781.31
486.244	4786.06
486.615	4878.26
486.985	4900.86
487.356	4948.77
487.726	5000.07
488.097	5093.4
488.467	5132.04
488.837	5283
489.207	5304.69
489.578	5373.62
489.948	5405.48
490.318	5397.12
490.688	5517.79
491.058	5544.68
491.428	5652.03
491.798	5644.12
492.168	5744.23
492.538	5747.84
492.908	5850.21
493.278	5861.51
493.648	5865.58
494.017	5932.25
494.387	5998.91
494.757	6033.49
495.126	6073.71
495.496	6123.65
495.866	6187.15
496.235	6226.7
496.605	6245.46
496.974	6295.85
497.344	6287.49
497.713	6313.7
498.082	6328.39
498.452	6423.08
498.821	6440.48
499.19	6438.22
499.559	6489.74
499.928	6537.88
500.298	6582.62
500.667	6567.93
501.036	6612.68
501.405	6644.09
501.774	6653.13
502.143	6665.79
502.512	6713.02
502.88	6771.55
503.249	6814.71
503.618	6832.33
503.987	6878.89
504.356	6862.84
504.724	6868.27
505.093	6887.25
505.462	6872.33
505.83	6924.08
506.199	7020.35
506.567	7095.38
506.936	7014.25
507.304	7122.95
507.672	7101.93
508.041	7224.87
508.409	7221.25
508.777	7230.06
509.145	7260.12
509.514	7223.28
509.882	7308.03
510.25	7277.29
510.618	7309.38
510.986	7329.5
511.354	7383.05
511.722	7457.85
512.09	7423.28
512.458	7464.41
512.826	7473
513.193	7476.16
513.561	7491.3
513.929	7524.07
514.297	7577.85
514.664	7596.38
515.032	7599.09
515.4	7633.67
515.767	7708.02
516.135	7674.8
516.502	7620.34
516.869	7753.67
517.237	7699.2
517.604	7703.5
517.972	7821.01
518.339	7765.19
518.706	7808.81
519.073	7860.78
519.44	7842.03
519.808	7915.47
520.175	7869.82
520.542	7958.63
520.909	7979.2
521.276	7889.48
521.643	7989.14
522.009	7988.91
522.376	8019.65
522.743	8077.27
523.11	8147.1
523.477	8136.48
523.843	8167.89
524.21	8206.54
524.577	8214.22
524.943	8146.65
525.31	8176.93
525.676	8233.88
526.043	8314.78
526.409	8306.19
526.776	8347.77
527.142	8353.2
527.508	8407.89
527.874	8417.38
528.241	8452.63
528.607	8442.69
528.973	8485.62
529.339	8419.86
529.705	8484.49
530.071	8585.28
530.437	8509.13
530.803	8603.14
531.169	8575.11
531.535	8569.46
531.901	8544.61
532.267	8584.38
532.632	8583.25
532.998	8572.85
533.364	8623.7
533.73	8540.09
534.095	8665.96
534.461	8680.87
534.826	8569.69
535.192	8660.53
535.557	8642.46
535.923	8667.77
536.288	8602.23
536.653	8692.17
537.019	8622.12
537.384	8616.47
537.749	8642.68
538.114	8665.28
538.479	8636.35
538.845	8637.26
539.21	8635
539.575	8625.06
539.94	8621.89
540.305	8693.3
540.67	8670.25
541.034	8639.52
541.399	8613.98
541.764	8584.38
542.129	8626.64
542.494	8608.78
542.858	8656.69
543.223	8585.96
543.587	8622.57
543.952	8579.63
544.316	8559.75
544.681	8563.36
545.045	8617.15
545.41	8652.17
545.774	8623.25
546.138	8600.2
546.503	8614.43
546.867	8563.36
547.231	8675.45
547.595	8607.2
547.959	8618.95
548.324	8603.14
548.688	8549.8
549.052	8604.49
549.416	8545.06
549.779	8557.94
550.143	8589.35
550.507	8642.23
550.871	8663.25
551.235	8579.63
551.599	8693.3
551.962	8587.09
552.326	8631.61
552.689	8637.03
553.053	8556.13
553.417	8602.46
553.78	8637.71
554.143	8618.28
554.507	8643.13
554.87	8660.76
555.234	8676.13
555.597	8683.13
555.96	8695.34
556.323	8735.11
556.686	8629.35
557.05	8705.73
557.413	8754.32
557.776	8631.16
558.139	8753.87
558.502	8787.09
558.865	8703.92
559.228	8790.48
559.59	8821.89
559.953	8794.54
560.316	8829.57
560.679	8844.71
561.041	8878.16
561.404	8882.22
561.767	8945.95
562.129	8916.57
562.492	8928.55
562.854	8897.82
563.217	8969.23
563.579	8990.7
563.941	9063.91
564.304	9015.55
564.666	9067.3
565.028	9079.51
565.39	9129.9
565.753	9108.88
566.115	9125.83
566.477	9188.66
566.839	9192.05
567.201	9265.72
567.563	9242.67
567.925	9324.7
568.287	9329.22
568.648	9229.79
569.01	9331.25
569.372	9422.77
569.734	9348.88
570.095	9370.57
570.457	9411.93
570.819	9480.63
571.18	9408.76
571.542	9492.38
571.903	9544.81
572.265	9558.36
572.626	9532.6
572.987	9570.12
573.349	9601.98
573.71	9627.29
574.071	9615.76
574.432	9654.86
574.794	9741.64
575.155	9728.76
575.516	9671.36
575.877	9716.55
576.238	9803.33
576.599	9783.44
576.96	9814.63
577.32	9818.47
577.681	9862.09
578.042	9922.87
578.403	9895.3
578.763	9832.71
579.124	9874.74
579.485	9895.76
579.845	9992.93
580.206	9954.51
580.566	9977.56
580.927	10027.28
581.287	10051.01
581.648	10068.63
582.008	10067.96
582.368	10009.65
582.728	10061.63
583.089	10062.98
583.449	10108.86
583.809	10138.69
584.169	10207.16
584.529	10137.56
584.889	10181.4
585.249	10172.59
585.609	10120.38
585.969	10218.69
586.329	10108.63
586.688	10250.55
587.048	10276.09
587.408	10223.88
587.768	10182.53
588.127	10267.05
588.487	10238.35
588.846	10357.67
589.206	10325.35
589.565	10287.84
589.925	10333.26
590.284	10338.46
590.643	10302.75
591.003	10337.33
591.362	10329.87
591.721	10339.81
592.08	10394.27
592.44	10415.74
592.799	10425.69
593.158	10388.63
593.517	10431.79
593.876	10474.95
594.235	10436.08
594.593	10415.97
594.952	10410.55
595.311	10488.28
595.67	10511.56
596.029	10572.8
596.387	10462.97
596.746	10488.51
597.104	10465.23
597.463	10506.59
597.822	10529.86
598.18	10528.96
598.538	10499.13
598.897	10563.31
599.255	10496.87
599.613	10640.6
599.972	10508.17
600.33	10492.35
600.688	10547.94
601.046	10535.06
601.404	10604.21
601.762	10610.77
602.12	10635.17
602.478	10643.76
602.836	10641.27
603.194	10588.85
603.552	10682.85
603.91	10647.38
604.268	10618
604.625	10543.42
604.983	10627.04
605.341	10607.38
605.698	10664.78
606.056	10688.96
606.413	10694.15
606.771	10658.67
607.128	10679.92
607.485	10664.1
607.843	10686.7
608.2	10762.17
608.557	10726.02
608.914	10688.73
609.272	10822.06
609.629	10786.58
609.986	10849.18
610.343	10786.35
610.7	10890.76
611.057	10833.36
611.414	10854.15
611.771	10823.42
612.127	10835.17
612.484	10827.48
612.841	10935.28
613.198	10856.41
613.554	10883.98
613.911	10902.28
614.267	10991.77
614.624	10861.83
614.98	10919.91
615.337	10957.2
615.693	10970.08
616.05	10900.02
616.406	11005.33
616.762	10966.24
617.118	10984.77
617.475	10952.45
617.831	10995.84
618.187	11082.62
618.543	11101.37
618.899	11087.59
619.255	11042.85
619.611	10998.55
619.967	11156.74
620.323	11090.3
620.678	11046.69
621.034	11000.36
621.39	11022.96
621.746	11017.08
622.101	11138.44
622.457	11062.28
622.812	11068.16
623.168	11201.71
623.523	11115.39
623.879	11129.17
624.234	11003.3
624.589	11052.11
624.945	11048.95
625.3	11051.43
625.655	11100.47
626.01	11100.47
626.365	11117.65
626.72	11052.34
627.075	11070.42
627.43	11090.98
627.785	11039.68
628.14	11010.76
628.495	11019.12
628.85	11055.5
629.205	11002.17
629.559	11064.31
629.914	11023.18
630.269	11039.68
630.623	10997.2
630.978	10967.37
631.332	10935.5
631.687	11020.7
632.041	10929.4
632.396	11031.55
632.75	10882.17
633.104	10958.55
633.459	10964.2
633.813	10889.63
634.167	10872.68
634.521	10885.79
634.875	10908.84
635.229	10847.6
635.583	10771.21
635.937	10776.19
636.291	10830.87
636.645	10768.05
636.999	10796.98
637.352	10714.72
637.706	10707.71
638.06	10711.55
638.413	10757.43
638.767	10672.01
639.121	10711.78
639.474	10619.35
639.828	10680.37
640.181	10695.96
640.534	10710.42
640.888	10593.82
641.241	10619.35
641.594	10608.73
641.947	10632.01
642.301	10612.35
642.654	10611.44
643.007	10619.58
643.36	10598.79
643.713	10508.85
644.066	10636.53
644.419	10553.37
644.771	10484.22
645.124	10454.84
645.477	10395.4
645.83	10302.98
646.182	10242.19
646.535	10220.27
646.888	10276.99
647.24	10131
647.593	10200.61
647.945	10219.36
648.298	10059.59
648.65	10152.7
649.002	10055.07
649.355	10102.3
649.707	10148.63
650.059	10187.95
650.411	10329.64
650.763	10316.76
651.115	10427.27
651.467	10363.09
651.819	10418.91
652.171	10319.93
652.523	10318.12
652.875	10293.49
653.227	10293.71
653.578	10349.98
653.93	10345.24
654.282	10237.67
654.633	10326.71
654.985	10251.45
655.337	10392.69
655.688	10299.59
656.039	10340.49
656.391	10276.31
656.742	10256.2
657.094	10294.16
657.445	10345.91
657.796	10305.24
658.147	10292.58
658.498	10284.9
658.849	10327.16
659.2	10252.36
659.551	10246.93
659.902	10240.83
660.253	10276.09
660.604	10245.35
660.955	10243.77
661.306	10240.38
661.656	10295.97
662.007	10265.92
662.358	10241.28
662.708	10318.12
663.059	10247.84
663.409	10182.3
663.76	10292.58
664.11	10309.08
664.461	10239.7
664.811	10256.65
665.161	10275.86
665.511	10285.13
665.862	10281.96
666.212	10321.96
666.562	10321.28
666.912	10323.77
667.262	10238.8
667.612	10287.16
667.962	10286.93
668.312	10281.96
668.662	10315.41
669.011	10259.14
669.361	10221.17
669.711	10258.69
670.06	10177.33
670.41	10232.47
670.76	10192.25
671.109	10256.65
671.459	10211
671.808	10228.18
672.157	10277.67
672.507	10167.61
672.856	10142.76
673.205	10197.9
673.554	10246.93
673.904	10195.41
674.253	10187.73
674.602	10145.92
674.951	9979.37
675.3	9940.73
675.649	10060.05
675.998	10071.8
676.346	10116.09
676.695	10137.78
677.044	10028.86
677.393	10090.78
677.741	10100.95
678.09	10062.53
678.438	10049.88
678.787	10057.33
679.135	10032.48
679.484	9990.9
679.832	9955.19
680.181	9921.97
680.529	9983.89
680.877	9902.31
681.225	9916.77
681.573	9975.98
681.922	9900.95
682.27	9882.88
682.618	9840.16
682.966	9794.29
683.314	9870.9
683.661	9893.27
684.009	9807.17
684.357	9794.52
684.705	9753.84
685.053	9707.74
685.4	9721.52
685.748	9634.29
686.095	9672.71
686.443	9599.49
686.79	9651.02
687.138	9670.45
687.485	9600.62
687.832	9602.21
688.18	9616.22
688.527	9533.28
688.874	9493.73
689.221	9467.07
689.568	9490.8
689.915	9433.4
690.262	9478.37
690.609	9415.77
690.956	9373.96
691.303	9353.62
691.65	9305.72
691.997	9263.91
692.344	9228.43
692.69	9214.19
693.037	9258.26
693.383	9153.86
693.73	9142.1
694.077	9175.32
694.423	8996.8
694.769	9124.25
695.116	9059.39
695.462	9009
695.808	9009.45
696.155	8976.46
696.501	8891.49
696.847	8876.57
697.193	8865.28
697.539	8863.69
697.885	8805.16
698.231	8810.59
698.577	8836.12
698.923	8778.05
699.269	8755.67
699.614	8640.87
699.96	8606.3
700.306	8627.77
700.651	8625.51
700.997	8588.67
701.342	8532.85
701.688	8535.57
702.033	8545.96
702.379	8546.41
702.724	8500.77
703.069	8449.02
703.415	8383.93
703.76	8377.38
704.105	8437.72
704.45	8326.08
704.795	8275.46
705.14	8282.92
705.485	8232.07
705.83	8209.93
706.175	8254.22
706.52	8139.87
706.865	8155.46
707.209	8118.18
707.554	8088.35
707.899	8118.63
708.243	8105.97
708.588	8112.75
708.932	8028.24
709.277	8039.53
709.621	8068.23
709.966	7912.53
710.31	7960.89
710.654	7864.4
710.998	7937.16
711.342	7875.92
711.687	7905.75
712.031	7856.04
712.375	7863.49
712.719	7805.64
713.063	7836.15
713.407	7838.86
713.75	7752.31
714.094	7845.64
714.438	7778.98
714.782	7741.24
715.125	7727.23
715.469	7768.13
715.812	7715.02
716.156	7682.48
716.499	7624.18
716.843	7629.6
717.186	7627.57
717.53	7648.58
717.873	7636.38
718.216	7618.75
718.559	7627.12
718.902	7560.9
719.246	7585.08
719.589	7490.62
719.932	7485.65
720.275	7532.2
720.617	7475.48
720.96	7466.22
721.303	7518.42
721.646	7445.65
721.989	7427.35
722.331	7461.24
722.674	7443.84
723.016	7444.75
723.359	7438.87
723.701	7382.83
724.044	7384.41
724.386	7372.89
724.729	7325.65
725.071	7400.91
725.413	7379.66
725.755	7364.98
726.097	7348.25
726.439	7300.57
726.782	7283.62
727.124	7311.42
727.465	7262.83
727.807	7304.19
728.149	7270.97
728.491	7309.61
728.833	7244.75
729.175	7306.9
729.516	7254.47
729.858	7228.93
730.199	7271.64
730.541	7256.96
730.882	7242.49
731.224	7273.45
731.565	7190.97
731.906	7258.09
732.248	7181.48
732.589	7214.47
732.93	7208.82
733.271	7161.82
733.612	7145.32
733.953	7206.56
734.294	7218.31
734.635	7120.46
734.976	7214.02
735.317	7140.8
735.658	7133.12
735.999	7170.63
736.339	7142.16
736.68	7139.45
737.021	7190.29
737.361	7204.75
737.702	7169.05
738.042	7145.77
738.383	7184.87
738.723	7173.57
739.063	7136.51
739.404	7203.62
739.744	7209.5
740.084	7171.31
740.424	7230.52
740.764	7210.4
741.104	7208.37
741.444	7213.79
741.784	7159.11
742.124	7178.99
742.464	7264.19
742.804	7230.29
743.143	7188.03
743.483	7211.08
743.823	7217.86
744.162	7186.22
744.502	7237.07
744.841	7239.78
745.181	7342.83
745.52	7314.36
745.86	7281.59
746.199	7343.06
746.538	7395.26
746.877	7375.82
747.216	7393.9
747.556	7465.09
747.895	7472.09
748.234	7467.35
748.573	7532.43
748.911	7611.52
749.25	7580.11
749.589	7621.47
749.928	7703.05
750.267	7743.27
750.605	7689.71
750.944	7777.62
751.283	7819.65
751.621	7838.41
751.96	7904.17
752.298	8018.52
752.636	8025.3
752.975	8045.86
753.313	8089.02
753.651	8221.45
753.989	8316.59
754.327	8353.88
754.666	8356.59
755.004	8469.13
755.342	8569.69
755.679	8574.44
756.017	8646.98
756.355	8722.23
756.693	8877.7
757.031	8936.69
757.368	9015.55
757.706	9078.6
758.044	9116.12
758.381	9307.3
758.719	9360.18
759.056	9427.07
759.394	9525.15
759.731	9679.27
760.068	9779.83
760.405	9882.42
760.743	9888.07
761.08	10090.1
761.417	10129.87
761.754	10246.03
762.091	10298.01
762.428	10374.61
762.765	10426.14
763.102	10679.92
763.438	10667.04
763.775	10773.25
764.112	10805.11
