Data from hue_260_FLMS001491_00049.txt Node
Date: Tue Feb 07 15:59:04 GMT 2017
User: dcchb
Spectrometer: FLMS00149
Trigger mode: 0
Integration Time (sec): 2.000000E-2
Scans to average: 10
Electric dark correction enabled: true
Nonlinearity correction enabled: false
Boxcar width: 0
XAxis mode: Wavelengths
Number of Pixels in Spectrum: 2048
>>>>>Begin Spectral Data<<<<<
341.393	-16.88
341.776	-16.88
342.16	-16.88
342.543	-43.09
342.927	-71.34
343.31	-65.24
343.693	-64.56
344.077	-57.78
344.46	-41.96
344.843	-60.27
345.226	-50.32
345.61	-32.02
345.993	9.56
346.376	-4
346.759	6.17
347.142	27.87
347.525	43.69
347.908	49.56
348.291	79.84
348.674	64.02
349.057	95.44
349.44	114.87
349.823	127.3
350.206	173.85
350.588	166.85
350.971	201.65
351.354	193.96
351.737	217.69
352.119	242.1
352.502	254.08
352.884	243.91
353.267	264.7
353.65	269.67
354.032	272.15
354.414	286.84
354.797	304.02
355.179	301.76
355.562	297.24
355.944	315.77
356.326	318.25
356.709	320.06
357.091	321.87
357.473	311.25
357.855	323
358.238	330.46
358.62	308.99
359.002	298.82
359.384	305.83
359.766	319.84
360.148	323.45
360.53	326.62
360.912	321.87
361.294	343.56
361.676	315.99
362.057	330.23
362.439	313.96
362.821	330.91
363.203	325.03
363.584	325.26
363.966	299.27
364.348	320.06
364.729	312.15
365.111	318.03
365.493	306.73
365.874	319.38
366.256	304.47
366.637	296.11
367.019	304.7
367.4	302.21
367.781	287.75
368.163	308.76
368.544	289.55
368.925	306.05
369.306	306.73
369.688	299.05
370.069	313.96
370.45	295.43
370.831	293.62
371.212	302.44
371.593	307.63
371.974	306.05
372.355	307.86
372.736	319.61
373.117	313.73
373.498	304.47
373.879	302.21
374.26	311.93
374.641	306.5
375.021	308.54
375.402	288.65
375.783	322.32
376.163	305.83
376.544	315.54
376.925	344.02
377.305	308.99
377.686	321.19
378.066	314.64
378.447	325.71
378.827	320.97
379.208	325.03
379.588	331.14
379.968	320.06
380.349	319.38
380.729	330.91
381.109	327.52
381.489	301.98
381.87	345.6
382.25	321.64
382.63	337.24
383.01	341.98
383.39	357.12
383.77	334.3
384.15	348.08
384.53	353.96
384.91	342.89
385.29	364.35
385.67	310.12
386.049	343.34
386.429	326.84
386.809	344.92
387.189	346.5
387.568	337.69
387.948	345.37
388.328	364.81
388.707	336.11
389.087	342.89
389.466	343.79
389.846	351.47
390.225	356.45
390.605	361.19
390.984	370.68
391.363	346.73
391.743	348.76
392.122	353.73
392.501	353.73
392.881	372.94
393.26	377.01
393.639	370.68
394.018	400.06
394.397	362.09
394.776	376.11
395.155	370.23
395.534	378.82
395.913	382.43
396.292	387.41
396.671	380.85
397.05	376.33
397.429	388.99
397.808	365.48
398.186	390.12
398.565	395.99
398.944	370.46
399.323	388.53
399.701	417.01
400.08	410.23
400.458	408.42
400.837	401.64
401.215	418.36
401.594	389.44
401.972	417.01
402.351	392.83
402.729	400.06
403.107	424.01
403.486	430.79
403.864	425.82
404.242	433.51
404.62	452.94
404.999	444.58
405.377	440.96
405.755	450.91
406.133	462.43
406.511	450
406.889	455.43
407.267	460.17
407.645	458.14
408.023	473.5
408.401	460.62
408.779	474.63
409.156	490.91
409.534	472.83
409.912	480.06
410.29	503.56
410.667	501.98
411.045	517.8
411.422	511.92
411.8	504.46
412.178	525.25
412.555	549.66
412.933	546.5
413.31	552.15
413.687	578.81
414.065	546.72
414.442	569.77
414.819	571.81
415.197	572.26
415.574	585.37
415.951	597.57
416.328	593.05
416.705	595.76
417.082	603.22
417.46	643.44
417.837	636.89
418.214	629.66
418.591	636.89
418.967	649.32
419.344	625.36
419.721	661.07
420.098	666.95
420.475	663.33
420.852	690.45
421.228	704.68
421.605	704.91
421.982	690.9
422.358	731.58
422.735	715.98
423.111	746.04
423.488	744.23
423.864	739.26
424.241	771.12
424.617	781.52
424.994	793.27
425.37	780.39
425.746	794.85
426.123	809.09
426.499	838.24
426.875	852.7
427.251	864.45
427.627	870.33
428.003	859.94
428.379	884.57
428.756	906.26
429.132	907.62
429.507	926.37
429.883	898.58
430.259	920.72
430.635	955.3
431.011	971.57
431.387	976.77
431.763	960.95
432.138	1005.02
432.514	1006.82
432.89	1011.34
433.265	1018.57
433.641	1038.91
434.016	1069.2
434.392	1085.69
434.767	1115.52
435.143	1110.1
435.518	1111.23
435.894	1148.06
436.269	1165.69
436.644	1169.08
437.02	1197.55
437.395	1229.64
437.77	1221.51
438.145	1218.57
438.52	1236.2
438.895	1249.76
439.271	1260.83
439.646	1307.61
440.021	1315.06
440.395	1348.74
440.77	1360.71
441.145	1353.03
441.52	1379.92
441.895	1385.34
442.27	1415.17
442.645	1400.03
443.019	1428.06
443.394	1431.67
443.769	1433.93
444.143	1442.74
444.518	1470.31
444.892	1480.71
445.267	1447.04
445.641	1508.96
446.016	1514.16
446.39	1529.75
446.764	1523.42
447.139	1556.41
447.513	1551.89
447.887	1547.15
448.262	1584.89
448.636	1618.33
449.01	1588.5
449.384	1615.85
449.758	1626.69
450.132	1660.82
450.506	1639.12
450.88	1665.34
451.254	1677.54
451.628	1698.78
452.002	1706.24
452.376	1710.08
452.75	1718.67
453.123	1751.66
453.497	1787.82
453.871	1763.87
454.244	1818.78
454.618	1805.67
454.992	1844.09
455.365	1840.25
455.739	1882.06
456.112	1901.26
456.486	1883.41
456.859	1924.54
457.232	1983.07
457.606	1933.35
457.979	1977.19
458.352	2012.22
458.725	2029.62
459.099	2046.8
459.472	2036.63
459.845	2061.03
460.218	2095.16
460.591	2111.2
460.964	2164.08
461.337	2171.54
461.71	2189.84
462.083	2225.1
462.456	2204.98
462.829	2224.87
463.201	2249.73
463.574	2272.78
463.947	2320.91
464.32	2350.52
464.692	2400.69
465.065	2418.09
465.438	2430.74
465.81	2471.19
466.183	2510.51
466.555	2510.97
466.928	2504.41
467.3	2515.26
467.672	2560.46
468.045	2601.81
468.417	2591.19
468.789	2635.93
469.161	2678.42
469.534	2688.36
469.906	2739.89
470.278	2784.63
470.65	2821.24
471.022	2813.33
471.394	2908.69
471.766	2902.14
472.138	2931.74
472.51	2997.51
472.882	3018.3
473.253	3062.59
473.625	3092.19
473.997	3146.2
474.369	3193.88
474.74	3193.43
475.112	3318.63
475.484	3282.92
475.855	3338.51
476.227	3391.39
476.598	3430.49
476.97	3470.26
477.341	3544.16
477.713	3556.59
478.084	3577.83
478.455	3680.43
478.827	3703.48
479.198	3782.8
479.569	3741.22
479.94	3869.35
480.311	3949.35
480.682	3975.33
481.053	4072.28
481.424	4150.7
481.795	4139.4
482.166	4194.31
482.537	4241.54
482.908	4335.32
483.279	4337.81
483.65	4371.93
484.021	4509.33
484.391	4536.45
484.762	4580.06
485.133	4628.88
485.503	4696.9
485.874	4705.03
486.244	4759.27
486.615	4849.89
486.985	4879.94
487.356	4952.48
487.726	4975.08
488.097	5125.36
488.467	5075.87
488.837	5163.78
489.207	5231.12
489.578	5315.86
489.948	5324.22
490.318	5404.67
490.688	5371.23
491.058	5444.67
491.428	5480.38
491.798	5596.53
492.168	5624.33
492.538	5645.8
492.908	5719.47
493.278	5780.03
493.648	5773.48
494.017	5860.93
494.387	5878.11
494.757	5924.66
495.126	6007.6
495.496	5959.46
495.866	6014.83
496.235	6063.19
496.605	6121.94
496.974	6087.37
497.344	6205.11
497.713	6215.05
498.082	6287.36
498.452	6298.66
498.821	6288.04
499.19	6307.02
499.559	6383.41
499.928	6400.58
500.298	6420.47
500.667	6479.45
501.036	6373.24
501.405	6510.41
501.774	6508.15
502.143	6528.71
502.512	6552.21
502.88	6593.12
503.249	6567.81
503.618	6636.28
503.987	6656.39
504.356	6662.95
504.724	6709.27
505.093	6725.54
505.462	6767.8
505.83	6778.2
506.199	6769.38
506.567	6891.19
506.936	6836.73
507.304	6937.97
507.672	6898.19
508.041	6896.16
508.409	7002.82
508.777	6955.14
509.145	7011.19
509.514	7011.41
509.882	7028.81
510.25	7038.08
510.618	7093.9
510.986	7114.91
511.354	7161.24
511.722	7154.23
512.09	7179.54
512.458	7144.97
512.826	7227.23
513.193	7235.59
513.561	7223.84
513.929	7279.65
514.297	7328.69
514.664	7289.82
515.032	7281.01
515.4	7315.13
515.767	7430.16
516.135	7394.45
516.502	7352.42
516.869	7413.21
517.237	7394.45
517.604	7331.86
517.972	7454.34
518.339	7454.56
518.706	7471.29
519.073	7482.59
519.44	7519.19
519.808	7539.99
520.175	7520.78
520.542	7565.97
520.909	7559.87
521.276	7595.35
521.643	7599.64
522.009	7592.19
522.376	7691.62
522.743	7744.05
523.11	7719.19
523.477	7769.36
523.843	7717.61
524.21	7766.65
524.577	7755.12
524.943	7761.45
525.31	7842.58
525.676	7863.59
526.043	7871.5
526.409	7895
526.776	7908.34
527.142	7911.5
527.508	7915.79
527.874	7927.09
528.241	7998.73
528.607	7938.62
528.973	7970.03
529.339	7953.76
529.705	8030.37
530.071	8030.37
530.437	8010.71
530.803	8031.72
531.169	8048.67
531.535	8012.52
531.901	8009.58
532.267	7962.8
532.632	8095
532.998	8020.2
533.364	8081.67
533.73	8067.66
534.095	8089.58
534.461	8095.68
534.826	8080.76
535.192	8079.18
535.557	8037.83
535.923	8071.95
536.288	8073.98
536.653	8090.48
537.019	8006.19
537.384	8006.87
537.749	8046.41
538.114	8026.75
538.479	7998.96
538.845	8057.26
539.21	8001.44
539.575	7954.66
539.94	7925.74
540.305	7985.4
540.67	8023.14
541.034	7987.43
541.399	7994.89
541.764	8005.96
542.129	7939.97
542.494	7976.81
542.858	8003.48
543.223	7941.56
543.587	7982.23
543.952	7884.84
544.316	7909.24
544.681	7963.93
545.045	7884.38
545.41	7906.53
545.774	7934.55
546.138	7902.46
546.503	7862.69
546.867	7882.8
547.231	7903.14
547.595	7863.82
547.959	7791.05
548.324	7874.89
548.688	7816.59
549.052	7829.24
549.416	7798.28
549.779	7751.73
550.143	7761.67
550.507	7827.21
550.871	7793.99
551.235	7783.59
551.599	7809.58
551.962	7786.31
552.326	7742.92
552.689	7784.5
553.053	7788.79
553.417	7709.25
553.78	7795.12
554.143	7739.53
554.507	7740.43
554.87	7756.02
555.234	7763.71
555.597	7749.7
555.96	7761.67
556.323	7770.49
556.686	7773.2
557.05	7809.81
557.413	7752.41
557.776	7740.21
558.139	7781.79
558.502	7748.57
558.865	7779.08
559.228	7796.25
559.59	7767.1
559.953	7819.07
560.316	7845.74
560.679	7778.17
561.041	7849.58
561.404	7898.85
561.767	7924.61
562.129	7821.79
562.492	7906.76
562.854	7897.94
563.217	7814.33
563.579	7901.56
563.941	7913.31
564.304	7937.49
564.666	7995.79
565.028	7973.87
565.39	7994.89
565.753	7998.5
566.115	8011.61
566.477	8062.46
566.839	8068.56
567.201	8103.36
567.563	8118.73
567.925	8148.33
568.287	8089.58
568.648	8145.62
569.01	8158.73
569.372	8189.01
569.734	8186.52
570.095	8219.29
570.457	8269.46
570.819	8229.01
571.18	8206.63
571.542	8252.73
571.903	8239.85
572.265	8320.08
572.626	8288.44
572.987	8350.59
573.349	8346.97
573.71	8420.64
574.071	8384.26
574.432	8417.25
574.794	8426.52
575.155	8459.51
575.516	8358.49
575.877	8401.43
576.238	8450.24
576.599	8566.85
576.96	8498.83
577.32	8568.43
577.681	8642.78
578.042	8573.86
578.403	8627.19
578.763	8645.72
579.124	8647.07
579.485	8704.47
579.845	8703.12
580.206	8680.07
580.566	8693.18
580.927	8679.16
581.287	8763.46
581.648	8734.53
582.008	8790.57
582.368	8856.56
582.728	8821.99
583.089	8769.78
583.449	8824.7
583.809	8829.44
584.169	8863.34
584.529	8841.87
584.889	8907.18
585.249	8918.48
585.609	8961.19
585.969	8915.54
586.329	8930.01
586.688	8934.3
587.048	8950.34
587.408	8993.28
587.768	8915.99
588.127	9000.06
588.487	8980.17
588.846	9066.05
589.206	8974.52
589.565	9033.73
589.925	9107.85
590.284	9093.16
590.643	9130
591.003	9140.17
591.362	9153.05
591.721	9098.81
592.08	9160.96
592.44	9155.08
592.799	9189.43
593.158	9191.24
593.517	9217.46
593.876	9217.23
594.235	9190.56
594.593	9259.71
594.952	9285.25
595.311	9218.36
595.67	9234.4
596.029	9289.77
596.387	9273.05
596.746	9198.47
597.104	9267.4
597.463	9309.43
597.822	9306.72
598.18	9276.89
598.538	9269.43
598.897	9351.01
599.255	9281.86
599.613	9428.52
599.972	9358.02
600.33	9379.03
600.688	9322.54
601.046	9316.89
601.404	9383.33
601.762	9339.26
602.12	9381.29
602.478	9421.07
602.836	9425.59
603.194	9363.67
603.552	9377.45
603.91	9367.06
604.268	9403.21
604.625	9395.3
604.983	9390.78
605.341	9394.4
605.698	9415.19
606.056	9485.02
606.413	9365.93
606.771	9458.8
607.128	9451.12
607.485	9477.79
607.843	9459.93
608.2	9545.13
608.557	9591.91
608.914	9509.43
609.272	9575.19
609.629	9545.58
609.986	9580.16
610.343	9503.32
610.7	9627.39
611.057	9574.51
611.414	9572.02
611.771	9610.44
612.127	9623.09
612.484	9584.68
612.841	9644.34
613.198	9640.27
613.554	9577.22
613.911	9631.23
614.267	9612.02
614.624	9617.22
614.98	9703.32
615.337	9684.56
615.693	9691.34
616.05	9724.56
616.406	9679.14
616.762	9678.23
617.118	9713.04
617.475	9736.09
617.831	9715.3
618.187	9714.17
618.543	9797.33
618.899	9792.13
619.255	9814.05
619.611	9763.66
619.967	9807.04
620.323	9745.8
620.678	9769.31
621.034	9759.81
621.39	9804.33
621.746	9808.17
622.101	9807.95
622.457	9765.01
622.812	9790.77
623.168	9794.84
623.523	9786.03
623.879	9840.72
624.234	9763.88
624.589	9800.94
624.945	9834.61
625.3	9805.91
625.655	9734.96
626.01	9779.47
626.365	9826.03
626.72	9772.47
627.075	9800.04
627.43	9767.27
627.785	9731.34
628.14	9729.08
628.495	9793.49
628.85	9788.97
629.205	9707.61
629.559	9755.29
629.914	9746.48
630.269	9748.51
630.623	9730.66
630.978	9687.95
631.332	9786.71
631.687	9740.61
632.041	9715.3
632.396	9622.87
632.75	9738.8
633.104	9678.91
633.459	9636.43
633.813	9676.2
634.167	9637.56
634.521	9631.91
634.875	9617.67
635.229	9642.3
635.583	9565.47
635.937	9607.5
636.291	9620.61
636.645	9610.89
636.999	9541.29
637.352	9538.58
637.706	9548.75
638.06	9465.36
638.413	9463.55
638.767	9476.66
639.121	9532.7
639.474	9444.34
639.828	9461.74
640.181	9458.58
640.534	9487.73
640.888	9457.22
641.241	9392.82
641.594	9410.67
641.947	9431.01
642.301	9408.18
642.654	9323.44
643.007	9439.14
643.36	9357.11
643.713	9290
644.066	9377.9
644.419	9334.29
644.771	9258.36
645.124	9200.96
645.477	9136.78
645.83	9086.39
646.182	9128.42
646.535	9142.66
646.888	9072.83
647.24	9002.09
647.593	9133.84
647.945	9080.06
648.298	9061.08
648.65	9005.48
649.002	8975.43
649.355	9057.23
649.707	8959.38
650.059	9113.5
650.411	9132.94
650.763	9126.61
651.115	9249.54
651.467	9237.79
651.819	9226.72
652.171	9208.19
652.523	9256.32
652.875	9194.63
653.227	9198.92
653.578	9290.45
653.93	9256.1
654.282	9157.34
654.633	9162.77
654.985	9275.08
655.337	9173.84
655.688	9245.93
656.039	9216.78
656.391	9117.12
656.742	9221.3
657.094	9153.95
657.445	9244.12
657.796	9210.9
658.147	9203.22
658.498	9161.41
658.849	9260.84
659.2	9208.87
659.551	9232.6
659.902	9235.31
660.253	9228.75
660.604	9257.23
660.955	9214.97
661.306	9202.77
661.656	9179.04
662.007	9222.88
662.358	9188.3
662.708	9267.62
663.059	9273.73
663.409	9122.09
663.76	9285.7
664.11	9281.41
664.461	9215.42
664.811	9227.85
665.161	9195.76
665.511	9198.02
665.862	9233.27
666.212	9298.36
666.562	9293.16
666.912	9207.29
667.262	9222.2
667.612	9228.08
667.962	9307.4
668.312	9192.82
668.662	9297
669.011	9246.61
669.361	9221.07
669.711	9144.91
670.06	9176.33
670.41	9226.04
670.76	9214.97
671.109	9261.07
671.459	9196.66
671.808	9213.84
672.157	9191.02
672.507	9117.57
672.856	9148.98
673.205	9144.01
673.554	9187.63
673.904	9122.99
674.253	9199.15
674.602	9192.37
674.951	9026.95
675.3	9008.65
675.649	9122.77
675.998	9090
676.346	9050
676.695	9115.54
677.044	9021.53
677.393	9041.41
677.741	9133.16
678.09	9034.41
678.438	9091.36
678.787	9052.71
679.135	9036.22
679.484	8986.28
679.832	9025.37
680.181	8962.09
680.529	8952.38
680.877	8920.97
681.225	8909.67
681.573	8922.55
681.922	8864.02
682.27	8889.1
682.618	8843.45
682.966	8841.65
683.314	8831.48
683.661	8874.19
684.009	8809.56
684.357	8800.74
684.705	8795.55
685.053	8779.95
685.4	8759.16
685.748	8752.61
686.095	8730.46
686.443	8679.16
686.79	8664.25
687.138	8661.31
687.485	8572.73
687.832	8655.66
688.18	8625.38
688.527	8552.61
688.874	8509.23
689.221	8474.88
689.568	8506.51
689.915	8441.2
690.262	8495.21
690.609	8443.01
690.956	8444.37
691.303	8420.19
691.65	8327.08
691.997	8329.8
692.344	8239.4
692.69	8368.44
693.037	8241.21
693.383	8207.76
693.73	8196.69
694.077	8191.49
694.423	8139.74
694.769	8074.89
695.116	8050.71
695.462	8099.29
695.808	8098.16
696.155	8034.89
696.501	8019.75
696.847	7981.33
697.193	7904.5
697.539	7900.65
697.885	7920.77
698.231	7817.49
698.577	7791.05
698.923	7827.66
699.269	7745.18
699.614	7731.17
699.96	7697.95
700.306	7712.64
700.651	7641
700.997	7637.84
701.342	7626.54
701.688	7607.1
702.033	7565.75
702.379	7542.7
702.724	7575.24
703.069	7544.05
703.415	7439.2
703.76	7437.62
704.105	7457.05
704.45	7393.55
704.795	7377.73
705.14	7318.52
705.485	7355.36
705.83	7291.4
706.175	7277.85
706.52	7250.05
706.865	7284.85
707.209	7227.23
707.554	7273.1
707.899	7189.03
708.243	7166.21
708.588	7141.58
708.932	7096.16
709.277	7097.74
709.621	7066.33
709.966	7105.19
710.31	7055.48
710.654	7016.38
710.998	6983.84
711.342	6994.91
711.687	6983.62
712.031	7000.56
712.375	6927.12
712.719	6961.02
713.063	6899.55
713.407	6955.37
713.75	6861.36
714.094	6877.18
714.438	6863.39
714.782	6907.01
715.125	6823.39
715.469	6842.83
715.812	6807.58
716.156	6804.41
716.499	6782.04
716.843	6771.19
717.186	6796.95
717.53	6810.74
717.873	6851.64
718.216	6766.22
718.559	6701.14
718.902	6675.15
719.246	6656.84
719.589	6671.99
719.932	6642.61
720.275	6610.07
720.617	6630.63
720.96	6693.45
721.303	6620.24
721.646	6627.92
721.989	6611.65
722.331	6641.25
722.674	6646.68
723.016	6613.46
723.359	6587.47
723.701	6633.12
724.044	6534.36
724.386	6593.57
724.729	6623.4
725.071	6615.72
725.413	6565.77
725.755	6522.38
726.097	6497.75
726.439	6512.22
726.782	6544.08
727.124	6587.24
727.465	6548.15
727.807	6551.99
728.149	6526.68
728.491	6464.76
728.833	6524.87
729.175	6582.04
729.516	6477.64
729.858	6510.86
730.199	6541.59
730.541	6520.13
730.882	6461.37
731.224	6503.85
731.565	6464.53
731.906	6403.74
732.248	6504.53
732.589	6440.13
732.93	6455.27
733.271	6397.42
733.612	6449.17
733.953	6464.31
734.294	6459.56
734.635	6400.81
734.976	6456.62
735.317	6495.04
735.658	6449.62
735.999	6415.95
736.339	6464.08
736.68	6523.97
737.021	6414.14
737.361	6459.56
737.702	6485.55
738.042	6443.74
738.383	6493.69
738.723	6470.63
739.063	6496.17
739.404	6513.57
739.744	6524.42
740.084	6455.49
740.424	6477.64
740.764	6455.49
741.104	6549.95
741.444	6521.03
741.784	6498.66
742.124	6536.85
742.464	6519.22
742.804	6552.89
743.143	6559.9
743.483	6585.21
743.823	6523.97
744.162	6582.27
744.502	6691.87
744.841	6676.51
745.181	6754.7
745.52	6687.13
745.86	6747.69
746.199	6706.33
746.538	6786.33
746.877	6813.45
747.216	6821.59
747.556	6909.27
747.895	6857.97
748.234	6900
748.573	6926.89
748.911	7042.6
749.25	7051.86
749.589	7100
749.928	7149.26
750.267	7240.56
750.605	7227.9
750.944	7345.41
751.283	7281.24
751.621	7438.75
751.96	7477.84
752.298	7575.24
752.636	7624.05
752.975	7649.81
753.313	7735.69
753.651	7843.48
753.989	7874.44
754.327	7984.27
754.666	8061.78
755.004	8172.51
755.342	8266.29
755.679	8385.61
756.017	8383.13
756.355	8596.23
756.693	8580.64
757.031	8821.99
757.368	8859.05
757.706	8919.84
758.044	9047.52
758.381	9210.68
758.719	9316.89
759.056	9425.13
759.394	9462.42
759.731	9657.44
760.068	9773.37
760.405	9893.82
760.743	10017.43
761.08	10129.3
761.417	10257.88
761.754	10337.88
762.091	10481.15
762.428	10536.97
762.765	10688.15
763.102	10889.05
763.438	11013.11
763.775	11106.67
764.112	11212.66
764.449	11352.99
764.785	11438.64
765.122	11496.04
765.458	11569.03
765.795	11766.99
766.131	11874.79
766.467	11952.07
766.804	12092.86
767.14	12105.74
767.476	12219.64
767.812	12364.27
768.148	12507.54
768.485	12526.07
768.821	12574.88
