Data from hue_260_FLMS001491_00096.txt Node
Date: Tue Feb 07 15:59:54 GMT 2017
User: dcchb
Spectrometer: FLMS00149
Trigger mode: 0
Integration Time (sec): 2.000000E-2
Scans to average: 10
Electric dark correction enabled: true
Nonlinearity correction enabled: false
Boxcar width: 0
XAxis mode: Wavelengths
Number of Pixels in Spectrum: 2048
>>>>>Begin Spectral Data<<<<<
341.393	-24.36
341.776	-24.36
342.16	-24.36
342.543	-61.88
342.927	-63.01
343.31	-76.57
343.693	-63.68
344.077	-58.94
344.46	-82.44
344.843	-44.93
345.226	-37.02
345.61	-32.05
345.993	-43.12
346.376	-3.12
346.759	14.28
347.142	21.74
347.525	45.92
347.908	73.03
348.291	70.1
348.674	97.67
349.057	119.14
349.44	118.23
349.823	150.77
350.206	141.28
350.588	188.29
350.971	189.87
351.354	229.19
351.737	234.16
352.119	234.61
352.502	257.21
352.884	261.28
353.267	255.63
353.65	288.62
354.032	284.1
354.414	281.16
354.797	287.94
355.179	313.03
355.562	307.15
355.944	312.58
356.326	320.03
356.709	320.94
357.091	314.38
357.473	344.89
357.855	326.14
358.238	341.05
358.62	339.47
359.002	334.04
359.384	322.97
359.766	346.02
360.148	327.04
360.53	346.25
360.912	334.95
361.294	305.57
361.676	296.31
362.057	314.38
362.439	338.79
362.821	341.5
363.203	312.12
363.584	325.46
363.966	327.94
364.348	322.07
364.729	336.98
365.111	318.45
365.493	310.09
365.874	309.19
366.256	300.37
366.637	294.72
367.019	294.27
367.4	308.06
367.781	326.36
368.163	320.71
368.544	296.76
368.925	300.83
369.306	307.6
369.688	335.63
370.069	329.75
370.45	301.28
370.831	293.59
371.212	288.4
371.593	305.57
371.974	284.55
372.355	324.1
372.736	306.02
373.117	302.18
373.498	323.2
373.879	313.03
374.26	291.33
374.641	306.47
375.021	297.89
375.402	302.86
375.783	312.8
376.163	328.62
376.544	322.97
376.925	308.73
377.305	295.85
377.686	306.02
378.066	321.84
378.447	320.94
378.827	321.39
379.208	309.64
379.588	331.56
379.968	304.89
380.349	331.79
380.729	339.92
381.109	339.02
381.489	343.99
381.87	330.88
382.25	328.85
382.63	332.69
383.01	332.69
383.39	345.12
383.77	339.24
384.15	337.66
384.53	339.47
384.91	363.2
385.29	339.47
385.67	342.41
386.049	328.4
386.429	354.38
386.809	341.5
387.189	352.58
387.568	334.5
387.948	326.59
388.328	350.99
388.707	358
389.087	340.6
389.466	345.12
389.846	379.24
390.225	334.95
390.605	369.07
390.984	358
391.363	362.52
391.743	365.23
392.122	365.91
392.501	351.22
392.881	371.78
393.26	381.05
393.639	367.94
394.018	373.59
394.397	385.12
394.776	386.92
395.155	394.16
395.534	376.3
395.913	371.11
396.292	379.69
396.671	383.99
397.05	377.43
397.429	400.94
397.808	372.91
398.186	425.79
398.565	398.45
398.944	401.84
399.323	419.01
399.701	398.22
400.08	419.69
400.458	404.78
400.837	396.42
401.215	427.83
401.594	427.38
401.972	434.38
402.351	400.48
402.729	422.18
403.107	422.18
403.486	414.72
403.864	432.35
404.242	426.25
404.62	438
404.999	451.1
405.377	439.35
405.755	445.23
406.133	453.14
406.511	439.8
406.889	479.35
407.267	450.2
407.645	461.95
408.023	445.91
408.401	492.46
408.779	476.64
409.156	488.62
409.534	499.01
409.912	493.14
410.29	514.83
410.667	523.19
411.045	517.77
411.422	513.02
411.8	520.03
412.178	538.56
412.555	543.76
412.933	554.38
413.31	563.42
413.687	559.12
414.065	570.42
414.442	556.64
414.819	575.85
415.197	579.69
415.574	606.35
415.951	600.25
416.328	606.13
416.705	627.14
417.082	652.45
417.46	629.4
417.837	653.81
418.214	626.24
418.591	642.29
418.967	662.85
419.344	650.65
419.721	673.47
420.098	663.53
420.475	710.98
420.852	710.53
421.228	687.93
421.605	715.05
421.982	729.97
422.358	721.61
422.735	760.7
423.111	751.21
423.488	780.81
423.864	787.82
424.241	804.09
424.617	792.56
424.994	823.52
425.37	836.4
425.746	849.51
426.123	866.01
426.499	850.19
426.875	883.41
427.251	859.23
427.627	879.12
428.003	867.82
428.379	911.88
428.756	931.77
429.132	934.26
429.507	949.17
429.883	955.95
430.259	958.66
430.635	955.72
431.011	963.63
431.387	980.36
431.763	1017.42
432.138	1007.93
432.514	1056.74
432.89	1037.76
433.265	1079.34
433.641	1080.47
434.016	1074.36
434.392	1100.13
434.767	1132.89
435.143	1136.74
435.518	1171.99
435.894	1174.25
436.269	1176.73
436.644	1192.55
437.02	1236.85
437.395	1225.32
437.77	1251.76
438.145	1269.84
438.52	1257.41
438.895	1307.8
439.271	1324.75
439.646	1344.19
440.021	1370.18
440.395	1377.63
440.77	1386.22
441.145	1370.85
441.52	1416.95
441.895	1426.67
442.27	1472.55
442.645	1432.77
443.019	1442.72
443.394	1479.33
443.769	1499.66
444.143	1512.54
444.518	1516.61
444.892	1494.47
445.267	1517.97
445.641	1539.66
446.016	1529.04
446.39	1573.79
446.764	1604.52
447.139	1567.01
447.513	1606.1
447.887	1611.75
448.262	1619.43
448.636	1627.12
449.01	1639.77
449.384	1682.03
449.758	1681.81
450.132	1683.39
450.506	1656.95
450.88	1692.2
451.254	1703.27
451.628	1697.62
452.002	1774.91
452.376	1762.93
452.75	1766.1
453.123	1776.04
453.497	1806.55
453.871	1824.18
454.244	1848.81
454.618	1844.74
454.992	1888.13
455.365	1886.55
455.739	1928.35
456.112	1943.04
456.486	1969.26
456.859	1980.78
457.232	2015.81
457.606	2000.67
457.979	2008.58
458.352	2072.08
458.725	2072.53
459.099	2098.07
459.472	2131.96
459.845	2128.8
460.218	2143.71
460.591	2192.08
460.964	2204.05
461.337	2259.19
461.71	2290.38
462.083	2297.16
462.456	2279.76
462.829	2309.36
463.201	2350.49
463.574	2330.15
463.947	2395.01
464.32	2428.23
464.692	2461.45
465.065	2467.32
465.438	2462.8
465.81	2522.24
466.183	2603.14
466.555	2608.11
466.928	2597.94
467.3	2595.68
467.672	2634.32
468.045	2704.83
468.417	2714.1
468.789	2748.44
469.161	2764.04
469.534	2748.22
469.906	2856.24
470.278	2891.27
470.65	2870.25
471.022	2922.9
471.394	3001.09
471.766	3002.22
472.138	3050.58
472.51	3081.54
472.882	3123.8
473.253	3130.36
473.625	3217.81
473.997	3256.68
474.369	3263.01
474.74	3322.67
475.112	3366.51
475.484	3393.63
475.855	3453.06
476.227	3515.2
476.598	3585.94
476.97	3588.87
477.341	3661.87
477.713	3693.28
478.084	3789.55
478.455	3864.12
478.827	3852.6
479.198	3944.12
479.569	3964.23
479.94	3973.27
480.311	4045.81
480.682	4120.16
481.053	4211.46
481.424	4253.26
481.795	4238.35
482.166	4344.79
482.537	4402.41
482.908	4501.62
483.279	4482.64
483.65	4587.94
484.021	4673.14
484.391	4663.87
484.762	4764.44
485.133	4803.31
485.503	4812.35
485.874	4902.29
486.244	4965.79
486.615	5035.16
486.985	5046.92
487.356	5147.48
487.726	5217.31
488.097	5258.21
488.467	5303.86
488.837	5396.96
489.207	5403.74
489.578	5484.64
489.948	5521.03
490.318	5552.89
490.688	5602.61
491.058	5703.17
491.428	5697.07
491.798	5779.1
492.168	5884.86
492.538	5889.15
492.908	5906.1
493.278	6032.43
493.648	6070.62
494.017	6089.83
494.387	6108.13
494.757	6186.09
495.126	6197.85
495.496	6175.7
495.866	6290.5
496.235	6273.1
496.605	6396.26
496.974	6379.76
497.344	6428.35
497.713	6456.37
498.082	6443.49
498.452	6500.21
498.821	6577.95
499.19	6549.93
499.559	6625.86
499.928	6629.7
500.298	6720.32
500.667	6759.19
501.036	6694.1
501.405	6765.74
501.774	6761.22
502.143	6873.31
502.512	6822.69
502.88	6858.85
503.249	6885.74
503.618	6967.77
503.987	6940.42
504.356	6947.43
504.724	7010.03
505.093	7022
505.462	7055
505.83	7092.29
506.199	7095.45
506.567	7162.34
506.936	7152.85
507.304	7212.73
507.672	7256.35
508.041	7238.5
508.409	7240.53
508.777	7340.87
509.145	7332.96
509.514	7298.16
509.882	7342
510.25	7378.61
510.618	7383.35
510.986	7363.46
511.354	7420.64
511.722	7501.77
512.09	7501.99
512.458	7492.5
512.826	7549
513.193	7548.09
513.561	7562.78
513.929	7626.06
514.297	7652.5
514.664	7672.83
515.032	7682.55
515.4	7714.42
515.767	7660.86
516.135	7773.62
516.502	7632.61
516.869	7777.92
517.237	7815.88
517.604	7747.86
517.972	7820.18
518.339	7837.58
518.706	7881.64
519.073	7814.75
519.44	7852.04
519.808	7965.03
520.175	7858.14
520.542	7904.47
520.909	8032.15
521.276	7912.6
521.643	7950.34
522.009	8020.4
522.376	8031.47
522.743	8000.96
523.11	8114.63
523.477	8066.72
523.843	8192.6
524.21	8186.27
524.577	8155.76
524.943	8222.65
525.31	8207.06
525.676	8244.35
526.043	8286.6
526.409	8301.29
526.776	8307.17
527.142	8303.1
527.508	8345.13
527.874	8331.35
528.241	8335.64
528.607	8363.66
528.973	8385.58
529.339	8362.53
529.705	8442.08
530.071	8456.32
530.437	8411.57
530.803	8487.95
531.169	8432.59
531.535	8433.27
531.901	8449.54
532.267	8490.44
532.632	8454.96
532.998	8466.03
533.364	8485.69
533.73	8442.31
534.095	8483.21
534.461	8513.49
534.826	8472.59
535.192	8535.64
535.557	8573.38
535.923	8509.88
536.288	8542.19
536.653	8492.47
537.019	8473.94
537.384	8523.89
537.749	8486.37
538.114	8462.42
538.479	8495.86
538.845	8517.11
539.21	8461.97
539.575	8451.35
539.94	8498.35
540.305	8434.17
540.67	8491.12
541.034	8400.05
541.399	8451.57
541.764	8410.67
542.129	8382.19
542.494	8414.96
542.858	8434.17
543.223	8376.77
543.587	8450.22
543.952	8371.12
544.316	8378.35
544.681	8402.08
545.045	8330.9
545.41	8412.25
545.774	8391.01
546.138	8383.78
546.503	8345.59
546.867	8367.28
547.231	8374.51
547.595	8346.26
547.959	8416.32
548.324	8355.75
548.688	8352.37
549.052	8372.48
549.416	8341.29
549.779	8268.75
550.143	8315.98
550.507	8285.47
550.871	8305.81
551.235	8238.92
551.599	8350.56
551.962	8333.16
552.326	8282.54
552.689	8331.35
553.053	8273.27
553.417	8265.59
553.78	8343.55
554.143	8304.91
554.507	8336.77
554.87	8338.58
555.234	8414.06
555.597	8281.18
555.96	8355.3
556.323	8296.55
556.686	8327.28
557.05	8332.93
557.413	8340.61
557.776	8327.51
558.139	8361.4
558.502	8339.03
558.865	8294.51
559.228	8362.08
559.59	8365.47
559.953	8353.5
560.316	8409.99
560.679	8334.96
561.041	8468.75
561.404	8403.66
561.767	8466.71
562.129	8448.63
562.492	8499.03
562.854	8496.99
563.217	8418.13
563.579	8483.44
563.941	8533.15
564.304	8530.44
564.666	8606.82
565.028	8582.64
565.39	8508.07
565.753	8602.08
566.115	8638.91
566.477	8673.03
566.839	8660.15
567.201	8693.83
567.563	8680.72
567.925	8727.72
568.287	8741.96
568.648	8728.63
569.01	8770.89
569.372	8775.4
569.734	8758
570.095	8918.45
570.457	8841.84
570.819	8904.22
571.18	8844.33
571.542	8882.29
571.903	8951.67
572.265	8946.93
572.626	8945.8
572.987	8986.25
573.349	8994.83
573.71	9006.13
574.071	8978.11
574.432	9000.03
574.794	9101.05
575.155	9095.62
575.516	9040.26
575.877	9133.59
576.238	9133.59
576.599	9152.34
576.96	9186.47
577.32	9227.37
577.681	9227.37
578.042	9243.42
578.403	9275.28
578.763	9320.25
579.124	9280.25
579.485	9326.12
579.845	9345.79
580.206	9292.91
580.566	9315.73
580.927	9391.21
581.287	9412.68
581.648	9438.21
582.008	9470.08
582.368	9446.35
582.728	9492.67
583.089	9570.41
583.449	9498.55
583.809	9487.25
584.169	9563.63
584.529	9535.16
584.889	9577.64
585.249	9535.38
585.609	9586.68
585.969	9711.88
586.329	9587.59
586.688	9697.19
587.048	9719.79
587.408	9676.85
587.768	9718.88
588.127	9632.33
588.487	9644.53
588.846	9725.21
589.206	9642.73
589.565	9713.69
589.925	9769.95
590.284	9752.33
590.643	9781.25
591.003	9819.45
591.362	9822.38
591.721	9803.63
592.08	9797.3
592.44	9842.95
592.799	9863.29
593.158	9880.69
593.517	9859.22
593.876	9941.02
594.235	9870.29
594.593	9888.37
594.952	9967.92
595.311	9925.43
595.67	9937.41
596.029	9978.31
596.387	9934.47
596.746	10009.27
597.104	9916.17
597.463	9974.92
597.822	10026.9
598.18	9992.32
598.538	10070.96
598.897	9995.03
599.255	9947.35
599.613	10052.89
599.972	10044.98
600.33	10109.38
600.688	10074.35
601.046	10082.26
601.404	10154.35
601.762	10106.9
602.12	10087.46
602.478	10160.45
602.836	10088.59
603.194	10088.36
603.552	10132.43
603.91	10059.44
604.268	10158.42
604.625	10081.59
604.983	10168.59
605.341	10077.74
605.698	10111.87
606.056	10186.67
606.413	10104.86
606.771	10198.87
607.128	10278.42
607.485	10184.18
607.843	10166.78
608.2	10249.94
608.557	10224.18
608.914	10289.72
609.272	10221.92
609.629	10233.45
609.986	10306.44
610.343	10264.41
610.7	10351.18
611.057	10315.7
611.414	10327
611.771	10378.75
612.127	10389.37
612.484	10333.56
612.841	10379.66
613.198	10384.18
613.554	10387.57
613.911	10378.98
614.267	10379.88
614.624	10321.35
614.98	10381.69
615.337	10427.11
615.693	10433.67
616.05	10355.02
616.406	10473.67
616.762	10481.12
617.118	10410.16
617.475	10444.74
617.831	10441.8
618.187	10490.16
618.543	10577.62
618.899	10509.37
619.255	10545.53
619.611	10525.42
619.967	10579.2
620.323	10574.45
620.678	10576.94
621.034	10524.29
621.39	10497.62
621.746	10463.72
622.101	10639.54
622.457	10509.37
622.812	10549.82
623.168	10587.56
623.523	10513.89
623.879	10629.37
624.234	10549.82
624.589	10559.76
624.945	10576.04
625.3	10577.39
625.655	10536.26
626.01	10577.39
626.365	10586.43
626.72	10601.57
627.075	10571.29
627.43	10525.19
627.785	10546.43
628.14	10459.88
628.495	10559.76
628.85	10517.05
629.205	10416.04
629.559	10545.98
629.914	10471.18
630.269	10488.35
630.623	10489.48
630.978	10469.82
631.332	10472.08
631.687	10548.92
632.041	10456.94
632.396	10445.19
632.75	10459.88
633.104	10369.49
633.459	10342.37
633.813	10312.54
634.167	10309.38
634.521	10340.79
634.875	10330.39
635.229	10250.85
635.583	10232.99
635.937	10245.42
636.291	10312.77
636.645	10278.19
636.999	10234.8
637.352	10306.89
637.706	10177.63
638.06	10222.15
638.413	10247
638.767	10145.76
639.121	10197.74
639.474	10142.37
639.828	10160
640.181	10167.23
640.534	10175.14
640.888	10066.44
641.241	10073.68
641.594	10144.86
641.947	10189.15
642.301	10128.36
642.654	10117.97
643.007	10122.49
643.36	10024.41
643.713	10052.66
644.066	10049.95
644.419	10037.29
644.771	9996.39
645.124	9892.66
645.477	9865.77
645.83	9809.95
646.182	9769.95
646.535	9741.93
646.888	9787.36
647.24	9717.08
647.593	9687.7
647.945	9722.05
648.298	9713.46
648.65	9628.72
649.002	9667.13
649.355	9720.92
649.707	9741.48
650.059	9756.17
650.411	9825.09
650.763	9816.51
651.115	9946.9
651.467	9885.21
651.819	9880.69
652.171	9795.27
652.523	9797.07
652.875	9883.17
653.227	9812.89
653.578	9887.92
653.93	9825.55
654.282	9873.68
654.633	9834.81
654.985	9897.64
655.337	9852.89
655.688	9971.53
656.039	9908.03
656.391	9804.3
656.742	9908.26
657.094	9898.77
657.445	9885.66
657.796	9891.31
658.147	9850.4
658.498	9913.91
658.849	9877.3
659.2	9844.3
659.551	9866
659.902	9942.15
660.253	9893.12
660.604	9907.8
660.955	9908.93
661.306	9890.4
661.656	9877.07
662.007	9894.7
662.358	9882.04
662.708	9873.91
663.059	9912.55
663.409	9837.3
663.76	9979.89
664.11	9949.39
664.461	9865.55
664.811	9925.43
665.161	9926.11
665.511	9883.85
665.862	9936.96
666.212	9876.17
666.562	9942.38
666.912	9882.49
667.262	9875.04
667.612	9878.43
667.962	9953.23
668.312	9885.66
668.662	9898.31
669.011	9890.86
669.361	9833
669.711	9876.17
670.06	9828.71
670.41	9820.35
670.76	9862.16
671.109	9926.11
671.459	9863.96
671.808	9826.9
672.157	9894.7
672.507	9861.7
672.856	9764.53
673.205	9828.71
673.554	9853.12
673.904	9777.19
674.253	9818.77
674.602	9786.68
674.951	9684.53
675.3	9651.99
675.649	9766.34
675.998	9742.84
676.346	9778.32
676.695	9793.23
677.044	9746.9
677.393	9759.33
677.741	9728.37
678.09	9639.11
678.438	9702.39
678.787	9691.76
679.135	9663.29
679.484	9596.63
679.832	9607.25
680.181	9620.58
680.529	9693.8
680.877	9632.78
681.225	9509.85
681.573	9663.97
681.922	9547.81
682.27	9506.23
682.618	9543.29
682.966	9501.26
683.314	9456.97
683.661	9390.53
684.009	9437.76
684.357	9387.14
684.705	9337.65
685.053	9377.42
685.4	9324.32
685.748	9319.8
686.095	9252.68
686.443	9344.88
686.79	9301.72
687.138	9313.24
687.485	9339.46
687.832	9216.3
688.18	9270.31
688.527	9177.88
688.874	9152.8
689.221	9141.95
689.568	9114.38
689.915	9132.01
690.262	9115.28
690.609	9043.87
690.956	9005.91
691.303	8933.59
691.65	8992.12
691.997	8993.03
692.344	8876.65
692.69	8867.38
693.037	8799.36
693.383	8795.52
693.73	8825.57
694.077	8766.59
694.423	8738.8
694.769	8675.07
695.116	8709.42
695.462	8655.63
695.808	8683.66
696.155	8625.58
696.501	8579.93
696.847	8539.03
697.193	8473.27
697.539	8545.35
697.885	8473.94
698.231	8428.75
698.577	8451.35
698.923	8397.56
699.269	8365.7
699.614	8294.74
699.96	8227.17
700.306	8332.48
700.651	8214.29
700.997	8187.62
701.342	8168.64
701.688	8186.27
702.033	8081.86
702.379	8090.68
702.724	8137
703.069	8085.25
703.415	8017.01
703.76	8050.68
704.105	8004.58
704.45	7951.47
704.795	7892.26
705.14	7903.34
705.485	7874.19
705.83	7819.72
706.175	7849.78
706.52	7789.67
706.865	7766.84
707.209	7774.53
707.554	7717.35
707.899	7719.39
708.243	7723.23
708.588	7718.48
708.932	7642.1
709.277	7649.11
709.621	7700.63
709.966	7516
710.31	7576.34
710.654	7501.54
710.998	7517.58
711.342	7532.05
711.687	7506.96
712.031	7460.64
712.375	7420.19
712.719	7419.51
713.063	7445.27
713.407	7467.19
713.75	7367.76
714.094	7458.38
714.438	7396.46
714.782	7392.16
715.125	7320.53
715.469	7400.53
715.812	7273.75
716.156	7265.61
716.499	7236.01
716.843	7279.4
717.186	7221.77
717.53	7281.66
717.873	7309.68
718.216	7216.8
718.559	7210.47
718.902	7150.59
719.246	7146.07
719.589	7110.82
719.932	7121.44
720.275	7128.22
720.617	7126.63
720.96	7030.82
721.303	7080.31
721.646	7113.08
721.989	7020.65
722.331	7093.19
722.674	7033.08
723.016	7063.81
723.359	7037.6
723.701	7055.45
724.044	7038.05
724.386	7040.99
724.729	7037.6
725.071	6994.66
725.413	6968.9
725.755	7033.98
726.097	6998.05
726.439	6970.71
726.782	6957.37
727.124	7032.4
727.465	6968.67
727.807	7014.77
728.149	6955.79
728.491	6934.32
728.833	6984.27
729.175	6934.55
729.516	6916.24
729.858	6874.21
730.199	6963.48
730.541	6883.25
730.882	6912.85
731.224	6923.02
731.565	6908.34
731.906	6963.7
732.248	6903.59
732.589	6905.62
732.93	6848.9
733.271	6884.83
733.612	6870.14
733.953	6919.63
734.294	6875.57
734.635	6891.16
734.976	6847.09
735.317	6853.65
735.658	6940.2
735.999	6866.75
736.339	6876.92
736.68	6846.87
737.021	6913.31
737.361	6872.4
737.702	6956.7
738.042	6893.42
738.383	6865.62
738.723	6932.52
739.063	6920.76
739.404	6908.11
739.744	6926.87
740.084	6908.79
740.424	7019.52
740.764	6932.52
741.104	6954.66
741.444	6937.04
741.784	6955.11
742.124	6999.41
742.464	7014.32
742.804	7055.45
743.143	6997.15
743.483	7076.24
743.823	6999.41
744.162	7045.05
744.502	7104.04
744.841	7083.7
745.181	7088.22
745.52	7082.34
745.86	7170.48
746.199	7151.72
746.538	7184.26
746.877	7259.51
747.216	7285.95
747.556	7265.16
747.895	7350.13
748.234	7373.63
748.573	7371.37
748.911	7427.87
749.25	7466.51
749.589	7467.42
749.928	7597.13
750.267	7636
750.605	7673.96
750.944	7736.79
751.283	7798.71
751.621	7883.22
751.96	7931.36
752.298	7996.89
752.636	8076.89
752.975	8126.83
753.313	8186.49
753.651	8279.37
753.989	8373.83
754.327	8436.88
754.666	8468.97
755.004	8575.64
755.342	8735.86
755.679	8820.6
756.017	8843.65
756.355	9052.91
756.693	9151.67
757.031	9190.54
757.368	9306.69
757.706	9438.89
758.044	9456.52
758.381	9734.93
758.719	9735.83
759.056	9858.31
759.394	9952.55
759.731	10071.42
760.068	10240.9
760.405	10352.99
760.743	10432.08
761.08	10619.88
761.417	10668.46
761.754	10786.2
762.091	10914.33
762.428	11074.78
762.765	11160.65
763.102	11357.94
763.438	11398.16
763.775	11538.04
764.112	11690.36
764.449	11840.41
764.785	11956.56
765.122	11995.89
765.458	12103.45
765.795	12240.85
766.131	12403.78
766.467	12558.36
766.804	12592.03
