Data from hue_22_FLMS001491_00022.txt Node
Date: Tue Feb 07 17:09:51 GMT 2017
User: dcchb
Spectrometer: FLMS00149
Trigger mode: 0
Integration Time (sec): 2.000000E-2
Scans to average: 10
Electric dark correction enabled: true
Nonlinearity correction enabled: false
Boxcar width: 0
XAxis mode: Wavelengths
Number of Pixels in Spectrum: 2048
>>>>>Begin Spectral Data<<<<<
341.393	-17.51
341.776	-17.51
342.16	-17.51
342.543	-48.93
342.927	-58.19
343.31	-72.88
343.693	-68.59
344.077	-69.26
344.46	-40.56
344.843	-52.77
345.226	-41.69
345.61	-47.8
345.993	-20.9
346.376	1.24
346.759	10.73
347.142	20
347.525	42.15
347.908	63.84
348.291	80.79
348.674	90.28
349.057	105.42
349.44	122.82
349.823	144.74
350.206	164.63
350.588	182.71
350.971	203.05
351.354	224.29
351.737	256.38
352.119	275.81
352.502	259.54
352.884	262.7
353.267	273.33
353.65	292.76
354.032	275.13
354.414	312.42
354.797	317.17
355.179	312.87
355.562	316.49
355.944	323.27
356.326	326.43
356.709	343.61
357.091	342.25
357.473	348.8
357.855	351.97
358.238	331.86
358.62	347
359.002	337.28
359.384	342.02
359.766	338.86
360.148	356.49
360.53	352.87
360.912	341.57
361.294	341.57
361.676	318.75
362.057	331.4
362.439	332.31
362.821	316.94
363.203	327.11
363.584	338.64
363.966	319.88
364.348	340.44
364.729	313.1
365.111	317.17
365.493	318.52
365.874	316.04
366.256	321.91
366.637	321.23
367.019	295.92
367.4	334.12
367.781	310.16
368.163	324.4
368.544	326.88
368.925	319.88
369.306	329.82
369.688	306.77
370.069	314.68
370.45	307.45
370.831	327.34
371.212	309.03
371.593	323.27
371.974	299.99
372.355	301.57
372.736	302.93
373.117	317.84
373.498	316.71
373.879	318.75
374.26	311.07
374.641	310.61
375.021	308.13
375.402	312.87
375.783	311.74
376.163	318.3
376.544	347.9
376.925	341.12
377.305	338.18
377.686	359.2
378.066	334.57
378.447	331.4
378.827	351.74
379.208	347.67
379.588	311.07
379.968	320.78
380.349	346.77
380.729	343.15
381.109	342.93
381.489	334.12
381.87	357.62
382.25	333.89
382.63	337.96
383.01	347.22
383.39	324.62
383.77	332.99
384.15	331.86
384.53	369.82
384.91	315.13
385.29	376.83
385.67	358.75
386.049	353.32
386.429	357.62
386.809	346.54
387.189	365.3
387.568	370.5
387.948	370.5
388.328	363.04
388.707	362.36
389.087	370.05
389.466	371.85
389.846	361.46
390.225	357.39
390.605	350.61
390.984	370.27
391.363	357.39
391.743	371.18
392.122	381.35
392.501	379.54
392.881	364.62
393.26	387.9
393.639	375.7
394.018	376.15
394.397	377.05
394.776	413.21
395.155	387.67
395.534	381.12
395.913	396.49
396.292	379.54
396.671	403.04
397.05	400.78
397.429	397.16
397.808	401.46
398.186	399.42
398.565	386.77
398.944	399.88
399.323	398.29
399.701	389.93
400.08	374.34
400.458	412.31
400.837	396.26
401.215	398.29
401.594	418.63
401.972	386.09
402.351	409.59
402.729	417.96
403.107	417.05
403.486	414.11
403.864	406.66
404.242	431.51
404.62	425.64
404.999	401.91
405.377	440.33
405.755	400.78
406.133	411.85
406.511	417.96
406.889	436.03
407.267	443.94
407.645	453.43
408.023	449.59
408.401	424.51
408.779	442.36
409.156	441.46
409.534	464.96
409.912	441.01
410.29	442.14
410.667	440.1
411.045	460.21
411.422	462.47
411.8	481.68
412.178	490.27
412.555	487.56
412.933	477.84
413.31	468.35
413.687	481.91
414.065	483.04
414.442	460.44
414.819	481.46
415.197	491.17
415.574	476.26
415.951	482.81
416.328	506.09
416.705	487.56
417.082	481
417.46	512.42
417.837	520.33
418.214	508.8
418.591	520.78
418.967	506.54
419.344	536.6
419.721	533.66
420.098	500.66
420.475	518.52
420.852	522.59
421.228	521.23
421.605	520.33
421.982	510.38
422.358	551.06
422.735	534.79
423.111	545.41
423.488	557.61
423.864	551.74
424.241	539.53
424.617	535.47
424.994	558.06
425.37	564.84
425.746	567.56
426.123	570.95
426.499	561
426.875	557.84
427.251	577.27
427.627	557.84
428.003	599.87
428.379	605.07
428.756	618.18
429.132	608.91
429.507	614.79
429.883	616.37
430.259	622.24
430.635	621.79
431.011	621.34
431.387	635.58
431.763	646.88
432.138	650.04
432.514	646.65
432.89	658.4
433.265	664.28
433.641	647.1
434.016	671.06
434.392	671.73
434.767	674.45
435.143	690.26
435.518	690.49
435.894	681
436.269	694.56
436.644	695.24
437.02	708.79
437.395	723.94
437.77	727.78
438.145	734.33
438.52	723.26
438.895	721.9
439.271	731.17
439.646	727.78
440.021	777.95
440.395	744.05
440.77	757.61
441.145	763.93
441.52	736.82
441.895	765.52
442.27	773.65
442.645	759.87
443.019	793.76
443.394	775.23
443.769	794.22
444.143	761.67
444.518	800.54
444.892	779.3
445.267	815.46
445.641	800.77
446.016	793.99
446.39	818.62
446.764	829.02
447.139	843.71
447.513	812.52
447.887	828.34
448.262	822.46
448.636	833.54
449.01	859.07
449.384	838.74
449.758	888.45
450.132	843.93
450.506	868.79
450.88	867.21
451.254	883.25
451.628	876.93
452.002	919.18
452.376	898.39
452.75	903.37
453.123	917.38
453.497	921.44
453.871	929.81
454.244	924.83
454.618	948.11
454.992	935.68
455.365	951.27
455.739	967.32
456.112	989.92
456.486	1005.96
456.859	970.93
457.232	1012.29
457.606	983.36
457.979	1012.97
458.352	1031.05
458.725	1033.31
459.099	1052.51
459.472	1073.31
459.845	1073.31
460.218	1080.54
460.591	1063.14
460.964	1106.52
461.337	1127.09
461.71	1131.61
462.083	1144.49
462.456	1153.98
462.829	1151.95
463.201	1146.52
463.574	1155.79
463.947	1175.68
464.32	1222
464.692	1224.26
465.065	1223.36
465.438	1237.14
465.81	1268.55
466.183	1255.45
466.555	1277.37
466.928	1292.28
467.3	1292.73
467.672	1333.86
468.045	1369.12
468.417	1375.22
468.789	1369.57
469.161	1412.96
469.534	1421.32
469.906	1430.13
470.278	1463.35
470.65	1478.04
471.022	1508.1
471.394	1497.02
471.766	1534.31
472.138	1550.35
472.51	1554.2
472.882	1600.52
473.253	1613.18
473.625	1640.75
473.997	1712.38
474.369	1701.99
474.74	1690.24
475.112	1761.87
475.484	1774.98
475.855	1814.08
476.227	1833.96
476.598	1864.92
476.97	1859.27
477.341	1920.29
477.713	1963.68
478.084	1957.35
478.455	2020.4
478.827	2054.75
479.198	2109.89
479.569	2129.32
479.94	2221.98
480.311	2203.44
480.682	2254.97
481.053	2296.55
481.424	2358.24
481.795	2394.63
482.166	2434.4
482.537	2452.03
482.908	2519.37
483.279	2542.42
483.65	2573.6
484.021	2662.87
484.391	2687.95
484.762	2721.62
485.133	2805.69
485.503	2780.38
485.874	2855.63
486.244	2882.07
486.615	2955.97
486.985	2982.63
487.356	3035.51
487.726	3079.13
488.097	3134.72
488.467	3136.98
488.837	3216.53
489.207	3254.94
489.578	3294.94
489.948	3393.7
490.318	3405
490.688	3440.47
491.058	3517.08
491.428	3549.17
491.798	3608.83
492.168	3651.54
492.538	3712.33
492.908	3669.17
493.278	3784.65
493.648	3777.19
494.017	3854.02
494.387	3888.6
494.757	3943.06
495.126	3970.4
495.496	4004.98
495.866	4026.67
496.235	4071.87
496.605	4141.92
496.974	4169.72
497.344	4143.05
497.713	4251.75
498.082	4295.82
498.452	4285.42
498.821	4332.88
499.19	4324.75
499.559	4392.54
499.928	4432.99
500.298	4473.22
500.667	4518.64
501.036	4510.73
501.405	4587.11
501.774	4553.67
502.143	4582.37
502.512	4598.18
502.88	4579.65
503.249	4696.03
503.618	4696.03
503.987	4692.64
504.356	4762.02
504.724	4793.43
505.093	4790.5
505.462	4811.29
505.83	4848.12
506.199	4865.75
506.567	4927.67
506.936	4959.53
507.304	4958.85
507.672	5015.35
508.041	5046.31
508.409	5072.52
508.777	5088.11
509.145	5135.57
509.514	5103.48
509.882	5127.21
510.25	5181.45
510.618	5212.18
510.986	5188.23
511.354	5274.55
511.722	5274.1
512.09	5301.44
512.458	5353.42
512.826	5343.7
513.193	5398.84
513.561	5419.41
513.929	5402.23
514.297	5496.01
514.664	5505.5
515.032	5512.74
515.4	5547.31
515.767	5573.07
516.135	5609.23
516.502	5581.89
516.869	5650.81
517.237	5673.18
517.604	5634.77
517.972	5752.28
518.339	5733.75
518.706	5727.42
519.073	5784.59
519.44	5762
519.808	5839.73
520.175	5791.6
520.542	5884.7
520.909	5897.13
521.276	5937.13
521.643	5964.93
522.009	6048.32
522.376	6049.9
522.743	6068.65
523.11	6121.99
523.477	6097.13
523.843	6136.9
524.21	6183
524.577	6222.77
524.943	6242.43
525.31	6335.77
525.676	6335.99
526.043	6326.27
526.409	6362.21
526.776	6428.64
527.142	6498.02
527.508	6550.45
527.874	6539.15
528.241	6564.01
528.607	6603.33
528.973	6630.22
529.339	6649.2
529.705	6700.5
530.071	6757.45
530.437	6768.3
530.803	6835.19
531.169	6825.47
531.535	6827.05
531.901	6803.32
532.267	6844.45
532.632	6995.41
532.998	6956.77
533.364	7002.64
533.73	7015.97
534.095	7098.68
534.461	7120.38
534.826	7177.55
535.192	7196.08
535.557	7169.19
535.923	7250.54
536.288	7193.37
536.653	7330.77
537.019	7292.12
537.384	7365.8
537.749	7373.7
538.114	7382.97
538.479	7420.48
538.845	7432.01
539.21	7403.31
539.575	7477.2
539.94	7548.39
540.305	7547.71
540.67	7627.03
541.034	7599.01
541.399	7593.81
541.764	7645.56
542.129	7709.51
542.494	7669.97
542.858	7712.9
543.223	7756.29
543.587	7874.93
543.952	7820.47
544.316	7861.38
544.681	7895.5
545.045	7949.06
545.41	7998.09
545.774	7964.88
546.138	8019.56
546.503	8055.72
546.867	8057.08
547.231	8122.61
547.595	8125.1
547.959	8247.13
548.324	8175.27
548.688	8198.77
549.052	8238.31
549.416	8284.87
549.779	8316.96
550.143	8291.87
550.507	8370.51
550.871	8442.6
551.235	8456.84
551.599	8475.37
551.962	8466.56
552.326	8493.45
552.689	8530.06
553.053	8521.92
553.417	8528.25
553.78	8674.69
554.143	8642.37
554.507	8660.22
554.87	8710.17
555.234	8781.13
555.597	8768.24
555.96	8754.69
556.323	8803.95
556.686	8811.41
557.05	8769.15
557.413	8907
557.776	8941.35
558.139	8953.55
558.502	9009.59
558.865	8988.13
559.228	9086.2
559.59	9134.11
559.953	9115.13
560.316	9238.97
560.679	9248.91
561.041	9236.48
561.404	9304.95
561.767	9336.59
562.129	9269.47
562.492	9375.01
562.854	9382.92
563.217	9380.88
563.579	9467.21
563.941	9497.26
564.304	9499.52
564.666	9558.28
565.028	9577.94
565.39	9629.92
565.753	9732.74
566.115	9689.58
566.477	9745.62
566.839	9765.28
567.201	9861.1
567.563	9909.91
567.925	9934.54
568.287	9923.69
568.648	9917.37
569.01	9987.2
569.372	10037.59
569.734	10018.15
570.095	10132.95
570.457	10158.26
570.819	10106.51
571.18	10199.62
571.542	10317.36
571.903	10279.39
572.265	10384.02
572.626	10354.19
572.987	10395.32
573.349	10488.88
573.71	10499.5
574.071	10589.44
574.432	10662.66
574.794	10797.8
575.155	10840.05
575.516	10872.14
575.877	10931.35
576.238	10946.72
576.599	11078.24
576.96	11082.76
577.32	11124.57
577.681	11196.88
578.042	11291.57
578.403	11416.08
578.763	11512.13
579.124	11593.48
579.485	11748.73
579.845	11785.57
580.206	11934.94
580.566	12038.67
580.927	12102.85
581.287	12270.75
581.648	12386.68
582.008	12598.65
582.368	12676.84
582.728	12837.97
583.089	13014.46
583.449	13059.66
583.809	13266.2
584.169	13476.59
584.529	13562.92
584.889	13884.27
585.249	13908
585.609	14071.16
585.969	14441.99
586.329	14536
586.688	14820.97
587.048	14978.02
587.408	15215.31
587.768	15436.32
588.127	15620.95
588.487	15850.09
588.846	16253.02
589.206	16389.06
589.565	16626.79
589.925	16946.33
590.284	17205.08
590.643	17565.3
591.003	17764.84
591.362	17927.1
591.721	18378.84
592.08	18605.73
592.44	18901.31
592.799	19228.53
593.158	19422.88
593.517	19700.39
593.876	20098.79
594.235	20282.97
594.593	20567.48
594.952	20951.65
595.311	21246.33
595.67	21515.03
596.029	22018.97
596.387	22368.34
596.746	22575.56
597.104	22771.49
597.463	23173.74
597.822	23515.65
598.18	23766.72
598.538	24119.25
598.897	24661.39
599.255	24627.26
599.613	25333.91
599.972	25452.1
600.33	25774.35
600.688	26024.97
601.046	26517.61
601.404	26904.49
601.762	27029.46
602.12	27483.01
602.478	27758.93
602.836	28056.55
603.194	28100.62
603.552	28671
603.91	28746.93
604.268	29186.24
604.625	29361.6
604.983	29750.97
605.341	29895.6
605.698	30356.15
606.056	30624.62
606.413	30778.29
606.771	31235.22
607.128	31411.94
607.485	31577.59
607.843	31833.85
608.2	32323.1
608.557	32643.1
608.914	32634.74
609.272	33017.55
609.629	33354.26
609.986	33680.36
610.343	33739.79
610.7	34047.13
611.057	34385.65
611.414	34575.7
611.771	34497.29
612.127	34924.17
612.484	35127.55
612.841	35450.48
613.198	35474.43
613.554	35695.45
613.911	36116
614.267	36313.96
614.624	36324.81
614.98	36696.78
615.337	36941.06
615.693	37044.56
616.05	37185.35
616.406	37624.43
616.762	37503.99
617.118	37728.84
617.475	37923.18
617.831	38167.25
618.187	38251.08
618.543	38633
618.899	38755.25
619.255	38884.97
619.611	38991.86
619.967	39370.83
620.323	39571.73
620.678	39315.92
621.034	39375.8
621.39	39696.7
621.746	39699.41
622.101	40190.24
622.457	39897.37
622.812	40026.41
623.168	40225.95
623.523	40448.31
623.879	40685.37
624.234	40623
624.589	40653.06
624.945	40644.92
625.3	40779.38
625.655	40917.91
626.01	41116.77
626.365	41200.39
626.72	41115.64
627.075	41271.8
627.43	41365.13
627.785	41335.75
628.14	41387.95
628.495	41545.91
628.85	41433.83
629.205	41480.15
629.559	41729.19
629.914	41514.73
630.269	41717.66
630.623	41680.37
630.978	41721.28
631.332	41982.51
631.687	42041.72
632.041	41908.62
632.396	42076.97
632.75	41877.43
633.104	42081.04
633.459	41947.26
633.813	42053.92
634.167	42065.9
634.521	42130.98
634.875	42201.72
635.229	42281.49
635.583	41882.18
635.937	41921.5
636.291	41995.17
636.645	42189.06
636.999	42036.75
637.352	42248.49
637.706	41976.64
638.06	42164.43
638.413	42081.94
638.767	42117.2
639.121	41969.86
639.474	41916.75
639.828	42001.27
640.181	42003.3
640.534	41980.93
640.888	41980.93
641.241	41780.03
641.594	42034.71
641.947	42099.35
642.301	41974.6
642.654	41942.29
643.007	41969.86
643.36	42095.73
643.713	42015.05
644.066	42121.04
644.419	41778.22
644.771	41605.57
645.124	41349.53
645.477	41168.97
645.83	41009.66
646.182	40926.95
646.535	40800.62
646.888	40991.58
647.24	40695.09
647.593	40976.21
647.945	40935.76
648.298	40793.84
648.65	40799.27
649.002	40493.29
649.355	40692.15
649.707	40740.96
650.059	41011.46
650.411	41253.27
650.763	41481.06
651.115	41724.44
651.467	41585.69
651.819	41692.58
652.171	41585.91
652.523	41399.93
652.875	41592.01
653.227	41316.77
653.578	41561.96
653.93	41507.95
654.282	41426.59
654.633	41421.62
654.985	41451.45
655.337	41467.95
655.688	41469.31
656.039	41624.33
656.391	41297.11
656.742	41429.76
657.094	41369.19
657.445	41578
657.796	41376.2
658.147	41368.97
658.498	41294.39
658.849	41401.06
659.2	41377.56
659.551	41313.15
659.902	41348.63
660.253	41321.29
660.604	41380.27
660.955	41194.51
661.306	41275.41
661.656	41318.12
662.007	41239.03
662.358	41278.12
662.708	41272.93
663.059	41385.69
663.409	41009.66
663.76	41312.93
664.11	41233.15
664.461	41375.75
664.811	41264.11
665.161	41161.52
665.511	40986.15
665.862	41166.94
666.212	41193.15
666.562	41254.4
666.912	41228.18
667.262	41114.06
667.612	41115.64
667.962	41155.64
668.312	41104.12
668.662	41294.17
669.011	41202.19
669.361	41057.56
669.711	41018.7
670.06	41011.69
670.41	40922.2
670.76	40872.26
671.109	41005.36
671.459	40916.55
671.808	41026.38
672.157	41045.14
672.507	40890.11
672.856	40862.32
673.205	41030.22
673.554	40973.27
673.904	40862.09
674.253	41127.17
674.602	40916.1
674.951	40329.22
675.3	40099.17
675.649	40789.1
675.998	40714.3
676.346	40776.22
676.695	40899.6
677.044	40662.77
677.393	40827.06
677.741	40719.95
678.09	40813.5
678.438	40543
678.787	40545.71
679.135	40602.44
679.484	40463.46
679.832	40544.36
680.181	40383.68
680.529	40491.48
680.877	40417.36
681.225	40226.17
681.573	40540.97
681.922	40303.69
682.27	40045.61
682.618	40119.96
682.966	39982.79
683.314	40199.51
683.661	39990.25
684.009	39798.61
684.357	39775.79
684.705	39792.74
685.053	39722.46
685.4	39764.49
685.748	39590.03
686.095	39497.83
686.443	39424.61
686.79	39309.14
687.138	39500.32
687.485	39487.66
687.832	39371.96
688.18	39404.5
688.527	39086.32
688.874	39007
689.221	38958.18
689.568	38920.67
689.915	38831.63
690.262	38885.42
690.609	38691.3
690.956	38591.64
691.303	38661.92
691.65	38332.66
691.997	38495.37
692.344	38044.99
692.69	38118.88
693.037	38212.67
693.383	37872.11
693.73	37956.86
694.077	37770.65
694.423	37825.11
694.769	37730.19
695.116	37655.62
695.462	37708.73
695.808	37524.32
696.155	37514.83
696.501	37174.28
696.847	37238.46
697.193	36893.15
697.539	37118.46
697.885	36818.81
698.231	36713.72
698.577	36753.72
698.923	36768.86
699.269	36571.35
699.614	36386.27
699.96	36278.26
700.306	36290.91
700.651	36133.85
700.997	36017.25
701.342	36031.71
701.688	36075.32
702.033	35918.04
702.379	35801.21
702.724	35773.64
703.069	35723.02
703.415	35488.45
703.76	35467.65
704.105	35516.02
704.45	35275.57
704.795	35201
705.14	35015.69
705.485	35132.75
705.83	34906.99
706.175	34998.74
706.52	34889.14
706.865	34705.42
707.209	34593.78
707.554	34546.1
707.899	34703.38
708.243	34407.8
708.588	34330.51
708.932	34163.73
709.277	34168.25
709.621	34139.78
709.966	33913.12
710.31	34010.07
710.654	33661.6
710.998	33857.53
711.342	33876.51
711.687	33637.87
712.031	33487.82
712.375	33414.6
712.719	33569.63
713.063	33470.19
713.407	33483.07
713.75	33427.03
714.094	33312.46
714.438	33213.03
714.782	33186.81
715.125	33030.43
715.469	33140.03
715.812	32930.77
716.156	32815.3
716.499	32831.11
716.843	32915.63
717.186	32610.1
717.53	32772.13
717.873	32833.37
718.216	32641.74
718.559	32627.28
718.902	32308.42
719.246	32468.41
719.589	32444.68
719.932	32159.49
720.275	32192.49
720.617	32264.35
720.96	32274.52
721.303	32151.58
721.646	32062.32
721.989	31905.71
722.331	31969.44
722.674	31799.73
723.016	31865.49
723.359	31757.47
723.701	31806.06
724.044	31554.54
724.386	31472.73
724.729	31531.71
725.071	31495.78
725.413	31425.5
725.755	31533.52
726.097	31282.45
726.439	31085.4
726.782	31092.18
727.124	31375.33
727.465	31162.23
727.807	31150.48
728.149	31019.64
728.491	30966.53
728.833	31014.44
729.175	30946.42
729.516	30863.26
729.858	30812.18
730.199	30840.66
730.541	30713.66
730.882	30629.14
731.224	30723.15
731.565	30564.51
731.906	30545.98
732.248	30597.95
732.589	30419.88
732.93	30194.12
733.271	30475.02
733.612	30333.1
733.953	30329.26
734.294	30131.75
734.635	30195.03
734.976	30230.96
735.317	29990.06
735.658	30088.59
735.999	30075.93
736.339	30066.89
736.68	30037.97
737.021	29978.53
737.361	29772.44
737.702	30048.36
738.042	29858.99
738.383	29724.76
738.723	29770.86
739.063	29709.84
739.404	29760.01
739.744	29692.67
740.084	29515.04
740.424	29588.94
740.764	29524.08
741.104	29691.31
741.444	29356.86
741.784	29335.84
742.124	29424.42
742.464	29378.32
742.804	29364.31
743.143	29150.98
743.483	29369.51
743.823	29029.18
744.162	29045.45
744.502	29078.22
744.841	29052.46
745.181	29077.99
745.52	28965.68
745.86	29001.84
746.199	28886.36
746.538	28870.99
746.877	28908.96
747.216	28838
747.556	28748.96
747.895	28708.96
748.234	28749.41
748.573	28640.04
748.911	28619.93
749.25	28482.53
749.589	28524.56
749.928	28482.98
750.267	28496.31
750.605	28427.16
750.944	28379.93
751.283	28315.3
751.621	28381.29
751.96	28163.89
752.298	28150.79
752.636	28311.91
752.975	27993.28
753.313	27848.65
753.651	28116.21
753.989	27897.68
754.327	27812.26
754.666	27612.27
755.004	27651.14
755.342	27756.22
755.679	27733.85
756.017	27548.99
756.355	27552.61
756.693	27398.71
757.031	27499.95
757.368	27139.06
757.706	27228.78
758.044	27152.85
758.381	27310.36
758.719	27158.72
759.056	27147.42
759.394	27001.66
759.731	26932.06
760.068	26828.33
760.405	26757.38
