Data from hue_150_FLMS001491_00034.txt Node
Date: Tue Feb 07 16:53:57 GMT 2017
User: dcchb
Spectrometer: FLMS00149
Trigger mode: 0
Integration Time (sec): 2.000000E-2
Scans to average: 10
Electric dark correction enabled: true
Nonlinearity correction enabled: false
Boxcar width: 0
XAxis mode: Wavelengths
Number of Pixels in Spectrum: 2048
>>>>>Begin Spectral Data<<<<<
341.393	0.95
341.776	0.95
342.16	0.95
342.543	-69.11
342.927	-66.17
343.31	-63.23
343.693	-63.23
344.077	-60.75
344.46	-50.13
344.843	-46.28
345.226	-47.64
345.61	-4.7
345.993	-34.98
346.376	-3.12
346.759	-7.64
347.142	7.95
347.525	36.2
347.908	51.57
348.291	88.18
348.674	87.5
349.057	110.32
349.44	124.33
349.823	137.44
350.206	190.09
350.588	195.52
350.971	210.21
351.354	214.27
351.737	229.19
352.119	242.75
352.502	265.8
352.884	278
353.267	276.42
353.65	286.59
354.032	264.22
354.414	334.04
354.797	296.76
355.179	302.63
355.562	321.39
355.944	321.39
356.326	337.66
356.709	338.79
357.091	332.01
357.473	350.77
357.855	340.37
358.238	353.71
358.62	347.38
359.002	338.34
359.384	332.24
359.766	325.68
360.148	330.2
360.53	328.62
360.912	345.8
361.294	343.54
361.676	348.73
362.057	342.18
362.439	322.52
362.821	326.14
363.203	323.42
363.584	329.07
363.966	319.13
364.348	315.74
364.729	339.69
365.111	304.44
365.493	322.07
365.874	325.91
366.256	327.49
366.637	327.27
367.019	314.38
367.4	308.06
367.781	303.54
368.163	325.01
368.544	331.79
368.925	318.23
369.306	319.81
369.688	304.89
370.069	304.89
370.45	301.5
370.831	294.05
371.212	307.38
371.593	329.75
371.974	308.96
372.355	314.84
372.736	316.42
373.117	326.14
373.498	315.74
373.879	325.91
374.26	357.77
374.641	303.76
375.021	304.89
375.402	329.75
375.783	320.03
376.163	335.63
376.544	309.41
376.925	329.3
377.305	332.01
377.686	341.95
378.066	329.75
378.447	329.3
378.827	336.08
379.208	336.3
379.588	332.91
379.968	331.56
380.349	316.87
380.729	331.56
381.109	331.11
381.489	343.99
381.87	345.34
382.25	322.29
382.63	337.66
383.01	325.23
383.39	341.5
383.77	310.99
384.15	353.48
384.53	335.85
384.91	354.84
385.29	360.03
385.67	354.38
386.049	354.38
386.429	348.06
386.809	354.84
387.189	370.2
387.568	340.15
387.948	379.69
388.328	353.93
388.707	355.29
389.087	353.93
389.466	359.81
389.846	372.01
390.225	369.98
390.605	353.25
390.984	373.37
391.363	368.17
391.743	379.47
392.122	372.01
392.501	360.03
392.881	387.6
393.26	385.57
393.639	368.62
394.018	382.41
394.397	380.6
394.776	404.33
395.155	386.92
395.534	387.83
395.913	368.17
396.292	388.73
396.671	394.61
397.05	381.73
397.429	379.24
397.808	391.44
398.186	378.79
398.565	395.74
398.944	407.04
399.323	410.43
399.701	418.56
400.08	395.96
400.458	395.06
400.837	382.86
401.215	414.49
401.594	406.36
401.972	426.25
402.351	418.34
402.729	419.01
403.107	422.18
403.486	400.48
403.864	434.83
404.242	421.27
404.62	422.63
404.999	429.86
405.377	427.15
405.755	420.82
406.133	421.27
406.511	431.44
406.889	435.06
407.267	439.13
407.645	437.09
408.023	453.14
408.401	445.91
408.779	463.31
409.156	458.79
409.534	460.14
409.912	449.3
410.29	468.73
410.667	471.22
411.045	461.05
411.422	472.35
411.8	489.3
412.178	496.75
412.555	474.61
412.933	502.63
413.31	505.79
413.687	506.24
414.065	492.68
414.442	501.72
414.819	491.55
415.197	507.83
415.574	532.68
415.951	517.77
416.328	511.67
416.705	516.64
417.082	518.9
417.46	540.82
417.837	510.54
418.214	510.76
418.591	520.25
418.967	539.92
419.344	545.56
419.721	555.06
420.098	559.12
420.475	541.5
420.852	559.58
421.228	582.85
421.605	540.59
421.982	558.22
422.358	558.67
422.735	565
423.111	576.07
423.488	580.59
423.864	576.52
424.241	578.56
424.617	596.41
424.994	595.51
425.37	582.4
425.746	603.19
426.123	613.59
426.499	593.93
426.875	632.57
427.251	621.04
427.627	631.89
428.003	654.49
428.379	623.98
428.756	651.78
429.132	659.91
429.507	648.39
429.883	654.49
430.259	668.05
430.635	682.74
431.011	657.65
431.387	689.97
431.763	694.94
432.138	682.28
432.514	699.91
432.89	684.77
433.265	738.1
433.641	708.5
434.016	740.81
434.392	726.8
434.767	754.6
435.143	747.59
435.518	748.27
435.894	751.21
436.269	758.21
436.644	759.57
437.02	768.84
437.395	759.34
437.77	797.76
438.145	804.54
438.52	792.79
438.895	794.6
439.271	808.16
439.646	814.26
440.021	839.79
440.395	849.51
440.77	803.19
441.145	839.57
441.52	872.56
441.895	840.25
442.27	859.23
442.645	874.14
443.019	864.2
443.394	853.81
443.769	879.79
444.143	854.48
444.518	905.1
444.892	897.65
445.267	927.48
445.641	896.97
446.016	907.36
446.39	937.42
446.764	935.61
447.139	941.03
447.513	946.01
447.887	961.6
448.262	960.92
448.636	931.77
449.01	955.72
449.384	983.29
449.758	974.48
450.132	983.07
450.506	998.66
450.88	1020.81
451.254	1007.47
451.628	995.72
452.002	1033.46
452.376	1038.43
452.75	1042.5
453.123	1052.9
453.497	1068.71
453.871	1086.57
454.244	1087.7
454.618	1103.74
454.992	1097.64
455.365	1111.65
455.739	1135.83
456.112	1151.88
456.486	1118.66
456.859	1165.44
457.232	1181.48
457.606	1205.21
457.979	1186.23
458.352	1228.71
458.725	1228.94
459.099	1240.46
459.472	1256.51
459.845	1283.4
460.218	1296.28
460.591	1317.75
460.964	1323.17
461.337	1328.82
461.71	1355.49
462.083	1371.98
462.456	1374.02
462.829	1418.08
463.201	1419.44
463.574	1425.54
463.947	1430.51
464.32	1497.86
464.692	1495.82
465.065	1535.6
465.438	1504.41
465.81	1569.49
466.183	1577.4
466.555	1609.27
466.928	1638.64
467.3	1643.84
467.672	1693.33
468.045	1695.14
468.417	1706.89
468.789	1744.4
469.161	1800.67
469.534	1798.87
469.906	1865.98
470.278	1890.61
470.65	1885.64
471.022	1932.42
471.394	1989.14
471.766	1976.04
472.138	2041.8
472.51	2154.34
472.882	2146.2
473.253	2182.81
473.625	2232.07
473.997	2276.14
474.369	2304.84
474.74	2352.97
475.112	2366.99
475.484	2496.25
475.855	2522.01
476.227	2572.63
476.598	2592.29
476.97	2706.41
477.341	2730.14
477.713	2846.75
478.084	2886.29
478.455	3024.14
478.827	3034.54
479.198	3138.49
479.569	3203.12
479.94	3325.6
480.311	3361.76
480.682	3493.51
481.053	3578.93
481.424	3650.12
481.795	3726.05
482.166	3880.84
482.537	3919.49
482.908	4050.78
483.279	4108.41
483.65	4237.45
484.021	4390.89
484.391	4481.28
484.762	4570.09
485.133	4700.48
485.503	4796.53
485.874	4904.77
486.244	5055.73
486.615	5152.68
486.985	5294.59
487.356	5435.83
487.726	5505.43
488.097	5708.82
488.467	5744.07
488.837	5980.68
489.207	6097.74
489.578	6267.45
489.948	6332.76
490.318	6518.74
490.688	6563.03
491.058	6770.26
491.428	6899.07
491.798	7102
492.168	7221.77
492.538	7274.43
492.908	7418.15
493.278	7611.59
493.648	7664.7
494.017	7822.44
494.387	7952.83
494.757	8111.92
495.126	8238.24
495.496	8307.62
495.866	8512.59
496.235	8542.42
496.605	8677.33
496.974	8903.54
497.344	8930.2
497.713	9039.35
498.082	9209.74
498.452	9316.18
498.821	9446.57
499.19	9498.1
499.559	9623.97
499.928	9769.5
500.298	9861.48
500.667	10015.37
501.036	9989.16
501.405	10147.8
501.774	10202.94
502.143	10244.07
502.512	10407
502.88	10534.68
503.249	10558.41
503.618	10670.5
503.987	10650.84
504.356	10783.49
504.724	10935.35
505.093	10957.49
505.462	11037.04
505.83	11110.71
506.199	11118.17
506.567	11326.75
506.936	11348.9
507.304	11470.93
507.672	11513.41
508.041	11592.73
508.409	11619.17
508.777	11686.97
509.145	11760.64
509.514	11812.39
509.882	11959.05
510.25	11991.14
510.618	12010.8
510.986	12024.58
511.354	12229.1
511.722	12299.83
512.09	12407.85
512.458	12357.23
512.826	12402.43
513.193	12492.14
513.561	12461.64
513.929	12551.12
514.297	12666.15
514.664	12717.45
515.032	12774.85
515.4	12845.13
515.767	12805.58
516.135	12890.78
516.502	12764
516.869	13021.17
517.237	13028.63
517.604	12936.88
517.972	13111.11
518.339	13106.59
518.706	13152.69
519.073	13164.89
519.44	13167.83
519.808	13226.14
520.175	13196.98
520.542	13358.11
520.909	13441.04
521.276	13389.29
521.643	13446.92
522.009	13496.64
522.376	13534.15
522.743	13592
523.11	13544.54
523.477	13743.86
523.843	13721.26
524.21	13782.96
524.577	13796.06
524.943	13875.38
525.31	13817.98
525.676	13910.41
526.043	13938.21
526.409	13953.35
526.776	14051.88
527.142	14045.77
527.508	14061.82
527.874	14067.7
528.241	14079.67
528.607	14158.77
528.973	14140.46
529.339	14157.64
529.705	14122.83
530.071	14247.35
530.437	14224.53
530.803	14239.22
531.169	14239.67
531.535	14192.21
531.901	14249.16
532.267	14205.54
532.632	14221.82
532.998	14189.5
533.364	14215.04
533.73	14140.69
534.095	14235.6
534.461	14201.48
534.826	14236.5
535.192	14199.89
535.557	14256.39
535.923	14198.54
536.288	14213.45
536.653	14117.86
537.019	14075.6
537.384	14093.91
537.749	14060.92
538.114	14104.76
538.479	14065.66
538.845	14055.94
539.21	13898.89
539.575	13896.85
539.94	13924.65
540.305	13911.32
540.67	13834.03
541.034	13817.98
541.399	13851.43
541.764	13852.11
542.129	13857.31
542.494	13805.33
542.858	13820.24
543.223	13751.55
543.587	13711.55
543.952	13685.56
544.316	13701.38
544.681	13555.17
545.045	13662.51
545.41	13647.82
545.774	13515.17
546.138	13489.18
546.503	13537.99
546.867	13367.83
547.231	13388.39
547.595	13433.59
547.959	13429.07
548.324	13310.65
548.688	13350.2
549.052	13323.53
549.416	13245.57
549.779	13143.65
550.143	13183.42
550.507	13190.66
550.871	13193.14
551.235	13111.56
551.599	13166.93
551.962	13050.55
552.326	13042.86
552.689	13110.66
553.053	12994.5
553.417	13001.51
553.78	13084.67
554.143	12988.85
554.507	13002.19
554.87	13072.69
555.234	13026.59
555.597	12928.06
555.96	12960.83
556.323	12971.45
556.686	12889.87
557.05	12894.84
557.413	12898.69
557.776	12881.51
558.139	12931.23
558.502	12897.56
558.865	12830.67
559.228	12990.89
559.59	12923.32
559.953	12857.33
560.316	12949.31
560.679	12879.93
561.041	12888.74
561.404	13034.05
561.767	12940.95
562.129	12909.76
562.492	12987.95
562.854	12910.66
563.217	12839.25
563.579	12909.99
563.941	12953.6
564.304	12990.44
564.666	13012.36
565.028	12917.67
565.39	13026.59
565.753	12997.89
566.115	13058.91
566.477	13004.22
566.839	13093.26
567.201	13072.24
567.563	13161.28
567.925	13124.67
568.287	13146.36
568.648	13132.35
569.01	13146.59
569.372	13172.8
569.734	13181.16
570.095	13200.83
570.457	13191.56
570.819	13246.25
571.18	13197.89
571.542	13261.84
571.903	13240.37
572.265	13255.97
572.626	13302.97
572.987	13198.57
573.349	13343.87
573.71	13371.44
574.071	13349.97
574.432	13320.14
574.794	13450.08
575.155	13367.6
575.516	13337.32
575.877	13415.96
576.238	13390.42
576.599	13338.9
576.96	13408.73
577.32	13455.28
577.681	13402.63
578.042	13430.2
578.403	13459.8
578.763	13425.68
579.124	13475.17
579.485	13490.08
579.845	13493.02
580.206	13519.91
580.566	13450.08
580.927	13483.3
581.287	13429.52
581.648	13401.5
582.008	13468.16
582.368	13443.53
582.728	13488.05
583.089	13400.37
583.449	13407.6
583.809	13469.29
584.169	13392.46
584.529	13380.71
584.889	13475.39
585.249	13385.68
585.609	13312.23
585.969	13368.96
586.329	13392.68
586.688	13388.62
587.048	13339.13
587.408	13348.84
587.768	13389.97
588.127	13361.05
588.487	13281.73
588.846	13395.17
589.206	13257.09
589.565	13166.02
589.925	13333.7
590.284	13253.03
590.643	13321.05
591.003	13324.44
591.362	13309.3
591.721	13232.46
592.08	13242.41
592.44	13264.1
592.799	13272.69
593.158	13228.62
593.517	13240.6
593.876	13287.6
594.235	13218
594.593	13216.42
594.952	13267.94
595.311	13276.98
595.67	13195.18
596.029	13268.17
596.387	13222.97
596.746	13264.1
597.104	13263.87
597.463	13190.66
597.822	13243.99
598.18	13098
598.538	13153.59
598.897	13249.19
599.255	13039.02
599.613	13331.67
599.972	13214.84
600.33	13263.87
600.688	13160.37
601.046	13212.12
601.404	13215.97
601.762	13201.96
602.12	13245.12
602.478	13204.89
602.836	13175.52
603.194	13192.69
603.552	13151.79
603.91	13130.32
604.268	13144.78
604.625	13138.45
604.983	13224.33
605.341	13173.71
605.698	13273.14
606.056	13264.33
606.413	13150.88
606.771	13260.48
607.128	13235.17
607.485	13197.89
607.843	13200.15
608.2	13241.5
608.557	13300.94
608.914	13162.63
609.272	13269.75
609.629	13358.79
609.986	13339.35
610.343	13355.85
610.7	13378.9
611.057	13355.17
611.414	13305.68
611.771	13302.29
612.127	13349.75
612.484	13365.34
612.841	13392.68
613.198	13407.6
613.554	13367.37
613.911	13367.6
614.267	13436.75
614.624	13455.96
614.98	13348.62
615.337	13436.07
615.693	13465.68
616.05	13435.62
616.406	13511.55
616.762	13508.84
617.118	13446.69
617.475	13535.96
617.831	13496.64
618.187	13543.87
618.543	13542.51
618.899	13588.39
619.255	13605.56
619.611	13553.81
619.967	13561.72
620.323	13647.14
620.678	13518.78
621.034	13548.16
621.39	13567.37
621.746	13429.52
622.101	13640.59
622.457	13526.47
622.812	13558.1
623.168	13585.45
623.523	13551.1
623.879	13670.42
624.234	13500.7
624.589	13642.4
624.945	13539.35
625.3	13519.23
625.655	13564.88
626.01	13576.18
626.365	13589.06
626.72	13603.75
627.075	13616.63
627.43	13554.94
627.785	13567.6
628.14	13601.04
628.495	13614.83
628.85	13616.86
629.205	13575.96
629.559	13570.08
629.914	13502.29
630.269	13521.27
630.623	13448.05
630.978	13440.14
631.332	13514.04
631.687	13474.26
632.041	13386.58
632.396	13512
632.75	13432.01
633.104	13506.58
633.459	13414.6
633.813	13381.16
634.167	13387.49
634.521	13405.34
634.875	13448.95
635.229	13326.47
635.583	13217.32
635.937	13274.95
636.291	13168.28
636.645	13207.38
636.999	13275.4
637.352	13267.49
637.706	13229.3
638.06	13229.53
638.413	13115.63
638.767	13246.47
639.121	13150.43
639.474	13140.49
639.828	13132.58
640.181	13080.6
640.534	13119.02
640.888	13064.33
641.241	13015.52
641.594	13074.73
641.947	13070.21
642.301	13007.84
642.654	13029.76
643.007	12973.71
643.36	13019.81
643.713	13012.58
644.066	13055.07
644.419	12923.09
644.771	12909.99
645.124	12877.67
645.477	12770.1
645.83	12728.07
646.182	12601.74
646.535	12580.95
646.888	12675.42
647.24	12497.79
647.593	12627.96
647.945	12510.22
648.298	12493.95
648.65	12570.56
649.002	12548.41
649.355	12569.66
649.707	12615.76
650.059	12573.27
650.411	12811.23
650.763	12774.17
651.115	12927.84
651.467	12900.04
651.819	12878.35
652.171	12818.24
652.523	12782.08
652.875	12738.92
653.227	12817.11
653.578	12853.72
653.93	12813.94
654.282	12837.9
654.633	12728.97
654.985	12760.84
655.337	12853.04
655.688	12804.45
656.039	12829.31
656.391	12705.7
656.742	12736.66
657.094	12743.89
657.445	12909.53
657.796	12805.58
658.147	12757.9
658.498	12766.03
658.849	12765.58
659.2	12824.79
659.551	12786.82
659.902	12872.25
660.253	12798.8
660.604	12809.42
660.955	12776.88
661.306	12901.62
661.656	12837.22
662.007	12848.07
662.358	12808.29
662.708	12879.48
663.059	12794.51
663.409	12746.37
663.76	12895.3
664.11	12832.7
664.461	12848.07
664.811	12858.46
665.161	12851.23
665.511	12818.46
665.862	12860.72
666.212	12891.23
666.562	12958.57
666.912	12769.42
667.262	12768.07
667.612	12806.03
667.962	12902.98
668.312	12866.14
668.662	12821.4
669.011	12900.72
669.361	12930.55
669.711	12836.99
670.06	12837.44
670.41	12808.52
670.76	12873.15
671.109	12830.44
671.459	12746.37
671.808	12765.13
672.157	12738.69
672.507	12696.43
672.856	12756.32
673.205	12702.31
673.554	12830.89
673.904	12686.04
674.253	12797.45
674.602	12681.74
674.951	12517
675.3	12516.1
675.649	12699.14
675.998	12754.96
676.346	12707.05
676.695	12717.9
677.044	12606.04
677.393	12627.28
677.741	12717.45
678.09	12599.03
678.438	12521.3
678.787	12606.94
679.135	12585.7
679.484	12471.13
679.832	12416.44
680.181	12507.96
680.529	12524.23
680.877	12363.79
681.225	12418.02
681.573	12497.57
681.922	12411.24
682.27	12398.36
682.618	12351.81
682.966	12350.23
683.314	12367.4
683.661	12335.31
684.009	12239.49
684.357	12221.87
684.705	12212.38
685.053	12258.48
685.4	12200.4
685.748	12186.16
686.095	12124.7
686.443	12018.94
686.79	12102.55
687.138	12086.96
687.485	12137.8
687.832	12025.04
688.18	11985.49
688.527	11986.85
688.874	11933.74
689.221	11908.88
689.568	11864.14
689.915	11850.8
690.262	11746.4
690.609	11695.1
690.956	11766.74
691.303	11658.72
691.65	11569.46
691.997	11587.99
692.344	11541.43
692.69	11495.79
693.037	11536.24
693.383	11441.1
693.73	11396.8
694.077	11396.13
694.423	11410.82
694.769	11363.13
695.116	11316.35
695.462	11298.95
695.808	11169.24
696.155	11230.93
696.501	11185.28
696.847	11175.12
697.193	11052.63
697.539	11111.39
697.885	11001.56
698.231	10954.33
698.577	10951.17
698.923	10916.82
699.269	10803.83
699.614	10703.26
699.96	10696.48
700.306	10759.99
700.651	10697.39
700.997	10582.81
701.342	10668.69
701.688	10533.1
702.033	10576.04
702.379	10494
702.724	10475.47
703.069	10531.97
703.415	10387.57
703.76	10344.63
704.105	10406.32
704.45	10328.36
704.795	10300.11
705.14	10242.26
705.485	10211.75
705.83	10170.4
706.175	10108.03
706.52	10083.62
706.865	10025.99
707.209	10100.34
707.554	10021.25
707.899	9961.81
708.243	10021.47
708.588	9958.88
708.932	9871.42
709.277	9912.32
709.621	9919.33
709.966	9829.16
710.31	9845.89
710.654	9824.64
710.998	9773.12
711.342	9774.02
711.687	9712.33
712.031	9693.35
712.375	9614.03
712.719	9687.02
713.063	9664.87
713.407	9676.62
713.75	9522.5
714.094	9624.87
714.438	9546.68
714.782	9576.29
715.125	9485.89
715.469	9516.63
715.812	9477.53
716.156	9429.85
716.499	9445.67
716.843	9414.26
717.186	9354.15
717.53	9444.54
717.873	9452.45
718.216	9418.33
718.559	9336.29
718.902	9343.07
719.246	9402.51
719.589	9265.11
719.932	9317.76
720.275	9267.6
720.617	9268.5
720.96	9264.21
721.303	9179.01
721.646	9213.59
721.989	9221.27
722.331	9207.48
722.674	9198.67
723.016	9128.62
723.359	9141.72
723.701	9188.05
724.044	9131.1
724.386	9102.18
724.729	9115.51
725.071	9091.55
725.413	9155.28
725.755	9111.67
726.097	9034.61
726.439	9047.49
726.782	9039.8
727.124	9093.81
727.465	9013.14
727.807	9055.85
728.149	9058.56
728.491	9027.83
728.833	9047.94
729.175	9082.06
729.516	8990.09
729.858	8986.47
730.199	8969.3
730.541	8948.51
730.882	8973.14
731.224	9002.52
731.565	8888.62
731.906	8951.9
732.248	8909.41
732.589	8927.04
732.93	8874.61
733.271	8920.71
733.612	8936.76
733.953	8946.02
734.294	8884.33
734.635	8945.8
734.976	8984.66
735.317	8910.77
735.658	8919.58
735.999	8960.94
736.339	8858.79
736.68	8959.81
737.021	8922.97
737.361	8893.37
737.702	8894.05
738.042	8941.28
738.383	8885.01
738.723	8913.93
739.063	8914.84
739.404	8937.66
739.744	8990.09
740.084	9018.11
740.424	9088.16
740.764	8969.75
741.104	9085.68
741.444	9014.49
741.784	9004.78
742.124	9040.26
742.464	9069.41
742.804	9061.73
743.143	9087.26
743.483	9143.08
743.823	9130.65
744.162	9175.39
744.502	9216.52
744.841	9176.98
745.181	9277.76
745.52	9227.6
745.86	9325.67
746.199	9338.1
746.538	9292.23
746.877	9445.44
747.216	9469.85
747.556	9517.76
747.895	9621.48
748.234	9567.7
748.573	9621.71
748.911	9629.17
749.25	9731.54
749.589	9790.75
749.928	9879.78
750.267	9902.61
750.605	9997.52
750.944	10023.73
751.283	10171.3
751.621	10192.77
751.96	10225.99
752.298	10344.4
752.636	10418.07
752.975	10476.38
753.313	10560.22
753.651	10706.43
753.989	10750.95
754.327	10801.57
754.666	10968.57
755.004	11089.02
755.342	11258.28
755.679	11394.32
756.017	11389.57
756.355	11568.1
756.693	11743.24
757.031	11841.09
757.368	11902.33
757.706	12050.57
758.044	12232.26
758.381	12395.42
758.719	12513.39
759.056	12618.92
