Data from hue_32_FLMS001491_00081.txt Node
Date: Tue Feb 07 17:24:01 GMT 2017
User: dcchb
Spectrometer: FLMS00149
Trigger mode: 0
Integration Time (sec): 2.000000E-2
Scans to average: 10
Electric dark correction enabled: true
Nonlinearity correction enabled: false
Boxcar width: 0
XAxis mode: Wavelengths
Number of Pixels in Spectrum: 2048
>>>>>Begin Spectral Data<<<<<
341.393	-5.17
341.776	-5.17
342.16	-5.17
342.543	-73.42
342.927	-50.59
343.31	-53.08
343.693	-70.48
344.077	-60.76
344.46	-56.24
344.843	-59.41
345.226	-57.6
345.61	-21.21
345.993	-5.4
346.376	-7.66
346.759	6.81
347.142	25.79
347.525	32.12
347.908	50.42
348.291	76.18
348.674	93.81
349.057	106.69
349.44	123.41
349.823	134.49
350.206	160.02
350.588	204.99
350.971	220.14
351.354	230.53
351.737	232.11
352.119	255.16
352.502	261.49
352.884	261.72
353.267	270.98
353.65	301.04
354.032	313.01
354.414	319.34
354.797	327.03
355.179	305.1
355.562	322.28
355.944	320.92
356.326	338.78
356.709	334.71
357.091	338.78
357.473	335.61
357.855	356.86
358.238	325.9
358.62	326.35
359.002	347.36
359.384	351.43
359.766	338.1
360.148	335.39
360.53	348.27
360.912	341.49
361.294	360.47
361.676	335.84
362.057	341.04
362.439	314.82
362.821	345.33
363.203	307.59
363.584	332.9
363.966	325.22
364.348	323.86
364.729	324.31
365.111	332.45
365.493	308.04
365.874	324.54
366.256	317.31
366.637	328.83
367.019	319.34
367.4	314.14
367.781	321.6
368.163	325.44
368.544	314.37
368.925	296.52
369.306	357.76
369.688	307.59
370.069	306.23
370.45	327.7
370.831	325.9
371.212	336.29
371.593	309.17
371.974	319.57
372.355	323.41
372.736	312.34
373.117	310.53
373.498	329.06
373.879	313.24
374.26	318.89
374.641	323.41
375.021	338.55
375.402	308.95
375.783	330.42
376.163	317.31
376.544	322.51
376.925	324.77
377.305	341.04
377.686	312.56
378.066	329.51
378.447	334.71
378.827	335.61
379.208	325.22
379.588	344.65
379.968	326.35
380.349	329.06
380.729	334.71
381.109	364.31
381.489	333.13
381.87	347.82
382.25	338.1
382.63	338.32
383.01	329.74
383.39	347.59
383.77	341.71
384.15	353.69
384.53	354.82
384.91	348.04
385.29	349.17
385.67	362.73
386.049	338.55
386.429	354.14
386.809	364.31
387.189	343.97
387.568	367.25
387.948	364.76
388.328	327.93
388.707	367.7
389.087	351.66
389.466	371.09
389.846	357.98
390.225	386.46
390.605	358.89
390.984	385.78
391.363	362.96
391.743	378.32
392.122	388.04
392.501	383.75
392.881	380.58
393.26	378.32
393.639	392.33
394.018	361.83
394.397	385.55
394.776	392.33
395.155	383.97
395.534	403.18
395.913	414.48
396.292	394.59
396.671	394.37
397.05	385.55
397.429	379.68
397.808	408.83
398.186	386.23
398.565	387.81
398.944	385.55
399.323	409.73
399.701	406.8
400.08	391.43
400.458	383.3
400.837	385.55
401.215	417.64
401.594	393.46
401.972	399.57
402.351	428.72
402.729	428.04
403.107	395.95
403.486	403.63
403.864	426.68
404.242	409.06
404.62	417.87
404.999	416.97
405.377	419
405.755	435.72
406.133	442.05
406.511	444.08
406.889	438.89
407.267	426.01
407.645	434.37
408.023	466.46
408.401	415.38
408.779	466.68
409.156	442.05
409.534	449.73
409.912	453.58
410.29	457.42
410.667	466.68
411.045	451.32
411.422	471.43
411.8	461.71
412.178	477.3
412.555	486.8
412.933	503.29
413.31	470.3
413.687	485.44
414.065	492.9
414.442	489.73
414.819	474.82
415.197	489.96
415.574	513.24
415.951	505.1
416.328	494.48
416.705	510.07
417.082	509.62
417.46	513.01
417.837	516.62
418.214	518.88
418.591	511.2
418.967	534.48
419.344	532.9
419.721	536.96
420.098	569.05
420.475	550.75
420.852	550.97
421.228	549.17
421.605	566.12
421.982	550.52
422.358	560.47
422.735	546.45
423.111	564.31
423.488	585.55
423.864	567.7
424.241	560.92
424.617	586.68
424.994	588.04
425.37	585.78
425.746	576.74
426.123	600.46
426.499	595.49
426.875	597.53
427.251	616.74
427.627	600.24
428.003	615.61
428.379	614.02
428.756	622.16
429.132	624.64
429.507	587.58
429.883	642.72
430.259	652.67
430.635	646.79
431.011	654.25
431.387	651.08
431.763	638.43
432.138	669.84
432.514	680.46
432.89	671.42
433.265	706.45
433.641	695.15
434.016	696.51
434.392	707.13
434.767	725.21
435.143	717.3
435.518	740.8
435.894	726.11
436.269	750.29
436.644	762.49
437.02	752.32
437.395	756.62
437.77	764.53
438.145	760.01
438.52	762.04
438.895	776.51
439.271	748.26
439.646	792.1
440.021	792.55
440.395	817.41
440.77	790.97
441.145	811.76
441.52	808.59
441.895	788.93
442.27	812.89
442.645	821.93
443.019	825.09
443.394	823.51
443.769	850.85
444.143	840.23
444.518	833.9
444.892	834.81
445.267	823.96
445.641	857.41
446.016	874.81
446.39	859.21
446.764	881.36
447.139	874.81
447.513	883.17
447.887	873.45
448.262	904.64
448.636	886.33
449.01	892.89
449.384	909.61
449.758	900.57
450.132	931.3
450.506	932.66
450.88	923.17
451.254	904.86
451.628	961.58
452.002	965.88
452.376	955.26
452.75	974.01
453.123	967.01
453.497	949.16
453.871	984.41
454.244	1007.23
454.618	1030.06
454.992	1000.23
455.365	1017.85
455.739	1061.24
456.112	1057.85
456.486	1059.89
456.859	1076.61
457.232	1076.61
457.606	1071.19
457.979	1116.61
458.352	1103.73
458.725	1134.46
459.099	1126.33
459.472	1145.99
459.845	1165.65
460.218	1194.8
460.591	1187.57
460.964	1197.06
461.337	1217.4
461.71	1251.75
462.083	1218.98
462.456	1246.1
462.829	1259.66
463.201	1268.24
463.574	1288.36
463.947	1283.61
464.32	1318.19
464.692	1327.45
465.065	1342.37
465.438	1380.1
465.81	1378.98
466.183	1413.1
466.555	1459.88
466.928	1453.1
467.3	1429.37
467.672	1472.76
468.045	1500.55
468.417	1507.11
468.789	1531.29
469.161	1558.63
469.534	1553.89
469.906	1575.58
470.278	1600.21
470.65	1639.53
471.022	1663.49
471.394	1722.92
471.766	1738.97
472.138	1761.79
472.51	1784.16
472.882	1811.28
473.253	1852.18
473.625	1849.02
473.997	1908.23
474.369	1942.8
474.74	1983.48
475.112	2007.66
475.484	2076.36
475.855	2091.05
476.227	2134.66
476.598	2182.57
476.97	2219.86
477.341	2270.48
477.713	2343.7
478.084	2321.78
478.455	2439.74
478.827	2458.95
479.198	2549.34
479.569	2584.59
479.94	2661.2
480.311	2704.36
480.682	2783.46
481.053	2846.96
481.424	2873.17
481.795	2940.74
482.166	3019.38
482.537	3086.73
482.908	3165.82
483.279	3266.84
483.65	3335.76
484.021	3378.92
484.391	3485.13
484.762	3533.04
485.133	3572.82
485.503	3660.27
485.874	3755.64
486.244	3837.89
486.615	3921.06
486.985	3994.95
487.356	4123.08
487.726	4156.08
488.097	4255.96
488.467	4380.03
488.837	4461.38
489.207	4523.75
489.578	4612.56
489.948	4694.14
490.318	4830.41
490.688	4860.69
491.058	5010.07
491.428	5078.99
491.798	5161.93
492.168	5297.74
492.538	5372.99
492.908	5420.68
493.278	5541.58
493.648	5608.24
494.017	5689.6
494.387	5762.36
494.757	5838.52
495.126	5972.98
495.496	6031.51
495.866	6047.33
496.235	6126.19
496.605	6273.08
496.974	6352.18
497.344	6426.75
497.713	6445.73
498.082	6567.54
498.452	6600.31
498.821	6676.91
499.19	6727.08
499.559	6843.69
499.928	6922.56
500.298	6940.18
500.667	7039.17
501.036	7129.11
501.405	7151.7
501.774	7184.7
502.143	7290.23
502.512	7359.16
502.88	7475.76
503.249	7414.07
503.618	7489.77
503.987	7563.67
504.356	7668.08
504.724	7723.44
505.093	7719.37
505.462	7800.95
505.83	7839.37
506.199	7954.4
506.567	8083.43
506.936	8019.48
507.304	8195.97
507.672	8193.03
508.041	8294.73
508.409	8359.36
508.777	8353.48
509.145	8462.63
509.514	8464.89
509.882	8547.15
510.25	8618.33
510.618	8680.48
510.986	8675.51
511.354	8811.1
511.722	8889.74
512.09	8914.82
512.458	8948.49
512.826	8995.05
513.193	9020.13
513.561	9083.63
513.929	9110.07
514.297	9243.63
514.664	9236.4
515.032	9337.86
515.4	9293.12
515.767	9444.53
516.135	9426.22
516.502	9473.45
516.869	9583.96
517.237	9589.15
517.604	9606.78
517.972	9674.12
518.339	9828.24
518.706	9772.88
519.073	9825.76
519.44	9841.8
519.808	10016.49
520.175	9953.89
520.542	10071.63
520.909	10176.48
521.276	10191.4
521.643	10288.57
522.009	10300.1
522.376	10386.87
522.743	10369.47
523.11	10410.6
523.477	10578.51
523.843	10605.63
524.21	10734.44
524.577	10823.7
524.943	10739.41
525.31	10898.5
525.676	10937.14
526.043	11021.89
526.409	11033.41
526.776	11236.12
527.142	11185.95
527.508	11239.05
527.874	11423.46
528.241	11480.18
528.607	11448.99
528.973	11607.86
529.339	11559.27
529.705	11670.68
530.071	11736.89
530.437	11795.2
530.803	11874.97
531.169	11888.76
531.535	11965.82
531.901	11901.86
532.267	12001.75
532.632	12076.32
532.998	12151.57
533.364	12213.49
533.73	12236.54
534.095	12371.23
534.461	12419.36
534.826	12511.11
535.192	12462.53
535.557	12601.73
535.923	12507.95
536.288	12683.54
536.653	12721.28
537.019	12780.26
537.384	12763.08
537.749	12804.44
538.114	12901.16
538.479	12953.36
538.845	12955.62
539.21	12918.11
539.575	13105.45
539.94	13039.91
540.305	13226.35
540.67	13142.51
541.034	13271.77
541.399	13276.74
541.764	13338.66
542.129	13416.62
542.494	13421.82
542.858	13478.77
543.223	13464.08
543.587	13739.55
543.952	13619.11
544.316	13562.61
544.681	13701.14
545.045	13772.1
545.41	13938.64
545.774	13982.94
546.138	13931.19
546.503	13966.21
546.867	13980.9
547.231	14142.26
547.595	14173.44
547.959	14224.51
548.324	14213.89
548.688	14238.3
549.052	14396.49
549.416	14365.98
549.779	14395.13
550.143	14518.74
550.507	14522.13
550.871	14542.02
551.235	14512.64
551.599	14677.16
551.962	14710.38
552.326	14749.92
552.689	14816.36
553.053	14817.49
553.417	14827.66
553.78	14982.46
554.143	14994.44
554.507	15061.33
554.87	15148.78
555.234	15236.24
555.597	15171.83
555.96	15266.97
556.323	15317.37
556.686	15318.72
557.05	15426.74
557.413	15432.62
557.776	15491.15
558.139	15621.09
558.502	15552.39
558.865	15629.9
559.228	15793.74
559.59	15732.04
559.953	15797.35
560.316	15942.66
560.679	15890.23
561.041	16123.45
561.404	16084.13
561.767	16141.75
562.129	16233.95
562.492	16250
562.854	16273.95
563.217	16313.72
563.579	16357.79
563.941	16350.11
564.304	16522.31
564.666	16629.65
565.028	16750.55
565.39	16677.1
565.753	16890.66
566.115	16873.71
566.477	16844.33
566.839	16920.26
567.201	17026.02
567.563	17032.57
567.925	17254.04
568.287	17257.65
568.648	17228.5
569.01	17339.46
569.372	17521.38
569.734	17447.48
570.095	17484.54
570.457	17724.76
570.819	17687.47
571.18	17743.52
571.542	17788.26
571.903	17904.87
572.265	17929.27
572.626	18056.73
572.987	18082.72
573.349	18152.09
573.71	18221.7
574.071	18269.6
574.432	18445.19
574.794	18606.77
575.155	18600.67
575.516	18708.01
575.877	18910.94
576.238	18888.8
576.599	19083.14
576.96	19107.32
577.32	19245.4
577.681	19401.78
578.042	19548.44
578.403	19708.89
578.763	19804.71
579.124	19858.49
579.485	20047.64
579.845	20255.77
580.206	20379.15
580.566	20498.02
580.927	20593.61
581.287	20724.91
581.648	20927.84
582.008	21283.31
582.368	21355.17
582.728	21562.4
583.089	21695.95
583.449	21940.92
583.809	22098.43
584.169	22316.05
584.529	22498.42
584.889	22876.49
585.249	22959.88
585.609	23061.12
585.969	23428.56
586.329	23566.64
586.688	23851.83
587.048	24062.22
587.408	24264.47
587.768	24479.38
588.127	24684.12
588.487	24868.3
588.846	25329.76
589.206	25331.79
589.565	25669.86
589.925	25988.95
590.284	26179.45
590.643	26430.07
591.003	26731.08
591.362	27000.9
591.721	27215.13
592.08	27460.55
592.44	27823.7
592.799	27982.34
593.158	28377.36
593.517	28533.06
593.876	28873.17
594.235	29027.74
594.593	29188.19
594.952	29581.17
595.311	29748.4
595.67	30030.2
596.029	30608.49
596.387	30699.79
596.746	31000.12
597.104	31130.96
597.463	31360.33
597.822	31675.35
598.18	31790.6
598.538	31952.18
598.897	32495.9
599.255	32310.82
599.613	33086.16
599.972	33156.22
600.33	33364.8
600.688	33479.6
601.046	33715.98
601.404	34078.91
601.762	34369.75
602.12	34648.16
602.478	34751.43
602.836	35005.44
603.194	34995.49
603.552	35364.52
603.91	35339.21
604.268	35803.83
604.625	35931.74
604.983	36302.8
605.341	36225.74
605.698	36559.07
606.056	36781.21
606.413	36916.35
606.771	37136.9
607.128	37265.94
607.485	37286.28
607.843	37467.97
608.2	37949.31
608.557	38139.36
608.914	38011.01
609.272	38429.75
609.629	38674.94
609.986	38861.61
610.343	38760.14
610.7	39305.89
611.057	39352.89
611.414	39333.46
611.771	39521.93
612.127	39749.27
612.484	39875.59
612.841	40057.73
613.198	40015.02
613.554	40052.76
613.911	40538.85
614.267	40573.42
614.624	40621.56
614.98	40849.8
615.337	41102.9
615.693	41230.81
616.05	41154.2
616.406	41478.03
616.762	41428.32
617.118	41574.98
617.475	41628.31
617.831	41940.62
618.187	41882.77
618.543	42136.77
618.899	42260.61
619.255	42250.89
619.611	42421.06
619.967	42549.42
620.323	42743.54
620.678	42657.21
621.034	42502.87
621.39	42638
621.746	42724.55
622.101	43199.12
622.457	42965
622.812	43032.57
623.168	43301.26
623.523	43357.53
623.879	43491.54
624.234	43159.57
624.589	43508.94
624.945	43522.95
625.3	43699.44
625.655	43646.11
626.01	43837.07
626.365	43791.42
626.72	43793.23
627.075	43874.35
627.43	43728.14
627.785	43709.16
628.14	43949.16
628.495	43865.32
628.85	43840.68
629.205	43824.64
629.559	44022.83
629.914	43909.61
630.269	44101.24
630.623	44033.45
630.978	43993.9
631.332	44147.79
631.687	44250.39
632.041	44048.36
632.396	44163.84
632.75	44005.88
633.104	44213.78
633.459	43996.39
633.813	44031.86
634.167	44141.01
634.521	44079.1
634.875	44210.62
635.229	44194.12
635.583	43934.24
635.937	43928.59
636.291	43854.92
636.645	43894.92
636.999	43938.08
637.352	43948.93
637.706	43844.53
638.06	43998.87
638.413	43837.29
638.767	43785.77
639.121	43885.43
639.474	43661.71
639.828	43754.58
640.181	43830.51
640.534	43735.38
640.888	43623.74
641.241	43752.78
641.594	43637.98
641.947	43773.34
642.301	43473.24
642.654	43696.28
643.007	43638.43
643.36	43685.43
643.713	43744.41
644.066	43805.66
644.419	43626.9
644.771	43305.56
645.124	42890.65
645.477	42913.02
645.83	42626.03
646.182	42558.91
646.535	42453.15
646.888	42489.76
647.24	42283.44
647.593	42404.34
647.945	42454.28
648.298	42307.62
648.65	42070.56
649.002	42098.36
649.355	42269.88
649.707	42158.02
650.059	42468.29
650.411	42958.45
650.763	42928.39
651.115	43322.5
651.467	43049.52
651.819	43167.25
652.171	42959.58
652.523	42984.66
652.875	42874.61
653.227	42803.2
653.578	43142.17
653.93	43152.34
654.282	43007.94
654.633	42866.92
654.985	42897.21
655.337	42892.91
655.688	42976.3
656.039	43034.15
656.391	42768.85
656.742	42852.01
657.094	42914.83
657.445	42933.81
657.796	42766.14
658.147	42762.52
658.498	42683.88
658.849	42906.02
659.2	42618.34
659.551	42772.46
659.902	42795.74
660.253	42701.96
660.604	42800.03
660.955	42622.64
661.306	42712.35
661.656	42706.48
662.007	42766.36
662.358	42629.87
662.708	42736.31
663.059	42507.16
663.409	42320.72
663.76	42618.12
664.11	42708.28
664.461	42758.68
664.811	42758.23
665.161	42598.68
665.511	42429.65
665.862	42552.13
666.212	42656.08
666.562	42624.67
666.912	42526.37
667.262	42467.61
667.612	42489.76
667.962	42597.33
668.312	42401.63
668.662	42766.81
669.011	42574.28
669.361	42447.73
669.711	42414.28
670.06	42414.96
670.41	42426.94
670.76	42243.66
671.109	42531.79
671.459	42497.67
671.808	42412.47
672.157	42435.07
672.507	42199.6
672.856	42192.14
673.205	42301.29
673.554	42282.31
673.904	42103.78
674.253	42346.71
674.602	42226.26
674.951	41702.89
675.3	41526.39
675.649	42106.04
675.998	42016.1
676.346	42077.11
676.695	42156.66
677.044	41766.61
677.393	41974.97
677.741	42038.02
678.09	41962.77
678.438	41928.64
678.787	42033.05
679.135	41912.82
679.484	41737.46
679.832	41859.72
680.181	41533.17
680.529	41750.12
680.877	41556.9
681.225	41532.95
681.573	41782.21
681.922	41452.72
682.27	41366.17
682.618	41272.62
682.966	41286.63
683.314	41338.15
683.661	41331.37
684.009	41155.78
684.357	41117.14
684.705	40997.37
685.053	41042.56
685.4	40969.12
685.748	40840.54
686.095	40772.97
686.443	40692.74
686.79	40601.22
687.138	40620.88
687.485	40716.92
687.832	40510.6
688.18	40436.48
688.527	40419.3
688.874	40364.84
689.221	40127.33
689.568	40077.84
689.915	40055.92
690.262	39967.56
690.609	39825.2
690.956	39796.04
691.303	39813.67
691.65	39615.94
691.997	39631.98
692.344	39328.71
692.69	39332.55
693.037	39353.34
693.383	39069.28
693.73	39207.81
694.077	38916.75
694.423	39002.62
694.769	38853.92
695.116	38763.98
695.462	38664.1
695.808	38563.99
696.155	38753.13
696.501	38399.7
696.847	38382.3
697.193	38032.25
697.539	38294.84
697.885	38066.6
698.231	37967.39
698.577	38019.82
698.923	37833.84
699.269	37692.14
699.614	37562.43
699.96	37568.31
700.306	37531.24
700.651	37410.8
700.997	37115.89
701.342	37213.06
701.688	37121.76
702.033	36902.79
702.379	36964.93
702.724	36822.56
703.069	36898.95
703.415	36447.21
703.76	36574.43
704.105	36498.5
704.45	36326.3
704.795	36224.61
705.14	36210.15
705.485	36166.99
705.83	35940.55
706.175	35978.52
706.52	35924.96
706.865	35832.76
707.209	35725.64
707.554	35623.72
707.899	35724.29
708.243	35439.32
708.588	35365.88
708.932	35257.86
709.277	35154.58
709.621	35174.02
709.966	35042.27
710.31	35135.83
710.654	34661.94
710.998	34855.83
711.342	34811.32
711.687	34664.88
712.031	34530.42
712.375	34517.99
712.719	34620.13
713.063	34536.3
713.407	34571.55
713.75	34326.58
714.094	34346.47
714.438	34289.52
714.782	34105.57
715.125	33984.45
715.469	34104.89
715.812	33790.55
716.156	33819.93
716.499	33773.6
716.843	33777.67
717.186	33443.89
717.53	33733.38
717.873	33630.56
718.216	33518.69
718.559	33503.1
718.902	33162.09
719.246	33231.02
719.589	33160.29
719.932	33029.67
720.275	33123.23
720.617	33171.13
720.96	32968.43
721.303	32946.73
721.646	33021.98
721.989	32684.37
722.331	32984.92
722.674	32836.68
723.016	32791.71
723.359	32691.6
723.701	32624.71
724.044	32561.43
724.386	32408.89
724.729	32617.93
725.071	32387.88
725.413	32436.92
725.755	32393.53
726.097	32230.37
726.439	32019.3
726.782	32162.57
727.124	32276.92
727.465	32043.03
727.807	31995.8
728.149	31960.32
728.491	31916.25
728.833	31953.31
729.175	31829.25
729.516	31841.22
729.858	31767.1
730.199	31654.34
730.541	31631.96
730.882	31630.83
731.224	31650.27
731.565	31521.23
731.906	31513.1
732.248	31417.96
732.589	31267.91
732.93	31192.88
733.271	31140.23
733.612	31180.9
733.953	31270.62
734.294	31090.28
734.635	31037.4
734.976	31120.79
735.317	30818.2
735.658	30982.04
735.999	30931.42
736.339	30917.18
736.68	30947.01
737.021	30878.76
737.361	30676.74
737.702	30817.3
738.042	30729.16
738.383	30577.98
738.723	30648.71
739.063	30555.16
739.404	30621.82
739.744	30374.37
740.084	30398.1
740.424	30371.89
740.764	30318.1
741.104	30295.5
741.444	30338.21
741.784	30159.91
742.124	30192.45
742.464	30086.24
742.804	30184.09
743.143	29992.69
743.483	30023.19
743.823	29766.93
744.162	29961.5
744.502	30024.32
744.841	29857.32
745.181	29852.8
745.52	29718.57
745.86	29843.99
746.199	29691
746.538	29740.72
746.877	29719.02
747.216	29657.55
747.556	29631.57
747.895	29531.91
748.234	29462.08
748.573	29520.16
748.911	29359.03
749.25	29422.98
749.589	29267.51
749.928	29319.26
750.267	29386.15
750.605	29267.96
750.944	29255.53
751.283	28983.22
751.621	29109.32
751.96	28890.34
752.298	29074.52
752.636	28935.09
752.975	28858.25
753.313	28724.02
753.651	28846.28
753.989	28679.05
754.327	28606.06
754.666	28492.84
755.004	28479.96
755.342	28487.87
755.679	28438.38
756.017	28362.45
756.355	28492.16
756.693	28215.56
757.031	28326.06
757.368	28172.85
