Data from hue_230_FLMS001491_00035.txt Node
Date: Tue Feb 07 16:37:08 GMT 2017
User: dcchb
Spectrometer: FLMS00149
Trigger mode: 0
Integration Time (sec): 2.000000E-2
Scans to average: 10
Electric dark correction enabled: true
Nonlinearity correction enabled: false
Boxcar width: 0
XAxis mode: Wavelengths
Number of Pixels in Spectrum: 2048
>>>>>Begin Spectral Data<<<<<
341.393	-1.71
341.776	-1.71
342.16	-1.71
342.543	-54.14
342.927	-83.97
343.31	-57.75
343.693	-100.46
344.077	-72.67
344.46	-60.69
344.843	-53.91
345.226	-41.71
345.61	-15.49
345.993	-10.52
346.376	-12.56
346.759	26.54
347.142	8.69
347.525	45.07
347.908	49.36
348.291	77.38
348.674	94.11
349.057	124.62
349.44	110.6
349.823	141.34
350.206	160.32
350.588	171.17
350.971	210.49
351.354	218.4
351.737	234.44
352.119	230.15
352.502	246.19
352.884	254.1
353.267	286.42
353.65	301.11
354.032	304.5
354.414	316.25
354.797	297.04
355.179	307.66
355.562	319.19
355.944	313.76
356.326	320.99
356.709	306.31
357.091	324.16
357.473	337.27
357.855	335.46
358.238	321.9
358.62	338.4
359.002	346.98
359.384	339.3
359.766	336.81
360.148	331.16
360.53	331.39
360.912	310.15
361.294	313.31
361.676	306.53
362.057	320.09
362.439	316.93
362.821	325.29
363.203	308.57
363.584	325.74
363.966	310.6
364.348	317.15
364.729	288.9
365.111	313.76
365.493	285.97
365.874	299.53
366.256	312.41
366.637	322.58
367.019	303.37
367.4	287.1
367.781	307.89
368.163	296.59
368.544	317.15
368.925	316.02
369.306	303.14
369.688	311.5
370.069	312.63
370.45	289.13
370.831	287.77
371.212	314.21
371.593	295.68
371.974	304.27
372.355	318.73
372.736	315.34
373.117	307.89
373.498	319.41
373.879	311.28
374.26	309.7
374.641	319.41
375.021	313.08
375.402	324.16
375.783	327.1
376.163	316.93
376.544	305.4
376.925	319.19
377.305	315.34
377.686	328.68
378.066	331.39
378.447	323.25
378.827	313.99
379.208	336.81
379.588	331.84
379.968	333.2
380.349	338.17
380.729	345.63
381.109	334.55
381.489	348.79
381.87	312.86
382.25	346.98
382.63	335.23
383.01	337.04
383.39	336.59
383.77	338.85
384.15	342.46
384.53	310.6
384.91	336.81
385.29	337.72
385.67	346.3
386.049	360.32
386.429	332.97
386.809	351.73
387.189	346.3
387.568	365.06
387.948	343.37
388.328	347.21
388.707	348.34
389.087	336.81
389.466	346.08
389.846	375.68
390.225	360.32
390.605	365.74
390.984	345.17
391.363	351.28
391.743	355.57
392.122	376.36
392.501	388.11
392.881	392.86
393.26	368.45
393.639	356.25
394.018	364.61
394.397	376.36
394.776	386.08
395.155	363.71
395.534	379.98
395.913	381.78
396.292	377.94
396.671	396.25
397.05	382.24
397.429	373.87
397.808	397.38
398.186	396.47
398.565	400.77
398.944	405.51
399.323	382.91
399.701	373.65
400.08	392.4
400.458	429.69
400.837	414.55
401.215	394.21
401.594	396.02
401.972	405.96
402.351	404.16
402.729	395.12
403.107	427.43
403.486	426.98
403.864	429.69
404.242	424.49
404.62	423.14
404.999	435.57
405.377	430.14
405.755	441.9
406.133	423.59
406.511	451.16
406.889	458.39
407.267	473.53
407.645	469.01
408.023	450.48
408.401	477.15
408.779	481.89
409.156	472.85
409.534	477.15
409.912	489.13
410.29	499.29
410.667	506.53
411.045	502.01
411.422	523.02
411.8	522.12
412.178	534.77
412.555	527.99
412.933	532.06
413.31	563.47
413.687	553.76
414.065	554.66
414.442	566.86
414.819	570.03
415.197	590.82
415.574	591.27
415.951	595.34
416.328	589.46
416.705	606.86
417.082	618.39
417.46	609.8
417.837	642.12
418.214	656.13
418.591	633.75
418.967	639.86
419.344	666.3
419.721	645.51
420.098	667.65
420.475	672.17
420.852	667.43
421.228	696.8
421.605	686.18
421.982	708.55
422.358	693.64
422.735	758.95
423.111	721.21
423.488	760.08
423.864	779.97
424.241	784.94
424.617	770.47
424.994	785.16
425.37	800.3
425.746	814.31
426.123	816.12
426.499	841.66
426.875	830.13
427.251	843.24
427.627	825.84
428.003	871.26
428.379	865.16
428.756	881.21
429.132	903.13
429.507	895.44
429.883	896.57
430.259	911.04
430.635	928.21
431.011	925.95
431.387	972.95
431.763	986.06
432.138	1005.27
432.514	1024.93
432.89	1006.85
433.265	1025.61
433.641	1061.09
434.016	1019.96
434.392	1089.34
434.767	1078.04
435.143	1125.27
435.518	1126.62
435.894	1102.67
436.269	1121.65
436.644	1158.94
437.02	1210.91
437.395	1191.03
437.77	1224.7
438.145	1235.09
438.52	1237.13
438.895	1262.89
439.271	1271.25
439.646	1303.79
440.021	1294.75
440.395	1330.69
440.77	1325.94
441.145	1361.64
441.52	1369.33
441.895	1374.75
442.27	1400.06
442.645	1406.39
443.019	1405.26
443.394	1428.08
443.769	1437.8
444.143	1459.5
444.518	1500.4
444.892	1470.34
445.267	1505.6
445.641	1476.67
446.016	1497.01
446.39	1498.36
446.764	1495.88
447.139	1545.82
447.513	1550.11
447.887	1528.65
448.262	1576.55
448.636	1546.72
449.01	1586.27
449.384	1601.64
449.758	1594.63
450.132	1615.2
450.506	1628.76
450.88	1673.05
451.254	1671.47
451.628	1641.41
452.002	1665.14
452.376	1702.43
452.75	1708.3
453.123	1731.8
453.497	1737.68
453.871	1763.22
454.244	1809.99
454.618	1814.51
454.992	1817.45
455.365	1855.19
455.739	1884.34
456.112	1856.32
456.486	1881.86
456.859	1895.64
457.232	1958.01
457.606	1947.17
457.979	1952.82
458.352	2016.54
458.725	2021.51
459.099	2043.43
459.472	2067.39
459.845	2051.34
460.218	2076.43
460.591	2102.19
460.964	2087.05
461.337	2137.44
461.71	2171.12
462.083	2180.38
462.456	2226.26
462.829	2203.66
463.201	2273.71
463.574	2291.79
463.947	2319.13
464.32	2339.7
464.692	2371.79
465.065	2353.71
465.438	2412.46
465.81	2440.71
466.183	2477.32
466.555	2517.55
466.928	2516.64
467.3	2556.87
467.672	2555.06
468.045	2597.77
468.417	2616.75
468.789	2639.35
469.161	2664.66
469.534	2707.15
469.906	2764.32
470.278	2749.41
470.65	2805
471.022	2844.54
471.394	2861.49
471.766	2916.86
472.138	2915.73
472.51	2991.88
472.882	3040.7
473.253	3040.92
473.625	3131.09
473.997	3140.81
474.369	3162.5
474.74	3193.69
475.112	3270.3
475.484	3260.8
475.855	3356.62
476.227	3381.25
476.598	3470.74
476.97	3474.36
477.341	3536.96
477.713	3577.63
478.084	3614.02
478.455	3714.35
478.827	3727.46
479.198	3791.64
479.569	3786.44
479.94	3901.92
480.311	3899.66
480.682	3989.15
481.053	4072.08
481.424	4147.11
481.795	4161.57
482.166	4235.47
482.537	4294.45
482.908	4326.31
483.279	4337.61
483.65	4428.01
484.021	4522.47
484.391	4557.72
484.762	4568.11
485.133	4622.35
485.503	4673.87
485.874	4790.03
486.244	4844.94
486.615	4845.62
486.985	4922.91
487.356	4960.65
487.726	5025.5
488.097	5105.73
488.467	5125.61
488.837	5188.21
489.207	5268.21
489.578	5316.57
489.948	5361.31
490.318	5453.51
490.688	5437.92
491.058	5500.52
491.428	5624.13
491.798	5594.08
492.168	5742.09
492.538	5703.23
492.908	5792.71
493.278	5833.84
493.648	5878.59
494.017	5964.46
494.387	5969.21
494.757	6015.08
495.126	6058.92
495.496	6074.29
495.866	6111.8
496.235	6154.51
496.605	6209.88
496.974	6202.2
497.344	6260.73
497.713	6275.19
498.082	6318.8
498.452	6348.63
498.821	6372.81
499.19	6380.27
499.559	6520.61
499.928	6510.66
500.298	6529.64
500.667	6583.2
501.036	6525.58
501.405	6613.94
501.774	6606.7
502.143	6714.27
502.512	6645.8
502.88	6706.14
503.249	6721.96
503.618	6746.14
503.987	6800.15
504.356	6769.19
504.724	6822.29
505.093	6793.82
505.462	6900.03
505.83	6857.77
506.199	6898.22
506.567	6961.72
506.936	6956.53
507.304	7008.05
507.672	7048.95
508.041	7086.69
508.409	7052.12
508.777	7046.69
509.145	7216.86
509.514	7137.09
509.882	7183.41
510.25	7216.18
510.618	7204.88
510.986	7211.89
511.354	7246.24
511.722	7319.45
512.09	7329.4
512.458	7316.06
512.826	7393.8
513.193	7422.5
513.561	7389.74
513.929	7376.63
514.297	7466.34
514.664	7509.51
515.032	7480.13
515.4	7563.97
515.767	7529.62
516.135	7482.61
516.502	7426.8
516.869	7607.36
517.237	7554.48
517.604	7552.67
517.972	7560.13
518.339	7566.45
518.706	7635.83
519.073	7651.65
519.44	7704.3
519.808	7726.45
520.175	7638.09
520.542	7734.58
520.909	7729.16
521.276	7780.01
521.643	7812.55
522.009	7848.25
522.376	7804.41
522.743	7767.8
523.11	7883.96
523.477	7935.48
523.843	7931.19
524.21	7917.63
524.577	8009.83
524.943	7993.79
525.31	7998.31
525.676	8052.77
526.043	8057.74
526.409	8064.52
526.776	8085.54
527.142	8113.33
527.508	8106.33
527.874	8097.51
528.241	8161.47
528.607	8196.27
528.973	8111.75
529.339	8087.8
529.705	8215.93
530.071	8197.4
530.437	8250.05
530.803	8141.13
531.169	8255.02
531.535	8189.94
531.901	8221.35
532.267	8151.3
532.632	8252.09
532.998	8247.11
533.364	8242.59
533.73	8207.57
534.095	8226.78
534.461	8284.63
534.826	8282.82
535.192	8243.72
535.557	8259.32
535.923	8220.9
536.288	8253.89
536.653	8269.94
537.019	8247.57
537.384	8167.34
537.749	8252.99
538.114	8223.61
538.479	8185.42
538.845	8207.34
539.21	8107.91
539.575	8170.96
539.94	8148.13
540.305	8186.1
540.67	8108.36
541.034	8207.11
541.399	8149.72
541.764	8122.82
542.129	8182.26
542.494	8165.08
542.858	8120.11
543.223	8141.81
543.587	8132.54
543.952	8100
544.316	8050.51
544.681	8017.52
545.045	8114.91
545.41	8057.74
545.774	8095.71
546.138	8075.14
546.503	8031.75
546.867	8002.83
547.231	8027.23
547.595	8009.61
547.959	7994.24
548.324	7953.56
548.688	7976.39
549.052	8009.38
549.416	7976.84
549.779	7970.28
550.143	7874.47
550.507	7974.35
550.871	7948.14
551.235	7924.41
551.599	7921.47
551.962	7868.37
552.326	7873.11
552.689	7882.83
553.053	7854.58
553.417	7893.45
553.78	7899.33
554.143	7863.17
554.507	7916.27
554.87	7888.25
555.234	7888.03
555.597	7865.88
555.96	7899.78
556.323	7808.93
556.686	7914.92
557.05	7933.9
557.413	7901.36
557.776	7899.1
558.139	7845.32
558.502	7875.6
558.865	7888.03
559.228	7888.25
559.59	7946.78
559.953	7895.03
560.316	7978.19
560.679	7890.96
561.041	7945.65
561.404	8000.57
561.767	8017.52
562.129	7953.56
562.492	8026.55
562.854	7999.44
563.217	7937.29
563.579	7960.12
563.941	7941.58
564.304	8054.8
564.666	8049.15
565.028	8021.13
565.39	8078.08
565.753	8101.81
566.115	8055.25
566.477	8117.17
566.839	8118.3
567.201	8196.27
567.563	8119.66
567.925	8197.85
568.287	8185.42
568.648	8200.11
569.01	8296.15
569.372	8265.64
569.734	8229.26
570.095	8272.88
570.457	8267
570.819	8339.54
571.18	8260.45
571.542	8311.52
571.903	8346.32
572.265	8370.73
572.626	8369.37
572.987	8453.89
573.349	8422.48
573.71	8471.29
574.071	8448.69
574.432	8462.7
574.794	8604.17
575.155	8510.84
575.516	8469.48
575.877	8539.76
576.238	8466.99
576.599	8511.29
576.96	8549.03
577.32	8643.94
577.681	8670.15
578.042	8643.49
578.403	8681.68
578.763	8672.19
579.124	8689.14
579.485	8685.07
579.845	8828.57
580.206	8763.03
580.566	8700.66
580.927	8780.21
581.287	8785.86
581.648	8810.71
582.008	8852.75
582.368	8798.74
582.728	8811.84
583.089	8810.26
583.449	8847.55
583.809	8869.02
584.169	8880.09
584.529	8837.38
584.889	8931.39
585.249	8904.72
585.609	8892.52
585.969	8957.38
586.329	8970.26
586.688	8990.6
587.048	8975
587.408	9024.04
587.768	8959.64
588.127	9000.54
588.487	8991.05
588.846	9045.51
589.206	8998.73
589.565	9116.24
589.925	9156.92
590.284	9057.49
590.643	9072.4
591.003	9154.43
591.362	9092.52
591.721	9127.09
592.08	9097.71
592.44	9086.41
592.799	9164.38
593.158	9100.88
593.517	9076.24
593.876	9144.72
594.235	9169.8
594.593	9211.38
594.952	9153.98
595.311	9146.75
595.67	9209.35
596.029	9232.4
596.387	9288.67
596.746	9246.18
597.104	9226.75
597.463	9244.83
597.822	9237.82
598.18	9256.13
598.538	9237.14
598.897	9321.89
599.255	9231.49
599.613	9363.24
599.972	9304.71
600.33	9315.11
600.688	9287.09
601.046	9311.27
601.404	9349.01
601.762	9337.25
602.12	9384.26
602.478	9383.13
602.836	9354.88
603.194	9351.49
603.552	9357.14
603.91	9310.14
604.268	9310.81
604.625	9395.11
604.983	9382.9
605.341	9317.14
605.698	9325.05
606.056	9386.74
606.413	9413.41
606.771	9384.48
607.128	9424.48
607.485	9426.97
607.843	9395.78
608.2	9450.92
608.557	9465.61
608.914	9438.04
609.272	9472.62
609.629	9487.08
609.986	9531.15
610.343	9549.23
610.7	9585.16
611.057	9539.74
611.414	9537.48
611.771	9459.96
612.127	9594.65
612.484	9573.41
612.841	9546.29
613.198	9532.73
613.554	9591.49
613.911	9595.78
614.267	9604.14
614.624	9615.21
614.98	9607.98
615.337	9642.56
615.693	9669.22
616.05	9670.35
616.406	9634.2
616.762	9661.31
617.118	9631.71
617.475	9697.47
617.831	9670.13
618.187	9696.57
618.543	9666.51
618.899	9729.79
619.255	9716.23
619.611	9724.81
619.967	9722.78
620.323	9769.33
620.678	9673.29
621.034	9698.15
621.39	9699.5
621.746	9661.77
622.101	9768.66
622.457	9754.87
622.812	9737.92
623.168	9732.5
623.523	9741.31
623.879	9776.34
624.234	9730.92
624.589	9732.27
624.945	9718.71
625.3	9751.93
625.655	9676.23
626.01	9710.13
626.365	9798.71
626.72	9688.21
627.075	9694.31
627.43	9744.7
627.785	9698.37
628.14	9760.75
628.495	9693.63
628.85	9706.06
629.205	9714.19
629.559	9767.53
629.914	9737.92
630.269	9696.12
630.623	9658.6
630.978	9727.53
631.332	9680.52
631.687	9691.82
632.041	9604.37
632.396	9703.12
632.75	9593.52
633.104	9613.41
633.459	9523.24
633.813	9558.49
634.167	9636.91
634.521	9514.42
634.875	9532.73
635.229	9533.86
635.583	9551.49
635.937	9505.16
636.291	9541.77
636.645	9486.63
636.999	9464.48
637.352	9507.19
637.706	9485.5
638.06	9477.59
638.413	9462.22
638.767	9422.9
639.121	9474.65
639.474	9402.34
639.828	9422.68
640.181	9435.11
640.534	9378.38
640.888	9397.14
641.241	9373.64
641.594	9368.44
641.947	9373.64
642.301	9438.49
642.654	9346.97
643.007	9317.59
643.36	9349.68
643.713	9327.54
644.066	9228.78
644.419	9331.38
644.771	9222.68
645.124	9150.14
645.477	9161.89
645.83	9089.8
646.182	9128.9
646.535	9052.97
646.888	9008.68
647.24	9010.94
647.593	9036.7
647.945	9006.87
648.298	8961.45
648.65	8932.29
649.002	8982.69
649.355	9000.77
649.707	8958.73
650.059	9075.57
650.411	9132.06
650.763	9164.38
651.115	9139.75
651.467	9180.2
651.819	9134.32
652.171	9137.49
652.523	9138.62
652.875	9177.48
653.227	9096.13
653.578	9191.04
653.93	9138.62
654.282	9115.11
654.633	9150.59
654.985	9125.51
655.337	9089.35
655.688	9142.23
656.039	9156.47
656.391	9092.06
656.742	9118.96
657.094	9190.14
657.445	9128.9
657.796	9152.85
658.147	9132.97
658.498	9152.63
658.849	9153.98
659.2	9129.8
659.551	9140.2
659.902	9158.5
660.253	9172.06
660.604	9137.49
660.955	9154.66
661.306	9197.37
661.656	9086.64
662.007	9149.01
662.358	9119.41
662.708	9182.91
663.059	9100.65
663.409	9110.37
663.76	9165.06
664.11	9174.77
664.461	9202.57
664.811	9243.25
665.161	9161.89
665.511	9147.2
665.862	9142.91
666.212	9198.95
666.562	9215.68
666.912	9196.92
667.262	9156.02
667.612	9171.61
667.962	9160.08
668.312	9177.94
668.662	9244.6
669.011	9172.51
669.361	9128.9
669.711	9104.94
670.06	9172.29
670.41	9212.74
670.76	9151.27
671.109	9144.94
671.459	9156.92
671.808	9097.94
672.157	9169.8
672.507	9101.1
672.856	9084.61
673.205	9104.94
673.554	9133.64
673.904	9091.16
674.253	9203.92
674.602	9068.79
674.951	9013.87
675.3	8890.71
675.649	9118.96
675.998	9043.48
676.346	9071.95
676.695	9103.14
677.044	8976.59
677.393	8981.33
677.741	8981.11
678.09	8982.91
678.438	8949.02
678.787	9057.49
679.135	9019.52
679.484	8930.71
679.832	8945.63
680.181	8883.03
680.529	8998.28
680.877	8911.95
681.225	8885.97
681.573	8931.84
681.922	8857.95
682.27	8836.02
682.618	8800.55
682.966	8819.53
683.314	8803.26
683.661	8760.55
684.009	8736.37
684.357	8703.82
684.705	8731.85
685.053	8759.19
685.4	8686.2
685.748	8651.4
686.095	8652.53
686.443	8647.78
686.79	8567.33
687.138	8581.57
687.485	8587.9
687.832	8572.3
688.18	8604.17
688.527	8499.31
688.874	8518.74
689.221	8459.76
689.568	8417.05
689.915	8398.97
690.262	8422.02
690.609	8392.42
690.956	8382.25
691.303	8410.73
691.65	8317.85
691.997	8301.58
692.344	8215.93
692.69	8259.77
693.037	8252.76
693.383	8164.18
693.73	8233.78
694.077	8156.04
694.423	8118.08
694.769	8038.98
695.116	8059.55
695.462	8036.27
695.808	7964.86
696.155	8020
696.501	7944.3
696.847	7913.11
697.193	7861.81
697.539	7900.23
697.885	7857.52
698.231	7832.66
698.577	7787.69
698.923	7721.25
699.269	7696.85
699.614	7689.84
699.96	7708.14
700.306	7720.57
700.651	7624.98
700.997	7542.05
701.342	7579.56
701.688	7568.04
702.033	7519.22
702.379	7515.61
702.724	7483.29
703.069	7491.65
703.415	7438.32
703.76	7418.66
704.105	7417.76
704.45	7372.56
704.795	7298.66
705.14	7312.45
705.485	7282.85
705.83	7286.69
706.175	7277.42
706.52	7271.32
706.865	7177.31
707.209	7228.84
707.554	7151.32
707.899	7169.63
708.243	7182.73
708.588	7137.99
708.932	7095.73
709.277	7102.96
709.621	7074.26
709.966	7046.69
710.31	6996.07
710.654	6946.13
710.998	7014.38
711.342	6929.86
711.687	6980.71
712.031	6917.43
712.375	6875.4
712.719	6965.11
713.063	6881.27
713.407	6948.16
713.75	6928.73
714.094	6829.3
714.438	6844.44
714.782	6844.21
715.125	6823.87
715.469	6849.86
715.812	6762.18
716.156	6752.01
716.499	6742.52
716.843	6714.95
717.186	6733.71
717.53	6752.92
717.873	6768.28
718.216	6721.28
718.559	6749.75
718.902	6669.3
719.246	6690.09
719.589	6607.83
719.932	6600.6
720.275	6634.5
720.617	6603.54
720.96	6568.29
721.303	6563.99
721.646	6631.11
721.989	6602.41
722.331	6562.86
722.674	6564.22
723.016	6567.84
723.359	6572.58
723.701	6600.38
724.044	6589.3
724.386	6485.8
724.729	6532.81
725.071	6526.25
725.413	6539.81
725.755	6508.4
726.097	6508.18
726.439	6474.73
726.782	6476.09
727.124	6513.15
727.465	6478.35
727.807	6488.29
728.149	6496.65
728.491	6453.26
728.833	6450.32
729.175	6400.16
729.516	6389.54
729.858	6441.06
730.199	6468.86
730.541	6443.77
730.882	6448.74
731.224	6482.41
731.565	6430.66
731.906	6470.21
732.248	6454.17
732.589	6392.7
732.93	6384.11
733.271	6353.15
733.612	6389.76
733.953	6397.9
734.294	6404.9
734.635	6419.14
734.976	6430.89
735.317	6396.09
735.658	6422.08
735.999	6446.03
736.339	6387.5
736.68	6385.92
737.021	6400.61
737.361	6377.33
737.702	6440.38
738.042	6343.66
738.383	6446.71
738.723	6407.84
739.063	6443.55
739.404	6498.91
739.744	6445.13
740.084	6415.98
740.424	6501.17
740.764	6466.37
741.104	6537.78
741.444	6428.86
741.784	6504.33
742.124	6490.55
742.464	6460.72
742.804	6524.67
743.143	6507.95
743.483	6562.64
743.823	6571
744.162	6556.99
744.502	6613.71
744.841	6601.51
745.181	6637.66
745.52	6687.61
745.86	6680.6
746.199	6693.48
746.538	6763.99
746.877	6773.71
747.216	6839.69
747.556	6867.04
747.895	6881.05
748.234	6909.52
748.573	6992.91
748.911	6939.35
749.25	7036.52
749.589	7051.21
749.928	7144.32
750.267	7150.42
750.605	7217.54
750.944	7263.64
751.283	7236.97
751.621	7387.02
751.96	7354.71
752.298	7533.46
752.636	7551.54
752.975	7626.57
753.313	7688.71
753.651	7808.71
753.989	7810.29
754.327	7977.52
754.666	7997.63
755.004	7991.08
755.342	8142.26
755.679	8272.88
756.017	8371.86
756.355	8410.5
756.693	8512.19
757.031	8601.68
757.368	8693.2
757.706	8801.45
758.044	8938.85
758.381	9040.09
758.719	9137.49
759.056	9271.95
759.394	9391.49
759.731	9491.6
760.068	9550.36
760.405	9646.85
760.743	9784.7
761.08	9952.15
761.417	9953.74
761.754	10144.69
762.091	10180.4
762.428	10285.25
762.765	10387.62
763.102	10557.34
763.438	10560.27
763.775	10674.17
764.112	10836.42
764.449	11006.82
764.785	11076.42
765.122	11115.96
765.458	11228.96
765.795	11330.42
766.131	11455.16
766.467	11501.04
766.804	11610.64
767.14	11722.73
767.476	11833.23
767.812	11857.64
768.148	11980.35
768.485	12026.22
768.821	12131.53
