Data from hue_280_FLMS001491_00069.txt Node
Date: Tue Feb 07 15:55:37 GMT 2017
User: dcchb
Spectrometer: FLMS00149
Trigger mode: 0
Integration Time (sec): 2.000000E-2
Scans to average: 10
Electric dark correction enabled: true
Nonlinearity correction enabled: false
Boxcar width: 0
XAxis mode: Wavelengths
Number of Pixels in Spectrum: 2048
>>>>>Begin Spectral Data<<<<<
341.393	0.14
341.776	0.14
342.16	0.14
342.543	-51.38
342.927	-72.4
343.31	-66.98
343.693	-78.5
344.077	-51.16
344.46	-74.21
344.843	-71.27
345.226	-31.95
345.61	-39.18
345.993	9.41
346.376	-4.15
346.759	8.5
347.142	20.93
347.525	39.01
347.908	69.97
348.291	88.73
348.674	80.14
349.057	100.7
349.44	118.1
349.823	151.32
350.206	180.48
350.588	186.58
350.971	195.16
351.354	225.22
351.737	205.11
352.119	238.55
352.502	254.37
352.884	250.3
353.267	268.83
353.65	293.92
354.032	294.37
354.414	296.63
354.797	291.21
355.179	318.78
355.562	321.94
355.944	316.07
356.326	294.14
356.709	302.28
357.091	313.58
357.473	325.33
357.855	338.44
358.238	331.88
358.62	330.98
359.002	321.94
359.384	309.06
359.766	335.27
360.148	329.85
360.53	324.43
360.912	325.1
361.294	323.52
361.676	314.94
362.057	337.31
362.439	333.24
362.821	315.61
363.203	292.34
363.584	324.43
363.966	329.85
364.348	317.2
364.729	302.96
365.111	311.55
365.493	318.78
365.874	302.28
366.256	311.32
366.637	314.26
367.019	292.11
367.4	316.07
367.781	321.49
368.163	300.25
368.544	310.19
368.925	289.17
369.306	319.23
369.688	319.91
370.069	318.1
370.45	302.73
370.831	301.15
371.212	317.42
371.593	314.71
371.974	301.6
372.355	326.46
372.736	302.73
373.117	311.09
373.498	299.34
373.879	306.57
374.26	302.05
374.641	326.91
375.021	304.09
375.402	328.27
375.783	316.07
376.163	315.84
376.544	308.61
376.925	296.86
377.305	300.25
377.686	301.83
378.066	312
378.447	324.88
378.827	319.23
379.208	318.78
379.588	340.92
379.968	320.13
380.349	333.47
380.729	330.75
381.109	338.66
381.489	339.79
381.87	314.03
382.25	344.09
382.63	314.48
383.01	346.12
383.39	332.34
383.77	347.02
384.15	337.99
384.53	334.82
384.91	340.02
385.29	362.62
385.67	345.44
386.049	341.6
386.429	323.75
386.809	348.61
387.189	343.18
387.568	343.41
387.948	351.32
388.328	341.6
388.707	360.36
389.087	354.03
389.466	348.38
389.846	329.4
390.225	337.99
390.605	364.65
390.984	357.42
391.363	363.3
391.743	363.75
392.122	378.66
392.501	347.02
392.881	374.37
393.26	360.36
393.639	361.26
394.018	355.39
394.397	368.49
394.776	371.88
395.155	371.88
395.534	374.82
395.913	363.97
396.292	377.76
396.671	392
397.05	386.12
397.429	370.08
397.808	398.55
398.186	400.58
398.565	399.23
398.944	391.77
399.323	384.54
399.701	386.35
400.08	408.49
400.458	394.48
400.837	385.44
401.215	426.34
401.594	384.31
401.972	416.4
402.351	410.3
402.729	428.38
403.107	414.14
403.486	412.79
403.864	425.67
404.242	399.23
404.62	455.04
404.999	423.41
405.377	430.19
405.755	434.71
406.133	444.42
406.511	448.72
406.889	452.56
407.267	451.88
407.645	471.09
408.023	468.83
408.401	459.11
408.779	477.19
409.156	444.2
409.534	470.64
409.912	492.78
410.29	500.92
410.667	505.89
411.045	526.23
411.422	514.25
411.8	521.26
412.178	514.25
412.555	518.77
412.933	547.47
413.31	535.49
413.687	526.68
414.065	569.39
414.442	562.84
414.819	547.25
415.197	582.27
415.574	593.12
415.951	585.89
416.328	585.21
416.705	592.89
417.082	598.54
417.46	588.15
417.837	630.63
418.214	622.05
418.591	637.41
418.967	629.05
419.344	646.68
419.721	651.42
420.098	655.72
420.475	687.58
420.852	639.9
421.228	695.04
421.605	679.22
421.982	729.16
422.358	684.42
422.735	709.73
423.111	721.48
423.488	740.91
423.864	721.7
424.241	751.31
424.617	745.43
424.994	740.91
425.37	761.03
425.746	771.19
426.123	764.41
426.499	799.89
426.875	806.22
427.251	814.13
427.627	826.33
428.003	842.83
428.379	835.6
428.756	840.35
429.132	876.5
429.507	854.13
429.883	872.89
430.259	886.9
430.635	879.67
431.011	910.4
431.387	905.2
431.763	950.85
432.138	920.79
432.514	949.04
432.89	943.17
433.265	988.14
433.641	971.87
434.016	1018.19
434.392	1000.11
434.767	1028.14
435.143	1023.39
435.518	1060.68
435.894	1062.26
436.269	1049.83
436.644	1072.66
437.02	1109.49
437.395	1090.73
437.77	1119.43
438.145	1116.72
438.52	1115.82
438.895	1185.19
439.271	1179.09
439.646	1187.91
440.021	1202.82
440.395	1207.57
440.77	1228.36
441.145	1225.19
441.52	1226.1
441.895	1234.46
442.27	1227
442.645	1292.76
443.019	1245.76
443.394	1255.7
443.769	1303.84
444.143	1282.82
444.518	1283.27
444.892	1297.28
445.267	1311.75
445.641	1312.2
446.016	1317.62
446.39	1324.63
446.764	1332.08
447.139	1356.49
447.513	1341.35
447.887	1334.8
448.262	1357.17
448.636	1328.69
449.01	1379.99
449.384	1374.57
449.758	1402.36
450.132	1396.71
450.506	1408.24
450.88	1424.28
451.254	1387.9
451.628	1447.79
452.002	1432.42
452.376	1473.77
452.75	1427.67
453.123	1471.74
453.497	1511.74
453.871	1499.54
454.244	1505.86
454.618	1502.93
454.992	1541.12
455.365	1522.59
455.739	1576.82
456.112	1575.47
456.486	1586.99
456.859	1584.05
457.232	1625.18
457.606	1632.19
457.979	1634.67
458.352	1651.85
458.725	1671.96
459.099	1658.85
459.472	1710.83
459.845	1726.65
460.218	1727.33
460.591	1758.51
460.964	1736.14
461.337	1749.47
461.71	1783.37
462.083	1803.26
462.456	1808.91
462.829	1818.85
463.201	1828.12
463.574	1837.61
463.947	1870.37
464.32	1886.87
464.692	1887.55
465.065	1916.7
465.438	1936.14
465.81	1949.24
466.183	1956.47
466.555	2003.03
466.928	2013.87
467.3	2018.17
467.672	2039.41
468.045	2033.76
468.417	2057.49
468.789	2056.13
469.161	2085.74
469.534	2122.35
469.906	2135.9
470.278	2168.67
470.65	2174.55
471.022	2215.68
471.394	2235.34
471.766	2268.56
472.138	2305.84
472.51	2313.98
472.882	2334.54
473.253	2347.2
473.625	2372.73
473.997	2379.74
474.369	2441.43
474.74	2443.24
475.112	2502
475.484	2436.24
475.855	2560.98
476.227	2521.88
476.598	2598.27
476.97	2599.17
477.341	2682.78
477.713	2673.52
478.084	2723.23
478.455	2753.52
478.827	2764.81
479.198	2823.57
479.569	2851.59
479.94	2897.92
480.311	2893.17
480.682	2954.87
481.053	2997.8
481.424	3059.5
481.795	3046.16
482.166	3067.86
482.537	3085.26
482.908	3110.79
483.279	3142.21
483.65	3210
484.021	3233.05
484.391	3302.88
484.762	3292.26
485.133	3372.71
485.503	3344.91
485.874	3438.24
486.244	3421.52
486.615	3490.22
486.985	3529.77
487.356	3570.44
487.726	3551.46
488.097	3619.03
488.467	3626.03
488.837	3745.13
489.207	3741.74
489.578	3757.1
489.948	3780.15
490.318	3849.31
490.688	3814.96
491.058	3836.65
491.428	3895.63
491.798	3939.25
492.168	3985.12
492.538	4037.1
492.908	4042.75
493.278	4077.1
493.648	4066.7
494.017	4121.84
494.387	4122.74
494.757	4124.33
495.126	4208.39
495.496	4190.77
495.866	4248.62
496.235	4262.18
496.605	4285.45
496.974	4274.83
497.344	4342.17
497.713	4368.16
498.082	4376.98
498.452	4429.63
498.821	4417.88
499.19	4440.93
499.559	4424.43
499.928	4473.47
500.298	4498.1
500.667	4521.83
501.036	4501.94
501.405	4514.37
501.774	4538.33
502.143	4554.82
502.512	4593.24
502.88	4619.23
503.249	4650.41
503.618	4667.14
503.987	4634.82
504.356	4653.8
504.724	4672.11
505.093	4676.4
505.462	4707.59
505.83	4708.04
506.199	4757.76
506.567	4863.74
506.936	4747.81
507.304	4851.09
507.672	4870.52
508.041	4879.33
508.409	4871.43
508.777	4897.64
509.145	4917.3
509.514	4874.82
509.882	4943.29
510.25	4910.97
510.618	4917.53
510.986	4910.52
511.354	4977.19
511.722	5010.18
512.09	5015.15
512.458	5011.08
512.826	5033.91
513.193	5028.48
513.561	5066
513.929	5068.93
514.297	5124.3
514.664	5090.63
515.032	5121.59
515.4	5147.58
515.767	5191.64
516.135	5179.89
516.502	5114.36
516.869	5236.39
517.237	5164.07
517.604	5190.51
517.972	5235.94
518.339	5246.33
518.706	5280.91
519.073	5262.38
519.44	5233.45
519.808	5276.16
520.175	5244.3
520.542	5362.03
520.909	5356.84
521.276	5307.57
521.643	5387.12
522.009	5395.25
522.376	5410.39
522.743	5432.31
523.11	5446.78
523.477	5510.05
523.843	5516.83
524.21	5508.02
524.577	5566.1
524.943	5559.54
525.31	5578.53
525.676	5587.79
526.043	5649.94
526.409	5616.04
526.776	5692.42
527.142	5689.03
527.508	5719.76
527.874	5749.59
528.241	5762.93
528.607	5733.32
528.973	5781.23
529.339	5767.9
529.705	5854.9
530.071	5882.25
530.437	5856.71
530.803	5922.92
531.169	5856.94
531.535	5921.34
531.901	5964.5
532.267	5946.65
532.632	5967.22
532.998	5983.71
533.364	6010.15
533.73	6000.66
534.095	6051.28
534.461	6035.91
534.826	6080.89
535.192	6057.84
535.557	6080.43
535.923	6113.88
536.288	6091.73
536.653	6148
537.019	6132.64
537.384	6096.48
537.749	6096.03
538.114	6177.15
538.479	6154.56
538.845	6238.17
539.21	6122.69
539.575	6185.97
539.94	6254.67
540.305	6238.17
540.67	6226.42
541.034	6233.65
541.399	6287.43
541.764	6290.82
542.129	6322.23
542.494	6281.78
542.858	6329.47
543.223	6325.85
543.587	6357.49
543.952	6378.05
544.316	6343.7
544.681	6332.63
545.045	6392.74
545.41	6435.68
545.774	6435.9
546.138	6398.17
546.503	6435.68
546.867	6437.49
547.231	6495.34
547.595	6487.65
547.959	6507.09
548.324	6449.24
548.688	6467.32
549.052	6534.21
549.416	6537.6
549.779	6516.13
550.143	6561.55
550.507	6582.12
550.871	6537.82
551.235	6574.21
551.599	6526.52
551.962	6623.7
552.326	6624.6
552.689	6620.76
553.053	6641.32
553.417	6591.61
553.78	6708.21
554.143	6632.51
554.507	6694.43
554.87	6682.45
555.234	6732.85
555.597	6683.58
555.96	6721.09
556.323	6783.92
556.686	6778.95
557.05	6792.05
557.413	6801.77
557.776	6811.04
558.139	6790.92
558.502	6840.64
558.865	6857.14
559.228	6862.11
559.59	6903.24
559.953	6905.04
560.316	6946.85
560.679	6953.63
561.041	6996.34
561.404	7020.75
561.767	7032.27
562.129	6970.81
562.492	7049.45
562.854	7081.76
563.217	7046.96
563.579	7082.21
563.941	7138.94
564.304	7156.79
564.666	7149.11
565.028	7126.06
565.39	7204.47
565.753	7248.54
566.115	7228.88
566.477	7318.59
566.839	7357.01
567.201	7361.3
567.563	7368.08
567.925	7422.09
568.287	7321.98
568.648	7432.26
569.01	7469.1
569.372	7528.98
569.734	7492.15
570.095	7517.23
570.457	7600.39
570.819	7538.47
571.18	7620.73
571.542	7634.29
571.903	7622.99
572.265	7687.85
572.626	7688.75
572.987	7699.83
573.349	7768.07
573.71	7769.2
574.071	7851.23
574.432	7874.74
574.794	7924.68
575.155	7886.71
575.516	7950.21
575.877	7943.21
576.238	7968.97
576.599	8038.12
576.96	8039.48
577.32	8124.45
577.681	8137.78
578.042	8183.88
578.403	8137.1
578.763	8205.12
579.124	8218.91
579.485	8270.88
579.845	8347.27
580.206	8380.49
580.566	8414.38
580.927	8453.93
581.287	8465.46
581.648	8509.97
582.008	8681.27
582.368	8635.17
582.728	8684.88
583.089	8710.87
583.449	8725.56
583.809	8792
584.169	8864.31
584.529	8916.97
584.889	8916.74
585.249	8989.51
585.609	9043.07
585.969	9156.06
586.329	9190.18
586.688	9234.93
587.048	9281.25
587.408	9359.67
587.768	9476.5
588.127	9486.45
588.487	9531.64
588.846	9676.95
589.206	9650.73
589.565	9757.17
589.925	9817.96
590.284	9749.94
590.643	9888.47
591.003	9999.43
591.362	10022.7
591.721	10106.32
592.08	10070.84
592.44	10250.72
592.799	10318.29
593.158	10360.77
593.517	10410.94
593.876	10406.65
594.235	10454.78
594.593	10558.06
594.952	10692.52
595.311	10622.46
595.67	10746.98
596.029	10913.07
596.387	10907.43
596.746	10965.73
597.104	11036.69
597.463	11045.95
597.822	11159.4
598.18	11103.58
598.538	11160.07
598.897	11310.58
599.255	11202.56
599.613	11435.55
599.972	11461.76
600.33	11518.03
600.688	11530.46
601.046	11560.97
601.404	11664.47
601.762	11647.29
602.12	11814.29
602.478	11856.55
602.836	11783.79
603.194	11859.94
603.552	11878.92
603.91	11951.24
604.268	12020.16
604.625	12008.19
604.983	12109.2
605.341	12017.9
605.698	12208.63
606.056	12196.66
606.413	12207.73
606.771	12308.52
607.128	12315.98
607.485	12257.45
607.843	12294.06
608.2	12403.2
608.557	12447.95
608.914	12427.39
609.272	12567.72
609.629	12477.1
609.986	12665.12
610.343	12653.59
610.7	12724.1
611.057	12677.55
611.414	12742.41
611.771	12763.65
612.127	12732.91
612.484	12815.85
612.841	12895.62
613.198	12838
613.554	12855.85
613.911	12924.1
614.267	12963.19
614.624	12990.31
614.98	13026.01
615.337	13022.85
615.693	13042.28
616.05	13030.08
616.406	13132.9
616.762	13128.61
617.118	13075.73
617.475	13059.68
617.831	13170.19
618.187	13239.79
618.543	13235.5
618.899	13206.57
619.255	13228.72
619.611	13301.94
619.967	13374.7
620.323	13340.36
620.678	13286.8
621.034	13285.22
621.39	13386.91
621.746	13364.08
622.101	13516.85
622.457	13438.88
622.812	13521.59
623.168	13532.67
623.523	13501.03
623.879	13551.2
624.234	13511.65
624.589	13610.4
624.945	13555.27
625.3	13580.12
625.655	13580.12
626.01	13552.1
626.365	13463.52
626.72	13523.85
627.075	13521.14
627.43	13578.77
627.785	13425.1
628.14	13581.03
628.495	13574.47
628.85	13595.04
629.205	13485.66
629.559	13571.99
629.914	13568.6
630.269	13513.68
630.623	13551.42
630.978	13492.89
631.332	13508.03
631.687	13543.74
632.041	13422.61
632.396	13504.64
632.75	13422.84
633.104	13406.79
633.459	13380.81
633.813	13422.84
634.167	13379.45
634.521	13538.77
634.875	13461.03
635.229	13469.39
635.583	13373.35
635.937	13420.81
636.291	13381.48
636.645	13316.18
636.999	13407.02
637.352	13391.43
637.706	13253.13
638.06	13397.98
638.413	13333.58
638.767	13282.5
639.121	13309.62
639.474	13194.14
639.828	13234.14
640.181	13312.79
640.534	13298.32
640.888	13276.85
641.241	13157.99
641.594	13209.96
641.947	13200.7
642.301	13260.36
642.654	13197.08
643.007	13221.71
643.36	13280.92
643.713	13147.14
644.066	13182.62
644.419	13152.79
644.771	13079.57
645.124	12946.92
645.477	12855.85
645.83	12840.71
646.182	12809.97
646.535	12782.86
646.888	12794.83
647.24	12816.98
647.593	12885.45
647.945	12755.29
648.298	12689.53
648.65	12763.2
649.002	12798.9
649.355	12792.12
649.707	12679.13
650.059	12821.95
650.411	12905.56
650.763	12990.08
651.115	13081.83
651.467	13049.29
651.819	13055.62
652.171	13020.36
652.523	12963.87
652.875	12993.7
653.227	12998.9
653.578	13019.01
653.93	13042.74
654.282	12962.51
654.633	12968.39
654.985	13018.1
655.337	13058.55
655.688	13067.82
656.039	13090.19
656.391	12990.99
656.742	13030.31
657.094	13013.36
657.445	13139.91
657.796	13113.24
658.147	13177.42
658.498	13101.49
658.849	13137.65
659.2	13081.15
659.551	13015.17
659.902	13146.24
660.253	13152.56
660.604	13104.2
660.955	13054.26
661.306	13099.23
661.656	13126.58
662.007	13193.47
662.358	13134.49
662.708	13132.45
663.059	13140.59
663.409	13045
663.76	13170.42
664.11	13195.27
664.461	13192.34
664.811	13179.68
665.161	13180.81
665.511	13072.79
665.862	13127.71
666.212	13183.3
666.562	13125.9
666.912	13231.21
667.262	13132.68
667.612	13181.94
667.962	13202.28
668.312	13138.55
668.662	13241.83
669.011	13190.98
669.361	13156.41
669.711	13152.56
670.06	13103.3
670.41	13172.9
670.76	13133.58
671.109	13134.49
671.459	13135.39
671.808	13091.55
672.157	13172
672.507	12981.49
672.856	13049.52
673.205	13189.85
673.554	13161.6
673.904	13143.3
674.253	13128.38
674.602	13035.5
674.951	12990.76
675.3	12903.98
675.649	13075.73
675.998	12971.78
676.346	13059.68
676.695	13007.03
677.044	12901.95
677.393	12972.46
677.741	12996.18
678.09	12873.02
678.438	12892.68
678.787	12962.29
679.135	12991.21
679.484	12868.73
679.832	12908.5
680.181	12827.83
680.529	12824.89
680.877	12772.69
681.225	12813.82
681.573	12819.69
681.922	12788.28
682.27	12692.46
682.618	12685.91
682.966	12727.94
683.314	12676.64
683.661	12605.69
684.009	12666.02
684.357	12598
684.705	12645.68
685.053	12508.06
685.4	12575.86
685.748	12501.28
686.095	12407.95
686.443	12312.81
686.79	12382.64
687.138	12366.6
687.485	12339.48
687.832	12285.02
688.18	12338.57
688.527	12283.66
688.874	12212.02
689.221	12146.71
689.568	12200.95
689.915	12171.12
690.262	12104.46
690.609	12078.02
690.956	12064.68
691.303	11968.64
691.65	11957.11
691.997	12022.2
692.344	11824.01
692.69	11927.51
693.037	11857.68
693.383	11699.72
693.73	11786.5
694.077	11680.96
694.423	11688.87
694.769	11611.14
695.116	11545.83
695.462	11626.28
695.808	11532.27
696.155	11532.49
696.501	11460.63
696.847	11330.92
697.193	11398.49
697.539	11372.95
697.885	11267.64
698.231	11216.8
698.577	11220.64
698.923	11232.39
699.269	11177.25
699.614	11032.39
699.96	11034.2
700.306	11070.58
700.651	11011.15
700.997	10958.72
701.342	10941.1
701.688	10880.53
702.033	10862.91
702.379	10847.99
702.724	10768.45
703.069	10757.82
703.415	10650.71
703.76	10720.31
704.105	10635.34
704.45	10624.95
704.795	10544.95
705.14	10473.76
705.485	10493.65
705.83	10372.07
706.175	10419.53
706.52	10394.67
706.865	10324.39
707.209	10312.19
707.554	10296.37
707.899	10268.57
708.243	10222.47
708.588	10199.42
708.932	10153.55
709.277	10091.4
709.621	10116.71
709.966	10063.38
710.31	10057.96
710.654	10027
710.998	9885.98
711.342	10008.47
711.687	9960.78
712.031	9957.17
712.375	9921.01
712.719	9922.14
713.063	9899.54
713.407	9890.95
713.75	9882.59
714.094	9863.16
714.438	9852.99
714.782	9864.74
715.125	9762.6
715.469	9745.42
715.812	9789.71
716.156	9627.46
716.499	9672.2
716.843	9705.42
717.186	9654.8
717.53	9739.55
717.873	9651.64
718.216	9701.13
718.559	9649.15
718.902	9614.8
719.246	9577.74
719.589	9519.89
719.932	9534.81
720.275	9549.72
720.617	9539.78
720.96	9561.02
721.303	9478.31
721.646	9475.6
721.989	9422.04
722.331	9500.91
722.674	9428.59
723.016	9460.91
723.359	9455.49
723.701	9451.42
724.044	9407.13
724.386	9321.48
724.729	9439.44
725.071	9416.16
725.413	9353.79
725.755	9377.52
726.097	9329.39
726.439	9397.86
726.782	9335.26
727.124	9360.12
727.465	9299.56
727.807	9290.07
728.149	9344.75
728.491	9268.82
728.833	9319.44
729.175	9270.63
729.516	9259.11
729.858	9343.85
730.199	9226.79
730.541	9304.98
730.882	9288.48
731.224	9255.49
731.565	9267.47
731.906	9303.85
732.248	9242.38
732.589	9188.37
732.93	9259.11
733.271	9224.08
733.612	9283.29
733.953	9302.5
734.294	9227.92
734.635	9238.99
734.976	9236.06
735.317	9211.88
735.658	9270.18
735.999	9225.89
736.339	9237.19
736.68	9251.2
737.021	9215.27
737.361	9201.48
737.702	9312.66
738.042	9301.14
738.383	9182.72
738.723	9286.68
739.063	9295.94
739.404	9366
739.744	9247.58
740.084	9251.2
740.424	9339.33
740.764	9307.92
741.104	9388.59
741.444	9389.5
741.784	9309.27
742.124	9355.15
742.464	9414.81
742.804	9446.22
743.143	9431.98
743.483	9456.16
743.823	9446.9
744.162	9449.61
744.502	9528.48
744.841	9455.03
745.181	9659.32
745.52	9607.8
745.86	9699.77
746.199	9678.08
746.538	9667.23
746.877	9720.56
747.216	9848.02
747.556	9857.28
747.895	9900.22
748.234	9929.82
748.573	9890.28
748.911	9972.99
749.25	10117.16
749.589	10189.93
749.928	10218.86
750.267	10297.95
750.605	10466.98
750.944	10473.54
751.283	10422.92
751.621	10650.03
751.96	10620.2
752.298	10755.34
752.636	10811.83
752.975	10814.32
753.313	10959.85
753.651	11114.43
753.989	11188.55
754.327	11283.69
754.666	11324.82
755.004	11426.73
755.342	11673.51
755.679	11759.15
756.017	11811.58
756.355	11935.42
756.693	12066.72
757.031	12286.6
757.368	12363.43
757.706	12475.52
758.044	12581.28
758.381	12748.28
758.719	12778.11
759.056	13029.18
759.394	13146.91
759.731	13163.64
760.068	13308.04
760.405	13421.26
760.743	13659.44
761.08	13769.72
761.417	13868.48
761.754	13995.25
762.091	14094.69
762.428	14236.38
