Data from hue_90_FLMS001491_76.txt Node
Date: Mon Feb 06 15:25:38 GMT 2017
User: dcchb
Spectrometer: FLMS00149
Trigger mode: 0
Integration Time (sec): 2.000000E-2
Scans to average: 10
Electric dark correction enabled: true
Nonlinearity correction enabled: false
Boxcar width: 0
XAxis mode: Wavelengths
Number of Pixels in Spectrum: 2048
>>>>>Begin Spectral Data<<<<<
341.393	-17.01
341.776	-17.01
342.16	-17.01
342.543	-64.24
342.927	-80.28
343.31	-66.5
343.693	-65.59
344.077	-81.18
344.46	-46.16
344.843	-44.35
345.226	-46.38
345.61	-42.77
345.993	-18.81
346.376	8.98
346.759	9.89
347.142	22.54
347.525	38.36
347.908	71.58
348.291	71.35
348.674	93.27
349.057	95.76
349.44	115.19
349.823	155.65
350.206	141.86
350.588	183.89
350.971	197.9
351.354	222.54
351.737	241.52
352.119	227.51
352.502	267.73
352.884	276.77
353.267	287.62
353.65	290.78
354.032	291.91
354.414	307.28
354.797	294.17
355.179	295.98
355.562	319.03
355.944	317
356.326	314.51
356.709	336.88
357.091	319.94
357.473	326.71
357.855	345.92
358.238	329.65
358.62	354.51
359.002	317.9
359.384	330.33
359.766	332.59
360.148	322.19
360.53	345.7
360.912	324.23
361.294	335.08
361.676	331.91
362.057	347.73
362.439	338.01
362.821	327.17
363.203	327.17
363.584	327.39
363.966	300.73
364.348	303.66
364.729	318.81
365.111	319.94
365.493	315.42
365.874	320.16
366.256	318.81
366.637	303.66
367.019	282.87
367.4	317.9
367.781	297.79
368.163	326.26
368.544	318.58
368.925	303.89
369.306	309.99
369.688	313.61
370.069	311.35
370.45	291.24
370.831	309.09
371.212	323.1
371.593	316.32
371.974	303.21
372.355	302.76
372.736	305.7
373.117	311.12
373.498	290.56
373.879	317
374.26	323.32
374.641	321.74
375.021	317
375.402	321.74
375.783	303.44
376.163	311.57
376.544	325.13
376.925	352.48
377.305	328.52
377.686	330.56
378.066	318.81
378.447	347.5
378.827	318.13
379.208	329.2
379.588	316.09
379.968	303.66
380.349	330.1
380.729	315.64
381.109	333.04
381.489	357
381.87	327.39
382.25	337.34
382.63	335.08
383.01	331.91
383.39	347.28
383.77	338.47
384.15	344.34
384.53	340.95
384.91	331.23
385.29	337.11
385.67	352.93
386.049	347.73
386.429	356.54
386.809	366.71
387.189	343.44
387.568	346.83
387.948	356.09
388.328	368.97
388.707	341.4
389.087	349.54
389.466	358.58
389.846	341.18
390.225	355.41
390.605	348.41
390.984	365.13
391.363	373.94
391.743	369.43
392.122	379.59
392.501	377.79
392.881	374.4
393.26	364.45
393.639	389.76
394.018	374.62
394.397	380.05
394.776	395.19
395.155	372.36
395.534	385.47
395.913	372.82
396.292	387.28
396.671	376.88
397.05	368.07
397.429	375.53
397.808	395.64
398.186	393.61
398.565	390.22
398.944	379.14
399.323	402.42
399.701	395.19
400.08	390.89
400.458	387.96
400.837	412.59
401.215	397.45
401.594	393.15
401.972	386.37
402.351	405.81
402.729	432.02
403.107	401.51
403.486	412.36
403.864	395.19
404.242	422.98
404.62	411.46
404.999	420.5
405.377	403.55
405.755	424.11
406.133	420.72
406.511	417.11
406.889	435.64
407.267	439.71
407.645	437.45
408.023	443.1
408.401	426.37
408.779	458.91
409.156	436.09
409.534	459.59
409.912	415.75
410.29	455.75
410.667	469.54
411.045	466.15
411.422	466.37
411.8	462.76
412.178	438.8
412.555	474.06
412.933	496.88
413.31	471.57
413.687	470.21
414.065	476.99
414.442	474.96
414.819	484.68
415.197	467.73
415.574	461.63
415.951	497.78
416.328	495.75
416.705	500.72
417.082	487.16
417.46	495.3
417.837	505.24
418.214	512.92
418.591	511.57
418.967	497.33
419.344	495.3
419.721	506.14
420.098	520.83
420.475	531.45
420.852	514.96
421.228	501.17
421.605	535.97
421.982	525.13
422.358	519.48
422.735	545.47
423.111	533.49
423.488	564.9
423.864	558.57
424.241	571.91
424.617	558.35
424.994	554.05
425.37	554.96
425.746	541.62
426.123	549.76
426.499	557.44
426.875	583.66
427.251	573.04
427.627	569.65
428.003	587.27
428.379	599.93
428.756	577.33
429.132	585.24
429.507	593.83
429.883	635.63
430.259	619.59
430.635	615.52
431.011	614.84
431.387	662.98
431.763	644.9
432.138	621.17
432.514	656.88
432.89	650.77
433.265	675.41
433.641	667.95
434.016	684.9
434.392	662.52
434.767	671.56
435.143	694.84
435.518	684.67
435.894	696.2
436.269	723.77
436.644	705.01
437.02	718.34
437.395	702.75
437.77	720.83
438.145	743.2
438.52	748.62
438.895	745.46
439.271	741.39
439.646	748.62
440.021	775.74
440.395	780.26
440.77	756.99
441.145	773.03
441.52	780.71
441.895	771.9
442.27	780.04
442.645	809.87
443.019	811
443.394	803.31
443.769	800.6
444.143	796.76
444.518	829.98
444.892	816.42
445.267	824.1
445.641	832.92
446.016	820.03
446.39	816.42
446.764	814.84
447.139	827.94
447.513	840.37
447.887	856.19
448.262	878.34
448.636	854.38
449.01	868.62
449.384	886.47
449.758	885.12
450.132	871.11
450.506	900.71
450.88	892.58
451.254	887.15
451.628	912.91
452.002	940.94
452.376	956.3
452.75	970.54
453.123	959.69
453.497	972.12
453.871	973.03
454.244	968.28
454.618	977.77
454.992	968.73
455.365	1011.44
455.739	1011.22
456.112	1011.89
456.486	1036.75
456.859	1057.32
457.232	1065.68
457.606	1053.7
457.979	1097.99
458.352	1121.27
458.725	1105
459.099	1116.3
459.472	1136.18
459.845	1144.55
460.218	1167.6
460.591	1157.65
460.964	1155.17
461.337	1222.51
461.71	1203.3
462.083	1201.27
462.456	1252.57
462.829	1235.17
463.201	1257.31
463.574	1258.22
463.947	1281.04
464.32	1335.5
464.692	1329.4
465.065	1344.77
465.438	1366.46
465.81	1393.81
466.183	1408.49
466.555	1441.94
466.928	1430.41
467.3	1443.07
467.672	1473.13
468.045	1547.93
468.417	1538.89
468.789	1564.65
469.161	1559.68
469.534	1608.49
469.906	1662.05
470.278	1620.01
470.65	1659.56
471.022	1716.96
471.394	1762.84
471.766	1787.92
472.138	1793.34
472.51	1860.91
472.882	1865.21
473.253	1925.99
473.625	1937.52
473.997	2009.83
474.369	2007.35
474.74	2084.63
475.112	2104.07
475.484	2140
475.855	2226.55
476.227	2251.41
476.598	2297.06
476.97	2343.38
477.341	2425.42
477.713	2441.69
478.084	2468.13
478.455	2579.31
478.827	2660.44
479.198	2759.19
479.569	2785.63
479.94	2882.35
480.311	2921.22
480.682	2979.53
481.053	3107.43
481.424	3151.5
481.795	3238.28
482.166	3273.76
482.537	3391.72
482.908	3504.94
483.279	3599.4
483.65	3673.52
484.021	3798.04
484.391	3882.1
484.762	3963.23
485.133	4047.29
485.503	4170.91
485.874	4295.2
486.244	4340.85
486.615	4517.79
486.985	4620.16
487.356	4733.6
487.726	4814.73
488.097	4951
488.467	5051.56
488.837	5169.3
489.207	5256.53
489.578	5462.4
489.948	5522.06
490.318	5614.03
490.688	5692.9
491.058	5867.13
491.428	5993.91
491.798	6112.33
492.168	6280.91
492.538	6378.98
492.908	6489.94
493.278	6659.66
493.648	6687
494.017	6836.37
494.387	6968.8
494.757	7053.77
495.126	7189.13
495.496	7282.24
495.866	7380.31
496.235	7540.76
496.605	7627.77
496.974	7744.37
497.344	7846.29
497.713	7888.32
498.082	8033.63
498.452	8127.41
498.821	8256.68
499.19	8272.72
499.559	8403.79
499.928	8509.32
500.298	8646.95
500.667	8704.57
501.036	8817.34
501.405	8853.27
501.774	8947.05
502.143	9004.9
502.512	9116.77
502.88	9227.27
503.249	9248.51
503.618	9388.62
503.987	9403.99
504.356	9480.6
504.724	9566.7
505.093	9687.82
505.462	9755.85
505.83	9857.31
506.199	9860.7
506.567	9995.84
506.936	10030.64
507.304	10126
507.672	10165.55
508.041	10255.72
508.409	10324.87
508.777	10382.95
509.145	10507.69
509.514	10504.07
509.882	10620.23
510.25	10582.04
510.618	10691.87
510.986	10694.13
511.354	10741.13
511.722	10865.65
512.09	10980.67
512.458	11029.26
512.826	11090.5
513.193	11130.27
513.561	11046.66
513.929	11100.44
514.297	11224.06
514.664	11299.76
515.032	11366.88
515.4	11393.77
515.767	11432.41
516.135	11429.93
516.502	11428.12
516.869	11575.46
517.237	11568.45
517.604	11477.61
517.972	11693.87
518.339	11699.52
518.706	11684.16
519.073	11750.59
519.44	11761.22
519.808	11803.02
520.175	11803.7
520.542	12004.15
520.909	12023.13
521.276	11922.57
521.643	12059.29
522.009	12063.13
522.376	12161.43
522.743	12153.97
523.11	12200.3
523.477	12273.97
523.843	12312.84
524.21	12388.77
524.577	12363.69
524.943	12384.25
525.31	12472.38
525.676	12431.71
526.043	12460.86
526.409	12563.45
526.776	12588.77
527.142	12642.77
527.508	12611.14
527.874	12693.17
528.241	12677.58
528.607	12774.3
528.973	12872.6
529.339	12679.16
529.705	12753.73
530.071	12900.85
530.437	12889.55
530.803	12886.38
531.169	12866.95
531.535	12788.08
531.901	12871.92
532.267	12798.03
532.632	12923.9
532.998	12905.14
533.364	12947.63
533.73	12861.07
534.095	12878.25
534.461	12919.38
534.826	12895.88
535.192	12865.14
535.557	12974.52
535.923	12911.02
536.288	12872.6
536.653	12828.31
537.019	12818.36
537.384	12786.05
537.749	12771.13
538.114	12698.82
538.479	12810.45
538.845	12774.3
539.21	12716.22
539.575	12687.52
539.94	12701.3
540.305	12764.81
540.67	12663.11
541.034	12630.12
541.399	12652.49
541.764	12620.85
542.129	12541.53
542.494	12561.42
542.858	12625.37
543.223	12540.4
543.587	12590.12
543.952	12491.82
544.316	12534.76
544.681	12421.76
545.045	12459.95
545.41	12442.55
545.774	12448.88
546.138	12396
546.503	12384.48
546.867	12332.5
547.231	12399.62
547.595	12314.87
547.959	12313.29
548.324	12262.67
548.688	12269.68
549.052	12237.81
549.416	12174.09
549.779	12172.28
550.143	12021.55
550.507	12219.74
550.871	12111.94
551.235	12086.41
551.599	12151.94
551.962	12188.55
552.326	12114.88
552.689	12133.86
553.053	12000.08
553.417	11923.02
553.78	12109.68
554.143	12038.5
554.507	12066.52
554.87	12009.12
555.234	12008.44
555.597	11986.3
555.96	11961.66
556.323	11993.07
556.686	11902.68
557.05	11944.71
557.413	11971.83
557.776	11869.46
558.139	11923.25
558.502	11949.69
558.865	11862.68
559.228	11960.76
559.59	11847.09
559.953	11889.35
560.316	11957.82
560.679	11927.09
561.041	12003.47
561.404	11995.56
561.767	11997.37
562.129	11979.06
562.492	12106.29
562.854	12000.53
563.217	11955.34
563.579	12053.86
563.941	12116.46
564.304	11968.22
564.666	12106.52
565.028	12098.16
565.39	12098.38
565.753	12097.7
566.115	12085.5
566.477	12139.51
566.839	12142.68
567.201	12175.22
567.563	12204.59
567.925	12277.36
568.287	12223.35
568.648	12189.23
569.01	12251.82
569.372	12258.15
569.734	12305.16
570.095	12319.39
570.457	12339.73
570.819	12399.84
571.18	12339.96
571.542	12389.45
571.903	12388.32
572.265	12338.15
572.626	12425.38
572.987	12475.1
573.349	12417.92
573.71	12410.92
574.071	12450.01
574.432	12415.66
574.794	12589.44
575.155	12454.31
575.516	12482.55
575.877	12451.82
576.238	12433.06
576.599	12547.18
576.96	12527.07
577.32	12523.68
577.681	12522.1
578.042	12539.73
578.403	12548.31
578.763	12583.12
579.124	12566.84
579.485	12588.77
579.845	12513.06
580.206	12492.04
580.566	12527.98
580.927	12518.71
581.287	12599.39
581.648	12539.5
582.008	12552.83
582.368	12565.71
582.728	12542.66
583.089	12561.87
583.449	12567.52
583.809	12504.93
584.169	12526.85
584.529	12495.21
584.889	12613.4
585.249	12505.83
585.609	12484.14
585.969	12505.6
586.329	12562.78
586.688	12516.9
587.048	12540.4
587.408	12430.35
587.768	12550.35
588.127	12447.53
588.487	12478.71
588.846	12566.84
589.206	12428.54
589.565	12415.44
589.925	12537.92
590.284	12401.43
590.643	12493.4
591.003	12428.32
591.362	12442.78
591.721	12474.64
592.08	12420.86
592.44	12431.48
592.799	12419.73
593.158	12410.92
593.517	12373.86
593.876	12340.41
594.235	12345.61
594.593	12350.81
594.952	12461.76
595.311	12297.25
595.67	12304.93
596.029	12433.51
596.387	12447.3
596.746	12428.09
597.104	12322.11
597.463	12327.53
597.822	12365.49
598.18	12306.29
598.538	12329.11
598.897	12423.57
599.255	12252.73
599.613	12429
599.972	12400.07
600.33	12341.54
600.688	12308.77
601.046	12336.12
601.404	12363.91
601.762	12360.75
602.12	12447.53
602.478	12447.3
602.836	12382.44
603.194	12301.77
603.552	12291.6
603.91	12236.91
604.268	12339.28
604.625	12296.57
604.983	12381.54
605.341	12287.3
605.698	12317.36
606.056	12384.48
606.413	12352.16
606.771	12376.57
607.128	12400.97
607.485	12344.7
607.843	12378.15
608.2	12373.4
608.557	12427.87
608.914	12369.34
609.272	12461.54
609.629	12409.79
609.986	12475.55
610.343	12428.54
610.7	12562.55
611.057	12493.17
611.414	12482.33
611.771	12467.19
612.127	12597.35
612.484	12540.4
612.841	12581.08
613.198	12569.78
613.554	12557.13
613.911	12534.76
614.267	12597.13
614.624	12516.9
614.98	12557.81
615.337	12607.97
615.693	12630.12
616.05	12521.87
616.406	12675.09
616.762	12671.25
617.118	12604.58
617.475	12572.95
617.831	12560.29
618.187	12589.22
618.543	12675.54
618.899	12737.01
619.255	12686.39
619.611	12705.82
619.967	12679.38
620.323	12748.99
620.678	12629.44
621.034	12613.62
621.39	12633.06
621.746	12664.92
622.101	12797.35
622.457	12731.13
622.812	12747.4
623.168	12740.63
623.523	12754.86
623.879	12777.91
624.234	12663.11
624.589	12759.61
624.945	12697.69
625.3	12657.92
625.655	12725.94
626.01	12739.27
626.365	12673.28
626.72	12716.22
627.075	12701.76
627.43	12715.77
627.785	12634.64
628.14	12700.17
628.495	12692.27
628.85	12621.53
629.205	12608.43
629.559	12691.59
629.914	12615.66
630.269	12733.39
630.623	12633.28
630.978	12585.38
631.332	12677.58
631.687	12679.84
632.041	12628.31
632.396	12572.72
632.75	12524.36
633.104	12620.63
633.459	12570.01
633.813	12576.56
634.167	12476.23
634.521	12461.99
634.875	12502.89
635.229	12494.76
635.583	12433.97
635.937	12436.23
636.291	12418.37
636.645	12438.71
636.999	12437.36
637.352	12393.29
637.706	12339.73
638.06	12354.42
638.413	12277.81
638.767	12328.88
639.121	12325.95
639.474	12252.5
639.828	12294.99
640.181	12285.95
640.534	12253.86
640.888	12230.36
641.241	12140.87
641.594	12199.85
641.947	12312.39
642.301	12167.53
642.654	12275.1
643.007	12270.58
643.36	12177.93
643.713	12204.37
644.066	12254.31
644.419	12076.01
644.771	12030.36
645.124	11977.93
645.477	11942.91
645.83	11839.18
646.182	11781.78
646.535	11748.11
646.888	11716.92
647.24	11750.82
647.593	11776.13
647.945	11787.2
648.298	11770.26
648.65	11642.35
649.002	11732.29
649.355	11789.92
649.707	11696.36
650.059	11809.12
650.411	11885.28
650.763	12021.77
651.115	11971.38
651.467	12024.94
651.819	12049.12
652.171	12079.63
652.523	12032.85
652.875	12017.25
653.227	11907.88
653.578	12116.46
653.93	11960.08
654.282	11942.45
654.633	11950.36
654.985	11970.25
655.337	11994.43
655.688	11927.31
656.039	11959.18
656.391	11892.74
656.742	11956.69
657.094	11963.47
657.445	12018.61
657.796	11999.85
658.147	11852.97
658.498	11970.93
658.849	11963.24
659.2	12069
659.551	11903.36
659.902	12028.55
660.253	11927.77
660.604	11940.87
660.955	11943.81
661.306	12010.25
661.656	11994.2
662.007	12008.67
662.358	12007.76
662.708	11951.72
663.059	11946.52
663.409	11901.33
663.76	11978.39
664.11	12008.89
664.461	12064.49
664.811	12033.53
665.161	12022.23
665.511	12000.98
665.862	12029.01
666.212	12095.44
666.562	12068.1
666.912	12007.99
667.262	12017.25
667.612	11992.4
667.962	12033.07
668.312	12009.8
668.662	12014.54
669.011	11986.07
669.361	12031.94
669.711	11898.84
670.06	11966.63
670.41	11881.44
670.76	11975.22
671.109	11976.13
671.459	11963.7
671.808	11930.7
672.157	12000.76
672.507	11864.72
672.856	11920.53
673.205	11916.01
673.554	11919.4
673.904	11888.22
674.253	11910.59
674.602	11905.62
674.951	11715.12
675.3	11667.89
675.649	11821.1
675.998	11833.76
676.346	11778.39
676.695	11910.82
677.044	11746.3
677.393	11765.74
677.741	11761.67
678.09	11732.29
678.438	11712.4
678.787	11769.35
679.135	11726.41
679.484	11656.59
679.832	11702.23
680.181	11665.85
680.529	11653.87
680.877	11669.24
681.225	11591.73
681.573	11692.29
681.922	11581.33
682.27	11529.13
682.618	11552.41
682.966	11530.26
683.314	11494.56
683.661	11487.1
684.009	11402.58
684.357	11438.29
684.705	11396.71
685.053	11439.87
685.4	11410.04
685.748	11302.47
686.095	11328.23
686.443	11336.37
686.79	11222.47
687.138	11302.7
687.485	11250.72
687.832	11215.24
688.18	11218.86
688.527	11196.71
688.874	11065.64
689.221	11069.71
689.568	11091.18
689.915	10977.28
690.262	10968.24
690.609	10949.94
690.956	10944.74
691.303	11023.38
691.65	10857.06
691.997	10834.01
692.344	10752.43
692.69	10778.42
693.037	10812.31
693.383	10715.14
693.73	10713.11
694.077	10671.08
694.423	10687.35
694.769	10635.14
695.116	10643.28
695.462	10557.18
695.808	10468.37
696.155	10532.55
696.501	10480.8
696.847	10465.88
697.193	10325.1
697.539	10287.58
697.885	10286.23
698.231	10303.4
698.577	10195.61
698.923	10220.47
699.269	10135.72
699.614	10071.77
699.96	10082.39
700.306	10010.75
700.651	9987.7
700.997	9976.18
701.342	9906.58
701.688	9838.33
702.033	9875.39
702.379	9873.13
702.724	9841.94
703.069	9746.81
703.415	9675.4
703.76	9752.23
704.105	9705.23
704.45	9677.43
704.795	9570.99
705.14	9601.5
705.485	9573.93
705.83	9542.97
706.175	9540.03
706.52	9527.38
706.865	9531.67
707.209	9452.12
707.554	9458.68
707.899	9486.25
708.243	9342.75
708.588	9361.73
708.932	9316.76
709.277	9219.14
709.621	9330.55
709.966	9198.12
710.31	9166.03
710.654	9121.06
710.998	9115.18
711.342	9190.66
711.687	9141.62
712.031	9075.86
712.375	9007.84
712.719	9112.02
713.063	9012.81
713.407	9053.94
713.75	9004.23
714.094	8944.57
714.438	8937.34
714.782	8914.51
715.125	8932.36
715.469	8935.3
715.812	8948.18
716.156	8817.79
716.499	8892.14
716.843	8877.45
717.186	8821.63
717.53	8805.14
717.873	8836.77
718.216	8787.96
718.559	8721.07
718.902	8714.29
719.246	8698.92
719.589	8720.84
719.932	8715.65
720.275	8644.69
720.617	8655.08
720.96	8666.16
721.303	8679.94
721.646	8613.73
721.989	8649.89
722.331	8607.63
722.674	8565.37
723.016	8632.94
723.359	8605.37
723.701	8614.86
724.044	8545.26
724.386	8560.17
724.729	8518.14
725.071	8411.93
725.413	8507.06
725.755	8519.49
726.097	8494.86
726.439	8415.32
726.782	8461.87
727.124	8548.42
727.465	8459.61
727.807	8385.94
728.149	8396.11
728.491	8380.74
728.833	8450.12
729.175	8434.98
729.516	8408.08
729.858	8422.09
730.199	8395.43
730.541	8463
730.882	8469.55
731.224	8372.6
731.565	8402.21
731.906	8484.92
732.248	8418.93
732.589	8372.83
732.93	8410.12
733.271	8357.46
733.612	8379.84
733.953	8435.2
734.294	8361.76
734.635	8389.78
734.976	8405.82
735.317	8344.36
735.658	8364.24
735.999	8351.81
736.339	8421.64
736.68	8407.63
737.021	8443.56
737.361	8314.98
737.702	8415.99
738.042	8374.41
738.383	8393.62
738.723	8364.92
739.063	8354.07
739.404	8428.87
739.744	8399.72
740.084	8356.11
740.424	8439.04
740.764	8371.47
741.104	8407.86
741.444	8500.51
741.784	8399.72
742.124	8466.84
742.464	8490.79
742.804	8516.33
743.143	8532.15
743.483	8522.66
743.823	8520.62
744.162	8532.83
744.502	8516.1
744.841	8575.31
745.181	8636.1
745.52	8636.78
745.86	8653.95
746.199	8695.99
746.538	8681.52
746.877	8760.17
747.216	8819.37
747.556	8775.31
747.895	8932.59
748.234	8877
748.573	8912.25
748.911	9010.1
749.25	9009.88
749.589	9038.35
749.928	9147.73
750.267	9168.29
750.605	9247.16
750.944	9301.39
751.283	9411.22
751.621	9475.4
751.96	9468.17
752.298	9532.12
752.636	9666.58
752.975	9716.52
753.313	9752.23
753.651	9910.64
753.989	9903.19
754.327	10026.12
754.666	10053.24
755.004	10261.82
755.342	10349.05
755.679	10394.25
756.017	10501.14
756.355	10666.33
756.693	10693.22
757.031	10885.76
757.368	10881.47
757.706	11058.64
758.044	11067
758.381	11313.32
758.719	11450.04
759.056	11544.27
759.394	11690.71
759.731	11787.2
760.068	11891.38
