Data from hue_210_FLMS001491_00037.txt Node
Date: Tue Feb 07 16:41:07 GMT 2017
User: dcchb
Spectrometer: FLMS00149
Trigger mode: 0
Integration Time (sec): 2.000000E-2
Scans to average: 10
Electric dark correction enabled: true
Nonlinearity correction enabled: false
Boxcar width: 0
XAxis mode: Wavelengths
Number of Pixels in Spectrum: 2048
>>>>>Begin Spectral Data<<<<<
341.393	7.81
341.776	7.81
342.16	7.81
342.543	-55.69
342.927	-68.57
343.31	-65.41
343.693	-55.01
344.077	-77.16
344.46	-51.62
344.843	-48.23
345.226	-40.1
345.61	-20.21
345.993	-26.31
346.376	-3.26
346.759	24.31
347.142	22.27
347.525	43.97
347.908	57.98
348.291	65.21
348.674	60.24
349.057	113.34
349.44	124.19
349.823	139.11
350.206	143.4
350.588	193.34
350.971	193.57
351.354	218.2
351.737	231.99
352.119	248.71
352.502	258.43
352.884	255.04
353.267	279.67
353.65	285.54
354.032	280.35
354.414	292.1
354.797	301.14
355.179	306.11
355.562	325.99
355.944	316.05
356.326	340.46
356.709	313.57
357.091	356.5
357.473	363.51
357.855	343.62
358.238	335.49
358.62	318.31
359.002	358.76
359.384	330.97
359.766	325.09
360.148	313.34
360.53	333
360.912	347.46
361.294	309.95
361.676	330.06
362.057	319.44
362.439	327.12
362.821	322.83
363.203	331.87
363.584	322.15
363.966	313.11
364.348	312.21
364.729	318.99
365.111	316.5
365.493	319.21
365.874	303.62
366.256	324.19
366.637	319.21
367.019	294.58
367.4	317.41
367.781	311.76
368.163	327.12
368.544	295.26
368.925	312.89
369.306	300.68
369.688	307.46
370.069	305.66
370.45	325.32
370.831	309.5
371.212	333
371.593	329.61
371.974	295.94
372.355	303.4
372.736	326.45
373.117	309.05
373.498	297.07
373.879	327.8
374.26	302.72
374.641	297.29
375.021	314.02
375.402	327.58
375.783	321.7
376.163	309.72
376.544	326.22
376.925	337.07
377.305	339.1
377.686	326.9
378.066	320.8
378.447	326.22
378.827	331.87
379.208	317.41
379.588	324.64
379.968	310.63
380.349	339.78
380.729	326.45
381.109	343.85
381.489	318.54
381.87	350.63
382.25	357.86
382.63	346.56
383.01	326.45
383.39	340.01
383.77	329.38
384.15	324.41
384.53	324.19
384.91	341.14
385.29	351.08
385.67	334.36
386.049	358.99
386.429	334.36
386.809	354.47
387.189	331.64
387.568	340.91
387.948	356.28
388.328	350.63
388.707	349.04
389.087	362.83
389.466	368.93
389.846	361.93
390.225	359.89
390.605	357.41
390.984	380
391.363	344.98
391.743	373
392.122	355.6
392.501	379.33
392.881	382.26
393.26	375.48
393.639	383.17
394.018	385.65
394.397	386.11
394.776	391.3
395.155	374.35
395.534	399.21
395.913	374.81
396.292	397.63
396.671	385.43
397.05	406.67
397.429	395.14
397.808	408.7
398.186	370.74
398.565	410.06
398.944	414.58
399.323	407.12
399.701	435.6
400.08	429.49
400.458	435.6
400.837	439.66
401.215	424.07
401.594	408.48
401.972	436.73
402.351	447.12
402.729	429.49
403.107	425.2
403.486	430.62
403.864	460.45
404.242	426.78
404.62	429.49
404.999	463.84
405.377	468.82
405.755	466.56
406.133	468.82
406.511	466.56
406.889	476.72
407.267	487.12
407.645	486.89
408.023	485.99
408.401	506.55
408.779	508.36
409.156	513.79
409.534	513.33
409.912	533.22
410.29	541.58
410.667	520.57
411.045	543.84
411.422	574.12
411.8	589.49
412.178	605.76
412.555	604.41
412.933	604.86
413.31	585.42
413.687	601.47
414.065	632.65
414.442	638.53
414.819	657.51
415.197	642.37
415.574	665.87
415.951	657.51
416.328	652.31
416.705	667.45
417.082	694.35
417.46	699.77
417.837	716.72
418.214	700.45
418.591	741.8
418.967	744.29
419.344	756.27
419.721	767.34
420.098	777.51
420.475	785.87
420.852	804.4
421.228	794.46
421.605	826.09
421.982	814.12
422.358	861.12
422.735	870.16
423.111	875.81
423.488	899.99
423.864	891.86
424.241	923.27
424.617	933.66
424.994	949.71
425.37	937.05
425.746	967.11
426.123	969.37
426.499	994.9
426.875	999.2
427.251	1052.08
427.627	1071.74
428.003	1062.25
428.379	1081.68
428.756	1087.1
429.132	1125.75
429.507	1111.06
429.883	1117.61
430.259	1141.79
430.635	1143.15
431.011	1148.12
431.387	1179.31
431.763	1194.9
432.138	1219.3
432.514	1255.91
432.89	1264.73
433.265	1277.16
433.641	1324.39
434.016	1295.69
434.392	1337.49
434.767	1367.55
435.143	1388.34
435.518	1425.85
435.894	1434.44
436.269	1486.19
436.644	1510.6
437.02	1492.74
437.395	1535.91
437.77	1576.36
438.145	1596.92
438.52	1618.62
438.895	1620.65
439.271	1662
439.646	1678.95
440.021	1731.16
440.395	1723.92
440.77	1762.79
441.145	1756.01
441.52	1785.16
441.895	1819.74
442.27	1826.97
442.645	1851.83
443.019	1897.03
443.394	1874.65
443.769	1914.2
444.143	1913.52
444.518	1947.19
444.892	1936.8
445.267	1986.29
445.641	1989.91
446.016	1985.16
446.39	2040.3
446.764	2036.01
447.139	2071.26
447.513	2089.34
447.887	2061.99
448.262	2085.04
448.636	2130.92
449.01	2144.25
449.384	2122.78
449.758	2160.52
450.132	2183.35
450.506	2251.14
450.88	2228.32
451.254	2215.89
451.628	2290.69
452.002	2288.65
452.376	2309.22
452.75	2372.95
453.123	2377.24
453.497	2409.78
453.871	2385.15
454.244	2444.58
454.618	2483.68
454.992	2499.27
455.365	2504.02
455.739	2586.73
456.112	2593.05
456.486	2568.65
456.859	2632.15
457.232	2675.54
457.606	2631.02
457.979	2705.59
458.352	2762.99
458.725	2805.7
459.099	2813.84
459.472	2822.88
459.845	2918.47
460.218	2875.08
460.591	2935.64
460.964	2907.4
461.337	3005.92
461.71	3070.78
462.083	3071.46
462.456	3063.32
462.829	3134.96
463.201	3224.45
463.574	3178.35
463.947	3215.18
464.32	3286.82
464.692	3278.01
465.065	3335.18
465.438	3382.19
465.81	3433.48
466.183	3465.35
466.555	3562.07
466.928	3538.57
467.3	3573.37
467.672	3559.36
468.045	3641.16
468.417	3701.72
468.789	3728.39
469.161	3761.84
469.534	3805.22
469.906	3928.39
470.278	3912.11
470.65	3952.79
471.022	4014.26
471.394	4084.54
471.766	4083.64
472.138	4152.79
472.51	4225.33
472.882	4278.88
473.253	4338.54
473.625	4404.31
473.997	4459.9
474.369	4457.64
474.74	4568.37
475.112	4616.05
475.484	4677.29
475.855	4747.8
476.227	4802.49
476.598	4924.97
476.97	4983.27
477.341	5051.07
477.713	5106.21
478.084	5157.96
478.455	5246.99
478.827	5285.86
479.198	5455.12
479.569	5501.45
479.94	5604.5
480.311	5610.83
480.682	5751.39
481.053	5829.8
481.424	5943.7
481.795	5994.32
482.166	6045.62
482.537	6117.03
482.908	6195.9
483.279	6327.19
483.65	6360.86
484.021	6468.88
484.391	6519.73
484.762	6622.1
485.133	6628.43
485.503	6735.09
485.874	6867.97
486.244	6879.49
486.615	6991.58
486.985	7044.91
487.356	7230.22
487.726	7231.8
488.097	7360.16
488.467	7304.34
488.837	7497.56
489.207	7623.43
489.578	7700.26
489.948	7817.77
490.318	7876.08
490.688	7929.41
491.058	8010.09
491.428	8048.05
491.798	8139.12
492.168	8283.98
492.538	8269.51
492.908	8381.15
493.278	8474.71
493.648	8430.64
494.017	8529.39
494.387	8595.16
494.757	8626.34
495.126	8723.97
495.496	8744.08
495.866	8759.22
496.235	8921.93
496.605	8899.55
496.974	9000.79
497.344	9010.06
497.713	9001.7
498.082	9058.42
498.452	9175.25
498.821	9197.85
499.19	9257.74
499.559	9287.11
499.928	9359.2
500.298	9372.76
500.667	9436.49
501.036	9452.53
501.405	9516.04
501.774	9489.14
502.143	9572.08
502.512	9570.04
502.88	9654.34
503.249	9594.9
503.618	9690.72
503.987	9729.81
504.356	9699.08
504.724	9681
505.093	9794.22
505.462	9813.88
505.83	9836.48
506.199	9894.1
506.567	10023.82
506.936	10031.73
507.304	9993.31
507.672	10043.7
508.041	10062.01
508.409	10064.95
508.777	10157.6
509.145	10179.29
509.514	10197.15
509.882	10238.95
510.25	10191.5
510.618	10266.52
510.986	10250.25
511.354	10313.53
511.722	10358.95
512.09	10375.67
512.458	10336.13
512.826	10417.48
513.193	10466.74
513.561	10435.78
513.929	10465.16
514.297	10602.56
514.664	10581.54
515.032	10562.79
515.4	10660.64
515.767	10579.96
516.135	10686.63
516.502	10550.36
516.869	10756.68
517.237	10664.71
517.604	10636.68
517.972	10743.12
518.339	10701.09
518.706	10771.82
519.073	10685.72
519.44	10737.25
519.808	10800.3
520.175	10762.33
520.542	10788.77
520.909	10820.63
521.276	10801.65
521.643	10829.67
522.009	10849.56
522.376	10899.28
522.743	10854.53
523.11	10939.27
523.477	10963.91
523.843	10983.79
524.21	11114.64
524.577	11081.19
524.943	11109.21
525.31	11056.56
525.676	11040.97
526.043	11173.39
526.409	11119.83
526.776	11146.27
527.142	11111.93
527.508	11140.85
527.874	11179.27
528.241	11139.27
528.607	11151.7
528.973	11223.56
529.339	11171.58
529.705	11182.21
530.071	11157.12
530.437	11252.03
530.803	11285.03
531.169	11247.29
531.535	11181.98
531.901	11143.11
532.267	11153.96
532.632	11166.39
532.998	11174.52
533.364	11178.59
533.73	11068.08
534.095	11130.46
534.461	11130.46
534.826	11089.33
535.192	11065.82
535.557	11066.95
535.923	11019.72
536.288	11056.11
536.653	11038.71
537.019	10943.34
537.384	10935.88
537.749	10941.76
538.114	10926.62
538.479	10861.08
538.845	10893.85
539.21	10765.04
539.575	10828.09
539.94	10843.91
540.305	10833.74
540.67	10758.71
541.034	10699.96
541.399	10709.9
541.764	10764.59
542.129	10699.51
542.494	10596.46
542.858	10579.51
543.223	10578.15
543.587	10553.97
543.952	10547.42
544.316	10474.88
544.681	10440.08
545.045	10444.82
545.41	10463.35
545.774	10468.1
546.138	10396.92
546.503	10369.12
546.867	10284.83
547.231	10370.02
547.595	10301.1
547.959	10205.51
548.324	10251.83
548.688	10210.03
549.052	10164.38
549.416	10120.76
549.779	10038.51
550.143	10013.65
550.507	10079.18
550.871	10010.26
551.235	10019.75
551.599	9977.94
551.962	10052.07
552.326	9967.77
552.689	9912.86
553.053	9872.18
553.417	9852.52
553.78	9902.47
554.143	9822.02
554.507	9819.98
554.87	9820.43
555.234	9817.72
555.597	9758.06
555.96	9760.32
556.323	9840.32
556.686	9697.95
557.05	9703.15
557.413	9708.57
557.776	9716.03
558.139	9712.41
558.502	9591.51
558.865	9706.54
559.228	9684.39
559.59	9676.03
559.953	9648.24
560.316	9698.18
560.679	9661.12
561.041	9746.99
561.404	9701.79
561.767	9732.53
562.129	9590.61
562.492	9722.13
562.854	9746.31
563.217	9733.66
563.579	9669.7
563.941	9721.68
564.304	9719.42
564.666	9727.1
565.028	9767.1
565.39	9712.41
565.753	9782.24
566.115	9798.29
566.477	9714
566.839	9791.73
567.201	9784.95
567.563	9746.99
567.925	9806.2
568.287	9775.69
568.648	9839.64
569.01	9891.84
569.372	9904.27
569.734	9898.4
570.095	9857.72
570.457	9880.77
570.819	9857.5
571.18	9898.17
571.542	9948.57
571.903	9877.83
572.265	10007.1
572.626	9899.3
572.987	9921.22
573.349	9930.26
573.71	9977.49
574.071	9950.37
574.432	10016.13
574.794	10038.51
575.155	10067.66
575.516	10072.4
575.877	10046.19
576.238	10046.42
576.599	10110.37
576.96	10047.77
577.32	10033.76
577.681	10104.49
578.042	10130.93
578.403	10131.61
578.763	10130.48
579.124	10158.5
579.485	10181.33
579.845	10234.21
580.206	10183.59
580.566	10187.2
580.927	10208.9
581.287	10250.48
581.648	10159.18
582.008	10296.81
582.368	10270.82
582.728	10238.73
583.089	10216.36
583.449	10254.77
583.809	10283.02
584.169	10292.06
584.529	10257.71
584.889	10312.62
585.249	10268.11
585.609	10217.49
585.969	10285.73
586.329	10242.12
586.688	10323.47
587.048	10285.73
587.408	10238.73
587.768	10354.66
588.127	10261.55
588.487	10275.79
588.846	10381.1
589.206	10259.52
589.565	10292.96
589.925	10356.92
590.284	10304.26
590.643	10325.05
591.003	10292.06
591.362	10365.96
591.721	10377.03
592.08	10356.92
592.44	10380.87
592.799	10335.22
593.158	10386.07
593.517	10382
593.876	10401.66
594.235	10365.96
594.593	10392.17
594.952	10309.23
595.311	10320.31
595.67	10353.53
596.029	10392.62
596.387	10394.2
596.746	10421.1
597.104	10356.46
597.463	10311.49
597.822	10398.05
598.18	10377.03
598.538	10382.9
598.897	10448.67
599.255	10269.69
599.613	10504.94
599.972	10382.23
600.33	10439.4
600.688	10326.18
601.046	10414.32
601.404	10450.93
601.762	10435.78
602.12	10525.05
602.478	10453.19
602.836	10422.9
603.194	10424.94
603.552	10463.13
603.91	10431.04
604.268	10440.08
604.625	10382.68
604.983	10433.07
605.341	10419.97
605.698	10464.71
606.056	10451.83
606.413	10431.72
606.771	10508.55
607.128	10501.09
607.485	10445.73
607.843	10394.66
608.2	10454.54
608.557	10470.36
608.914	10526.63
609.272	10554.88
609.629	10530.92
609.986	10576.8
610.343	10480.98
610.7	10596.46
611.057	10611.37
611.414	10600.75
611.771	10631.49
612.127	10576.57
612.484	10537.03
612.841	10613.63
613.198	10577.02
613.554	10675.1
613.911	10646.63
614.267	10682.56
614.624	10606.18
614.98	10594.88
615.337	10689.34
615.693	10677.13
616.05	10647.76
616.406	10655.21
616.762	10637.36
617.118	10649.11
617.475	10652.73
617.831	10656.34
618.187	10700.86
618.543	10690.69
618.899	10693.63
619.255	10760.75
619.611	10819.28
619.967	10789.22
620.323	10817.24
620.678	10749.67
621.034	10713.29
621.39	10723.01
621.746	10616.12
622.101	10797.13
622.457	10669.23
622.812	10777.7
623.168	10738.6
623.523	10791.93
623.879	10875.55
624.234	10690.47
624.589	10720.07
624.945	10744.48
625.3	10703.12
625.655	10743.12
626.01	10713.97
626.365	10714.65
626.72	10737.02
627.075	10694.08
627.43	10623.58
627.785	10697.25
628.14	10731.82
628.495	10744.48
628.85	10695.67
629.205	10685.04
629.559	10731.14
629.914	10637.14
630.269	10710.58
630.623	10688.21
630.978	10638.04
631.332	10704.03
631.687	10689.11
632.041	10572.05
632.396	10676.68
632.75	10679.85
633.104	10602.56
633.459	10542.9
633.813	10533.64
634.167	10554.43
634.521	10584.71
634.875	10554.65
635.229	10480.76
635.583	10468.78
635.937	10514.65
636.291	10416.58
636.645	10419.74
636.999	10450.47
637.352	10527.76
637.706	10385.84
638.06	10332.06
638.413	10399.18
638.767	10388.78
639.121	10413.86
639.474	10281.21
639.828	10311.04
640.181	10360.98
640.534	10324.83
640.888	10331.15
641.241	10217.49
641.594	10275.56
641.947	10353.75
642.301	10285.05
642.654	10234.43
643.007	10279.4
643.36	10238.5
643.713	10269.24
644.066	10243.7
644.419	10242.57
644.771	10256.81
645.124	10068.34
645.477	10062.46
645.83	9974.78
646.182	9935.23
646.535	9938.4
646.888	9889.36
647.24	9837.83
647.593	9915.57
647.945	9833.77
648.298	9870.6
648.65	9831.28
649.002	9866.99
649.355	9902.47
649.707	9919.19
650.059	10010.71
650.411	10033.99
650.763	10087.09
651.115	10057.04
651.467	10099.07
651.819	10029.47
652.171	10088.22
652.523	10171.16
652.875	10096.36
653.227	10039.19
653.578	10042.12
653.93	10109.24
654.282	10049.13
654.633	10028.56
654.985	10013.88
655.337	10050.03
655.688	10053.87
656.039	10057.72
656.391	10007.55
656.742	10051.84
657.094	10107.43
657.445	10093.42
657.796	10020.43
658.147	10074.66
658.498	9990.82
658.849	10021.11
659.2	10052.52
659.551	10050.03
659.902	10142.91
660.253	10064.5
660.604	10118.96
660.955	10078.96
661.306	10146.75
661.656	10105.17
662.007	10063.37
662.358	10106.75
662.708	10109.92
663.059	10098.17
663.409	10040.77
663.76	10075.57
664.11	10173.19
664.461	10170.26
664.811	10149.69
665.161	10102.23
665.511	10128.67
665.862	10192.4
666.212	10158.73
666.562	10158.5
666.912	10145.17
667.262	10105.4
667.612	10097.94
667.962	10184.72
668.312	10129.13
668.662	10192.4
669.011	10109.47
669.361	10067.66
669.711	10099.75
670.06	10083.93
670.41	10074.89
670.76	10015.01
671.109	10063.82
671.459	10092.29
671.808	10040.77
672.157	10158.5
672.507	9995.12
672.856	10048.9
673.205	10071.05
673.554	10038.28
673.904	10038.96
674.253	10076.02
674.602	10022.46
674.951	9910.6
675.3	9799.42
675.649	10007.55
675.998	9941.56
676.346	10003.71
676.695	9988.57
677.044	9941.33
677.393	9912.41
677.741	9943.82
678.09	9926.42
678.438	9936.14
678.787	9995.8
679.135	9941.56
679.484	9797.61
679.832	9977.72
680.181	9780.89
680.529	9829.7
680.877	9821.79
681.225	9735.46
681.573	9842.35
681.922	9715.35
682.27	9713.09
682.618	9776.37
682.966	9648.46
683.314	9704.96
683.661	9647.33
684.009	9607.78
684.357	9637.16
684.705	9582.7
685.053	9583.38
685.4	9584.73
685.748	9510.16
686.095	9449.82
686.443	9478.97
686.79	9419.99
687.138	9509.93
687.485	9465.87
687.832	9425.42
688.18	9400.78
688.527	9327.57
688.874	9329.6
689.221	9356.49
689.568	9314.23
689.915	9249.6
690.262	9259.32
690.609	9203.73
690.956	9155.82
691.303	9195.82
691.65	9115.14
691.997	9108.36
692.344	9027.91
692.69	9035.14
693.037	9031.98
693.383	8926.9
693.73	8958.08
694.077	8930.74
694.423	8891.64
694.769	8790.18
695.116	8859.33
695.462	8756.28
695.808	8810.74
696.155	8746.79
696.501	8663.63
696.847	8702.05
697.193	8666.11
697.539	8659.11
697.885	8598.55
698.231	8574.36
698.577	8597.42
698.923	8470.41
699.269	8480.13
699.614	8419.57
699.96	8417.53
700.306	8437.65
700.651	8309.29
700.997	8288.72
701.342	8305.45
701.688	8344.54
702.033	8258.67
702.379	8220.02
702.724	8203.08
703.069	8221.83
703.415	8070.88
703.76	8164.21
704.105	8114.94
704.45	8101.61
704.795	8044.21
705.14	8000.14
705.485	7987.94
705.83	7919.69
706.175	7961.05
706.52	7876.53
706.865	7895.96
707.209	7796.08
707.554	7799.02
707.899	7831.56
708.243	7780.04
708.588	7723.09
708.932	7689.87
709.277	7691
709.621	7731.45
709.966	7675.18
710.31	7666.59
710.654	7566.48
710.998	7613.26
711.342	7554.5
711.687	7583.2
712.031	7501.17
712.375	7462.08
712.719	7547.27
713.063	7444.45
713.407	7488.29
713.75	7454.39
714.094	7482.42
714.438	7396.54
714.782	7481.29
715.125	7420.05
715.469	7404.68
715.812	7337.34
716.156	7362.87
716.499	7307.51
716.843	7379.14
717.186	7302.08
717.53	7324.68
717.873	7325.81
718.216	7385.02
718.559	7273.83
718.902	7316.32
719.246	7211.01
719.589	7274.29
719.932	7212.59
720.275	7260.5
720.617	7208.07
720.96	7203.33
721.303	7148.41
721.646	7200.16
721.989	7167.17
722.331	7185.47
722.674	7092.14
723.016	7165.36
723.359	7169.66
723.701	7162.88
724.044	7111.13
724.386	7096.44
724.729	7151.13
725.071	7143.22
725.413	7139.6
725.755	7094.18
726.097	7064.8
726.439	7004.91
726.782	6999.94
727.124	7067.74
727.465	7033.61
727.807	7021.86
728.149	7034.07
728.491	7053.05
728.833	7064.57
729.175	7035.42
729.516	7030.68
729.858	7021.64
730.199	7023.45
730.541	7013.5
730.882	7001.3
731.224	7039.04
731.565	6965.14
731.906	6987.29
732.248	7037.91
732.589	7017.12
732.93	6945.03
733.271	6974.18
733.612	7034.52
733.953	6993.62
734.294	6968.53
734.635	6964.01
734.976	7005.14
735.317	6996.55
735.658	6976.67
735.999	6985.93
736.339	6997.01
736.68	7063.67
737.021	6987.06
737.361	6980.96
737.702	7031.81
738.042	7025.71
738.383	6976.89
738.723	7030.45
739.063	6994.52
739.404	7069.55
739.744	7077
740.084	7024.8
740.424	7135.76
740.764	7067.29
741.104	7119.49
741.444	7145.25
741.784	7087.4
742.124	7156.78
742.464	7081.52
742.804	7156.78
743.143	7192.93
743.483	7171.01
743.823	7188.41
744.162	7167.85
744.502	7309.31
744.841	7240.61
745.181	7312.93
745.52	7270.44
745.86	7350.22
746.199	7375.07
746.538	7414.4
746.877	7469.08
747.216	7503.43
747.556	7579.36
747.895	7579.14
748.234	7624.33
748.573	7748.17
748.911	7752.47
749.25	7875.63
749.589	7898.22
749.928	8002.4
750.267	7975.96
750.605	8014.61
750.944	8133.92
751.283	8161.04
751.621	8213.24
751.96	8293.47
752.298	8394.48
752.636	8498.21
752.975	8625.21
753.313	8633.12
753.651	8783.62
753.989	8950.85
754.327	8917.63
754.666	9062.26
755.004	9189.72
755.342	9391.97
755.679	9449.82
756.017	9537.05
756.355	9723.26
756.693	9795.8
757.031	10033.08
757.368	10108.56
757.706	10223.81
758.044	10337.48
758.381	10561.43
758.719	10711.26
759.056	10807.98
759.394	10957.81
759.731	11127.07
760.068	11294.75
760.405	11377.23
760.743	11545.81
761.08	11841.17
761.417	11946.03
