Data from hue_32_FLMS001491_00076.txt Node
Date: Tue Feb 07 17:23:53 GMT 2017
User: dcchb
Spectrometer: FLMS00149
Trigger mode: 0
Integration Time (sec): 2.000000E-2
Scans to average: 10
Electric dark correction enabled: true
Nonlinearity correction enabled: false
Boxcar width: 0
XAxis mode: Wavelengths
Number of Pixels in Spectrum: 2048
>>>>>Begin Spectral Data<<<<<
341.393	-2.05
341.776	-2.05
342.16	-2.05
342.543	-67.58
342.927	-78.2
343.31	-69.84
343.693	-49.28
344.077	-62.84
344.46	-68.71
344.843	-34.36
345.226	-52.67
345.61	-38.66
345.993	-7.25
346.376	-20.35
346.759	13.32
347.142	43.15
347.525	35.69
347.908	55.13
348.291	69.59
348.674	65.75
349.057	121.34
349.44	101.9
349.823	136.03
350.206	159.08
350.588	187.33
350.971	234.33
351.354	249.7
351.737	253.54
352.119	226.87
352.502	252.41
352.884	263.48
353.267	298.51
353.65	295.57
354.032	308.68
354.414	294.44
354.797	329.92
355.179	311.62
355.562	315.46
355.944	332.41
356.326	336.25
356.709	329.02
357.091	347.1
357.473	347.1
357.855	343.93
358.238	335.34
358.62	327.66
359.002	337.38
359.384	343.03
359.766	343.93
360.148	339.86
360.53	349.81
360.912	342.8
361.294	324.72
361.676	344.38
362.057	335.8
362.439	333.76
362.821	336.93
363.203	324.72
363.584	314.1
363.966	333.99
364.348	320.88
364.729	333.08
365.111	326.53
365.493	317.27
365.874	321.56
366.256	308.9
366.637	312.97
367.019	332.86
367.4	322.24
367.781	295.35
368.163	307.1
368.544	317.72
368.925	313.42
369.306	320.43
369.688	322.24
370.069	308
370.45	303.71
370.831	326.98
371.212	315.91
371.593	321.33
371.974	331.73
372.355	310.49
372.736	318.17
373.117	322.01
373.498	334.89
373.879	301.67
374.26	336.25
374.641	329.69
375.021	321.79
375.402	331.5
375.783	324.05
376.163	321.56
376.544	333.76
376.925	327.89
377.305	335.12
377.686	298.28
378.066	325.63
378.447	332.41
378.827	312.97
379.208	331.28
379.588	328.11
379.968	320.66
380.349	322.24
380.729	339.64
381.109	348.68
381.489	341.22
381.87	345.97
382.25	338.96
382.63	340.32
383.01	359.3
383.39	332.18
383.77	348.45
384.15	351.62
384.53	366.08
384.91	340.54
385.29	373.31
385.67	346.42
386.049	353.42
386.429	354.1
386.809	353.2
387.189	368.79
387.568	356.13
387.948	363.37
388.328	346.87
388.707	364.04
389.087	348.45
389.466	377.6
389.846	347.32
390.225	368.11
390.605	369.69
390.984	379.86
391.363	373.31
391.743	385.29
392.122	362.24
392.501	343.25
392.881	380.77
393.26	394.55
393.639	373.08
394.018	379.64
394.397	386.42
394.776	384.61
395.155	386.19
395.534	368.56
395.913	388.68
396.292	405.4
396.671	364.72
397.05	396.81
397.429	376.25
397.808	384.38
398.186	396.13
398.565	399.07
398.944	400.88
399.323	401.11
399.701	395
400.08	399.98
400.458	407.88
400.837	390.94
401.215	410.6
401.594	385.96
401.972	404.72
402.351	385.06
402.729	394.33
403.107	393.65
403.486	423.48
403.864	428.9
404.242	427.32
404.62	416.7
404.999	413.99
405.377	409.69
405.755	414.89
406.133	426.19
406.511	408.11
406.889	440.2
407.267	428.45
407.645	435.91
408.023	438.62
408.401	434.55
408.779	440.43
409.156	447.66
409.534	456.02
409.912	448.34
410.29	449.69
410.667	438.84
411.045	456.02
411.422	475
411.8	435
412.178	479.07
412.555	467.32
412.933	474.78
413.31	488.79
413.687	463.02
414.065	485.62
414.442	491.95
414.819	492.18
415.197	477.49
415.574	512.29
415.951	513.42
416.328	479.97
416.705	499.41
417.082	510.48
417.46	515.45
417.837	512.51
418.214	524.27
418.591	492.18
418.967	502.8
419.344	518.16
419.721	549.8
420.098	503.93
420.475	533.08
420.852	524.49
421.228	511.38
421.605	517.03
421.982	521.1
422.358	531.72
422.735	537.15
423.111	551.84
423.488	571.95
423.864	543.93
424.241	566.07
424.617	559.07
424.994	560.88
425.37	561.33
425.746	578.5
426.123	565.17
426.499	577.15
426.875	589.35
427.251	594.32
427.627	586.64
428.003	578.05
428.379	599.74
428.756	603.59
429.132	603.59
429.507	616.92
429.883	637.71
430.259	617.37
430.635	625.28
431.011	628.22
431.387	644.26
431.763	642.91
432.138	623.02
432.514	648.1
432.89	634.55
433.265	663.47
433.641	666.18
434.016	664.6
434.392	677.03
434.767	692.62
435.143	707.54
435.518	696.01
435.894	697.59
436.269	703.92
436.644	700.31
437.02	701.89
437.395	737.59
437.77	721.1
438.145	730.81
438.52	728.1
438.895	739.85
439.271	741.44
439.646	730.81
440.021	743.24
440.395	744.37
440.77	753.86
441.145	783.69
441.52	752.06
441.895	760.87
442.27	771.04
442.645	740.53
443.019	780.08
443.394	782.56
443.769	806.52
444.143	783.47
444.518	798.83
444.892	802.68
445.267	825.73
445.641	818.95
446.016	830.47
446.39	820.98
446.764	824.14
447.139	813.98
447.513	841.55
447.887	851.71
448.262	850.13
448.636	825.73
449.01	842.22
449.384	848.78
449.758	864.37
450.132	857.82
450.506	882
450.88	866.86
451.254	866.4
451.628	893.52
452.002	856.23
452.376	915.22
452.75	924.93
453.123	921.09
453.497	943.69
453.871	941.43
454.244	924.26
454.618	946.4
454.992	956.8
455.365	947.76
455.739	986.17
456.112	957.47
456.486	997.7
456.859	1006.29
457.232	1026.17
457.606	1029.79
457.979	1017.36
458.352	1057.13
458.725	1052.16
459.099	1057.59
459.472	1063.69
459.845	1074.76
460.218	1073.4
460.591	1086.74
460.964	1117.24
461.337	1133.52
461.71	1135.55
462.083	1152.95
462.456	1148.2
462.829	1153.63
463.201	1201.08
463.574	1187.98
463.947	1223.23
464.32	1258.26
464.692	1257.81
465.065	1232.04
465.438	1256.22
465.81	1290.12
466.183	1269.11
466.555	1317.01
466.928	1320.63
467.3	1313.62
467.672	1356.33
468.045	1373.74
468.417	1410.8
468.789	1415.77
469.161	1457.35
469.534	1458.25
469.906	1489.44
470.278	1503.45
470.65	1521.3
471.022	1524.69
471.394	1590.45
471.766	1597.91
472.138	1619.15
472.51	1643.78
472.882	1666.83
473.253	1697.57
473.625	1734.18
473.997	1760.39
474.369	1775.53
474.74	1819.6
475.112	1838.58
475.484	1886.49
475.855	1934.17
476.227	1956.54
476.598	2004.23
476.97	2004.9
477.341	2075.19
477.713	2134.84
478.084	2138.01
478.455	2241.51
478.827	2225.46
479.198	2342.75
479.569	2333.94
479.94	2436.08
480.311	2435.4
480.682	2531.67
481.053	2571.67
481.424	2636.3
481.795	2730.54
482.166	2763.53
482.537	2821.15
482.908	2896.41
483.279	2975.5
483.65	2974.82
484.021	3079.23
484.391	3164.87
484.762	3223.86
485.133	3281.26
485.503	3316.06
485.874	3429.73
486.244	3507.69
486.615	3579.33
486.985	3634.24
487.356	3711.75
487.726	3800.11
488.097	3910.62
488.467	3946.32
488.837	3978.64
489.207	4116.26
489.578	4184.28
489.948	4292.53
490.318	4371.85
490.688	4428.12
491.058	4532.97
491.428	4626.98
491.798	4696.59
492.168	4803.48
492.538	4835.34
492.908	4899.07
493.278	5021.1
493.648	5078.72
494.017	5145.16
494.387	5271.49
494.757	5301.09
495.126	5414.98
495.496	5421.76
495.866	5508.09
496.235	5588.54
496.605	5684.58
496.974	5732.04
497.344	5845.48
497.713	5881.41
498.082	5953.28
498.452	6046.38
498.821	6099.26
499.19	6144.23
499.559	6236.21
499.928	6222.42
500.298	6263.32
500.667	6395.07
501.036	6447.95
501.405	6524.56
501.774	6537.22
502.143	6668.74
502.512	6703.31
502.88	6757.55
503.249	6790.09
503.618	6848.62
503.987	6936.98
504.356	6917.54
504.724	6997.32
505.093	7091.78
505.462	7100.82
505.83	7179.01
506.199	7204.32
506.567	7341.26
506.936	7333.8
507.304	7488.15
507.672	7499.68
508.041	7503.52
508.409	7608.83
508.777	7662.61
509.145	7717.07
509.514	7693.57
509.882	7828.03
510.25	7806.79
510.618	7933.79
510.986	7929.72
511.354	7953.68
511.722	8040.9
512.09	8101.24
512.458	8122.94
512.826	8225.53
513.193	8269.15
513.561	8261.01
513.929	8296.94
514.297	8409.03
514.664	8395.02
515.032	8505.52
515.4	8547.33
515.767	8526.32
516.135	8612.19
516.502	8522.47
516.869	8707.1
517.237	8744.16
517.604	8757.27
517.972	8879.98
518.339	8837.27
518.706	8950.26
519.073	8857.83
519.44	8972.18
519.808	9068.45
520.175	9012.63
520.542	9167.2
520.909	9241.32
521.276	9210.59
521.643	9293.75
522.009	9313.87
522.376	9431.6
522.743	9400.42
523.11	9545.95
523.477	9556.12
523.843	9645.83
524.21	9657.36
524.577	9783.91
524.943	9816.45
525.31	9914.53
525.676	10007.41
526.043	9977.58
526.409	9995.88
526.776	10093.51
527.142	10197.46
527.508	10273.16
527.874	10340.05
528.241	10331.01
528.607	10382.09
528.973	10456.21
529.339	10422.08
529.705	10573.49
530.071	10643.77
530.437	10671.12
530.803	10755.64
531.169	10751.34
531.535	10776.2
531.901	10843.32
532.267	10894.61
532.632	10920.15
532.998	11008.06
533.364	11008.74
533.73	10993.6
534.095	11207.37
534.461	11165.57
534.826	11305.45
535.192	11249.86
535.557	11297.32
535.923	11421.61
536.288	11413.47
536.653	11490.08
537.019	11461.61
537.384	11552.68
537.749	11549.96
538.114	11674.48
538.479	11655.5
538.845	11670.87
539.21	11782.05
539.575	11774.59
539.94	11833.12
540.305	11958.77
540.67	11920.12
541.034	12046.67
541.399	12148.82
541.764	12070.18
542.129	12166.22
542.494	12194.69
542.858	12262.49
543.223	12199.21
543.587	12338.19
543.952	12328.93
544.316	12384.97
544.681	12366.21
545.045	12386.1
545.41	12558.53
545.774	12602.14
546.138	12619.54
546.503	12686.21
546.867	12644.17
547.231	12822.93
547.595	12824.06
547.959	12864.51
548.324	12915.13
548.688	12980.21
549.052	12997.16
549.416	13060.89
549.779	13028.12
550.143	13084.39
550.507	13170.26
550.871	13266.08
551.235	13226.53
551.599	13297.26
551.962	13364.38
552.326	13388.33
552.689	13482.34
553.053	13411.61
553.417	13365.28
553.78	13607.54
554.143	13542.68
554.507	13669.23
554.87	13715.11
555.234	13847.08
555.597	13721.88
555.96	13831.94
556.323	13862.45
556.686	13857.7
557.05	13976.12
557.413	14018.15
557.776	14127.75
558.139	14190.12
558.502	14166.62
558.865	14210.23
559.228	14207.52
559.59	14328.42
559.953	14381.53
560.316	14548.53
560.679	14473.28
561.041	14606.16
561.404	14591.47
561.767	14721.18
562.129	14628.08
562.492	14753.04
562.854	14807.51
563.217	14769.32
563.579	14796.88
563.941	14929.76
564.304	14911.46
564.666	14968.18
565.028	15133.83
565.39	15068.52
565.753	15146.71
566.115	15246.59
566.477	15228.06
566.839	15386.25
567.201	15408.39
567.563	15575.85
567.925	15584.43
568.287	15618.56
568.648	15587.37
569.01	15698.33
569.372	15812.68
569.734	15790.76
570.095	15925.89
570.457	15889.74
570.819	15997.08
571.18	15998.21
571.542	16172.44
571.903	16206.11
572.265	16294.7
572.626	16360.46
572.987	16403.62
573.349	16499.44
573.71	16525.88
574.071	16630.51
574.432	16689.49
574.794	16842.25
575.155	16857.17
575.516	16879.99
575.877	17145.75
576.238	17184.84
576.599	17292.19
576.96	17405.4
577.32	17465.29
577.681	17557.72
578.042	17790.7
578.403	17876.58
578.763	17996.8
579.124	18152.95
579.485	18302.78
579.845	18564.47
580.206	18552.94
580.566	18719.72
580.927	18918.13
581.287	19058.24
581.648	19172.59
582.008	19401.74
582.368	19437.67
582.728	19862.29
583.089	19961.49
583.449	20135.05
583.809	20234.03
584.169	20547.92
584.529	20717.86
584.889	21078.75
585.249	21044.86
585.609	21278.52
585.969	21644.61
586.329	21730.71
586.688	22057.26
587.048	22327.08
587.408	22527.53
587.768	22725.49
588.127	22887.75
588.487	23086.84
588.846	23626.03
589.206	23552.59
589.565	23860.83
589.925	24275.28
590.284	24408.38
590.643	24701.48
591.003	25034.81
591.362	25399.77
591.721	25607
592.08	25906.65
592.44	26050.37
592.799	26555.9
593.158	26637.93
593.517	26838.6
593.876	27271.81
594.235	27397.68
594.593	27634.74
594.952	27965.58
595.311	28132.81
595.67	28448.05
596.029	28913.58
596.387	29125.55
596.746	29403.05
597.104	29537.51
597.463	29809.82
597.822	30136.59
598.18	30257.27
598.538	30582.46
598.897	30958.72
599.255	31009.34
599.613	31684.12
599.972	31653.16
600.33	31843.22
600.688	32132.47
601.046	32357.78
601.404	32759.58
601.762	32904.21
602.12	33218.32
602.478	33440.01
602.836	33674.81
603.194	33637.97
603.552	34006.78
603.91	34115.7
604.268	34313.66
604.625	34529.02
604.983	34721.33
605.341	34872.97
605.698	35294.2
606.056	35547.53
606.413	35553.85
606.771	35949.55
607.128	36124.46
607.485	36065.48
607.843	36374.17
608.2	36618.46
608.557	36820.94
608.914	36879.69
609.272	37102.74
609.629	37295.73
609.986	37589.73
610.343	37572.33
610.7	38013.68
611.057	38107.46
611.414	38174.12
611.771	38224.07
612.127	38672.19
612.484	38751.06
612.841	39105.17
613.198	38881.22
613.554	39064.04
613.911	39313.98
614.267	39447.99
614.624	39489.79
614.98	39663.58
615.337	40101.3
615.693	40087.52
616.05	40155.99
616.406	40390.34
616.762	40385.82
617.118	40314.41
617.475	40517.34
617.831	40674.4
618.187	40837.1
618.543	40931.79
618.899	41254.49
619.255	41296.98
619.611	41245.91
619.967	41550.08
620.323	41656.74
620.678	41563.19
621.034	41598.44
621.39	41596.63
621.746	41712.11
622.101	42256.73
622.457	41932.67
622.812	41966.34
623.168	42279.1
623.523	42353.67
623.879	42445.42
624.234	42283.17
624.589	42388.7
624.945	42518.64
625.3	42561.8
625.655	42489.72
626.01	42741.46
626.365	42800.89
626.72	42733.78
627.075	42885.19
627.43	42836.15
627.785	42704.63
628.14	42763.83
628.495	43067.1
628.85	42905.75
629.205	42801.8
629.559	43070.04
629.914	42966.09
630.269	43181.68
630.623	42973.77
630.978	42811.06
631.332	43122.47
631.687	43149.81
632.041	43071.17
632.396	43042.47
632.75	43074.33
633.104	43116.14
633.459	42966.99
633.813	42950.04
634.167	42964.96
634.521	43066.65
634.875	43152.07
635.229	42971.29
635.583	42906.43
635.937	42982.81
636.291	42872.3
636.645	42967.22
636.999	42913.89
637.352	43179.87
637.706	42824.62
638.06	43003.6
638.413	42924.73
638.767	42818.97
639.121	43058.06
639.474	42728.81
639.828	42766.32
640.181	42789.6
640.534	42796.83
640.888	42691.29
641.241	42708.69
641.594	42773.32
641.947	42872.98
642.301	42764.96
642.654	42667.11
643.007	42844.28
643.36	42716.15
643.713	42758.64
644.066	42767.45
644.419	42682.71
644.771	42236.16
645.124	42054.47
645.477	41869.17
645.83	41556.41
646.182	41562.73
646.535	41458.33
646.888	41421.27
647.24	41357.99
647.593	41565.9
647.945	41489.74
648.298	41270.77
648.65	41270.99
649.002	41129.98
649.355	41411.55
649.707	41462.17
650.059	41571.32
650.411	41997.75
650.763	41931.54
651.115	42313.22
651.467	42280.91
651.819	42115.71
652.171	41965.21
652.523	42116.17
652.875	42030.07
653.227	41922.73
653.578	42254.47
653.93	42092.66
654.282	41812.45
654.633	41797.08
654.985	41960.24
655.337	41952.56
655.688	41872.78
656.039	42004.53
656.391	41686.57
656.742	41794.37
657.094	41849.28
657.445	42014.47
657.796	41997.07
658.147	41695.84
658.498	41800.92
658.849	42000.24
659.2	41745.78
659.551	41654.94
659.902	41737.42
660.253	41602.96
660.604	41704.65
660.955	41604.54
661.306	41699
661.656	41549.63
662.007	41666.46
662.358	41701.71
662.708	41655.16
663.059	41739.23
663.409	41436.18
663.76	41709.4
664.11	41661.26
664.461	41823.97
664.811	41782.39
665.161	41655.84
665.511	41600.25
665.862	41665.33
666.212	41682.96
666.562	41716.63
666.912	41643.64
667.262	41582.4
667.612	41522.06
667.962	41476.64
668.312	41492
668.662	41677.31
669.011	41443.42
669.361	41615.84
669.711	41527.26
670.06	41473.92
670.41	41420.82
670.76	41227.15
671.109	41479.57
671.459	41175.63
671.808	41278
672.157	41365.9
672.507	41219.24
672.856	41260.14
673.205	41226.7
673.554	41420.59
673.904	41258.34
674.253	41432.12
674.602	41093.37
674.951	40703.1
675.3	40485.25
675.649	41148.73
675.998	41076.65
676.346	41185.34
676.695	41321.84
677.044	40765.69
677.393	41146.7
677.741	41116.19
678.09	41063.76
678.438	40901.74
678.787	41045.23
679.135	41003.2
679.484	40684.57
679.832	40841.4
680.181	40736.09
680.529	40888.85
680.877	40665.36
681.225	40702.64
681.573	40807.27
681.922	40564.34
682.27	40380.62
682.618	40518.69
682.966	40465.59
683.314	40511.01
683.661	40259.72
684.009	40151.47
684.357	40095.43
684.705	40031.25
685.053	40153.51
685.4	40038.03
685.748	39951.03
686.095	39917.81
686.443	39799.39
686.79	39654.31
687.138	39803.69
687.485	39734.76
687.832	39605.5
688.18	39667.42
688.527	39304.26
688.874	39371.83
689.221	39256.81
689.568	39170.93
689.915	39097.71
690.262	39106.3
690.609	38853.65
690.956	38802.13
691.303	38754
691.65	38634.22
691.997	38699.99
692.344	38334.8
692.69	38356.49
693.037	38408.24
693.383	38151.75
693.73	38243.05
694.077	38082.37
694.423	37994.47
694.769	38013
695.116	37841.48
695.462	37876.28
695.808	37666.34
696.155	37862.04
696.501	37532.33
696.847	37500.47
697.193	37084.89
697.539	37415.95
697.885	37130.53
698.231	36966.47
698.577	36954.72
698.923	36959.01
699.269	36794.5
699.614	36562.87
699.96	36573.94
700.306	36644.9
700.651	36554.05
700.997	36314.74
701.342	36168.3
701.688	36203.1
702.033	36109.54
702.379	36061.18
702.724	35992.03
703.069	36022.99
703.415	35539.16
703.76	35640.63
704.105	35687.41
704.45	35542.33
704.795	35330.13
705.14	35190.02
705.485	35222.11
705.83	35080.87
706.175	35082.45
706.52	35049.46
706.865	34890.37
707.209	34938.95
707.554	34714.78
707.899	34843.59
708.243	34585.29
708.588	34554.11
708.932	34346.2
709.277	34318.63
709.621	34424.17
709.966	34142.14
710.31	34301.23
710.654	33967.45
710.998	34147.56
711.342	33988.7
711.687	33735.14
712.031	33643.17
712.375	33616.05
712.719	33784.86
713.063	33548.48
713.407	33732.88
713.75	33592.55
714.094	33501.7
714.438	33349.17
714.782	33296.74
715.125	33229.85
715.469	33161.15
715.812	33077.53
716.156	32966.8
716.499	32863.3
716.843	33005.45
717.186	32725
717.53	32889.97
717.873	32871.89
718.216	32771.55
718.559	32703.98
718.902	32448.4
719.246	32394.84
719.589	32326.14
719.932	32282.53
720.275	32218.57
720.617	32239.59
720.96	32228.74
721.303	32089.54
721.646	32086.37
721.989	31942.42
722.331	32040.27
722.674	31923.21
723.016	31978.58
723.359	31927.96
723.701	31995.3
724.044	31778.81
724.386	31594.18
724.729	31723.22
725.071	31584.47
725.413	31576.1
725.755	31526.61
726.097	31418.37
726.439	31180.41
726.782	31276.9
727.124	31333.63
727.465	31151.03
727.807	31325.04
728.149	31085.72
728.491	31024.93
728.833	31083.01
729.175	31072.39
729.516	30913.07
729.858	30858.61
730.199	30808.44
730.541	30725.73
730.882	30790.59
731.224	30857.93
731.565	30669.24
731.906	30762.57
732.248	30644.38
732.589	30549.01
732.93	30500.65
733.271	30390.83
733.612	30437.15
733.953	30487.77
734.294	30332.3
734.635	30285.29
734.976	30275.57
735.317	30161.9
735.658	30231.51
735.999	30110.15
736.339	29981.57
736.68	30244.61
737.021	30000.1
737.361	29772.76
737.702	29933.44
738.042	29878.07
738.383	29901.12
738.723	29926.88
739.063	29759.88
739.404	29737.74
739.744	29729.37
740.084	29632.43
740.424	29745.64
740.764	29536.16
741.104	29689.15
741.444	29447.8
741.784	29357.86
742.124	29365.32
742.464	29438.31
742.804	29347.69
743.143	29344.98
743.483	29308.37
743.823	29158.32
744.162	29137.98
744.502	29176.17
744.841	29067.47
745.181	29173.91
745.52	28990.18
745.86	29008.71
746.199	28979.11
746.538	28904.54
746.877	29066.79
747.216	28967.59
747.556	28974.82
747.895	28751.32
748.234	28635.17
748.573	28634.26
748.911	28595.62
749.25	28645.11
749.589	28492.34
749.928	28661.61
750.267	28494.15
750.605	28541.38
750.944	28479.24
751.283	28308.62
751.621	28420.26
751.96	28180.94
752.298	28222.75
752.636	28190.88
752.975	28069.76
753.313	28031.57
753.651	28084.45
753.989	27934.17
754.327	27958.57
754.666	27732.59
755.004	27689.65
755.342	27826.37
755.679	27789.99
756.017	27566.27
756.355	27730.78
756.693	27538.02
757.031	27651.91
757.368	27430
757.706	27367.63
758.044	27294.18
