Data from hue_110_FLMS001491_00037.txt Node
Date: Tue Feb 07 17:01:14 GMT 2017
User: dcchb
Spectrometer: FLMS00149
Trigger mode: 0
Integration Time (sec): 2.000000E-2
Scans to average: 10
Electric dark correction enabled: true
Nonlinearity correction enabled: false
Boxcar width: 0
XAxis mode: Wavelengths
Number of Pixels in Spectrum: 2048
>>>>>Begin Spectral Data<<<<<
341.393	-25.73
341.776	-25.73
342.16	-25.73
342.543	-71.38
342.927	-67.09
343.31	-72.29
343.693	-68.9
344.077	-59.63
344.46	-72.51
344.843	-66.18
345.226	-46.98
345.61	-34.55
345.993	-13.3
346.376	4.32
346.759	10.42
347.142	15.4
347.525	50.65
347.908	64.66
348.291	82.29
348.674	98.33
349.057	108.27
349.44	132.68
349.823	149.4
350.206	149.85
350.588	185.56
350.971	191.89
351.354	232.79
351.737	235.05
352.119	238.67
352.502	264.88
352.884	270.76
353.267	275.5
353.65	294.48
354.032	292.68
354.414	297.2
354.797	303.75
355.179	330.42
355.562	341.71
355.944	329.51
356.326	315.27
356.709	322.96
357.091	341.26
357.473	358.89
357.855	335.39
358.238	353.69
358.62	349.17
359.002	353.24
359.384	339.68
359.766	339
360.148	332.67
360.53	341.71
360.912	345.1
361.294	308.04
361.676	339.91
362.057	332.67
362.439	329.96
362.821	330.19
363.203	315.5
363.584	308.27
363.966	300.13
364.348	336.52
364.729	321.38
365.111	305.56
365.493	325.67
365.874	319.12
366.256	303.3
366.637	329.06
367.019	310.53
367.4	321.38
367.781	313.47
368.163	322.73
368.544	314.14
368.925	326.35
369.306	314.14
369.688	302.85
370.069	334.26
370.45	324.09
370.831	328.61
371.212	339.45
371.593	328.38
371.974	317.53
372.355	313.69
372.736	347.14
373.117	306.69
373.498	295.84
373.879	313.01
374.26	318.89
374.641	319.79
375.021	321.83
375.402	316.18
375.783	324.31
376.163	315.5
376.544	322.96
376.925	332.45
377.305	321.83
377.686	329.29
378.066	345.56
378.447	333.13
378.827	349.17
379.208	323.41
379.588	336.74
379.968	329.96
380.349	351.66
380.729	340.13
381.109	340.81
381.489	327.03
381.87	335.39
382.25	355.73
382.63	336.52
383.01	349.17
383.39	350.75
383.77	346.46
384.15	363.63
384.53	340.58
384.91	354.14
385.29	352.34
385.67	365.44
386.049	350.53
386.429	350.98
386.809	346.91
387.189	354.14
387.568	357.31
387.948	361.83
388.328	360.7
388.707	340.81
389.087	376.97
389.466	364.54
389.846	357.08
390.225	362.05
390.605	358.21
390.984	376.29
391.363	359.79
391.743	372.22
392.122	373.58
392.501	368.61
392.881	376.97
393.26	379.91
393.639	373.13
394.018	363.18
394.397	386.23
394.776	398.44
395.155	367.7
395.534	379.91
395.913	371.77
396.292	378.55
396.671	376.97
397.05	379.68
397.429	393.24
397.808	382.39
398.186	420.13
398.565	382.62
398.944	397.08
399.323	416.29
399.701	398.89
400.08	389.85
400.458	407.48
400.837	419
401.215	416.74
401.594	397.98
401.972	393.01
402.351	419.45
402.729	393.92
403.107	400.7
403.486	423.29
403.864	413.35
404.242	410.19
404.62	428.27
404.999	438.43
405.377	419
405.755	416.29
406.133	434.14
406.511	438.43
406.889	437.53
407.267	444.31
407.645	466.46
408.023	440.02
408.401	443.18
408.779	447.47
409.156	459.23
409.534	459.68
409.912	460.36
410.29	454.71
410.667	484.76
411.045	475.27
411.422	457.64
411.8	480.47
412.178	500.58
412.555	486.12
412.933	483.41
413.31	491.31
413.687	488.15
414.065	510.75
414.442	505.78
414.819	490.64
415.197	504.2
415.574	503.07
415.951	506.46
416.328	528.83
416.705	484.99
417.082	538.09
417.46	513.46
417.837	526.57
418.214	555.04
418.591	515.49
418.967	543.74
419.344	551.2
419.721	536.06
420.098	578.54
420.475	548.04
420.852	558.88
421.228	549.62
421.605	585.32
421.982	565.89
422.358	582.61
422.735	577.41
423.111	583.97
423.488	586.23
423.864	580.58
424.241	581.48
424.617	596.62
424.994	588.71
425.37	597.3
425.746	594.14
426.123	609.05
426.499	588.04
426.875	611.09
427.251	633.46
427.627	605.21
428.003	634.59
428.379	641.59
428.756	613.12
429.132	640.46
429.507	625.77
429.883	660.8
430.259	659.45
430.635	681.37
431.011	681.59
431.387	703.06
431.763	700.8
432.138	711.2
432.514	691.08
432.89	694.47
433.265	703.96
433.641	716.17
434.016	700.57
434.392	738.31
434.767	740.35
435.143	743.06
435.518	746
435.894	780.35
436.269	742.83
436.644	753.68
437.02	783.74
437.395	750.52
437.77	795.26
438.145	769.73
438.52	797.07
438.895	808.37
439.271	816.5
439.646	806.33
440.021	834.58
440.395	840.68
440.77	849.72
441.145	840.01
441.52	844.07
441.895	856.95
442.27	844.3
442.645	868.03
443.019	877.75
443.394	861.25
443.769	871.19
444.143	882.26
444.518	880.01
444.892	882.94
445.267	890.4
445.641	855.37
446.016	886.56
446.39	906.45
446.764	909.61
447.139	915.03
447.513	929.72
447.887	930.17
448.262	942.6
448.636	933.34
449.01	950.29
449.384	971.08
449.758	987.57
450.132	981.92
450.506	979.89
450.88	982.83
451.254	982.83
451.628	975.82
452.002	1035.26
452.376	1025.31
452.75	1059.44
453.123	1012.66
453.497	1069.15
453.871	1079.77
454.244	1067.8
454.618	1077.97
454.992	1081.81
455.365	1096.27
455.739	1091.52
456.112	1135.82
456.486	1135.14
456.859	1150.96
457.232	1148.92
457.606	1206.55
457.979	1160.9
458.352	1198.87
458.725	1213.56
459.099	1228.47
459.472	1270.73
459.845	1252.2
460.218	1286.1
460.591	1286.1
460.964	1316.83
461.337	1314.12
461.71	1352.99
462.083	1365.19
462.456	1374.68
462.829	1382.14
463.201	1403.83
463.574	1452.42
463.947	1435.24
464.32	1467.56
464.692	1484.96
465.065	1519.54
465.438	1507.11
465.81	1572.64
466.183	1576.71
466.555	1583.72
466.928	1632.98
467.3	1627.1
467.672	1630.04
468.045	1673.66
468.417	1693.09
468.789	1741.68
469.161	1735.8
469.534	1813.54
469.906	1827.55
470.278	1824.39
470.65	1876.36
471.022	1935.34
471.394	1968.79
471.766	1964.04
472.138	2036.58
472.51	2110.48
472.882	2121.78
473.253	2139.63
473.625	2210.59
473.997	2226.18
474.369	2319.52
474.74	2345.28
475.112	2388.21
475.484	2425.73
475.855	2501.66
476.227	2550.7
476.598	2648.32
476.97	2671.82
477.341	2752.95
477.713	2815.32
478.084	2862.1
478.455	2966.05
478.827	3033.39
479.198	3128.99
479.569	3211.7
479.94	3300.51
480.311	3372.37
480.682	3469.32
481.053	3619.59
481.424	3658.01
481.795	3771.68
482.166	3858.68
482.537	3978.45
482.908	4022.3
483.279	4173.03
483.65	4288.96
484.021	4388.39
484.391	4540.93
484.762	4618.66
485.133	4724.88
485.503	4858.21
485.874	5020.01
486.244	5073.57
486.615	5260.91
486.985	5357.63
487.356	5513.1
487.726	5636.94
488.097	5771.4
488.467	5858.86
488.837	6094.56
489.207	6227.89
489.578	6381.1
489.948	6552.4
490.318	6654.54
490.688	6738.16
491.058	6963.01
491.428	7133.4
491.798	7239.39
492.168	7409.78
492.538	7475.76
492.908	7698.36
493.278	7875.08
493.648	7964.79
494.017	8061.06
494.387	8295.4
494.757	8412.69
495.126	8459.24
495.496	8649.29
495.866	8820.81
496.235	8952.56
496.605	9140.8
496.974	9221.93
497.344	9379.89
497.713	9503.51
498.082	9572.88
498.452	9756.38
498.821	9854.46
499.19	9926.55
499.559	10091.97
499.928	10106.2
500.298	10317.05
500.667	10394.78
501.036	10482.92
501.405	10678.62
501.774	10662.12
502.143	10760.88
502.512	10948.21
502.88	11051.72
503.249	11124.48
503.618	11263.23
503.987	11265.04
504.356	11501.65
504.724	11498.03
505.093	11505.71
505.462	11644.47
505.83	11709.1
506.199	11796.78
506.567	12034.74
506.936	12036.32
507.304	12134.85
507.672	12234.28
508.041	12362.42
508.409	12403.54
508.777	12509.76
509.145	12526.25
509.514	12681.05
509.882	12684.44
510.25	12807.15
510.618	12901.84
510.986	12868.16
511.354	12972.34
511.722	13112.23
512.09	13192.22
512.458	13155.39
512.826	13341.15
513.193	13392.22
513.561	13338.21
513.929	13493.68
514.297	13518.54
514.664	13577.98
515.032	13709.72
515.4	13714.24
515.767	13825.65
516.135	13832.88
516.502	13778.2
516.869	13895.26
517.237	13987.91
517.604	13879.21
517.972	14030.39
518.339	14097.28
518.706	14087.79
519.073	14097.28
519.44	14178.19
519.808	14311.52
520.175	14229.03
520.542	14399.88
520.909	14420.44
521.276	14325.08
521.643	14477.39
522.009	14619.3
522.376	14618.4
522.743	14604.39
523.11	14790.37
523.477	14837.83
523.843	14913.31
524.21	14941.56
524.577	14989.92
524.943	14973.87
525.31	14979.3
525.676	15080.31
526.043	15130.7
526.409	15251.38
526.776	15250.7
527.142	15181.78
527.508	15182.23
527.874	15375.67
528.241	15396.23
528.607	15323.47
528.973	15384.71
529.339	15437.81
529.705	15554.87
530.071	15499.96
530.437	15532.95
530.803	15544.25
531.169	15594.19
531.535	15467.19
531.901	15461.77
532.267	15484.37
532.632	15568.88
532.998	15513.52
533.364	15500.64
533.73	15528.43
534.095	15605.72
534.461	15505.84
534.826	15593.97
535.192	15552.84
535.557	15666.73
535.923	15617.24
536.288	15506.51
536.653	15562.1
537.019	15425.39
537.384	15403.69
537.749	15400.98
538.114	15353.07
538.479	15360.53
538.845	15419.74
539.21	15339.29
539.575	15280.53
539.94	15292.28
540.305	15400.08
540.67	15292.96
541.034	15268.78
541.399	15235.56
541.764	15236.69
542.129	15245.96
542.494	15160.31
542.858	15179.52
543.223	15100.42
543.587	15130.7
543.952	15037.37
544.316	15069.01
544.681	15038.73
545.045	14943.82
545.41	15007.54
545.774	15028.33
546.138	14918.28
546.503	14864.72
546.867	14842.12
547.231	14926.64
547.595	14889.81
547.959	14817.04
548.324	14819.07
548.688	14687.55
549.052	14691.85
549.416	14695.91
549.779	14623.37
550.143	14631.96
550.507	14630.6
550.871	14596.25
551.235	14568.46
551.599	14652.75
551.962	14593.99
552.326	14556.93
552.689	14538.4
553.053	14453.66
553.417	14437.84
553.78	14475.35
554.143	14433.55
554.507	14418.86
554.87	14301.8
555.234	14509.93
555.597	14314.23
555.96	14330.95
556.323	14331.63
556.686	14237.39
557.05	14448.24
557.413	14347.22
557.776	14289.6
558.139	14313.32
558.502	14336.83
558.865	14303.15
559.228	14375.7
559.59	14304.51
559.953	14260.67
560.316	14383.38
560.679	14408.91
561.041	14419.99
561.404	14381.57
561.767	14452.08
562.129	14384.28
562.492	14459.08
562.854	14368.24
563.217	14377.73
563.579	14386.09
563.941	14491.4
564.304	14454.79
564.666	14546.76
565.028	14401.01
565.39	14504.96
565.753	14511.74
566.115	14568.68
566.477	14591.06
566.839	14546.31
567.201	14673.77
567.563	14570.94
567.925	14642.13
568.287	14601.9
568.648	14692.75
569.01	14689.36
569.372	14797.15
569.734	14762.13
570.095	14810.71
570.457	14739.08
570.819	14811.84
571.18	14737.72
571.542	14807.77
571.903	14855.23
572.265	14831.28
572.626	14825.85
572.987	14903.37
573.349	14905.63
573.71	14903.14
574.071	14957.6
574.432	14884.16
574.794	15036.92
575.155	14972.29
575.516	14875.12
575.877	14906.08
576.238	15050.25
576.599	14966.41
576.96	14930.71
577.32	14981.56
577.681	15058.62
578.042	15070.37
578.403	15015.23
578.763	15041.67
579.124	14956.47
579.485	15117.6
579.845	15033.53
580.206	15084.15
580.566	15012.74
580.927	15057.71
581.287	15058.16
581.648	15043.02
582.008	15065.17
582.368	15065.39
582.728	15113.98
583.089	15042.8
583.449	15029.92
583.809	15014.32
584.169	14975.91
584.529	14931.84
584.889	15017.03
585.249	14926.87
585.609	14931.84
585.969	14953.99
586.329	14946.08
586.688	14921.67
587.048	15001.44
587.408	14933.42
587.768	14891.16
588.127	14945.62
588.487	14935.45
588.846	14899.52
589.206	14819.98
589.565	14867.66
589.925	14890.48
590.284	14806.19
590.643	14852.75
591.003	14856.13
591.362	14931.61
591.721	14783.37
592.08	14809.36
592.44	14877.15
592.799	14834.21
593.158	14788.34
593.517	14857.72
593.876	14834.89
594.235	14829.47
594.593	14741.79
594.952	14762.35
595.311	14716.7
595.67	14799.64
596.029	14830.82
596.387	14780.2
596.746	14805.51
597.104	14748.34
597.463	14647.1
597.822	14831.5
598.18	14674.44
598.538	14663.82
598.897	14734.33
599.255	14663.15
599.613	14873.31
599.972	14738.17
600.33	14706.08
600.688	14636.93
601.046	14690.72
601.404	14802.58
601.762	14697.95
602.12	14825.63
602.478	14712.41
602.836	14835.34
603.194	14675.35
603.552	14696.36
603.91	14683.48
604.268	14826.31
604.625	14687.78
604.983	14749.02
605.341	14697.95
605.698	14737.27
606.056	14829.47
606.413	14785.4
606.771	14820.2
607.128	14834.67
607.485	14717.38
607.843	14767.1
608.2	14860.43
608.557	14827.89
608.914	14903.82
609.272	14840.77
609.629	14823.82
609.986	14938.84
610.343	14814.55
610.7	14948.56
611.057	14990.37
611.414	14895.91
611.771	14959.86
612.127	14960.76
612.484	14908.34
612.841	14987.43
613.198	14953.08
613.554	14939.75
613.911	14984.72
614.267	15052.74
614.624	15040.54
614.98	15023.36
615.337	15053.64
615.693	15039.18
616.05	15025.4
616.406	15141.78
616.762	15139.52
617.118	15068.56
617.475	15153.75
617.831	15172.96
618.187	15067.43
618.543	15218.84
618.899	15213.41
619.255	15223.36
619.611	15145.17
619.967	15283.69
620.323	15289.12
620.678	15158.27
621.034	15236.92
621.39	15183.81
621.746	15109.46
622.101	15348.33
622.457	15095.9
622.812	15250.25
623.168	15232.4
623.523	15202.11
623.879	15228.55
624.234	15076.92
624.589	15246.86
624.945	15248.44
625.3	15245.28
625.655	15224.71
626.01	15193.3
626.365	15240.98
626.72	15270.59
627.075	15255.9
627.43	15175
627.785	15177.93
628.14	15248.89
628.495	15249.57
628.85	15153.08
629.205	15102.23
629.559	15182.68
629.914	15073.08
630.269	15099.29
630.623	15130.03
630.978	15063.59
631.332	15113.98
631.687	15183.13
632.041	15076.47
632.396	15052.51
632.75	15069.69
633.104	15070.82
633.459	15001.44
633.813	15006.41
634.167	14977.71
634.521	14895
634.875	14945.17
635.229	14892.97
635.583	14778.62
635.937	14879.64
636.291	14911.5
636.645	14867.66
636.999	14813.65
637.352	14850.49
637.706	14718.06
638.06	14848.9
638.413	14746.76
638.767	14766.87
639.121	14777.04
639.474	14691.17
639.828	14704.27
640.181	14691.39
640.534	14727.1
640.888	14656.82
641.241	14648.46
641.594	14631.28
641.947	14613.2
642.301	14594.9
642.654	14659.98
643.007	14641
643.36	14646.42
643.713	14648
644.066	14717.16
644.419	14526.88
644.771	14503.38
645.124	14369.14
645.477	14341.12
645.83	14279.65
646.182	14267.68
646.535	14135.48
646.888	14238.98
647.24	14081.24
647.593	14078.75
647.945	14172.76
648.298	14033.11
648.65	14068.58
649.002	14066.33
649.355	14145.42
649.707	14024.52
650.059	14131.63
650.411	14328.69
650.763	14226.09
651.115	14436.03
651.467	14443.94
651.819	14490.95
652.171	14507.67
652.523	14444.62
652.875	14442.36
653.227	14371.4
653.578	14471.74
653.93	14402.81
654.282	14410.72
654.633	14373.66
654.985	14387.45
655.337	14430.84
655.688	14366.66
656.039	14411.85
656.391	14390.16
656.742	14376.6
657.094	14435.81
657.445	14443.49
657.796	14458.86
658.147	14384.73
658.498	14374.11
658.849	14401.46
659.2	14342.93
659.551	14444.62
659.902	14435.81
660.253	14443.04
660.604	14368.92
660.955	14396.03
661.306	14413.43
661.656	14346.32
662.007	14405.75
662.358	14433.32
662.708	14473.55
663.059	14415.02
663.409	14325.08
663.76	14462.25
664.11	14364.62
664.461	14457.73
664.811	14415.69
665.161	14361.46
665.511	14391.74
665.862	14399.42
666.212	14483.72
666.562	14518.29
666.912	14470.61
667.262	14383.15
667.612	14431.51
667.962	14500.44
668.312	14462.47
668.662	14574.79
669.011	14430.84
669.361	14432.42
669.711	14488.23
670.06	14405.75
670.41	14456.15
670.76	14423.15
671.109	14438.52
671.459	14389.03
671.808	14330.05
672.157	14377.96
672.507	14411.17
672.856	14299.54
673.205	14302.25
673.554	14382.25
673.904	14358.52
674.253	14310.39
674.602	14378.86
674.951	14020.9
675.3	14056.38
675.649	14199.2
675.998	14228.35
676.346	14281.01
676.695	14270.16
677.044	14201.24
677.393	14222.93
677.741	14288.47
678.09	14154.23
678.438	14130.96
678.787	14172.76
679.135	14175.02
679.484	14046.44
679.832	14126.44
680.181	14012.09
680.529	14090.96
680.877	14016.38
681.225	14049.15
681.573	14024.07
681.922	13991.75
682.27	13918.76
682.618	13891.87
682.966	13924.86
683.314	13947.23
683.661	13841.7
684.009	13782.49
684.357	13803.28
684.705	13727.35
685.053	13687.8
685.4	13734.36
685.748	13548.37
686.095	13612.33
686.443	13567.81
686.79	13507.7
687.138	13647.8
687.485	13570.74
687.832	13483.52
688.18	13516.06
688.527	13405.33
688.874	13401.48
689.221	13268.15
689.568	13290.07
689.915	13220.92
690.262	13305.44
690.609	13218.44
690.956	13181.38
691.303	13159.23
691.65	12973.92
691.997	13107.03
692.344	13011.44
692.69	12910.42
693.037	12924.89
693.383	12828.39
693.73	12866.36
694.077	12780.26
694.423	12733.03
694.769	12718.34
695.116	12653.71
695.462	12721.05
695.808	12602.18
696.155	12642.18
696.501	12540.72
696.847	12487.84
697.193	12402.64
697.539	12470.21
697.885	12397.89
698.231	12335.07
698.577	12275.86
698.923	12299.82
699.269	12276.99
699.614	12144.79
699.96	12097.56
700.306	12053.95
700.651	12093.5
700.997	11966.04
701.342	11922.43
701.688	11964.23
702.033	11825.48
702.379	11872.71
702.724	11772.6
703.069	11808.98
703.415	11612.6
703.76	11674.75
704.105	11608.08
704.45	11607.18
704.795	11533.06
705.14	11511.82
705.485	11545.26
705.83	11423.91
706.175	11446.73
706.52	11356.34
706.865	11258.04
707.209	11326.06
707.554	11276.12
707.899	11243.12
708.243	11234.99
708.588	11225.27
708.932	11075.67
709.277	11135.33
709.621	11168.32
709.966	11037.7
710.31	11056.23
710.654	10976.46
710.998	10977.37
711.342	10999.06
711.687	10883.81
712.031	10907.09
712.375	10835.45
712.719	10832.06
713.063	10799.97
713.407	10812.85
713.75	10822.57
714.094	10807.2
714.438	10680.65
714.782	10730.37
715.125	10626.64
715.469	10702.35
715.812	10712.51
716.156	10572.41
716.499	10584.16
716.843	10577.38
717.186	10550.49
717.53	10604.72
717.873	10562.24
718.216	10537.15
718.559	10482.92
718.902	10448.57
719.246	10428
719.589	10407.44
719.932	10339.87
720.275	10470.71
720.617	10368.34
720.96	10338.97
721.303	10366.54
721.646	10318.63
721.989	10284.05
722.331	10318.18
722.674	10219.87
723.016	10336.71
723.359	10226.2
723.701	10257.16
724.044	10253.32
724.386	10199.76
724.729	10263.71
725.071	10264.62
725.413	10267.78
725.755	10262.81
726.097	10147.11
726.439	10136.71
726.782	10171.96
727.124	10235.92
727.465	10199.99
727.807	10143.49
728.149	10197.73
728.491	10107.56
728.833	10133.1
729.175	10078.63
729.516	10106.43
729.858	10046.54
730.199	10110.95
730.541	10107.79
730.882	10077.5
731.224	10116.37
731.565	10044.06
731.906	10115.02
732.248	10107.33
732.589	10089.48
732.93	10031.85
733.271	10006.77
733.612	10099.88
733.953	10132.87
734.294	10060.1
734.635	10083.38
734.976	10045.64
735.317	9969.26
735.658	10044.96
735.999	10065.3
736.339	10077.73
736.68	10154.34
737.021	10058.52
737.361	10029.14
737.702	10055.36
738.042	10034.34
738.383	10059.88
738.723	10079.99
739.063	10088.58
739.404	10128.35
739.744	10114.34
740.084	10106.88
740.424	10137.84
740.764	10165.18
741.104	10169.93
741.444	10138.97
741.784	10147.33
742.124	10171.96
742.464	10180.78
742.804	10203.38
743.143	10214.67
743.483	10275.46
743.823	10295.58
744.162	10314.11
744.502	10326.31
744.841	10317.05
745.181	10410.83
745.52	10355.91
745.86	10491.73
746.199	10519.07
746.538	10603.82
746.877	10627.55
747.216	10649.47
747.556	10624.38
747.895	10744.38
748.234	10799.74
748.573	10779.41
748.911	10917.26
749.25	10952.06
749.589	11000.87
749.928	11048.78
750.267	11135.33
750.605	11197.93
750.944	11218.26
751.283	11383.01
751.621	11510.46
751.96	11457.81
752.298	11599.72
752.636	11779.83
752.975	11846.04
753.313	11871.35
753.651	12062.99
753.989	12109.54
754.327	12195.87
754.666	12317.9
755.004	12404.67
755.342	12651.45
755.679	12757.66
756.017	12850.54
