Data from hue_32_FLMS001491_00055.txt Node
Date: Tue Feb 07 17:23:36 GMT 2017
User: dcchb
Spectrometer: FLMS00149
Trigger mode: 0
Integration Time (sec): 2.000000E-2
Scans to average: 10
Electric dark correction enabled: true
Nonlinearity correction enabled: false
Boxcar width: 0
XAxis mode: Wavelengths
Number of Pixels in Spectrum: 2048
>>>>>Begin Spectral Data<<<<<
341.393	6.05
341.776	6.05
342.16	6.05
342.543	-61.3
342.927	-70.34
343.31	-65.37
343.693	-77.34
344.077	-54.74
344.46	-64.24
344.843	-48.64
345.226	-41.41
345.61	-39.6
345.993	-2.77
346.376	-6.38
346.759	4.24
347.142	4.24
347.525	47.85
347.908	54.86
348.291	81.3
348.674	103.67
349.057	104.35
349.44	148.19
349.823	142.54
350.206	154.74
350.588	191.35
350.971	197.45
351.354	206.72
351.737	245.36
352.119	269.09
352.502	274.51
352.884	266.38
353.267	269.09
353.65	302.53
354.032	316.55
354.414	279.94
354.797	315.19
355.179	321.29
355.562	326.94
355.944	327.17
356.326	328.97
356.709	342.31
357.091	358.13
357.473	349.99
357.855	348.86
358.238	334.4
358.62	334.62
359.002	354.51
359.384	341.86
359.766	340.27
360.148	338.69
360.53	333.72
360.912	332.14
361.294	324.68
361.676	327.17
362.057	329.43
362.439	344.34
362.821	310.44
363.203	337.56
363.584	334.17
363.966	327.62
364.348	326.49
364.729	312.7
365.111	289.65
365.493	321.97
365.874	304.79
366.256	313.83
366.637	322.42
367.019	318.58
367.4	323.78
367.781	298.92
368.163	311.12
368.544	294.17
368.925	319.94
369.306	349.31
369.688	304.57
370.069	304.34
370.45	310.44
370.831	309.31
371.212	313.61
371.593	318.58
371.974	314.74
372.355	334.85
372.736	315.19
373.117	321.97
373.498	332.59
373.879	324
374.26	305.25
374.641	308.86
375.021	335.75
375.402	312.93
375.783	309.99
376.163	326.26
376.544	310.67
376.925	307.05
377.305	330.56
377.686	327.39
378.066	325.81
378.447	312.93
378.827	333.49
379.208	331.91
379.588	338.24
379.968	314.96
380.349	333.04
380.729	355.19
381.109	332.36
381.489	332.59
381.87	346.6
382.25	340.5
382.63	316.32
383.01	340.5
383.39	353.83
383.77	333.95
384.15	344.57
384.53	340.27
384.91	357.9
385.29	323.78
385.67	353.61
386.049	356.09
386.429	350.44
386.809	342.53
387.189	350.44
387.568	386.6
387.948	361.97
388.328	368.75
388.707	365.81
389.087	343.66
389.466	366.71
389.846	364.23
390.225	374.17
390.605	378.69
390.984	364.23
391.363	386.6
391.743	384.34
392.122	382.31
392.501	380.05
392.881	381.4
393.26	373.27
393.639	375.98
394.018	385.7
394.397	377.33
394.776	367.39
395.155	383.89
395.534	379.82
395.913	366.94
396.292	385.02
396.671	394.74
397.05	385.92
397.429	392.93
397.808	401.97
398.186	390.67
398.565	403.32
398.944	392.48
399.323	396.32
399.701	395.64
400.08	404.23
400.458	383.21
400.837	409.65
401.215	391.57
401.594	400.38
401.972	392.7
402.351	403.77
402.729	403.55
403.107	418.46
403.486	425.7
403.864	416.43
404.242	423.44
404.62	424.11
404.999	414.85
405.377	433.38
405.755	425.02
406.133	430.21
406.511	423.66
406.889	433.38
407.267	435.64
407.645	435.41
408.023	448.29
408.401	438.35
408.779	479.48
409.156	431.57
409.534	452.36
409.912	419.37
410.29	458.91
410.667	447.39
411.045	461.85
411.422	468.18
411.8	461.17
412.178	482.87
412.555	470.44
412.933	456.2
413.31	495.98
413.687	488.52
414.065	488.52
414.442	479.48
414.819	500.5
415.197	483.77
415.574	489.87
415.951	507.5
416.328	498.01
416.705	489.42
417.082	502.3
417.46	505.24
417.837	535.97
418.214	502.53
418.591	514.96
418.967	516.54
419.344	530.1
419.721	525.35
420.098	500.04
420.475	522.19
420.852	536.88
421.228	545.01
421.605	546.82
421.982	532.36
422.358	527.16
422.735	534.84
423.111	539.82
423.488	547.5
423.864	551.79
424.241	552.92
424.617	546.6
424.994	593.37
425.37	565.58
425.746	567.61
426.123	579.82
426.499	571
426.875	596.31
427.251	584.79
427.627	608.74
428.003	599.7
428.379	605.8
428.756	601.28
429.132	608.52
429.507	623.43
429.883	614.84
430.259	637.21
430.635	632.47
431.011	617.55
431.387	633.83
431.763	634.5
432.138	658.23
432.514	634.5
432.89	658.46
433.265	677.89
433.641	662.98
434.016	688.51
434.392	680.6
434.767	705.91
435.143	696.2
435.518	682.86
435.894	686.25
436.269	719.7
436.644	731
437.02	721.05
437.395	721.05
437.77	716.76
438.145	731.22
438.52	733.26
438.895	758.79
439.271	742.07
439.646	739.13
440.021	741.39
440.395	738.46
440.77	771.22
441.145	767.83
441.52	773.48
441.895	768.74
442.27	809.19
442.645	806.7
443.019	803.54
443.394	773.26
443.769	799.92
444.143	776.19
444.518	817.55
444.892	814.16
445.267	826.59
445.641	837.44
446.016	807.38
446.39	839.02
446.764	815.29
447.139	835.63
447.513	816.19
447.887	821.62
448.262	848.06
448.636	856.42
449.01	878.11
449.384	865.23
449.758	874.72
450.132	867.49
450.506	916.3
450.88	889.19
451.254	872.24
451.628	897.77
452.002	902.07
452.376	915.4
452.75	899.81
453.123	930.77
453.497	930.31
453.871	930.54
454.244	968.05
454.618	975.51
454.992	962.18
455.365	963.31
455.739	978.22
456.112	997.43
456.486	1006.24
456.859	1000.14
457.232	1043.53
457.606	1021.84
457.979	1051.44
458.352	1048.28
458.725	1074.72
459.099	1064.77
459.472	1091.21
459.845	1100.48
460.218	1130.08
460.591	1107.94
460.964	1142.74
461.337	1145.9
461.71	1159.69
462.083	1179.12
462.456	1186.58
462.829	1185
463.201	1181.83
463.574	1220.02
463.947	1224.32
464.32	1241.49
464.692	1268.16
465.065	1283.75
465.438	1290.31
465.81	1301.38
466.183	1337.08
466.555	1338.89
466.928	1373.47
467.3	1366.46
467.672	1401.94
468.045	1392
468.417	1413.47
468.789	1416.4
469.161	1464.54
469.534	1444.88
469.906	1535.5
470.278	1493.92
470.65	1514.48
471.022	1558.32
471.394	1570.98
471.766	1622.5
472.138	1612.56
472.51	1678.09
472.882	1665.66
473.253	1705.44
473.625	1737.75
473.997	1789.95
474.369	1802.38
474.74	1825.21
475.112	1856.84
475.484	1881.93
475.855	1935.03
476.227	1987.24
476.598	2031.53
476.97	2063.17
477.341	2107.68
477.713	2135.25
478.084	2159.21
478.455	2224.07
478.827	2297.74
479.198	2348.58
479.569	2386.1
479.94	2432.87
480.311	2464.96
480.682	2541.35
481.053	2608.01
481.424	2675.81
481.795	2706.76
482.166	2761.9
482.537	2829.02
482.908	2924.39
483.279	2986.98
483.65	3043.48
484.021	3099.07
484.391	3182.46
484.762	3226.53
485.133	3279.63
485.503	3320.76
485.874	3463.58
486.244	3500.64
486.615	3583.8
486.985	3685.95
487.356	3777.47
487.726	3852.72
488.097	3872.84
488.467	3968.43
488.837	4074.19
489.207	4094.53
489.578	4265.82
489.948	4269.21
490.318	4395.53
490.688	4446.83
491.058	4558.24
491.428	4618.13
491.798	4684.34
492.168	4828.07
492.538	4895.41
492.908	4984.22
493.278	5056.31
493.648	5087.72
494.017	5171.56
494.387	5254.49
494.757	5338.11
495.126	5431.21
495.496	5412.91
495.866	5589.85
496.235	5593.24
496.605	5697.19
496.974	5783.29
497.344	5851.32
497.713	5941.48
498.082	5942.16
498.452	6073.46
498.821	6092.21
499.19	6179.44
499.559	6262.15
499.928	6280.68
500.298	6363.62
500.667	6427.57
501.036	6462.82
501.405	6556.61
501.774	6591.63
502.143	6654.01
502.512	6740.33
502.88	6764.51
503.249	6842.48
503.618	6929.7
503.987	6952.98
504.356	7036.82
504.724	7039.76
505.093	7065.97
505.462	7121.56
505.83	7228
506.199	7215.35
506.567	7380.31
506.936	7382.57
507.304	7449.69
507.672	7495.57
508.041	7574.43
508.409	7562
508.777	7757.03
509.145	7782.79
509.514	7774.65
509.882	7838.83
510.25	7819.85
510.618	7914.99
510.986	7952.5
511.354	8061.2
511.722	8112.72
512.09	8167.86
512.458	8191.82
512.826	8252.61
513.193	8280.86
513.561	8339.39
513.929	8364.24
514.297	8525.6
514.664	8475.43
515.032	8512.26
515.4	8585.71
515.767	8559.72
516.135	8701.86
516.502	8651.24
516.869	8845.59
517.237	8838.13
517.604	8801.29
517.972	8862.08
518.339	8910.44
518.706	8972.59
519.073	9030.44
519.44	9067.73
519.808	9153.38
520.175	9133.94
520.542	9184.79
520.909	9244.67
521.276	9311.34
521.643	9370.32
522.009	9365.57
522.376	9479.69
522.743	9557.66
523.11	9590.88
523.477	9730.76
523.843	9770.76
524.21	9876.52
524.577	9902.96
524.943	9933.02
525.31	9925.78
525.676	10113.58
526.043	10091.2
526.409	10166
526.776	10216.17
527.142	10278.77
527.508	10285.77
527.874	10341.82
528.241	10418.2
528.607	10460.69
528.973	10621.13
529.339	10528.25
529.705	10649.38
530.071	10737.51
530.437	10739.32
530.803	10827
531.169	10911.97
531.535	10880.79
531.901	10980.22
532.267	11015.25
532.632	11084.4
532.998	11186.99
533.364	11190.16
533.73	11266.54
534.095	11287.33
534.461	11360.32
534.826	11412.07
535.192	11455.46
535.557	11477.16
535.923	11556.25
536.288	11573.2
536.653	11666.53
537.019	11646.19
537.384	11696.59
537.749	11796.47
538.114	11773.87
538.479	11822.91
538.845	11868.56
539.21	11892.06
539.575	11947.2
539.94	12020.42
540.305	12034.66
540.67	12113.75
541.034	12140.42
541.399	12210.7
541.764	12230.13
542.129	12297.93
542.494	12342.44
542.858	12404.59
543.223	12470.58
543.587	12505.15
543.952	12417.7
544.316	12546.28
544.681	12589.89
545.045	12664.92
545.41	12833.5
545.774	12759.61
546.138	12758.7
546.503	12840.51
546.867	12815.2
547.231	13002.77
547.595	13060.84
547.959	13037.79
548.324	13057.91
548.688	13156.43
549.052	13101.29
549.416	13268.52
549.779	13293.83
550.143	13301.06
550.507	13393.72
550.871	13411.12
551.235	13377.22
551.599	13508.29
551.962	13495.18
552.326	13489.08
552.689	13581.28
553.053	13665.12
553.417	13748.06
553.78	13776.53
554.143	13771.11
554.507	13841.16
554.87	13922.29
555.234	13956.64
555.597	13944.66
555.96	13950.99
556.323	14018.56
556.686	14007.03
557.05	14144.88
557.413	14270.3
557.776	14242.28
558.139	14421.26
558.502	14378.32
558.865	14397.98
559.228	14436.4
559.59	14498.32
559.953	14549.62
560.316	14632.55
560.679	14657.86
561.041	14772.44
561.404	14837.07
561.767	14848.82
562.129	14878.87
562.492	15015.14
562.854	15044.75
563.217	15042.03
563.579	15061.24
563.941	15211.07
564.304	15219.43
564.666	15299.88
565.028	15313.89
565.39	15376.71
565.753	15423.94
566.115	15485.86
566.477	15485.64
566.839	15582.13
567.201	15758.4
567.563	15742.13
567.925	15814.89
568.287	15949.35
568.648	15886.53
569.01	15835.01
569.372	16038.62
569.734	16078.39
570.095	16240.65
570.457	16242.23
570.819	16371.72
571.18	16268.44
571.542	16435.67
571.903	16561.32
572.265	16566.06
572.626	16591.15
572.987	16663.69
573.349	16782.33
573.71	16833.17
574.071	17004.92
574.432	17047.63
574.794	17210.79
575.155	17176.89
575.516	17203.78
575.877	17393.84
576.238	17403.55
576.599	17551.35
576.96	17655.75
577.32	17648.07
577.681	17801.74
578.042	17949.08
578.403	18068.39
578.763	18165.34
579.124	18416.86
579.485	18474.94
579.845	18687.59
580.206	18807.81
580.566	18930.97
580.927	19212.77
581.287	19335.25
581.648	19373.67
582.008	19565.08
582.368	19604.4
582.728	20003.26
583.089	20040.32
583.449	20160.09
583.809	20360.54
584.169	20529.8
584.529	20703.13
584.889	21149.44
585.249	21032.61
585.609	21391.02
585.969	21529.77
586.329	21781.97
586.688	22095.41
587.048	22322.07
587.408	22430.77
587.768	22623.76
588.127	22936.74
588.487	23183.97
588.846	23489.5
589.206	23601.13
589.565	23780.34
589.925	24109.82
590.284	24432.97
590.643	24713.42
591.003	24910.25
591.362	25354.53
591.721	25430.91
592.08	25718.14
592.44	25985.02
592.799	26219.14
593.158	26446.03
593.517	26724.66
593.876	27051.21
594.235	27279.23
594.593	27484.64
594.952	27855.03
595.311	27946.1
595.67	28322.36
596.029	28669.02
596.387	28867.21
596.746	29264.94
597.104	29340.64
597.463	29544.25
597.822	29846.62
598.18	30048.64
598.538	30262.42
598.897	30696.09
599.255	30609.76
599.613	31223.3
599.972	31411.77
600.33	31680.47
600.688	31803.85
601.046	31979.89
601.404	32340.11
601.762	32611.97
602.12	32951.62
602.478	33143.25
602.836	33188.9
603.194	33391.38
603.552	33600.64
603.91	33623.47
604.268	34074.98
604.625	34110.46
604.983	34465.93
605.341	34499.38
605.698	34934.17
606.056	35121.96
606.413	35250.09
606.771	35524.21
607.128	35633.13
607.485	35592.23
607.843	35915.16
608.2	36263.85
608.557	36526.21
608.914	36598.76
609.272	36831.74
609.629	37002.36
609.986	37265.4
610.343	37216.59
610.7	37658.84
611.057	37814.99
611.414	37808.21
611.771	37859.51
612.127	38200.75
612.484	38382.21
612.841	38550.79
613.198	38571.58
613.554	38630.11
613.911	38913.95
614.267	39006.83
614.624	39181.51
614.98	39281.62
615.337	39648.62
615.693	39659.01
616.05	39695.85
616.406	40017.2
616.762	39952.57
617.118	40071.88
617.475	40211.99
617.831	40478.88
618.187	40466.45
618.543	40677.97
618.899	40790.28
619.255	40930.39
619.611	40853.56
619.967	41151.63
620.323	41255.36
620.678	41199.99
621.034	41287.22
621.39	41209.93
621.746	41376.26
622.101	41897.15
622.457	41551.85
622.812	41779.41
623.168	41907.09
623.523	41868.9
623.879	41906.86
624.234	41874.77
624.589	42144.15
624.945	42306.63
625.3	42312.5
625.655	42263.01
626.01	42303.46
626.365	42423.23
626.72	42473.85
627.075	42465.04
627.43	42409
627.785	42419.39
628.14	42580.97
628.495	42631.36
628.85	42629.78
629.205	42464.59
629.559	42789.78
629.914	42587.07
630.269	42650.35
630.623	42763.11
630.978	42657.8
631.332	42804.92
631.687	42913.17
632.041	42886.73
632.396	43034.74
632.75	42807.63
633.104	42710.91
633.459	42866.16
633.813	42587.75
634.167	42789.33
634.521	42807.18
634.875	42840.62
635.229	42867.29
635.583	42587.52
635.937	42720.85
636.291	42705.26
636.645	42672.49
636.999	42737.12
637.352	42894.41
637.706	42543.68
638.06	42675.43
638.413	42741.42
638.767	42600.63
639.121	42662.32
639.474	42556.11
639.828	42529.67
640.181	42669.78
640.534	42642.66
640.888	42434.08
641.241	42355.44
641.594	42574.87
641.947	42573.97
642.301	42409.45
642.654	42484.48
643.007	42531.48
643.36	42574.19
643.713	42386.63
644.066	42538.26
644.419	42282.22
644.771	42151.6
645.124	41751.84
645.477	41816.7
645.83	41518.17
646.182	41358.63
646.535	41252.19
646.888	41329.48
647.24	41131.52
647.593	41188.92
647.945	41330.16
648.298	41169.71
648.65	41138.07
649.002	40922.48
649.355	41311.85
649.707	41270.5
650.059	41281.34
650.411	41854.21
650.763	41684.27
651.115	42153.64
651.467	41990.93
651.819	42032.74
652.171	41912.51
652.523	41832.97
652.875	41907.99
653.227	41729.92
653.578	41960.65
653.93	41955.45
654.282	41831.16
654.633	41612.18
654.985	41846.3
655.337	41837.94
655.688	41867.54
656.039	41901.44
656.391	41689.47
656.742	41830.26
657.094	41763.59
657.445	41978.05
657.796	41774.66
658.147	41777.83
658.498	41745.51
658.849	41798.17
659.2	41703.03
659.551	41498.97
659.902	41611.28
660.253	41513.2
660.604	41666.19
660.955	41500.32
661.306	41626.65
661.656	41609.24
662.007	41447.89
662.358	41467.33
662.708	41525.86
663.059	41554.11
663.409	41314.56
663.76	41518.4
664.11	41626.19
664.461	41722.01
664.811	41531.05
665.161	41498.29
665.511	41432.53
665.862	41463.94
666.212	41564.73
666.562	41612.41
666.912	41347.33
667.262	41322.47
667.612	41409.25
667.962	41415.8
668.312	41386.88
668.662	41537.61
669.011	41451.96
669.361	41362.02
669.711	41311.4
670.06	41436.82
670.41	41224.85
670.76	41167.22
671.109	41421.23
671.459	41313.89
671.808	41343.72
672.157	41376.26
672.507	41034.34
672.856	41137.84
673.205	41208.13
673.554	41145.75
673.904	41109.82
674.253	41438.4
674.602	41163.15
674.951	40782.6
675.3	40421.25
675.649	41199.99
675.998	41017.4
676.346	40999.09
676.695	41185.3
677.044	40894.24
677.393	41084.29
677.741	41157.05
678.09	41071.63
678.438	40870.73
678.787	40917.51
679.135	40924.52
679.484	40568.59
679.832	40732.21
680.181	40632.32
680.529	40654.02
680.877	40716.16
681.225	40490.4
681.573	40676.39
681.922	40403.17
682.27	40310.97
682.618	40375.83
682.966	40235.04
683.314	40310.97
683.661	40250.41
684.009	40216.51
684.357	40127.48
684.705	40146.91
685.053	40009.06
685.4	40022.62
685.748	39741.5
686.095	39725.23
686.443	39543.31
686.79	39681.84
687.138	39663.76
687.485	39796.86
687.832	39515.06
688.18	39571.78
688.527	39286.37
688.874	39264.45
689.221	39316.2
689.568	39158.01
689.915	39236.88
690.262	39212.47
690.609	38897
690.956	38815.19
691.303	38815.42
691.65	38685.48
691.997	38552.15
692.344	38338.82
692.69	38368.2
693.037	38453.17
693.383	38101.54
693.73	38112.39
694.077	37972.5
694.423	37994.88
694.769	37866.07
695.116	37879.17
695.462	37726.41
695.808	37647.54
696.155	37689.57
696.501	37432.41
696.847	37484.38
697.193	37072.42
697.539	37345.4
697.885	37073.54
698.231	37001.68
698.577	37057.95
698.923	36887.34
699.269	36710.84
699.614	36629.04
699.96	36527.57
700.306	36609.6
700.651	36387.24
700.997	36362.38
701.342	36172.1
701.688	36142.95
702.033	35991.31
702.379	36009.39
702.724	35935.95
703.069	36022.95
703.415	35597.88
703.76	35536.41
704.105	35608.72
704.45	35586.35
704.795	35371.44
705.14	35243.54
705.485	35161.5
705.83	35115.18
706.175	35200.37
706.52	35096.42
706.865	34904.11
707.209	34876.31
707.554	34702.31
707.899	34814.85
708.243	34637.22
708.588	34524.91
708.932	34308.65
709.277	34464.8
709.621	34460.96
709.966	34179.84
710.31	34185.71
710.654	33980.97
710.998	34077.47
711.342	33934.87
711.687	33931.93
712.031	33800.86
712.375	33538.04
712.719	33710.7
713.063	33609
713.407	33685.84
713.75	33471.83
714.094	33470.7
714.438	33461.21
714.782	33422.79
715.125	33314.77
715.469	33263.02
715.812	33130.82
716.156	32989.58
716.499	32982.58
716.843	33017.15
717.186	32868.46
717.53	32991.17
717.873	32903.26
718.216	32707.33
718.559	32639.31
718.902	32448.36
719.246	32552.08
719.589	32446.1
719.932	32449.71
720.275	32277.29
720.617	32272.77
720.96	32222.37
721.303	32261.92
721.646	32152.32
721.989	32001.81
722.331	31967.69
722.674	32096.27
723.016	32036.84
723.359	31842.27
723.701	31992.55
724.044	31731.31
724.386	31703.29
724.729	31661.94
725.071	31599.56
725.413	31694.93
725.755	31557.76
726.097	31531.09
726.439	31376.52
726.782	31319.12
727.124	31463.75
727.465	31321.61
727.807	31388.95
728.149	31259.46
728.491	31215.85
728.833	31058.11
729.175	31090.43
729.516	30975.85
729.858	30934.72
730.199	30992.12
730.541	30838.23
730.882	30833.26
731.224	30881.17
731.565	30696.99
731.906	30763.65
732.248	30746.48
732.589	30620.38
732.93	30449.09
733.271	30475.75
733.612	30541.74
733.953	30554.85
734.294	30446.6
734.635	30398.69
734.976	30326.15
735.317	30388.07
735.658	30339.48
735.999	30311.46
736.339	30134.29
736.68	30271.24
737.021	30146.04
737.361	29827.41
737.702	29987.63
738.042	30054.52
738.383	29933.39
738.723	29999.38
739.063	29774.3
739.404	29874.41
739.744	29765.04
740.084	29768.43
740.424	29704.47
740.764	29573.4
741.104	29683.68
741.444	29568.43
741.784	29537.47
742.124	29570.92
742.464	29629.9
742.804	29441.66
743.143	29411.15
743.483	29412.28
743.823	29252.73
744.162	29211.38
744.502	29228.55
744.841	29102.91
745.181	29235.11
745.52	29037.15
745.86	29274.88
746.199	29071.27
746.538	29036.92
746.877	29095
747.216	28974.77
747.556	28883.25
747.895	28884.61
748.234	28808.23
748.573	28861.78
748.911	28713.76
749.25	28802.12
749.589	28629.02
749.928	28650.94
750.267	28600.32
750.605	28548.57
750.944	28478.97
751.283	28334.57
751.621	28330.95
751.96	28338.86
752.298	28237.62
752.636	28265.64
752.975	28194.68
753.313	28074.46
753.651	28127.34
753.989	27961.92
754.327	27952.2
754.666	27871.08
755.004	27823.84
755.342	27827.23
755.679	27812.77
756.017	27720.57
756.355	27886.22
756.693	27705.2
757.031	27531.42
757.368	27535.94
757.706	27444.87
758.044	27436.06
