Data from hue_320_FLMS001491_20.txt Node
Date: Mon Feb 06 15:46:48 GMT 2017
User: dcchb
Spectrometer: FLMS00149
Trigger mode: 0
Integration Time (sec): 2.000000E-2
Scans to average: 10
Electric dark correction enabled: true
Nonlinearity correction enabled: false
Boxcar width: 0
XAxis mode: Wavelengths
Number of Pixels in Spectrum: 2048
>>>>>Begin Spectral Data<<<<<
341.393	-14.9
341.776	-14.9
342.16	-14.9
342.543	-49.02
342.927	-60.55
343.31	-61.45
343.693	-51.28
344.077	-74.79
344.46	-71.17
344.843	-50.15
345.226	-58.74
345.61	-38.85
345.993	-10.38
346.376	-15.35
346.759	19.9
347.142	29.39
347.525	45.66
347.908	64.65
348.291	67.81
348.674	88.37
349.057	116.4
349.44	138.09
349.823	148.26
350.206	169.5
350.588	193.46
350.971	216.05
351.354	214.92
351.737	243.17
352.119	260.57
352.502	237.3
352.884	274.81
353.267	309.16
353.65	301.93
354.032	290.63
354.414	280.46
354.797	306.22
355.179	346.9
355.562	322.49
355.944	359.55
356.326	335.15
356.709	360.91
357.091	332.66
357.473	341.7
357.855	360.68
358.238	324.53
358.62	347.12
359.002	336.73
359.384	340.12
359.766	323.17
360.148	318.88
360.53	334.47
360.912	349.84
361.294	341.93
361.676	351.64
362.057	325.66
362.439	323.85
362.821	329.95
363.203	337.63
363.584	354.81
363.966	324.75
364.348	335.15
364.729	328.82
365.111	330.63
365.493	329.5
365.874	329.95
366.256	331.76
366.637	314.81
367.019	308.93
367.4	335.15
367.781	323.62
368.163	335.15
368.544	303.73
368.925	321.81
369.306	318.88
369.688	322.49
370.069	318.42
370.45	297.86
370.831	314.36
371.212	298.09
371.593	311.42
371.974	320.91
372.355	331.76
372.736	313.68
373.117	310.06
373.498	332.43
373.879	316.39
374.26	304.64
374.641	314.58
375.021	325.88
375.402	329.05
375.783	295.15
376.163	313.68
376.544	350.51
376.925	324.53
377.305	340.57
377.686	331.53
378.066	348.48
378.447	327.69
378.827	345.77
379.208	327.01
379.588	343.28
379.968	319.33
380.349	317.29
380.729	334.02
381.109	340.12
381.489	340.12
381.87	350.74
382.25	339.21
382.63	344.64
383.01	332.66
383.39	348.25
383.77	347.8
384.15	352.77
384.53	338.76
384.91	360.68
385.29	369.5
385.67	366.11
386.049	357.74
386.429	341.02
386.809	371.53
387.189	351.19
387.568	365.2
387.948	360.68
388.328	367.91
388.707	344.41
389.087	387.8
389.466	375.82
389.846	371.08
390.225	360
390.605	379.89
390.984	371.76
391.363	366.33
391.743	366.78
392.122	392.55
392.501	372.43
392.881	358.65
393.26	365.65
393.639	368.14
394.018	377.41
394.397	392.77
394.776	396.16
395.155	381.7
395.534	398.65
395.913	378.76
396.292	418.31
396.671	382.15
397.05	400.23
397.429	385.31
397.808	385.09
398.186	402.04
398.565	402.26
398.944	417.4
399.323	409.95
399.701	408.82
400.08	383.51
400.458	424.18
400.837	410.85
401.215	426.9
401.594	395.48
401.972	398.65
402.351	417.18
402.729	415.14
403.107	408.82
403.486	433.9
403.864	406.56
404.242	443.84
404.62	434.58
404.999	429.83
405.377	446.56
405.755	412.88
406.133	438.87
406.511	423.28
406.889	462.83
407.267	447.01
407.645	461.92
408.023	468.25
408.401	459.89
408.779	437.97
409.156	483.62
409.534	487.91
409.912	480.91
410.29	489.27
410.667	515.25
411.045	505.76
411.422	506.22
411.8	508.25
412.178	514.12
412.555	522.49
412.933	527.46
413.31	544.63
413.687	546.21
414.065	562.94
414.442	566.55
414.819	559.1
415.197	556.84
415.574	585.54
415.951	598.87
416.328	569.72
416.705	581.69
417.082	595.48
417.46	587.34
417.837	590.96
418.214	603.61
418.591	630.51
418.967	611.52
419.344	636.61
419.721	622.37
420.098	630.51
420.475	641.81
420.852	668.7
421.228	653.1
421.605	668.92
421.982	668.92
422.358	658.98
422.735	682.03
423.111	702.37
423.488	705.98
423.864	683.61
424.241	705.31
424.617	734.91
424.994	720.9
425.37	718.19
425.746	741.92
426.123	743.5
426.499	742.82
426.875	734.91
427.251	776.04
427.627	780.33
428.003	776.72
428.379	796.15
428.756	821.69
429.132	809.03
429.507	821.01
429.883	813.78
430.259	845.19
430.635	834.12
431.011	835.47
431.387	858.07
431.763	883.83
432.138	880.44
432.514	890.39
432.89	917.28
433.265	901.23
433.641	893.55
434.016	918.41
434.392	951.18
434.767	951.85
435.143	951.85
435.518	949.37
435.894	961.57
436.269	964.96
436.644	978.07
437.02	984.85
437.395	988.46
437.77	1006.32
438.145	1004.73
438.52	1025.3
438.895	1046.54
439.271	1023.49
439.646	1067.56
440.021	1071.85
440.395	1056.26
440.77	1053.09
441.145	1079.99
441.52	1079.99
441.895	1093.09
442.27	1095.58
442.645	1088.8
443.019	1106.65
443.394	1117.95
443.769	1122.92
444.143	1130.83
444.518	1132.87
444.892	1136.71
445.267	1124.05
445.641	1157.27
446.016	1126.31
446.39	1153.66
446.764	1152.53
447.139	1155.92
447.513	1164.28
447.887	1190.49
448.262	1153.66
448.636	1185.97
449.01	1189.36
449.384	1188.01
449.758	1202.24
450.132	1207.67
450.506	1204.05
450.88	1204.95
451.254	1200.66
451.628	1204.5
452.002	1228
452.376	1233.43
452.75	1239.08
453.123	1267.33
453.497	1287.44
453.871	1266.2
454.244	1287.44
454.618	1268.23
454.992	1284.5
455.365	1300.32
455.739	1317.04
456.112	1317.72
456.486	1322.69
456.859	1377.38
457.232	1387.55
457.606	1362.01
457.979	1343.48
458.352	1378.06
458.725	1375.8
459.099	1385.97
459.472	1427.77
459.845	1427.1
460.218	1445.17
460.591	1460.31
460.964	1467.55
461.337	1477.26
461.71	1502.8
462.083	1502.57
462.456	1473.87
462.829	1483.36
463.201	1529.01
463.574	1540.76
463.947	1540.09
464.32	1571.95
464.692	1581.44
465.065	1548.45
465.438	1600.88
465.81	1603.81
466.183	1616.02
466.555	1646.75
466.928	1654.21
467.3	1676.58
467.672	1662.57
468.045	1694.43
468.417	1705.05
468.789	1726.75
469.161	1735.56
469.534	1755.22
469.906	1777.37
470.278	1773.53
470.65	1811.49
471.022	1843.36
471.394	1816.01
471.766	1859.17
472.138	1893.75
472.51	1904.37
472.882	1943.69
473.253	1947.99
473.625	1961.77
473.997	1999.51
474.369	1994.54
474.74	2014.88
475.112	2014.88
475.484	2079.28
475.855	2106.4
476.227	2104.59
476.598	2155.66
476.97	2139.84
477.341	2171.48
477.713	2195.89
478.084	2238.83
478.455	2266.4
478.827	2299.16
479.198	2318.82
479.569	2339.61
479.94	2387.3
480.311	2394.53
480.682	2473.62
481.053	2479.27
481.424	2520.4
481.795	2497.8
482.166	2539.16
482.537	2603.11
482.908	2593.84
483.279	2634.75
483.65	2660.28
484.021	2677.91
484.391	2724.91
484.762	2752.71
485.133	2805.14
485.503	2787.96
485.874	2831.8
486.244	2888.75
486.615	2873.84
486.985	2912.03
487.356	2975.08
487.726	3001.74
488.097	3032.48
488.467	2992.03
488.837	3077.45
489.207	3120.84
489.578	3154.73
489.948	3164.68
490.318	3199.03
490.688	3207.39
491.058	3265.92
491.428	3296.65
491.798	3306.14
492.168	3327.61
492.538	3363.09
492.908	3392.92
493.278	3437.21
493.648	3443.54
494.017	3504.78
494.387	3482.18
494.757	3544.1
495.126	3551.56
495.496	3531.45
495.866	3600.15
496.235	3569.19
496.605	3612.57
496.974	3657.32
497.344	3646.47
497.713	3697.77
498.082	3717.66
498.452	3744.32
498.821	3706.13
499.19	3729.41
499.559	3734.83
499.928	3787.94
500.298	3820.93
500.667	3875.39
501.036	3816.18
501.405	3845.79
501.774	3879.91
502.143	3886.01
502.512	3872.45
502.88	3924.43
503.249	3958.33
503.618	3922.4
503.987	3961.27
504.356	3997.42
504.724	3984.09
505.093	4017.08
505.462	4024.99
505.83	4017.08
506.199	4057.31
506.567	4074.03
506.936	4069.51
507.304	4105.89
507.672	4136.63
508.041	4150.19
508.409	4166.68
508.777	4180.47
509.145	4214.14
509.514	4153.8
509.882	4240.13
510.25	4260.69
510.618	4253.69
510.986	4282.39
511.354	4276.74
511.722	4316.28
512.09	4313.12
512.458	4345.66
512.826	4373.23
513.193	4349.73
513.561	4350.41
513.929	4376.62
514.297	4376.62
514.664	4428.82
515.032	4391.99
515.4	4430.63
515.767	4478.54
516.135	4445.09
516.502	4430.63
516.869	4487.35
517.237	4470.41
517.604	4490.29
517.972	4501.82
518.339	4545.66
518.706	4532.55
519.073	4577.97
519.44	4585.2
519.808	4629.04
520.175	4535.71
520.542	4607.8
520.909	4612.1
521.276	4610.74
521.643	4694.58
522.009	4648.93
522.376	4754.24
522.743	4739.78
523.11	4779.78
523.477	4810.28
523.843	4785.65
524.21	4854.58
524.577	4865.2
524.943	4906.55
525.31	4874.69
525.676	4886.44
526.043	4927.12
526.409	4955.82
526.776	5011.41
527.142	5004.18
527.508	5084.17
527.874	4999.2
528.241	5075.59
528.607	5100.22
528.973	5130.27
529.339	5121.01
529.705	5165.3
530.071	5269.48
530.437	5208.92
530.803	5229.03
531.169	5291.63
531.535	5284.62
531.901	5281.68
532.267	5300.21
532.632	5349.93
532.998	5338.63
533.364	5423.6
533.73	5403.94
534.095	5428.12
534.461	5444.84
534.826	5501.34
535.192	5513.54
535.557	5480.77
535.923	5504.28
536.288	5582.92
536.653	5575.01
537.019	5549.02
537.384	5637.83
537.749	5671.05
538.114	5736.13
538.479	5689.81
538.845	5700.88
539.21	5722.58
539.575	5763.03
539.94	5795.57
540.305	5833.31
540.67	5827.21
541.034	5821.56
541.399	5865.4
541.764	5852.97
542.129	5937.71
542.494	5913.3
542.858	5964.15
543.223	5944.49
543.587	5998.5
543.952	6035.11
544.316	6003.02
544.681	6013.87
545.045	6132.51
545.41	6087.54
545.774	6156.24
546.138	6159.17
546.503	6196.24
546.867	6230.13
547.231	6240.08
547.595	6283.01
547.959	6251.15
548.324	6277.14
548.688	6298.83
549.052	6363.24
549.416	6352.16
549.779	6381.54
550.143	6391.94
550.507	6501.31
550.871	6512.61
551.235	6474.19
551.599	6530.46
551.962	6498.6
552.326	6521.42
552.689	6547.86
553.053	6525.04
553.417	6575.89
553.78	6612.5
554.143	6594.87
554.507	6613.17
554.87	6635.32
555.234	6704.24
555.597	6695.21
555.96	6729.78
556.323	6740.85
556.686	6718.71
557.05	6816.33
557.413	6800.51
557.776	6817.69
558.139	6896.1
558.502	6845.26
558.865	6872.38
559.228	6935.2
559.59	6892.49
559.953	6947.85
560.316	7070.56
560.679	6996.44
561.041	7040.73
561.404	7010
561.767	7131.35
562.129	7102.2
562.492	7150.11
562.854	7145.14
563.217	7181.52
563.579	7168.64
563.941	7231.24
564.304	7208.64
564.666	7229.43
565.028	7295.19
565.39	7302.2
565.753	7341.06
566.115	7401.4
566.477	7443.66
566.839	7443.21
567.201	7480.5
567.563	7480.04
567.925	7498.8
568.287	7556.43
568.648	7554.39
569.01	7556.43
569.372	7630.77
569.734	7634.16
570.095	7649.76
570.457	7669.19
570.819	7753.03
571.18	7743.99
571.542	7799.36
571.903	7817.66
572.265	7873.93
572.626	7971.33
572.987	7951.9
573.349	8002.74
573.71	8000.03
574.071	8039.35
574.432	8169.97
574.794	8229.63
575.155	8263.07
575.516	8270.98
575.877	8373.81
576.238	8446.57
576.599	8481.6
576.96	8535.38
577.32	8646.57
577.681	8755.04
578.042	8760.01
578.403	8936.05
578.763	9005.2
579.124	9085.42
579.485	9193.22
579.845	9265.08
580.206	9354.8
580.566	9477.73
580.927	9603.6
581.287	9682.7
581.648	9796.82
582.008	9969.92
582.368	10086.75
582.728	10340.31
583.089	10422.11
583.449	10553.41
583.809	10766.96
584.169	11016.9
584.529	11083.34
584.889	11352.03
585.249	11502.54
585.609	11601.29
585.969	11926.71
586.329	12084.67
586.688	12290.76
587.048	12519.68
587.408	12782.73
587.768	13019.56
588.127	13213
588.487	13455.03
588.846	13852.53
589.206	13943.6
589.565	14277.83
589.925	14493.19
590.284	14766.86
590.643	14968.66
591.003	15356.9
591.362	15707.17
591.721	15871.01
592.08	16173.37
592.44	16528.85
592.799	16753.47
593.158	17099.23
593.517	17324.53
593.876	17720.23
594.235	17957.28
594.593	18176.26
594.952	18557.04
595.311	18831.61
595.67	19092.39
596.029	19484.02
596.387	19797.91
596.746	20151.12
597.104	20333.94
597.463	20628.62
597.822	20946.36
598.18	21138.44
598.538	21441.26
598.897	21815.71
599.255	22040.11
599.613	22675.58
599.972	22715.35
600.33	23106.98
600.688	23362.11
601.046	23735.89
601.404	24072.6
601.762	24220.62
602.12	24715.3
602.478	24947.15
602.836	25169.07
603.194	25289.74
603.552	25502.39
603.91	25836.4
604.268	26206.1
604.625	26391.64
604.983	26768.12
605.341	26816.71
605.698	27328.56
606.056	27597.71
606.413	27660.53
606.771	28105.04
607.128	28313.62
607.485	28386.84
607.843	28690.33
608.2	29043.32
608.557	29342.29
608.914	29379.81
609.272	29860.47
609.629	30027.25
609.986	30433.79
610.343	30316.28
610.7	30797.85
611.057	30903.83
611.414	31120.55
611.771	31404.39
612.127	31636.7
612.484	31668.33
612.841	32026.74
613.198	32028.78
613.554	32388.54
613.911	32633.28
614.267	32826.95
614.624	32803.45
614.98	33077.34
615.337	33413.15
615.693	33349.42
616.05	33624.44
616.406	33933.81
616.762	34023.07
617.118	34061.27
617.475	34254.93
617.831	34438.2
618.187	34622.38
618.543	34685.43
618.899	35047.45
619.255	35050.39
619.611	35227.34
619.967	35511.85
620.323	35447.44
620.678	35612.86
621.034	35683.14
621.39	35672.3
621.746	35945.51
622.101	36253.75
622.457	36125.39
622.812	36263.47
623.168	36406.51
623.523	36488.77
623.879	36719.05
624.234	36551.6
624.589	36798.59
624.945	36899.38
625.3	37040.85
625.655	36907.52
626.01	37044.46
626.365	37246.94
626.72	37234.52
627.075	37232.26
627.43	37213.27
627.785	37297.56
628.14	37404.23
628.495	37531
628.85	37584.79
629.205	37463.44
629.559	37723.09
629.914	37685.35
630.269	37682.64
630.623	37624.34
630.978	37650.32
631.332	37861.84
631.687	38019.58
632.041	37878.57
632.396	38086.7
632.75	37827.49
633.104	38049.18
633.459	37782.75
633.813	37801.73
634.167	37907.49
634.521	37925.8
634.875	38083.98
635.229	38073.14
635.583	37880.6
635.937	37972.35
636.291	37946.81
636.645	37938.9
636.999	37925.57
637.352	38162.4
637.706	38110.2
638.06	38137.99
638.413	38110.2
638.767	37826.82
639.121	38070.88
639.474	37836.31
639.828	37860.49
640.181	38126.92
640.534	38084.21
640.888	37919.02
641.241	37751.79
641.594	37863.65
641.947	37964.67
642.301	37764.44
642.654	37844.44
643.007	37971.45
643.36	37875.85
643.713	37907.94
644.066	38033.36
644.419	37737.1
644.771	37590.44
645.124	37305.02
645.477	37333.95
645.83	37079.49
646.182	36916.11
646.535	36832.27
646.888	36907.07
647.24	36793.85
647.593	36940.51
647.945	36848.54
648.298	36646.73
648.65	36677.02
649.002	36689.9
649.355	36660.07
649.707	36677.24
650.059	36791.59
650.411	37232.48
650.763	37305.02
651.115	37560.61
651.467	37509.08
651.819	37561.29
652.171	37408.07
652.523	37383.44
652.875	37410.56
653.227	37394.51
653.578	37592.25
653.93	37377.56
654.282	37286.94
654.633	37182.77
654.985	37286.72
655.337	37259.15
655.688	37345.47
656.039	37477.9
656.391	37087.63
656.742	37189.32
657.094	37170.56
657.445	37340.05
657.796	37372.36
658.147	37095.54
658.498	37196.1
658.849	37391.57
659.2	37218.7
659.551	37128.76
659.902	37189.54
660.253	37139.6
660.604	37174.63
660.955	37020.28
661.306	37197.91
661.656	37238.13
662.007	37142.31
662.358	37309.09
662.708	37140.51
663.059	37178.7
663.409	36967.86
663.76	37145.48
664.11	37168.75
664.461	37213.5
664.811	37191.13
665.161	37144.35
665.511	36952.49
665.862	37102.09
666.212	37147.06
666.562	37213.5
666.912	36954.52
667.262	37038.36
667.612	37055.99
667.962	37075.42
668.312	36947.29
668.662	37200.84
669.011	37113.39
669.361	37096.89
669.711	36992.26
670.06	36930.34
670.41	36920.4
670.76	36846.95
671.109	37066.84
671.459	36926.27
671.808	36915.88
672.157	36942.32
672.507	36783
672.856	36794.75
673.205	36822.1
673.554	36882.43
673.904	36773.51
674.253	37074.75
674.602	36757.47
674.951	36285.61
675.3	36232.28
675.649	36666.17
675.998	36767.41
676.346	36596.11
676.695	36805.6
677.044	36482.44
677.393	36702.33
677.741	36720.18
678.09	36628.2
678.438	36530.13
678.787	36570.58
679.135	36671.37
679.484	36340.3
679.832	36440.19
680.181	36286.29
680.529	36406.51
680.877	36178.72
681.225	36381.2
681.573	36425.05
681.922	36196.35
682.27	36120.19
682.618	36111.16
682.966	35979.41
683.314	36246.97
683.661	35965.4
684.009	35940.99
684.357	35784.84
684.705	35670.49
685.053	35806.76
685.4	35594.78
685.748	35622.13
686.095	35629.13
686.443	35490.38
686.79	35310.27
687.138	35373.77
687.485	35456.71
687.832	35220.56
688.18	35345.07
688.527	35056.72
688.874	35144.17
689.221	35150.95
689.568	35000.45
689.915	34933.33
690.262	34954.12
690.609	34789.38
690.956	34806.33
691.303	34766.11
691.65	34508.26
691.997	34644.53
692.344	34303.74
692.69	34285.89
693.037	34236.4
693.383	34017.42
693.73	34195.5
694.077	34001.61
694.423	34065.79
694.769	33939.23
695.116	33795.74
695.462	33788.5
695.808	33642.52
696.155	33678.9
696.501	33460.15
696.847	33302.64
697.193	33224.45
697.539	33266.94
697.885	32987.17
698.231	33061.07
698.577	33008.64
698.923	33070.11
699.269	32665.6
699.614	32672.38
699.96	32764.12
700.306	32628.53
700.651	32421.08
700.997	32444.36
701.342	32412.5
701.688	32427.64
702.033	32260.63
702.379	32195.1
702.724	32123.92
703.069	32178.6
703.415	31823.36
703.76	31829.23
704.105	31827.88
704.45	31857.48
704.795	31663.36
705.14	31538.62
705.485	31387.44
705.83	31417.95
706.175	31478.06
706.52	31322.58
706.865	31252.75
707.209	31109.93
707.554	30983.38
707.899	31015.47
708.243	30957.17
708.588	30969.14
708.932	30685.99
709.277	30680.34
709.621	30657.29
709.966	30591.07
710.31	30613.67
710.654	30422.27
710.998	30387.46
711.342	30347.92
711.687	30364.64
712.031	30145.21
712.375	29945.22
712.719	30097.53
713.063	30041.48
713.407	30051.88
713.75	29935.72
714.094	29915.61
714.438	29799
714.782	29803.98
715.125	29683.3
715.469	29733.24
715.812	29610.76
716.156	29377.32
716.499	29420.94
716.843	29431.56
717.186	29325.12
717.53	29304.33
717.873	29385.91
718.216	29309.75
718.559	29176.65
718.902	28952.25
719.246	29023.88
719.589	28926.94
719.932	28878.58
720.275	28783.66
720.617	28755.42
720.96	28714.51
721.303	28709.09
721.646	28732.37
721.989	28581.41
722.331	28706.6
722.674	28542.77
723.016	28517.68
723.359	28559.26
723.701	28324.92
724.044	28350.23
724.386	28268.2
724.729	28293.96
725.071	28201.08
725.413	28172.15
725.755	28206.5
726.097	28224.36
726.439	27813.52
726.782	27876.8
727.124	28036.79
727.465	27818.27
727.807	27778.72
728.149	27842.45
728.491	27741.43
728.833	27719.74
729.175	27696.69
729.516	27587.09
729.858	27477.26
730.199	27536.47
730.541	27477.03
730.882	27514.09
731.224	27621.21
731.565	27383.25
731.906	27358.16
732.248	27409.91
732.589	27269.58
732.93	27102.13
733.271	27199.75
733.612	27231.39
733.953	27249.47
734.294	27174.44
734.635	27021.9
734.976	27090.83
735.317	26917.5
735.658	26920.21
735.999	26903.04
736.339	26877.5
736.68	26917.72
737.021	26816.94
737.361	26712.98
737.702	26761.8
738.042	26640.67
738.383	26588.69
738.723	26728.8
739.063	26520.45
739.404	26543.27
739.744	26522.71
740.084	26399.77
740.424	26458.08
740.764	26335.82
741.104	26509.15
741.444	26347.57
741.784	26170.4
742.124	26130.4
742.464	26296.95
742.804	26171.53
743.143	26120.23
743.483	26041.82
743.823	25982.16
744.162	26042.27
744.502	26098.76
744.841	25879.79
745.181	26063.28
745.52	25870.29
745.86	25977.41
746.199	25822.39
746.538	25794.82
746.877	25841.59
747.216	25756.85
747.556	25692.67
747.895	25650.87
748.234	25500.81
748.573	25536.29
748.911	25511.21
749.25	25537.2
749.589	25314.38
749.928	25414.26
750.267	25414.49
750.605	25339.01
750.944	25150.99
751.283	25141.73
751.621	25136.98
751.96	25009.3
752.298	25052.46
752.636	24997.32
752.975	24873.48
753.313	24931.56
753.651	24915.29
753.989	24732.7
754.327	24562.08
754.666	24658.12
755.004	24529.76
755.342	24574.51
755.679	24541.74
756.017	24403.67
756.355	24482.76
756.693	24320.28
757.031	24394.63
757.368	24136.33
757.706	24189.21
758.044	24209.1
758.381	24203.22
758.719	24023.79
759.056	24006.39
759.394	23907.18
759.731	23855.66
760.068	23845.49
