Data from hue_38_FLMS001491_00040.txt Node
Date: Tue Feb 07 17:31:26 GMT 2017
User: dcchb
Spectrometer: FLMS00149
Trigger mode: 0
Integration Time (sec): 2.000000E-2
Scans to average: 10
Electric dark correction enabled: true
Nonlinearity correction enabled: false
Boxcar width: 0
XAxis mode: Wavelengths
Number of Pixels in Spectrum: 2048
>>>>>Begin Spectral Data<<<<<
341.393	-18.26
341.776	-18.26
342.16	-18.26
342.543	-67.75
342.927	-73.4
343.31	-61.65
343.693	-63.01
344.077	-58.49
344.46	-55.78
344.843	-56.68
345.226	-34.31
345.61	-19.39
345.993	-13.74
346.376	5.47
346.759	13.6
347.142	14.96
347.525	36.88
347.908	54.05
348.291	80.72
348.674	65.13
349.057	92.24
349.44	109.87
349.823	142.19
350.206	167.5
350.588	205.91
350.971	214.5
351.354	231.22
351.737	260.37
352.119	252.01
352.502	268.06
352.884	275.74
353.267	283.88
353.65	279.13
354.032	297.66
354.414	338.11
354.797	338.56
355.179	325.91
355.562	329.3
355.944	337.43
356.326	349.19
356.709	355.06
357.091	340.6
357.473	351.45
357.855	334.72
358.238	333.37
358.62	342.86
359.002	350.09
359.384	343.99
359.766	324.1
360.148	331.11
360.53	351.67
360.912	344.21
361.294	335.85
361.676	341.95
362.057	355.51
362.439	333.82
362.821	325.01
363.203	358.68
363.584	316.19
363.966	327.94
364.348	326.14
364.729	320.26
365.111	333.59
365.493	334.5
365.874	310.09
366.256	310.99
366.637	295.63
367.019	328.62
367.4	332.24
367.781	309.41
368.163	317.1
368.544	308.73
368.925	328.17
369.306	311.67
369.688	307.6
370.069	318.45
370.45	328.62
370.831	328.4
371.212	316.64
371.593	317.32
371.974	315.06
372.355	327.04
372.736	317.32
373.117	341.28
373.498	341.95
373.879	338.79
374.26	326.14
374.641	314.16
375.021	313.25
375.402	326.81
375.783	324.55
376.163	342.86
376.544	322.52
376.925	339.92
377.305	342.41
377.686	331.79
378.066	324.78
378.447	305.8
378.827	321.62
379.208	339.47
379.588	322.75
379.968	338.11
380.349	337.89
380.729	323.65
381.109	333.14
381.489	344.44
381.87	353.93
382.25	338.79
382.63	348.73
383.01	326.14
383.39	323.88
383.77	355.06
384.15	351.67
384.53	349.64
384.91	352.35
385.29	342.18
385.67	337.21
386.049	345.57
386.429	356.42
386.809	352.58
387.189	376.3
387.568	355.51
387.948	355.06
388.328	331.56
388.707	378.56
389.087	373.37
389.466	365.68
389.846	379.92
390.225	354.84
390.605	372.69
390.984	354.61
391.363	357.32
391.743	365.23
392.122	363.42
392.501	362.74
392.881	377.43
393.26	362.97
393.639	372.01
394.018	377.66
394.397	405.91
394.776	382.18
395.155	375.63
395.534	386.47
395.913	385.57
396.292	404.78
396.671	384.21
397.05	398.68
397.429	367.72
397.808	370.43
398.186	398.68
398.565	382.86
398.944	383.99
399.323	375.17
399.701	401.16
400.08	388.51
400.458	397.09
400.837	390.99
401.215	389.64
401.594	413.14
401.972	409.75
402.351	414.72
402.729	405
403.107	424.21
403.486	388.96
403.864	393.7
404.242	438.67
404.62	398.45
404.999	411.33
405.377	404.55
405.755	409.52
406.133	428.28
406.511	405.91
406.889	431.9
407.267	436.19
407.645	438.9
408.023	448.17
408.401	434.83
408.779	448.17
409.156	437.77
409.534	453.14
409.912	448.17
410.29	442.29
410.667	465.34
411.045	446.58
411.422	448.39
411.8	458.34
412.178	435.74
412.555	440.71
412.933	475.06
413.31	469.63
413.687	481.16
414.065	494.72
414.442	470.76
414.819	508.05
415.197	484.78
415.574	488.84
415.951	505.79
416.328	475.06
416.705	474.15
417.082	496.07
417.46	502.63
417.837	524.55
418.214	508.05
418.591	497.2
418.967	506.24
419.344	507.83
419.721	533.14
420.098	515.06
420.475	515.74
420.852	516.64
421.228	531.55
421.605	523.87
421.982	546.24
422.358	534.49
422.735	535.4
423.111	529.07
423.488	546.02
423.864	567.26
424.241	569.52
424.617	532.23
424.994	573.36
425.37	549.41
425.746	550.54
426.123	596.41
426.499	560.25
426.875	593.93
427.251	566.58
427.627	584.66
428.003	594.15
428.379	593.7
428.756	600.03
429.132	605.45
429.507	597.31
429.883	604.77
430.259	584.21
430.635	633.02
431.011	647.03
431.387	640.48
431.763	643.42
432.138	628.05
432.514	614.94
432.89	636.18
433.265	659.23
433.641	631.66
434.016	663.75
434.392	698.78
434.767	700.14
435.143	671.66
435.518	694.71
435.894	691.55
436.269	701.27
436.644	692
437.02	726.35
437.395	723.64
437.77	723.64
438.145	714.37
438.52	719.12
438.895	709.18
439.271	742.85
439.646	733.36
440.021	760.7
440.395	752.11
440.77	763.64
441.145	748.5
441.52	758.89
441.895	788.27
442.27	783.3
442.645	772.68
443.019	774.94
443.394	793.47
443.769	794.6
444.143	766.12
444.518	796.18
444.892	798.67
445.267	788.27
445.641	804.77
446.016	829.85
446.39	828.72
446.764	844.31
447.139	823.07
447.513	843.86
447.887	827.82
448.262	850.64
448.636	823.75
449.01	863.3
449.384	859.23
449.758	873.69
450.132	868.04
450.506	867.36
450.88	881.15
451.254	846.35
451.628	888.38
452.002	884.31
452.376	935.39
452.75	891.77
453.123	936.06
453.497	913.01
453.871	923.86
454.244	943.29
454.618	953.92
454.992	943.52
455.365	956.85
455.739	967.02
456.112	992.33
456.486	1004.76
456.859	999.11
457.232	1000.92
457.606	1005.67
457.979	1047.92
458.352	1026.23
458.725	1049.51
459.099	1063.74
459.472	1065.78
459.845	1104.42
460.218	1085.21
460.591	1083.4
460.964	1127.92
461.337	1141.93
461.71	1174.93
462.083	1163.4
462.456	1176.06
462.829	1163.63
463.201	1191.65
463.574	1203.17
463.947	1207.69
464.32	1253.79
464.692	1268.71
465.065	1263.74
465.438	1277.3
465.81	1293.12
466.183	1302.61
466.555	1342.83
466.928	1352.78
467.3	1342.38
467.672	1364.3
468.045	1415.82
468.417	1423.51
468.789	1433.23
469.161	1455.37
469.534	1472.77
469.906	1519.78
470.278	1503.96
470.65	1541.92
471.022	1610.4
471.394	1637.29
471.766	1614.46
472.138	1667.12
472.51	1716.83
472.882	1730.17
473.253	1736.95
473.625	1783.05
473.997	1817.4
474.369	1845.42
474.74	1900.56
475.112	1915.92
475.484	1987.79
475.855	2000.67
476.227	2073.89
476.598	2095.13
476.97	2123.6
477.341	2191.85
477.713	2234.11
478.084	2265.07
478.455	2317.95
478.827	2335.8
479.198	2488.79
479.569	2510.26
479.94	2574.66
480.311	2633.42
480.682	2712.74
481.053	2786.86
481.424	2865.73
481.795	2943.47
482.166	2971.72
482.537	3035.44
482.908	3104.59
483.279	3211.26
483.65	3268.21
484.021	3361.08
484.391	3467.75
484.762	3521.53
485.133	3604.92
485.503	3679.04
485.874	3823.9
486.244	3853.05
486.615	3949.77
486.985	4049.2
487.356	4127.84
487.726	4208.52
488.097	4310.21
488.467	4435.63
488.837	4528.28
489.207	4638.34
489.578	4712.23
489.948	4817.32
490.318	4890.31
490.688	4992.23
491.058	5135.05
491.428	5249.62
491.798	5315.61
492.168	5483.06
492.538	5537.75
492.908	5669.72
493.278	5787.23
493.648	5831.08
494.017	5999.43
494.387	6042.82
494.757	6165.76
495.126	6253.66
495.496	6299.99
495.866	6366.2
496.235	6471.06
496.605	6599.64
496.974	6726.42
497.344	6818.39
497.713	6897.04
498.082	7011.16
498.452	7120.08
498.821	7133.19
499.19	7227.87
499.559	7327.31
499.928	7501.09
500.298	7514.42
500.667	7581.99
501.036	7661.54
501.405	7756.22
501.774	7780.18
502.143	7877.58
502.512	7940.85
502.88	8057.91
503.249	8123.9
503.618	8263.78
503.987	8333.16
504.356	8358.24
504.724	8441.85
505.093	8542.19
505.462	8599.82
505.83	8714.84
506.199	8784.44
506.567	8916.19
506.936	8897.66
507.304	8969.98
507.672	9050.43
508.041	9135.62
508.409	9193.02
508.777	9311.21
509.145	9428.5
509.514	9433.92
509.882	9519.11
510.25	9585.78
510.618	9651.54
510.986	9644.76
511.354	9766.11
511.722	9895.6
512.09	9914.81
512.458	9992.32
512.826	10063.05
513.193	10190.73
513.561	10138.31
513.929	10313.9
514.297	10297.62
514.664	10391.18
515.032	10462.82
515.4	10480.44
515.767	10651.97
516.135	10677.5
516.502	10576.71
516.869	10814.22
517.237	10875.24
517.604	10811.51
517.972	10999.98
518.339	10944.39
518.706	11017.38
519.073	11128.79
519.44	11146.42
519.808	11311.38
520.175	11280.42
520.542	11451.72
520.909	11488.78
521.276	11508.21
521.643	11677.93
522.009	11738.04
522.376	11820.07
522.743	11845.38
523.11	11969.22
523.477	12015.77
523.843	12101.42
524.21	12262.32
524.577	12420.96
524.943	12380.28
525.31	12402.2
525.676	12524.23
526.043	12699.82
526.409	12676.32
526.776	12752.48
527.142	12790.67
527.508	12895.97
527.874	13016.42
528.241	13119.47
528.607	13119.47
528.973	13227.94
529.339	13280.15
529.705	13370.31
530.071	13500.03
530.437	13503.87
530.803	13594.49
531.169	13712.45
531.535	13689.63
531.901	13669.51
532.267	13819.11
532.632	13859.34
532.998	13892.56
533.364	14069.05
533.73	13993.12
534.095	14197.64
534.461	14224.98
534.826	14309.72
535.192	14327.35
535.557	14487.8
535.923	14464.75
536.288	14534.58
536.653	14675.59
537.019	14668.13
537.384	14619.09
537.749	14701.12
538.114	14830.84
538.479	14876.49
538.845	14926.66
539.21	14839.88
539.575	15043.71
539.94	15080.32
540.305	15040.1
540.67	15128.46
541.034	15170.94
541.399	15378.62
541.764	15344.72
542.129	15382.69
542.494	15379.52
542.858	15499.97
543.223	15513.31
543.587	15577.71
543.952	15628.11
544.316	15777.93
544.681	15741.32
545.045	15726.18
545.41	15880.75
545.774	15992.62
546.138	15953.97
546.503	16125.49
546.867	16103.12
547.231	16228.32
547.595	16299.73
547.959	16312.83
548.324	16321.87
548.688	16326.62
549.052	16431.47
549.416	16476.9
549.779	16499.27
550.143	16590.57
550.507	16621.07
550.871	16688.64
551.235	16739.04
551.599	16828.75
551.962	16819.26
552.326	16894.29
552.689	17025.13
553.053	16969.54
553.417	17089.08
553.78	17253.37
554.143	17243.88
554.507	17334.5
554.87	17379.25
555.234	17506.47
555.597	17485.46
555.96	17504.21
556.323	17569.75
556.686	17621.05
557.05	17672.57
557.413	17878.89
557.776	17779.46
558.139	17895.62
558.502	18008.16
558.865	18038.44
559.228	18072.11
559.59	18179.23
559.953	18143.75
560.316	18404.76
560.679	18333.35
561.041	18440.46
561.404	18546.9
561.767	18715.03
562.129	18634.58
562.492	18757.06
562.854	18764.07
563.217	18788.25
563.579	18920.22
563.941	18990.05
564.304	19126.77
564.666	19153.44
565.028	19153.21
565.39	19220.78
565.753	19367.89
566.115	19458.29
566.477	19511.39
566.839	19489.7
567.201	19676.59
567.563	19719.98
567.925	19821.89
568.287	19727.89
568.648	19917.71
569.01	19920.65
569.372	20113.64
569.734	20039.06
570.095	20180.08
570.457	20293.75
570.819	20364.48
571.18	20441.54
571.542	20579.39
571.903	20547.75
572.265	20742.55
572.626	20702.77
572.987	20790.46
573.349	20965.37
573.71	20963.78
574.071	21101.86
574.432	21188.19
574.794	21299.14
575.155	21366.26
575.516	21462.75
575.877	21537.1
576.238	21621.39
576.599	21822.97
576.96	21953.14
577.32	22057.99
577.681	22111.78
578.042	22286.91
578.403	22338.21
578.763	22530.52
579.124	22631.09
579.485	22768.71
579.845	23040.11
580.206	23081.92
580.566	23267.68
580.927	23425.87
581.287	23514
581.648	23666.99
582.008	23905.85
582.368	23937.94
582.728	24200.99
583.089	24290.03
583.449	24404.6
583.809	24685.27
584.169	24830.35
584.529	24892.04
584.889	25284.58
585.249	25264.01
585.609	25419.04
585.969	25746.48
586.329	25843.43
586.688	26118
587.048	26247.71
587.408	26538.33
587.768	26640.02
588.127	26880.47
588.487	26890.63
588.846	27369.49
589.206	27373.79
589.565	27628.47
589.925	27893.09
590.284	27997.05
590.643	28309.13
591.003	28562.46
591.362	28729
591.721	28860.07
592.08	29118.15
592.44	29358.59
592.799	29550.9
593.158	29806.94
593.517	29929.65
593.876	30156.09
594.235	30325.12
594.593	30519.24
594.952	30736.86
595.311	30839.68
595.67	31084.87
596.029	31470.85
596.387	31592.21
596.746	31851.41
597.104	31835.82
597.463	32148.58
597.822	32411.62
598.18	32374.33
598.538	32555.57
598.897	32900.87
599.255	32921.44
599.613	33461.31
599.972	33430.8
600.33	33625.82
600.688	33669.44
601.046	34002.76
601.404	34271.01
601.762	34240.5
602.12	34605.91
602.478	34697.21
602.836	34954.15
603.194	34827.83
603.552	35091.78
603.91	35103.75
604.268	35475.27
604.625	35545.32
604.983	35803.62
605.341	35753.23
605.698	35946.44
606.056	36165.65
606.413	36228.47
606.771	36486.54
607.128	36664.16
607.485	36639.98
607.843	36836.36
608.2	37086.3
608.557	37196.58
608.914	37051.5
609.272	37342.11
609.629	37531.03
609.986	37642.67
610.343	37710.24
610.7	38091.7
611.057	38148.64
611.414	38110.68
611.771	38408.98
612.127	38457.56
612.484	38620.72
612.841	38830.89
613.198	38788.63
613.554	38746.82
613.911	39149.75
614.267	39138.22
614.624	39102.29
614.98	39283.98
615.337	39513.81
615.693	39533.92
616.05	39565.56
616.406	39923.29
616.762	39874.7
617.118	39856.17
617.475	40168.48
617.831	40163.96
618.187	40136.61
618.543	40319.66
618.899	40595.36
619.255	40532.76
619.611	40582.93
619.967	40725.53
620.323	40935.69
620.678	40685.3
621.034	40803.72
621.39	40851.4
621.746	40909.02
622.101	41337.03
622.457	41139.98
622.812	41136.14
623.168	41327.77
623.523	41287.54
623.879	41476.01
624.234	41175.91
624.589	41462
624.945	41483.25
625.3	41570.7
625.655	41462.91
626.01	41494.32
626.365	41718.95
626.72	41683.69
627.075	41622.68
627.43	41685.5
627.785	41639.17
628.14	41787.64
628.495	41870.81
628.85	41816.8
629.205	41745.16
629.559	41959.17
629.914	41775.67
630.269	41833.29
630.623	41810.24
630.978	41683.69
631.332	41925.49
631.687	42026.96
632.041	41792.84
632.396	41923.46
632.75	41944.25
633.104	41959.84
633.459	41813.63
633.813	41895.21
634.167	41855.21
634.521	41979.73
634.875	41969.11
635.229	41941.54
635.583	41823.8
635.937	41751.71
636.291	41810.92
636.645	41745.84
636.999	41853.86
637.352	41809.34
637.706	41610.7
638.06	41806.85
638.413	41760.98
638.767	41626.74
639.121	41700.19
639.474	41453.64
639.828	41565.28
640.181	41526.86
640.534	41532.96
640.888	41412.06
641.241	41413.64
641.594	41453.64
641.947	41546.29
642.301	41406.64
642.654	41517.37
643.007	41552.4
643.36	41428.56
643.713	41375.23
644.066	41617.93
644.419	41209.13
644.771	41053.43
645.124	40671.74
645.477	40694.11
645.83	40337.51
646.182	40189.72
646.535	40125.32
646.888	40351.07
647.24	40148.59
647.593	40215.48
647.945	40142.94
648.298	39979.78
648.65	39904.53
649.002	39936.85
649.355	40142.04
649.707	40071.76
650.059	40240.57
650.411	40677.84
650.763	40513.55
651.115	41054.56
651.467	40890.04
651.819	40968
652.171	40750.38
652.523	40856.37
652.875	40794.22
653.227	40653.21
653.578	40989.25
653.93	40902.7
654.282	40599.43
654.633	40659.31
654.985	40727.11
655.337	40690.72
655.688	40676.26
656.039	40729.14
656.391	40403.05
656.742	40458.19
657.094	40667.9
657.445	40752.87
657.796	40661.12
658.147	40485.53
658.498	40591.74
658.849	40626.32
659.2	40472.42
659.551	40574.57
659.902	40601.46
660.253	40490.05
660.604	40543.84
660.955	40313.56
661.306	40679.65
661.656	40390.39
662.007	40439.21
662.358	40503.84
662.708	40401.92
663.059	40461.35
663.409	40133.45
663.76	40447.11
664.11	40490.96
664.461	40437.17
664.811	40543.38
665.161	40438.75
665.511	40215.48
665.862	40310.17
666.212	40524.85
666.562	40364.18
666.912	40224.52
667.262	40227.69
667.612	40240.34
667.962	40295.48
668.312	40268.36
668.662	40451.86
669.011	40309.72
669.361	40304.75
669.711	40262.94
670.06	40140.46
670.41	40201.25
670.76	40079.44
671.109	40216.61
671.459	40163.05
671.808	40061.59
672.157	40139.55
672.507	39912.21
672.856	39916.96
673.205	40020.01
673.554	40142.72
673.904	39968.48
674.253	40154.47
674.602	40118.08
674.951	39484.43
675.3	39299.8
675.649	39955.15
675.998	39853.91
676.346	40003.96
676.695	40019.56
677.044	39860.01
677.393	39862.5
677.741	39939.56
678.09	39878.32
678.438	39771.65
678.787	39644.88
679.135	39892.1
679.484	39434.26
679.832	39686.46
680.181	39564.65
680.529	39612.56
680.877	39425.22
681.225	39533.01
681.573	39560.13
681.922	39292.34
682.27	39243.53
682.618	39419.57
682.966	39186.81
683.314	39257.99
683.661	39062.29
684.009	39035.85
684.357	38887.83
684.705	38781.17
685.053	38812.58
685.4	38792.69
685.748	38634.73
686.095	38640.38
686.443	38482.65
686.79	38423.66
687.138	38457.11
687.485	38547.28
687.832	38417.79
688.18	38355.87
688.527	38225.48
688.874	38185.7
689.221	38099.83
689.568	38070.45
689.915	37939.61
690.262	38021.19
690.609	37802.66
690.956	37768.54
691.303	37647.64
691.65	37484.25
691.997	37442.67
692.344	37305.73
692.69	37246.52
693.037	37344.82
693.383	36882.69
693.73	37159.29
694.077	36968.11
694.423	36954.55
694.769	36872.52
695.116	36685.63
695.462	36674.78
695.808	36619.19
696.155	36665.74
696.501	36374.91
696.847	36374
697.193	36035.25
697.539	36247.9
697.885	35977.85
698.231	35945.54
698.577	35959.55
698.923	35821.7
699.269	35648.14
699.614	35502.84
699.96	35526.57
700.306	35402.95
700.651	35329.96
700.997	35228.49
701.342	35047.26
701.688	35115.73
702.033	35024.66
702.379	34964.77
702.724	34929.29
703.069	34903.53
703.415	34484.79
703.76	34705.57
704.105	34605.01
704.45	34487.95
704.795	34313.72
705.14	34280.27
705.485	34235.75
705.83	34101.97
706.175	34067.4
706.52	34067.62
706.865	33958.47
707.209	33944.23
707.554	33729.78
707.899	33922.09
708.243	33673.06
708.588	33559.61
708.932	33282.78
709.277	33339.73
709.621	33438.26
709.966	33239.17
710.31	33326.4
710.654	33059.06
710.998	33072.62
711.342	33057.25
711.687	32919.63
712.031	32741.33
712.375	32670.82
712.719	32743.81
713.063	32581.33
713.407	32810.25
713.75	32541.11
714.094	32494.56
714.438	32368.23
714.782	32317.61
715.125	32286.43
715.469	32365.07
715.812	32101.8
716.156	32069.03
716.499	32039.65
716.843	32005.75
717.186	31855.7
717.53	32021.57
717.873	31879.66
718.216	31714.91
718.559	31688.02
718.902	31527.57
719.246	31479.67
719.589	31385.43
719.932	31427.01
720.275	31379.56
720.617	31348.37
720.96	31262.27
721.303	31183.18
721.646	31318.54
721.989	31027.02
722.331	31105.89
722.674	31106.8
723.016	31132.78
723.359	30879
723.701	31092.11
724.044	30793.81
724.386	30606.47
724.729	30870.64
725.071	30796.97
725.413	30690.76
725.755	30647.6
726.097	30507.26
726.439	30434.95
726.782	30366.48
727.124	30629.97
727.465	30431.11
727.807	30304.56
728.149	30172.36
728.491	30221.85
728.833	30317.66
729.175	30067.5
729.516	30159.02
729.858	30008.74
730.199	30059.14
730.541	29942.76
730.882	29960.38
731.224	29994.96
731.565	29823.44
731.906	29719.03
732.248	29808.52
732.589	29599.26
732.93	29515.42
733.271	29586.38
733.612	29548.64
733.953	29466.84
734.294	29413.51
734.635	29362.21
734.976	29421.42
735.317	29293.74
735.658	29243.79
735.999	29296.9
736.339	29262.1
736.68	29388.2
737.021	29122.89
737.361	29217.58
737.702	29174.64
738.042	29074.31
738.383	29068.66
738.723	29186.62
739.063	29026.62
739.404	28997.7
739.744	28949.11
740.084	28834.99
740.424	28838.38
740.764	28719.51
741.104	28816.01
741.444	28634.09
741.784	28579.86
742.124	28725.84
742.464	28461.44
742.804	28489.69
743.143	28494.21
743.483	28388.22
743.823	28411.05
744.162	28177.61
744.502	28377.6
744.841	28181.67
745.181	28240.88
745.52	28164.05
745.86	28133.77
746.199	28156.36
746.538	27957.5
746.877	28125.86
747.216	28152.3
747.556	27966.31
747.895	27996.82
748.234	27764.74
748.573	27779.65
748.911	27809.48
749.25	27728.58
749.589	27543.95
749.928	27751.63
750.267	27708.01
750.605	27510.51
750.944	27555.48
751.283	27488.59
751.621	27435.03
751.96	27254.69
752.298	27313.45
752.636	27329.49
752.975	27369.49
753.313	27229.16
753.651	27332.66
753.989	27169.95
754.327	26973.57
754.666	26858.55
755.004	26955.49
755.342	26922.5
755.679	26869.62
756.017	26740.58
756.355	26888.15
756.693	26639.79
