Data from hue_310_FLMS001491_97.txt Node
Date: Mon Feb 06 15:50:29 GMT 2017
User: dcchb
Spectrometer: FLMS00149
Trigger mode: 0
Integration Time (sec): 2.000000E-2
Scans to average: 10
Electric dark correction enabled: true
Nonlinearity correction enabled: false
Boxcar width: 0
XAxis mode: Wavelengths
Number of Pixels in Spectrum: 2048
>>>>>Begin Spectral Data<<<<<
341.393	-22.36
341.776	-22.36
342.16	-22.36
342.543	-68.01
342.927	-74.11
343.31	-64.62
343.693	-38.4
344.077	-46.09
344.46	-61.45
344.843	-60.78
345.226	-63.94
345.61	-50.15
345.993	-15.8
346.376	-16.03
346.759	22.16
347.142	26.45
347.525	42.05
347.908	44.31
348.291	79.79
348.674	87.02
349.057	115.49
349.44	120.91
349.823	133.12
350.206	158.65
350.588	187.13
350.971	213.34
351.354	223.29
351.737	245.43
352.119	239.33
352.502	282.04
352.884	270.29
353.267	283.62
353.65	298.54
354.032	281.14
354.414	307.12
354.797	324.53
355.179	310.97
355.562	320.68
355.944	325.66
356.326	320.46
356.709	334.02
357.091	330.17
357.473	339.21
357.855	339.89
358.238	348.93
358.62	335.6
359.002	349.61
359.384	344.64
359.766	336.73
360.148	356.16
360.53	314.81
360.912	343.06
361.294	311.87
361.676	324.98
362.057	333.79
362.439	346.67
362.821	343.06
363.203	314.81
363.584	349.84
363.966	318.65
364.348	311.19
364.729	328.14
365.111	315.26
365.493	308.25
365.874	310.29
366.256	312.77
366.637	309.38
367.019	338.54
367.4	314.81
367.781	325.66
368.163	308.03
368.544	315.71
368.925	296.5
369.306	317.29
369.688	305.54
370.069	308.48
370.45	331.08
370.831	322.72
371.212	305.99
371.593	316.84
371.974	313.23
372.355	300.57
372.736	305.09
373.117	324.53
373.498	307.12
373.879	317.07
374.26	306.67
374.641	312.1
375.021	313
375.402	331.98
375.783	333.79
376.163	343.06
376.544	314.81
376.925	335.82
377.305	341.47
377.686	318.88
378.066	334.69
378.447	325.2
378.827	328.82
379.208	317.75
379.588	349.61
379.968	329.72
380.349	347.58
380.729	315.94
381.109	337.18
381.489	328.14
381.87	326.11
382.25	336.5
382.63	362.26
383.01	343.06
383.39	322.72
383.77	335.82
384.15	341.25
384.53	327.92
384.91	335.82
385.29	335.15
385.67	347.8
386.049	333.11
386.429	358.65
386.809	361.13
387.189	351.64
387.568	355.49
387.948	367.01
388.328	359.78
388.707	342.6
389.087	338.31
389.466	329.27
389.846	349.38
390.225	372.66
390.605	352.32
390.984	359.1
391.363	376.73
391.743	360.46
392.122	375.82
392.501	381.92
392.881	374.92
393.26	386.9
393.639	375.37
394.018	389.16
394.397	371.98
394.776	378.76
395.155	381.25
395.534	373.34
395.913	374.24
396.292	370.63
396.671	397.29
397.05	395.26
397.429	398.42
397.808	408.36
398.186	401.36
398.565	398.2
398.944	400
399.323	405.2
399.701	382.38
400.08	402.26
400.458	385.99
400.837	430.96
401.215	406.33
401.594	426.9
401.972	407.01
402.351	403.39
402.729	423.05
403.107	444.07
403.486	435.93
403.864	433.9
404.242	445.2
404.62	440.45
404.999	410.4
405.377	443.17
405.755	455.37
406.133	451.75
406.511	471.64
406.889	463.05
407.267	461.24
407.645	455.82
408.023	477.29
408.401	472.77
408.779	482.94
409.156	483.39
409.534	488.14
409.912	478.87
410.29	505.76
410.667	513.67
411.045	518.64
411.422	529.72
411.8	502.15
412.178	517.97
412.555	534.01
412.933	528.36
413.31	535.59
413.687	557.06
414.065	567.68
414.442	586.89
414.819	575.82
415.197	563.62
415.574	611.98
415.951	604.29
416.328	616.27
416.705	618.98
417.082	617.4
417.46	619.88
417.837	635.03
418.214	660.34
418.591	663.73
418.967	649.71
419.344	668.92
419.721	668.02
420.098	686.32
420.475	676.83
420.852	690.39
421.228	712.31
421.605	698.75
421.982	745.31
422.358	717.74
422.735	711.18
423.111	727.9
423.488	734.91
423.864	747.34
424.241	785.53
424.617	783.04
424.994	806.55
425.37	785.53
425.746	806.77
426.123	826.89
426.499	827.56
426.875	823.5
427.251	841.8
427.627	867.34
428.003	865.3
428.379	865.53
428.756	867.56
429.132	893.78
429.507	896.94
429.883	918.63
430.259	903.27
430.635	943.72
431.011	922.7
431.387	947.11
431.763	967.22
432.138	962.25
432.514	991.85
432.89	966.54
433.265	997.95
433.641	1009.71
434.016	1016.26
434.392	1006.99
434.767	1040.89
435.143	1045.41
435.518	1056.26
435.894	1054.9
436.269	1091.28
436.644	1090.38
437.02	1115.24
437.395	1116.82
437.77	1131.06
438.145	1146.2
438.52	1144.39
438.895	1157.27
439.271	1149.36
439.646	1173.77
440.021	1192.3
440.395	1175.8
440.77	1187.78
441.145	1193.88
441.52	1224.84
441.895	1214.22
442.27	1203.15
442.645	1243.37
443.019	1239.76
443.394	1253.54
443.769	1251.05
444.143	1246.54
444.518	1291.96
444.892	1239.08
445.267	1259.42
445.641	1291.96
446.016	1289.02
446.39	1274.33
446.764	1298.51
447.139	1293.54
447.513	1310.26
447.887	1286.31
448.262	1328.11
448.636	1304.16
449.01	1302.13
449.384	1333.09
449.758	1325.85
450.132	1326.31
450.506	1329.92
450.88	1350.49
451.254	1322.69
451.628	1337.61
452.002	1369.92
452.376	1386.64
452.75	1379.41
453.123	1392.29
453.497	1383.71
453.871	1415.12
454.244	1421.67
454.618	1439.52
454.992	1453.76
455.365	1417.38
455.739	1474.1
456.112	1499.64
456.486	1497.15
456.859	1498.05
457.232	1494.66
457.606	1465.29
457.979	1503.25
458.352	1513.42
458.725	1552.97
459.099	1576.24
459.472	1594.55
459.845	1586.87
460.218	1609.46
460.591	1603.81
460.964	1604.27
461.337	1620.99
461.71	1672.06
462.083	1660.99
462.456	1688.56
462.829	1639.52
463.201	1706.41
463.574	1688.78
463.947	1704.6
464.32	1709.57
464.692	1743.92
465.065	1721.1
465.438	1751.83
465.81	1768.78
466.183	1812.17
466.555	1818.05
466.928	1837.25
467.3	1826.63
467.672	1859.17
468.045	1889.68
468.417	1908.89
468.789	1880.42
469.161	1881.77
469.534	1904.82
469.906	1933.97
470.278	1908.44
470.65	1961.77
471.022	1999.06
471.394	2030.47
471.766	2018.27
472.138	2034.76
472.51	2063.24
472.882	2079.96
473.253	2083.8
473.625	2105.04
473.997	2142.78
474.369	2147.98
474.74	2136.68
475.112	2197.24
475.484	2206.06
475.855	2260.75
476.227	2257.58
476.598	2304.59
476.97	2298.71
477.341	2367.64
477.713	2366.51
478.084	2381.65
478.455	2424.36
478.827	2437.92
479.198	2459.61
479.569	2489.44
479.94	2550
480.311	2554.98
480.682	2609.89
481.053	2642.43
481.424	2647.85
481.795	2689.89
482.166	2722.65
482.537	2732.15
482.908	2761.52
483.279	2780.28
483.65	2839.94
484.021	2882.42
484.391	2907.28
484.762	2901.18
485.133	2898.47
485.503	2937.11
485.874	2953.61
486.244	3029.76
486.615	3004
486.985	3044
487.356	3125.58
487.726	3130.78
488.097	3178.24
488.467	3150.67
488.837	3225.47
489.207	3262.53
489.578	3304.56
489.948	3358.12
490.318	3361.51
490.688	3379.59
491.058	3356.08
491.428	3434.73
491.798	3400.83
492.168	3490.77
492.538	3489.19
492.908	3516.53
493.278	3551.33
493.648	3571.45
494.017	3570.09
494.387	3615.06
494.757	3624.33
495.126	3656.87
495.496	3638.79
495.866	3671.56
496.235	3716.07
496.605	3737.54
496.974	3761.5
497.344	3794.94
497.713	3738.45
498.082	3812.57
498.452	3847.14
498.821	3839.46
499.19	3863.19
499.559	3883.3
499.928	3857.99
500.298	3853.02
500.667	3934.15
501.036	3916.3
501.405	3914.94
501.774	3927.59
502.143	3982.51
502.512	3980.02
502.88	3993.58
503.249	3998.55
503.618	4063.86
503.987	4058.89
504.356	4068.16
504.724	4094.6
505.093	4097.08
505.462	4088.72
505.83	4127.82
506.199	4108.38
506.567	4199.45
506.936	4213.46
507.304	4202.84
507.672	4169.85
508.041	4192.9
508.409	4249.17
508.777	4231.99
509.145	4324.87
509.514	4280.13
509.882	4251.88
510.25	4297.53
510.618	4309.05
510.986	4367.36
511.354	4351.76
511.722	4344.53
512.09	4395.6
512.458	4378.66
512.826	4404.87
513.193	4419.56
513.561	4467.92
513.929	4445.32
514.297	4447.35
514.664	4485.32
515.032	4505.43
515.4	4551.31
515.767	4514.02
516.135	4511.76
516.502	4507.69
516.869	4531.65
517.237	4567.58
517.604	4544.75
517.972	4567.58
518.339	4580.46
518.706	4625.43
519.073	4610.29
519.44	4620.91
519.808	4718.76
520.175	4667.24
520.542	4693.9
520.909	4677.63
521.276	4668.82
521.643	4711.98
522.009	4763.5
522.376	4769.38
522.743	4791.07
523.11	4807.12
523.477	4844.63
523.843	4884.18
524.21	4896.16
524.577	4912.65
524.943	4895.25
525.31	4941.58
525.676	4998.3
526.043	4977.28
526.409	4997.62
526.776	5039.2
527.142	5112.87
527.508	5086.66
527.874	5133.66
528.241	5121.69
528.607	5163.95
528.973	5208.46
529.339	5147.22
529.705	5227.9
530.071	5251.85
530.437	5274.68
530.803	5305.19
531.169	5284.62
531.535	5339.76
531.901	5390.61
532.267	5359.87
532.632	5362.81
532.998	5380.44
533.364	5465.41
533.73	5454.56
534.095	5485.29
534.461	5540.21
534.826	5566.65
535.192	5528.46
535.557	5606.19
535.923	5565.97
536.288	5602.8
536.653	5623.82
537.019	5612.75
537.384	5702.69
537.749	5643.93
538.114	5739.07
538.479	5695.68
538.845	5732.29
539.21	5799.86
539.575	5775.68
539.94	5815
540.305	5882.57
540.67	5824.95
541.034	5856.81
541.399	5911.95
541.764	5909.46
542.129	5967.77
542.494	5973.42
542.858	5982.68
543.223	6041.66
543.587	6009.35
543.952	6082.79
544.316	6059.74
544.681	6118.27
545.045	6157.82
545.41	6190.59
545.774	6194.43
546.138	6188.1
546.503	6235.1
546.867	6222.45
547.231	6300.64
547.595	6306.29
547.959	6323.01
548.324	6342.9
548.688	6380.41
549.052	6432.61
549.416	6453.63
549.779	6431.94
550.143	6413.18
550.507	6469.9
550.871	6524.59
551.235	6499.5
551.599	6597.13
551.962	6554.64
552.326	6580.63
552.689	6635.32
553.053	6597.81
553.417	6572.72
553.78	6709.22
554.143	6599.16
554.507	6684.81
554.87	6699.95
555.234	6779.95
555.597	6762.1
555.96	6781.53
556.323	6795.54
556.686	6812.04
557.05	6805.48
557.413	6857.69
557.776	6881.64
558.139	6911.47
558.502	6909.66
558.865	6946.72
559.228	6954.86
559.59	7007.51
559.953	7007.97
560.316	7083.44
560.679	7040.51
561.041	7123.22
561.404	7151.69
561.767	7219.94
562.129	7100.84
562.492	7146.04
562.854	7195.98
563.217	7184.46
563.579	7219.71
563.941	7263.78
564.304	7292.7
564.666	7307.17
565.028	7329.54
565.39	7308.52
565.753	7358.01
566.115	7387.62
566.477	7421.29
566.839	7478.69
567.201	7483.66
567.563	7489.31
567.925	7510.55
568.287	7534.05
568.648	7544.22
569.01	7659.93
569.372	7716.87
569.734	7630.55
570.095	7699.92
570.457	7757.32
570.819	7818.57
571.18	7801.84
571.542	7899.47
571.903	7917.55
572.265	7953.03
572.626	7933.59
572.987	7976.53
573.349	8033.7
573.71	8087.71
574.071	8109.41
574.432	8183.98
574.794	8294.94
575.155	8320.47
575.516	8285.22
575.877	8472.33
576.238	8494.03
576.599	8539.68
576.96	8608.83
577.32	8719.56
577.681	8787.58
578.042	8849.72
578.403	8864.64
578.763	9051.98
579.124	9101.92
579.485	9202.71
579.845	9287
580.206	9426.43
580.566	9497.84
580.927	9668.69
581.287	9742.81
581.648	9883.6
582.008	10044.5
582.368	10184.38
582.728	10328.1
583.089	10429.57
583.449	10670.47
583.809	10841.54
584.169	11055.99
584.529	11193.39
584.889	11534.63
585.249	11592.48
585.609	11760.83
585.969	11970.32
586.329	12242.4
586.688	12447.14
587.048	12681.71
587.408	12913.12
587.768	13088.03
588.127	13345.2
588.487	13527.34
588.846	13961.91
589.206	14132.52
589.565	14354.21
589.925	14815.67
590.284	14956.46
590.643	15197.58
591.003	15557.12
591.362	15878.24
591.721	16077.78
592.08	16321.84
592.44	16734.49
592.799	16924.99
593.158	17182.39
593.517	17442.49
593.876	17919.54
594.235	18131.06
594.593	18474.78
594.952	18855.11
595.311	19085.16
595.67	19479.28
596.029	19824.58
596.387	20144.12
596.746	20487.84
597.104	20602.41
597.463	20970.08
597.822	21306.12
598.18	21555.15
598.538	21791.08
598.897	22379.76
599.255	22424.96
599.613	23052.29
599.972	23093.64
600.33	23526.4
600.688	23749.67
601.046	24232.15
601.404	24486.38
601.762	24604.79
602.12	25077.32
602.478	25376.07
602.836	25613.35
603.194	25751.2
603.552	26077.75
603.91	26340.11
604.268	26633.89
604.625	26821.68
604.983	27167.66
605.341	27303.03
605.698	27736.46
606.056	28016.9
606.413	28196.56
606.771	28590.67
607.128	28697.34
607.485	28953.15
607.843	29116.76
608.2	29602.85
608.557	29929.62
608.914	29979.79
609.272	30211.2
609.629	30508.14
609.986	30964.62
610.343	30847.79
610.7	31372.07
611.057	31461.79
611.414	31674.44
611.771	31894.77
612.127	32140.64
612.484	32311.03
612.841	32514.87
613.198	32583.79
613.554	32631.92
613.911	33160.72
614.267	33214.96
614.624	33435.52
614.98	33471
615.337	33774.95
615.693	33919.57
616.05	34039.57
616.406	34387.13
616.762	34364.08
617.118	34460.12
617.475	34676.16
617.831	34842.94
618.187	34950.28
618.543	35103.95
618.899	35519.53
619.255	35676.36
619.611	35679.3
619.967	35947.09
620.323	35963.59
620.678	36050.59
621.034	35959.07
621.39	36094.43
621.746	36272.96
622.101	36665.04
622.457	36503.91
622.812	36680.41
623.168	36884.02
623.523	36924.24
623.879	37067.51
624.234	36938.93
624.589	37307.28
624.945	37285.59
625.3	37514.73
625.655	37564
626.01	37572.59
626.365	37824.33
626.72	37704.79
627.075	37847.83
627.43	37815.52
627.785	37753.6
628.14	37959.92
628.495	38101.39
628.85	38249.63
629.205	38074.72
629.559	38261.15
629.914	38139.12
630.269	38211.44
630.623	38151.1
630.978	38122.63
631.332	38428.38
631.687	38628.38
632.041	38364.43
632.396	38545.67
632.75	38317.88
633.104	38445.1
633.459	38206.47
633.813	38422.05
634.167	38495.27
634.521	38525.33
634.875	38613.24
635.229	38457.99
635.583	38374.6
635.937	38451.88
636.291	38460.7
636.645	38580.47
636.999	38456.86
637.352	38501.37
637.706	38305.67
638.06	38453.47
638.413	38441.26
638.767	38441.72
639.121	38491.21
639.474	38292.34
639.828	38389.06
640.181	38408.27
640.534	38441.94
640.888	38406.01
641.241	38336.41
641.594	38208.5
641.947	38506.57
642.301	38327.37
642.654	38451.43
643.007	38352.23
643.36	38302.06
643.713	38429.74
644.066	38568.04
644.419	38199.46
644.771	38091.22
645.124	37706.14
645.477	37543.89
645.83	37516.09
646.182	37254.18
646.535	37084.69
646.888	37188.41
647.24	37084.46
647.593	37315.87
647.945	37246.27
648.298	37016.44
648.65	37130.56
649.002	36932.83
649.355	37154.52
649.707	37106.16
650.059	37217.11
650.411	37781.85
650.763	37695.07
651.115	37946.59
651.467	37891.9
651.819	37856.42
652.171	37943.42
652.523	37805.57
652.875	37938
653.227	37760.15
653.578	37961.28
653.93	37891
654.282	37766.25
654.633	37577.33
654.985	37705.01
655.337	37767.38
655.688	37614.84
656.039	37814.84
656.391	37533.49
656.742	37719.02
657.094	37751.56
657.445	37662.75
657.796	37533.94
658.147	37594.05
658.498	37635.63
658.849	37726.48
659.2	37559.03
659.551	37485.13
659.902	37729.64
660.253	37576.43
660.604	37731.68
660.955	37494.85
661.306	37680.15
661.656	37565.58
662.007	37512.47
662.358	37562.19
662.708	37501.63
663.059	37507.05
663.409	37245.14
663.76	37627.05
664.11	37711.34
664.461	37550.44
664.811	37644.67
665.161	37485.13
665.511	37376.43
665.862	37504.34
666.212	37500.5
666.562	37496.88
666.912	37488.52
667.262	37417.79
667.612	37442.19
667.962	37555.86
668.312	37420.27
668.662	37578.01
669.011	37501.63
669.361	37451.46
669.711	37306.15
670.06	37259.6
670.41	37406.71
670.76	37256.89
671.109	37465.02
671.459	37309.54
671.808	37322.42
672.157	37337.11
672.507	36975.77
672.856	37285.59
673.205	37357.68
673.554	37441.06
673.904	37238.36
674.253	37228.64
674.602	37284.91
674.951	36887.18
675.3	36548.21
675.649	37093.28
675.998	37188.87
676.346	37080.85
676.695	37240.16
677.044	36918.82
677.393	37179.38
677.741	37024.8
678.09	37124.01
678.438	36889.89
678.787	37035.65
679.135	36982.54
679.484	36695.55
679.832	36906.16
680.181	36654.64
680.529	36831.81
680.877	36546.17
681.225	36633.85
681.573	36867.52
681.922	36633.85
682.27	36458.04
682.618	36489.9
682.966	36410.13
683.314	36450.58
683.661	36291.72
684.009	36220.3
684.357	36190.7
684.705	36170.14
685.053	36184.37
685.4	36006.53
685.748	35963.81
686.095	35927.43
686.443	35769.92
686.79	35840.88
687.138	35965.62
687.485	35780.54
687.832	35783.25
688.18	35675.69
688.527	35464.17
688.874	35568.34
689.221	35514.56
689.568	35389.37
689.915	35422.81
690.262	35237.28
690.609	35223.04
690.956	34987.34
691.303	35131.52
691.65	34966.33
691.997	34866.89
692.344	34735.82
692.69	34701.7
693.037	34650.63
693.383	34438.66
693.73	34453.57
694.077	34289.96
694.423	34389.17
694.769	34300.36
695.116	34140.36
695.462	34135.39
695.808	34049.06
696.155	34278.89
696.501	33684.78
696.847	33759.8
697.193	33588.51
697.539	33793.93
697.885	33404.11
698.231	33407.95
698.577	33371.57
698.923	33232.13
699.269	33200.95
699.614	33012.25
699.96	32963.89
700.306	33009.09
700.651	32822.88
700.997	32871.24
701.342	32599.83
701.688	32568.2
702.033	32610
702.379	32719.61
702.724	32353.06
703.069	32542.21
703.415	32046.63
703.76	32183.8
704.105	32207.98
704.45	32076.91
704.795	31831.27
705.14	31869.68
705.485	31745.17
705.83	31639.63
706.175	31720.08
706.52	31711.95
706.865	31478.06
707.209	31437.38
707.554	31264.5
707.899	31473.76
708.243	31268.8
708.588	31384.95
708.932	31043.49
709.277	30998.3
709.621	31071.74
709.966	30888.69
710.31	30940.22
710.654	30711.97
710.998	30880.56
711.342	30634.46
711.687	30707.68
712.031	30547.01
712.375	30415.03
712.719	30585.65
713.063	30254.59
713.407	30395.6
713.75	30316.96
714.094	30272.44
714.438	30075.38
714.782	30044.65
715.125	29893.01
715.469	29954.25
715.812	29767.82
716.156	29744.09
716.499	29668.39
716.843	29815.5
717.186	29549.97
717.53	29755.39
717.873	29724.66
718.216	29660.25
718.559	29529.18
718.902	29303.88
719.246	29300.26
719.589	29203.31
719.932	29123.09
720.275	29199.25
720.617	29052.36
720.96	29052.81
721.303	29009.19
721.646	29006.03
721.989	28853.27
722.331	28881.74
722.674	28874.96
723.016	28898.24
723.359	28673.84
723.701	28898.01
724.044	28612.37
724.386	28536.89
724.729	28667.96
725.071	28590.67
725.413	28583.67
725.755	28464.8
726.097	28364.24
726.439	28318.37
726.782	28278.82
727.124	28327.4
727.465	28198.14
727.807	28158.14
728.149	28147.52
728.491	28072.72
728.833	27951.6
729.175	28020.75
729.516	27996.79
729.858	27876.34
730.199	27900.3
730.541	27913.63
730.882	27851.94
731.224	27911.6
731.565	27687.2
731.906	27760.64
732.248	27696.01
732.589	27630.93
732.93	27411.5
733.271	27571.49
733.612	27528.78
733.953	27509.35
734.294	27388.9
734.635	27300.77
734.976	27383.25
735.317	27289.24
735.658	27257.15
735.999	27287.21
736.339	27155.01
736.68	27233.42
737.021	27112.07
737.361	27016.03
737.702	27223.03
738.042	26966.54
738.383	26920.89
738.723	27067.33
739.063	26828.69
739.404	26861.68
739.744	26834.56
740.084	26623.27
740.424	26788.24
740.764	26587.56
741.104	26651.06
741.444	26498.53
741.784	26441.8
742.124	26541.92
742.464	26422.37
742.804	26461.92
743.143	26455.59
743.483	26426.66
743.823	26136.73
744.162	26241.36
744.502	26276.16
744.841	26084.98
745.181	26180.57
745.52	26087.01
745.86	26178.08
746.199	26092.21
746.538	26001.14
746.877	26050.85
747.216	26128.14
747.556	25875.72
747.895	26014.92
748.234	25745.55
748.573	25642.5
748.911	25660.36
749.25	25582.84
749.589	25599.12
749.928	25524.09
750.267	25567.03
750.605	25500.81
750.944	25352.34
751.283	25383.98
751.621	25496.74
751.96	25290.2
752.298	25311.66
752.636	25222.63
752.975	25143.53
753.313	25093.59
753.651	25104.21
753.989	24961.17
754.327	24913.03
754.666	24785.13
755.004	24802.3
755.342	24861.96
755.679	24845.69
756.017	24569.76
756.355	24677.11
756.693	24632.59
757.031	24671
757.368	24496.32
757.706	24430.11
758.044	24392.37
758.381	24378.13
758.719	24328.87
759.056	24342.42
759.394	24245.48
