Data from hue_40_FLMS001491_9.txt Node
Date: Mon Feb 06 15:07:22 GMT 2017
User: dcchb
Spectrometer: FLMS00149
Trigger mode: 0
Integration Time (sec): 2.000000E-2
Scans to average: 10
Electric dark correction enabled: true
Nonlinearity correction enabled: false
Boxcar width: 0
XAxis mode: Wavelengths
Number of Pixels in Spectrum: 2048
>>>>>Begin Spectral Data<<<<<
341.393	-23.23
341.776	-23.23
342.16	-23.23
342.543	-51.03
342.927	-69.56
343.31	-86.28
343.693	-63.68
344.077	-65.04
344.46	-58.04
344.843	-36.79
345.226	-46.74
345.61	-10.8
345.993	-31.14
346.376	5.01
346.759	0.72
347.142	14.96
347.525	42.75
347.908	45.24
348.291	75.52
348.674	97.89
349.057	116.42
349.44	134.05
349.823	156.65
350.206	162.52
350.588	204.33
350.971	201.62
351.354	242.3
351.737	223.54
352.119	242.52
352.502	259.24
352.884	268.51
353.267	267.61
353.65	285.23
354.032	305.12
354.414	311.45
354.797	320.94
355.179	327.72
355.562	308.51
355.944	330.88
356.326	333.14
356.709	344.67
357.091	342.86
357.473	325.01
357.855	343.99
358.238	363.65
358.62	333.82
359.002	346.7
359.384	342.18
359.766	343.99
360.148	330.88
360.53	358.9
360.912	336.3
361.294	339.47
361.676	332.24
362.057	329.53
362.439	348.73
362.821	323.42
363.203	331.11
363.584	320.26
363.966	322.29
364.348	316.19
364.729	335.63
365.111	329.3
365.493	317.77
365.874	307.6
366.256	305.57
366.637	332.46
367.019	322.75
367.4	319.36
367.781	327.72
368.163	334.95
368.544	322.97
368.925	303.99
369.306	320.26
369.688	294.95
370.069	307.15
370.45	299.02
370.831	327.72
371.212	315.97
371.593	325.01
371.974	313.93
372.355	343.99
372.736	318
373.117	323.42
373.498	319.58
373.879	306.47
374.26	326.59
374.641	310.09
375.021	327.27
375.402	318.68
375.783	332.69
376.163	319.58
376.544	309.41
376.925	321.62
377.305	315.51
377.686	334.5
378.066	313.48
378.447	320.26
378.827	334.27
379.208	329.98
379.588	326.36
379.968	341.28
380.349	341.73
380.729	330.66
381.109	347.6
381.489	337.89
381.87	346.02
382.25	323.65
382.63	336.08
383.01	365
383.39	319.81
383.77	351.22
384.15	339.24
384.53	338.79
384.91	347.15
385.29	354.38
385.67	343.31
386.049	343.99
386.429	348.28
386.809	354.84
387.189	362.07
387.568	358
387.948	355.74
388.328	354.84
388.707	364.1
389.087	358.9
389.466	356.87
389.846	361.61
390.225	383.08
390.605	389.86
390.984	347.83
391.363	381.73
391.743	381.95
392.122	363.87
392.501	367.72
392.881	388.96
393.26	366.36
393.639	389.64
394.018	392.12
394.397	379.92
394.776	356.64
395.155	386.92
395.534	380.37
395.913	371.56
396.292	393.48
396.671	391.67
397.05	381.95
397.429	411.56
397.808	394.16
398.186	377.89
398.565	392.35
398.944	407.94
399.323	380.15
399.701	405.68
400.08	382.41
400.458	390.54
400.837	393.48
401.215	406.36
401.594	396.42
401.972	421.27
402.351	401.61
402.729	417.43
403.107	402.07
403.486	407.72
403.864	421.05
404.242	409.75
404.62	410.88
404.999	410.2
405.377	416.53
405.755	417.88
406.133	412.23
406.511	419.69
406.889	429.41
407.267	437.09
407.645	454.49
408.023	446.58
408.401	445.23
408.779	442.29
409.156	453.59
409.534	438.67
409.912	446.36
410.29	467.37
410.667	460.6
411.045	447.04
411.422	463.76
411.8	473.7
412.178	461.73
412.555	473.93
412.933	480.71
413.31	457.21
413.687	458.11
414.065	464.21
414.442	489.52
414.819	481.61
415.197	467.37
415.574	502.85
415.951	482.06
416.328	498.33
416.705	512.35
417.082	514.61
417.46	494.04
417.837	505.79
418.214	500.14
418.591	493.14
418.967	518.45
419.344	513.02
419.721	516.86
420.098	516.86
420.475	528.84
420.852	539.69
421.228	559.58
421.605	557.09
421.982	531.78
422.358	548.73
422.735	554.15
423.111	561.61
423.488	548.5
423.864	557.32
424.241	568.84
424.617	567.26
424.994	542.63
425.37	567.03
425.746	550.99
426.123	588.05
426.499	568.39
426.875	564.32
427.251	583.3
427.627	606.13
428.003	596.64
428.379	605.22
428.756	600.93
429.132	595.28
429.507	612.91
429.883	606.13
430.259	641.38
430.635	641.16
431.011	616.52
431.387	631.66
431.763	627.37
432.138	660.59
432.514	667.82
432.89	644.09
433.265	669.86
433.641	655.17
434.016	669.63
434.392	664.43
434.767	673.25
435.143	686.13
435.518	698.78
435.894	715.05
436.269	689.29
436.644	700.14
437.02	737.2
437.395	748.72
437.77	727.48
438.145	709.18
438.52	722.06
438.895	757.99
439.271	734.71
439.646	737.65
440.021	739.91
440.395	754.37
440.77	753.24
441.145	762.28
441.52	780.59
441.895	765.9
442.27	773.36
442.645	766.8
443.019	786.69
443.394	804.54
443.769	816.07
444.143	802.73
444.518	795.73
444.892	813.81
445.267	816.97
445.641	798.21
446.016	838.44
446.39	820.59
446.764	811.55
447.139	858.78
447.513	834.37
447.887	853.35
448.262	866.23
448.636	867.82
449.01	854.71
449.384	864.2
449.758	866.23
450.132	890.64
450.506	876.86
450.88	921.6
451.254	897.87
451.628	886.12
452.002	901.49
452.376	925.22
452.75	881.38
453.123	915.05
453.497	939.23
453.871	945.55
454.244	951.88
454.618	980.13
454.992	968.6
455.365	986.01
455.739	995.27
456.112	1005.21
456.486	1003.41
456.859	1030.75
457.232	1047.47
457.606	1042.73
457.979	1079.34
458.352	1060.81
458.725	1078.66
459.099	1110.52
459.472	1110.3
459.845	1128.6
460.218	1129.05
460.591	1124.53
460.964	1132.22
461.337	1156.4
461.71	1208.37
462.083	1199.33
462.456	1182.84
462.829	1200.01
463.201	1202.04
463.574	1227.58
463.947	1261.93
464.32	1302.83
464.692	1261.93
465.065	1308.48
465.438	1313
465.81	1340.8
466.183	1356.39
466.555	1379.89
466.928	1367.69
467.3	1399.55
467.672	1400.68
468.045	1442.26
468.417	1449.27
468.789	1468.93
469.161	1477.29
469.534	1487.46
469.906	1534.92
470.278	1546.67
470.65	1576.95
471.022	1625.76
471.394	1671.18
471.766	1682.94
472.138	1676.16
472.51	1727.23
472.882	1775.59
473.253	1791.86
473.625	1815.14
473.997	1852.65
474.369	1896.26
474.74	1936.49
475.112	1959.76
475.484	2000.89
475.855	2022.36
476.227	2082.47
476.598	2159.76
476.97	2171.06
477.341	2200.21
477.713	2242.7
478.084	2289.93
478.455	2376.93
478.827	2396.14
479.198	2476.14
479.569	2501.22
479.94	2603.82
480.311	2673.42
480.682	2716.13
481.053	2851.72
481.424	2882.9
481.795	2917.93
482.166	3008.32
482.537	3060.98
482.908	3182.78
483.279	3243.57
483.65	3303.91
484.021	3416.22
484.391	3482.44
484.762	3525.37
485.133	3633.17
485.503	3683.11
485.874	3801.52
486.244	3863.22
486.615	3972.59
486.985	4061.4
487.356	4174.17
487.726	4269.99
488.097	4391.79
488.467	4436.08
488.837	4543.2
489.207	4641.73
489.578	4721.73
489.948	4905.68
490.318	4930.08
490.688	5007.59
491.058	5108.83
491.428	5269.96
491.798	5363.52
492.168	5538.88
492.538	5572.78
492.908	5665.66
493.278	5747.91
493.648	5804.41
494.017	5949.04
494.387	6065.19
494.757	6217.73
495.126	6271.74
495.496	6330.95
495.866	6472.87
496.235	6545.63
496.605	6613.2
496.974	6731.62
497.344	6855.68
497.713	6942.91
498.082	7001.21
498.452	7066.75
498.821	7258.16
499.19	7228.33
499.559	7399.4
499.928	7415.44
500.298	7562.78
500.667	7704.92
501.036	7703.79
501.405	7823.57
501.774	7860.17
502.143	8010.45
502.512	8036.67
502.88	8159.83
503.249	8197.11
503.618	8297.45
503.987	8406.6
504.356	8455.64
504.724	8490.67
505.093	8570.21
505.462	8624.22
505.83	8772.69
506.199	8866.7
506.567	9017.88
506.936	9094.04
507.304	9158.67
507.672	9183.3
508.041	9290.87
508.409	9359.57
508.777	9395.73
509.145	9546.23
509.514	9540.81
509.882	9674.36
510.25	9677.98
510.618	9753.91
510.986	9835.94
511.354	9980.12
511.722	10071.42
512.09	10116.61
512.458	10120.68
512.826	10261.47
513.193	10315.93
513.561	10309.15
513.929	10413.1
514.297	10552.31
514.664	10654
515.032	10595.7
515.4	10760.21
515.767	10818.97
516.135	10904.61
516.502	10874.78
516.869	11076.59
517.237	11129.47
517.604	11086.98
517.972	11247.2
518.339	11310.93
518.706	11327.65
519.073	11386.86
519.44	11490.81
519.808	11575.33
520.175	11627.08
520.542	11834.53
520.909	11824.82
521.276	11888.32
521.643	11928.54
522.009	11983.46
522.376	12102.55
522.743	12209.21
523.11	12266.16
523.477	12425.7
523.843	12418.92
524.21	12593.61
524.577	12594.06
524.943	12744.34
525.31	12791.57
525.676	12887.84
526.043	12969.64
526.409	13114.27
526.776	13284.66
527.142	13231.11
527.508	13308.39
527.874	13357.66
528.241	13476.75
528.607	13566.69
528.973	13688.04
529.339	13646.92
529.705	13766.69
530.071	13905.89
530.437	13901.82
530.803	13971.43
531.169	14138.43
531.535	14096.62
531.901	14115.6
532.267	14249.16
532.632	14294.81
532.998	14351.98
533.364	14388.59
533.73	14431.98
534.095	14627.91
534.461	14695.48
534.826	14695.02
535.192	14890.5
535.557	14902.25
535.923	14951.97
536.288	14946.99
536.653	15045.97
537.019	14993.32
537.384	15129.14
537.749	15263.82
538.114	15195.8
538.479	15283.93
538.845	15389.69
539.21	15396.7
539.575	15486.87
539.94	15517.15
540.305	15680.31
540.67	15558.5
541.034	15740.42
541.399	15824.26
541.764	15769.12
542.129	15884.37
542.494	15971.83
542.858	15956.91
543.223	16041.43
543.587	16170.92
543.952	16153.29
544.316	16236.23
544.681	16317.13
545.045	16340.4
545.41	16336.56
545.774	16497.91
546.138	16463.11
546.503	16551.92
546.867	16484.58
547.231	16748.08
547.595	16737.91
547.959	16811.58
548.324	16859.71
548.688	16905.36
549.052	16934.51
549.416	16913.95
549.779	16986.94
550.143	17017
550.507	17212.25
550.871	17233.94
551.235	17284.56
551.599	17363.65
551.962	17424.22
552.326	17482.75
552.689	17576.98
553.053	17544.21
553.417	17693.36
553.78	17791.89
554.143	17792.57
554.507	17926.8
554.87	17885.67
555.234	18070.98
555.597	17999.57
555.96	18075.5
556.323	18127.7
556.686	18234.14
557.05	18282.73
557.413	18328.37
557.776	18388.71
558.139	18406.79
558.502	18556.16
558.865	18700.12
559.228	18727.46
559.59	18796.61
559.953	18743.28
560.316	19109.14
560.679	19008.13
561.041	19097.85
561.404	19237.28
561.767	19256.03
562.129	19247.45
562.492	19449.47
562.854	19496.03
563.217	19486.31
563.579	19513.88
563.941	19699.64
564.304	19800.2
564.666	19768.79
565.028	19858.96
565.39	19920.65
565.753	19945.96
566.115	20015.79
566.477	20109.57
566.839	20216.23
567.201	20268.89
567.563	20350.02
567.925	20427.53
568.287	20512.5
568.648	20434.53
569.01	20567.19
569.372	20751.59
569.734	20654.41
570.095	20872.94
570.457	21029.09
570.819	21083.1
571.18	21175.08
571.542	21283.1
571.903	21355.87
572.265	21415.98
572.626	21428.86
572.987	21521.74
573.349	21562.87
573.71	21763.76
574.071	21857.32
574.432	21909.75
574.794	22071.1
575.155	22090.99
575.516	22067.03
575.877	22330.75
576.238	22300.7
576.599	22494.59
576.96	22547.92
577.32	22624.76
577.681	22876.73
578.042	22891.19
578.403	22938.87
578.763	23072.43
579.124	23231.52
579.485	23352.87
579.845	23601.23
580.206	23680.1
580.566	23697.95
580.927	23911.5
581.287	24096.36
581.648	24092.74
582.008	24432.39
582.368	24531.37
582.728	24655.44
583.089	24769.33
583.449	24890.46
583.809	25145.6
584.169	25206.84
584.529	25348.75
584.889	25623.78
585.249	25732.47
585.609	25809.99
585.969	26154.83
586.329	26270.76
586.688	26475.5
587.048	26587.59
587.408	26812.67
587.768	26868.71
588.127	27180.8
588.487	27263.51
588.846	27671.63
589.206	27593.67
589.565	27795.92
589.925	28200.88
590.284	28183.71
590.643	28468.67
591.003	28648.78
591.362	28961.99
591.721	29063.68
592.08	29210.35
592.44	29539.38
592.799	29674.52
593.158	29823.66
593.517	29885.36
593.876	30200.6
594.235	30345.69
594.593	30573.7
594.952	30655.51
595.311	30807.59
595.67	31011.43
596.029	31299.11
596.387	31444.19
596.746	31752.43
597.104	31696.84
597.463	31912.2
597.822	32159.42
598.18	32193.09
598.538	32387.89
598.897	32873.98
599.255	32552.63
599.613	33218.6
599.972	33028.78
600.33	33323.46
600.688	33301.31
601.046	33589.44
601.404	34022.2
601.762	33941.07
602.12	34233.49
602.478	34297.22
602.836	34415.86
603.194	34458.57
603.552	34607.49
603.91	34655.63
604.268	34959.58
604.625	34982.17
604.983	35249.06
605.341	35159.8
605.698	35460.35
606.056	35603.85
606.413	35783.96
606.771	35982.15
607.128	35929.04
607.485	36096.95
607.843	35998.19
608.2	36527.44
608.557	36582.36
608.914	36556.82
609.272	36990.93
609.629	36959.97
609.986	37166.3
610.343	37140.31
610.7	37477.48
611.057	37362.45
611.414	37567.87
611.771	37673.18
612.127	37852.61
612.484	37912.49
612.841	37963.56
613.198	38162.43
613.554	38316.1
613.911	38363.55
614.267	38506.37
614.624	38392.71
614.98	38525.13
615.337	38743.43
615.693	38854.61
616.05	38787.5
616.406	39134.15
616.762	38929.87
617.118	39031.78
617.475	39030.43
617.831	39302.06
618.187	39544.31
618.543	39394.94
618.899	39817.98
619.255	39686.91
619.611	39608.27
619.967	39868.82
620.323	40021.14
620.678	40004.87
621.034	39871.54
621.39	39972.1
621.746	39945.43
622.101	40508.13
622.457	40179.78
622.812	40315.37
623.168	40413.89
623.523	40437.62
623.879	40551.74
624.234	40312.2
624.589	40503.84
624.945	40549.94
625.3	40626.32
625.655	40544.96
626.01	40780.67
626.365	40829.25
626.72	40787.22
627.075	40878.06
627.43	40858.86
627.785	40773.21
628.14	40835.13
628.495	40939.98
628.85	40901.79
629.205	40862.24
629.559	41052.52
629.914	40792.64
630.269	40936.82
630.623	40863.6
630.978	40830.16
631.332	41015.46
631.687	41127.32
632.041	40801
632.396	40869.02
632.75	40740.89
633.104	40983.15
633.459	40804.17
633.813	40830.61
634.167	40765.75
634.521	40867.44
634.875	40840.1
635.229	40823.83
635.583	40601.69
635.937	40898.63
636.291	40738.86
636.645	40760.1
636.999	40592.65
637.352	40856.14
637.706	40601.01
638.06	40689.37
638.413	40634.23
638.767	40431.3
639.121	40526.66
639.474	40448.24
639.828	40441.92
640.181	40472.42
640.534	40555.13
640.888	40351.3
641.241	40179.78
641.594	40249.38
641.947	40424.97
642.301	40360.34
642.654	40477.85
643.007	40391.75
643.36	40375.25
643.713	40207.8
644.066	40356.72
644.419	40101.59
644.771	39878.54
645.124	39561.49
645.477	39607.36
645.83	39212.8
646.182	39073.14
646.535	39038.56
646.888	39224.55
647.24	38949.53
647.593	39029.98
647.945	39069.52
648.298	38884.44
648.65	38823.88
649.002	38734.39
649.355	38965.35
649.707	38929.41
650.059	39017.32
650.411	39460.7
650.763	39422.28
651.115	39863.63
651.467	39810.07
651.819	39646.91
652.171	39583.63
652.523	39578.21
652.875	39562.84
653.227	39377.54
653.578	39646.23
653.93	39539.34
654.282	39406.46
654.633	39460.93
654.985	39465.67
655.337	39404.88
655.688	39453.24
656.039	39461.83
656.391	39185.68
656.742	39278.11
657.094	39234.04
657.445	39395.62
657.796	39281.04
658.147	39149.52
658.498	39269.52
658.849	39362.17
659.2	39284.66
659.551	39137.77
659.902	39326.47
660.253	39378.22
660.604	39317.65
660.955	39117.43
661.306	39231.55
661.656	39106.13
662.007	39119.24
662.358	39225
662.708	39178.9
663.059	39142.52
663.409	38963.76
663.76	39245.11
664.11	39242.63
664.461	39271.33
664.811	39212.8
665.161	39139.35
665.511	39042.18
665.862	39160.82
666.212	39341.15
666.562	39152.91
666.912	39071.78
667.262	39105.91
667.612	39110.65
667.962	39135.96
668.312	38963.76
668.662	39235.17
669.011	39068.85
669.361	39057.77
669.711	39053.7
670.06	39022.29
670.41	38854.84
670.76	38872.24
671.109	38953.82
671.459	38946.81
671.808	38856.42
672.157	38908.85
672.507	38758.8
672.856	38768.74
673.205	38792.92
673.554	38910.43
673.904	38800.38
674.253	38975.97
674.602	38690.32
674.951	38211.47
675.3	38164.01
675.649	38716.09
675.998	38434.74
676.346	38608.29
676.695	38769.19
677.044	38573.72
677.393	38481.29
677.741	38563.32
678.09	38523.55
678.438	38375.08
678.787	38385.02
679.135	38455.98
679.484	38156.1
679.832	38305.02
680.181	38138.47
680.529	38340.05
680.877	38105.71
681.225	38053.28
681.573	38339.6
681.922	38065.26
682.27	37939.16
682.618	37845.6
682.966	37817.81
683.314	37969.44
683.661	37779.16
684.009	37708.2
684.357	37633.86
684.705	37616.23
685.053	37531.03
685.4	37476.12
685.748	37360.64
686.095	37419.85
686.443	37303.02
686.79	37209.91
687.138	37309.34
687.485	37241.78
687.832	37143.47
688.18	37173.08
688.527	36911.39
688.874	36884.04
689.221	36751.84
689.568	36734.9
689.915	36741.22
690.262	36542.13
690.609	36510.72
690.956	36425.07
691.303	36518.63
691.65	36182.59
691.997	36312.31
692.344	36110.28
692.69	35982.6
693.037	35927.46
693.383	35742.83
693.73	35884.97
694.077	35626
694.423	35726.11
694.769	35492.89
695.116	35391.65
695.462	35371.54
695.808	35364.54
696.155	35427.59
696.501	35180.36
696.847	35114.37
697.193	34910.31
697.539	34978.78
697.885	34687.72
698.231	34581.05
698.577	34627.38
698.923	34529.08
699.269	34369.99
699.614	34311
699.96	34271.68
700.306	34207.05
700.651	34083.21
700.997	34053.61
701.342	33938.81
701.688	33833.5
702.033	33775.2
702.379	33710.34
702.724	33588.31
703.069	33574.75
703.415	33322.78
703.76	33363.68
704.105	33350.8
704.45	33149
704.795	33125.5
705.14	32986.07
705.485	32969.8
705.83	32883.25
706.175	32865.62
706.52	32751.05
706.865	32703.14
707.209	32536.36
707.554	32573.2
707.899	32495.01
708.243	32365.97
708.588	32393.31
708.932	32114.9
709.277	32101.8
709.621	32051.4
709.966	31844.63
710.31	32090.05
710.654	31802.14
710.998	31791.75
711.342	31827.23
711.687	31758.76
712.031	31636.27
712.375	31399.22
712.719	31542.04
713.063	31447.8
713.407	31509.95
713.75	31401.25
714.094	31358.99
714.438	31250.29
714.782	31197.41
715.125	31242.16
715.469	31172.56
715.812	30895.28
716.156	30820.7
716.499	30846.46
716.843	30779.35
717.186	30702.06
717.53	30804.88
717.873	30774.15
718.216	30578.22
718.559	30496.64
718.902	30303.43
719.246	30332.58
719.589	30235.41
719.932	30175.75
720.275	30154.73
720.617	30064.56
720.96	30070.89
721.303	30116.76
721.646	30026.82
721.989	29828.86
722.331	30049.65
722.674	29790.45
723.016	29862.53
723.359	29837.45
723.701	29808.07
724.044	29665.25
724.386	29489.89
724.729	29722.2
725.071	29524.46
725.413	29451.47
725.755	29489.66
726.097	29318.37
726.439	29311.81
726.782	29132.38
727.124	29357.69
727.465	29216
727.807	29145.94
728.149	29161.99
728.491	29079.73
728.833	29096
729.175	28991.82
729.516	29015.78
729.858	28985.04
730.199	28954.08
730.541	28834.09
730.882	28672.73
731.224	28795.44
731.565	28618.05
731.906	28690.14
732.248	28703.69
732.589	28394.32
732.93	28406.75
733.271	28436.81
733.612	28466.86
733.953	28489.46
734.294	28228.9
734.635	28155.91
734.976	28326.76
735.317	28197.95
735.658	28155.01
735.999	28253.31
736.339	28064.84
736.68	28018.29
737.021	28030.49
737.361	27887.22
737.702	28009.7
738.042	27885.64
738.383	27883.83
738.723	27953.43
739.063	27763.15
739.404	27829.37
739.744	27773.1
740.084	27532.65
740.424	27617.62
740.764	27654.91
741.104	27541.47
741.444	27470.28
741.784	27412.88
742.124	27474.8
742.464	27525.42
742.804	27357.52
743.143	27353.22
743.483	27333.56
743.823	27122.04
744.162	27201.59
744.502	27197.75
744.841	27160.68
745.181	27215.82
745.52	26966.11
745.86	27043.4
746.199	27010.41
746.538	26969.95
746.877	26979.67
747.216	26916.17
747.556	26806.34
747.895	26860.81
748.234	26698.55
748.573	26731.99
748.911	26567.25
749.25	26720.24
749.589	26467.6
749.928	26556.86
750.267	26550.76
750.605	26360.71
750.944	26428.73
751.283	26293.36
751.621	26487.48
751.96	26295.4
752.298	26176.53
752.636	26099.24
752.975	25897.67
753.313	25943.77
753.651	26083.42
753.989	25934.28
754.327	25783.55
754.666	25712.36
755.004	25802.98
755.342	25730.67
755.679	25784.22
756.017	25508.07
756.355	25673.04
756.693	25551.69
757.031	25428.75
757.368	25418.36
