Data from hue_110_FLMS001491_00075.txt Node
Date: Tue Feb 07 17:01:48 GMT 2017
User: dcchb
Spectrometer: FLMS00149
Trigger mode: 0
Integration Time (sec): 2.000000E-2
Scans to average: 10
Electric dark correction enabled: true
Nonlinearity correction enabled: false
Boxcar width: 0
XAxis mode: Wavelengths
Number of Pixels in Spectrum: 2048
>>>>>Begin Spectral Data<<<<<
341.393	-35.1
341.776	-35.1
342.16	-35.1
342.543	-67.87
342.927	-64.25
343.31	-71.48
343.693	-65.61
344.077	-75.55
344.46	-60.41
344.843	-39.62
345.226	-54.76
345.61	-42.56
345.993	-14.99
346.376	1.51
346.759	4.22
347.142	32.7
347.525	32.47
347.908	68.85
348.291	63.88
348.674	100.04
349.057	121.28
349.44	123.32
349.823	140.26
350.206	171.22
350.588	181.62
350.971	220.94
351.354	233.6
351.737	226.59
352.119	229.3
352.502	260.49
352.884	251.22
353.267	273.82
353.65	302.97
354.032	304.1
354.414	302.29
354.797	312.24
355.179	321.28
355.562	319.47
355.944	307.72
356.326	314.72
356.709	361.28
357.091	320.82
357.473	346.81
357.855	354.72
358.238	360.37
358.62	353.37
359.002	338.23
359.384	319.47
359.766	353.14
360.148	330.32
360.53	354.27
360.912	314.5
361.294	331.22
361.676	334.38
362.057	340.94
362.439	335.06
362.821	340.03
363.203	315.4
363.584	344.1
363.966	341.84
364.348	317.89
364.729	321.28
365.111	301.39
365.493	339.58
365.874	326.02
366.256	324.89
366.637	325.8
367.019	309.98
367.4	300.49
367.781	319.47
368.163	318.11
368.544	302.75
368.925	316.98
369.306	326.7
369.688	302.52
370.069	316.98
370.45	313.59
370.831	292.35
371.212	308.62
371.593	289.64
371.974	333.71
372.355	317.44
372.736	320.37
373.117	320.82
373.498	331.22
373.879	307.49
374.26	310.88
374.641	302.07
375.021	326.25
375.402	318.11
375.783	337.32
376.163	328.28
376.544	349.07
376.925	340.49
377.305	345.68
377.686	312.46
378.066	334.38
378.447	344.1
378.827	320.6
379.208	348.85
379.588	330.77
379.968	351.33
380.349	325.34
380.729	330.32
381.109	343.65
381.489	353.82
381.87	341.16
382.25	338.45
382.63	332.35
383.01	321.73
383.39	342.52
383.77	340.49
384.15	360.82
384.53	363.76
384.91	333.93
385.29	350.88
385.67	336.19
386.049	355.85
386.429	364.67
386.809	348.39
387.189	367.15
387.568	353.59
387.948	367.83
388.328	366.7
388.707	358.11
389.087	351.33
389.466	368.96
389.846	391.11
390.225	375.74
390.605	366.02
390.984	353.37
391.363	394.27
391.743	374.83
392.122	372.57
392.501	376.87
392.881	387.49
393.26	401.73
393.639	393.82
394.018	402.4
394.397	387.72
394.776	401.73
395.155	395.63
395.534	391.56
395.913	403.08
396.292	402.4
396.671	405.12
397.05	401.05
397.429	392.69
397.808	381.16
398.186	401.95
398.565	400.6
398.944	403.99
399.323	402.18
399.701	433.14
400.08	422.07
400.458	434.72
400.837	395.85
401.215	415.06
401.594	436.98
401.972	447.83
402.351	421.39
402.729	450.31
403.107	443.31
403.486	448.51
403.864	441.05
404.242	457.09
404.62	439.92
404.999	441.27
405.377	442.86
405.755	444.66
406.133	439.01
406.511	474.27
406.889	456.41
407.267	475.4
407.645	455.51
408.023	452.12
408.401	508.62
408.779	469.3
409.156	469.97
409.534	468.17
409.912	483.76
410.29	485.57
410.667	488.28
411.045	514.27
411.422	488.73
411.8	494.15
412.178	494.38
412.555	503.42
412.933	517.66
413.31	519.24
413.687	492.57
414.065	535.06
414.442	547.94
414.819	520.59
415.197	533.02
415.574	522.85
415.951	549.07
416.328	578.9
416.705	562.63
417.082	552.23
417.46	554.49
417.837	551.33
418.214	560.14
418.591	546.81
418.967	557.2
419.344	562.63
419.721	582.29
420.098	576.86
420.475	581.38
420.852	599.69
421.228	599.91
421.605	601.72
421.982	592.68
422.358	620.03
422.735	610.08
423.111	610.76
423.488	612.79
423.864	630.87
424.241	634.26
424.617	643.08
424.994	647.82
425.37	626.13
425.746	653.7
426.123	643.75
426.499	651.66
426.875	661.83
427.251	666.35
427.627	671.1
428.003	699.12
428.379	667.93
428.756	695.5
429.132	714.94
429.507	711.55
429.883	702.51
430.259	716.29
430.635	725.33
431.011	726.69
431.387	726.01
431.763	737.76
432.138	745.45
432.514	762.17
432.89	769.4
433.265	771.89
433.641	782.06
434.016	768.72
434.392	775.73
434.767	808.95
435.143	793.81
435.518	793.35
435.894	824.09
436.269	813.02
436.644	834.71
437.02	834.03
437.395	849.85
437.77	834.26
438.145	876.74
438.52	890.98
438.895	852.34
439.271	872.22
439.646	914.71
440.021	901.15
440.395	930.07
440.77	887.82
441.145	915.84
441.52	915.16
441.895	933.92
442.27	948.15
442.645	938.66
443.019	929.62
443.394	944.09
443.769	961.94
444.143	950.86
444.518	970.3
444.892	962.62
445.267	983.63
445.641	981.15
446.016	988.6
446.39	1006.91
446.764	1021.15
447.139	994.93
447.513	999.45
447.887	1025.89
448.262	1037.87
448.636	1035.16
449.01	1039.9
449.384	1072.44
449.758	1058.21
450.132	1073.57
450.506	1081.93
450.88	1087.58
451.254	1070.64
451.628	1108.83
452.002	1103.63
452.376	1108.37
452.75	1133.23
453.123	1137.98
453.497	1189.5
453.871	1171.2
454.244	1175.04
454.618	1206.23
454.992	1198.99
455.365	1212.33
455.739	1226.56
456.112	1246
456.486	1219.56
456.859	1282.38
457.232	1295.94
457.606	1293.91
457.979	1293.68
458.352	1345.43
458.725	1365.54
459.099	1355.6
459.472	1368.48
459.845	1402.83
460.218	1394.69
460.591	1420.01
460.964	1442.83
461.337	1478.99
461.71	1500.91
462.083	1543.17
462.456	1495.26
462.829	1503.39
463.201	1539.78
463.574	1555.14
463.947	1597.85
464.32	1614.12
464.692	1644.86
465.065	1658.19
465.438	1675.37
465.81	1724.63
466.183	1715.82
466.555	1753.1
466.928	1767.11
467.3	1775.02
467.672	1817.06
468.045	1847.56
468.417	1867
468.789	1884.4
469.161	1920.78
469.534	1985.87
469.906	2001.01
470.278	2005.07
470.65	2073.32
471.022	2105.64
471.394	2139.99
471.766	2186.54
472.138	2256.82
472.51	2266.08
472.882	2350.15
473.253	2374.1
473.625	2417.94
473.997	2452.29
474.369	2516.93
474.74	2544.27
475.112	2604.83
475.484	2675.34
475.855	2737.94
476.227	2791.49
476.598	2880.31
476.97	2900.87
477.341	2998.95
477.713	3105.61
478.084	3147.19
478.455	3246.85
478.827	3290.69
479.198	3396.9
479.569	3471.02
479.94	3585.82
480.311	3685.26
480.682	3782.65
481.053	3889.32
481.424	4018.35
481.795	4072.82
482.166	4162.76
482.537	4254.05
482.908	4383.99
483.279	4521.84
483.65	4606.81
484.021	4769.07
484.391	4893.59
484.762	4964.77
485.133	5066.91
485.503	5181.49
485.874	5378.77
486.244	5465.32
486.615	5610.63
486.985	5753.9
487.356	5955.03
487.726	6015.36
488.097	6206.09
488.467	6337.16
488.837	6496.48
489.207	6670.49
489.578	6834.78
489.948	6913.87
490.318	7075.22
490.688	7253.98
491.058	7354.31
491.428	7610.12
491.798	7717.24
492.168	7910
492.538	8024.13
492.908	8247.62
493.278	8358.35
493.648	8448.75
494.017	8668.85
494.387	8763.99
494.757	8902.29
495.126	9125.34
495.496	9145.45
495.866	9312.68
496.235	9516.97
496.605	9638.09
496.974	9743.85
497.344	9865.88
497.713	10014.36
498.082	10165.09
498.452	10271.3
498.821	10396.94
499.19	10577.73
499.559	10622.93
499.928	10844.62
500.298	10888.68
500.667	11100.43
501.036	11019.3
501.405	11287.09
501.774	11275.11
502.143	11415
502.512	11518.72
502.88	11709
503.249	11781.99
503.618	11896.34
503.987	11962.78
504.356	12071.02
504.724	12188.31
505.093	12214.07
505.462	12279.61
505.83	12390.11
506.199	12544.46
506.567	12696.32
506.936	12715.08
507.304	12934.05
507.672	12914.17
508.041	12983.54
508.409	13135.63
508.777	13225.34
509.145	13321.61
509.514	13285
509.882	13421.5
510.25	13537.65
510.618	13606.35
510.986	13654.49
511.354	13697.42
511.722	13877.08
512.09	13962.95
512.458	13895.16
512.826	14058.09
513.193	14125.89
513.561	14192.1
513.929	14237.75
514.297	14327.91
514.664	14381.25
515.032	14463.5
515.4	14510.06
515.767	14538.08
516.135	14653.33
516.502	14524.52
516.869	14772.42
517.237	14812.87
517.604	14762.48
517.972	14900.55
518.339	14943.94
518.706	14951.17
519.073	14936.49
519.44	15121.34
519.808	15210.15
520.175	15129.93
520.542	15269.13
520.909	15330.15
521.276	15378.96
521.643	15466.42
522.009	15483.82
522.376	15451.95
522.743	15606.75
523.11	15606.75
523.477	15797.25
523.843	15810.36
524.21	15884.48
524.577	15950.47
524.943	15989.11
525.31	15976.23
525.676	16124.25
526.043	16144.14
526.409	16077.47
526.776	16268.43
527.142	16265.26
527.508	16328.09
527.874	16320.18
528.241	16328.31
528.607	16334.19
528.973	16504.35
529.339	16435.43
529.705	16513.85
530.071	16492.83
530.437	16571.25
530.803	16628.64
531.169	16604.46
531.535	16558.36
531.901	16617.35
532.267	16562.66
532.632	16588.19
532.998	16579.83
533.364	16676.78
533.73	16681.52
534.095	16756.78
534.461	16679.94
534.826	16658.7
535.192	16728.76
535.557	16651.69
535.923	16639.04
536.288	16625.93
536.653	16695.99
537.019	16574.86
537.384	16656.89
537.749	16590.68
538.114	16553.62
538.479	16543.68
538.845	16558.82
539.21	16437.69
539.575	16463.68
539.94	16445.37
540.305	16519.27
540.67	16411.48
541.034	16420.51
541.399	16415.32
541.764	16258.94
542.129	16479.95
542.494	16355.88
542.858	16435.2
543.223	16249.22
543.587	16346.17
543.952	16206.51
544.316	16256.23
544.681	16144.36
545.045	16182.33
545.41	16172.16
545.774	16079.28
546.138	16109.56
546.503	16107.98
546.867	16056.91
547.231	16113.4
547.595	15980.75
547.959	16063.46
548.324	15942.56
548.688	15891.94
549.052	15985.72
549.416	15924.26
549.779	15850.81
550.143	15786.63
550.507	15867.08
550.871	15829.8
551.235	15786.63
551.599	15800.19
551.962	15821.66
552.326	15779.4
552.689	15824.15
553.053	15672.29
553.417	15687.43
553.78	15801.77
554.143	15705.05
554.507	15688.78
554.87	15636.58
555.234	15804.26
555.597	15659.18
555.96	15592.29
556.323	15659.86
556.686	15545.28
557.05	15638.16
557.413	15647.43
557.776	15610.14
558.139	15675.45
558.502	15642.46
558.865	15685.39
559.228	15617.37
559.59	15639.97
559.953	15695.56
560.316	15695.11
560.679	15676.58
561.041	15716.58
561.404	15756.35
561.767	15841.77
562.129	15740.08
562.492	15857.82
562.854	15790.7
563.217	15745.96
563.579	15788.44
563.941	15863.69
564.304	15904.6
564.666	15947.31
565.028	15922.22
565.39	15892.39
565.753	16011.71
566.115	15919.96
566.477	15956.8
566.839	15992.28
567.201	16011.26
567.563	15989.11
567.925	16178.94
568.287	16054.87
568.648	15966.74
569.01	16040.64
569.372	16130.13
569.734	16155.89
570.095	16119.05
570.457	16271.59
570.819	16263.68
571.18	16214.42
571.542	16265.26
571.903	16176.68
572.265	16296.22
572.626	16230.46
572.987	16291.48
573.349	16344.13
573.71	16317.69
574.071	16334.64
574.432	16389.55
574.794	16347.75
575.155	16371.25
575.516	16348.43
575.877	16372.61
576.238	16459.16
576.599	16437.92
576.96	16526.27
577.32	16408.09
577.681	16561.3
578.042	16540.96
578.403	16514.98
578.763	16574.41
579.124	16453.06
579.485	16512.26
579.845	16619.61
580.206	16525.82
580.566	16501.87
580.927	16492.83
581.287	16605.82
581.648	16435.43
582.008	16530.57
582.368	16523.34
582.728	16526.5
583.089	16495.99
583.449	16471.59
583.809	16554.3
584.169	16455.99
584.529	16432.72
584.889	16462.55
585.249	16397.01
585.609	16351.36
585.969	16432.94
586.329	16321.31
586.688	16410.57
587.048	16426.62
587.408	16374.87
587.768	16343.68
588.127	16390.23
588.487	16312.95
588.846	16425.71
589.206	16211.25
589.565	16240.18
589.925	16335.77
590.284	16315.88
590.643	16338.03
591.003	16367.41
591.362	16313.62
591.721	16243.57
592.08	16227.75
592.44	16277.69
592.799	16205.83
593.158	16169.45
593.517	16231.59
593.876	16227.75
594.235	16142.78
594.593	16247.41
594.952	16232.95
595.311	16161.76
595.67	16216.68
596.029	16248.99
596.387	16326.51
596.746	16330.8
597.104	16166.06
597.463	16250.12
597.822	16218.94
598.18	16171.26
598.538	16225.94
598.897	16271.37
599.255	16045.84
599.613	16353.62
599.972	16172.84
600.33	16206.06
600.688	16160.86
601.046	16171.03
601.404	16254.19
601.762	16246.73
602.12	16261.87
602.478	16264.13
602.836	16187.07
603.194	16166.06
603.552	16202.22
603.91	16113.86
604.268	16140.52
604.625	16134.65
604.983	16180.29
605.341	16063.46
605.698	16177.13
606.056	16226.4
606.413	16219.62
606.771	16259.61
607.128	16232.72
607.485	16148.66
607.843	16115.44
608.2	16277.92
608.557	16337.58
608.914	16205.83
609.272	16310.01
609.629	16269.56
609.986	16352.27
610.343	16303.46
610.7	16393.85
611.057	16358.14
611.414	16379.84
611.771	16370.8
612.127	16462.32
612.484	16312.27
612.841	16335.55
613.198	16378.71
613.554	16389.33
613.911	16519.95
614.267	16436.11
614.624	16392.27
614.98	16494.64
615.337	16566.95
615.693	16526.73
616.05	16415.09
616.406	16544.35
616.762	16537.12
617.118	16484.24
617.475	16478.59
617.831	16565.14
618.187	16566.73
618.543	16611.7
618.899	16650.57
619.255	16688.98
619.611	16613.96
619.967	16727.17
620.323	16667.06
620.678	16622.54
621.034	16665.48
621.39	16630
621.746	16619.83
622.101	16786.61
622.457	16616.44
622.812	16737.34
623.168	16736.21
623.523	16801.75
623.879	16768.08
624.234	16722.88
624.589	16748.64
624.945	16684.01
625.3	16630.9
625.655	16701.64
626.01	16663.9
626.365	16737.12
626.72	16638.36
627.075	16633.62
627.43	16728.76
627.785	16653.5
628.14	16657.57
628.495	16670.9
628.85	16686.5
629.205	16599.94
629.559	16699.83
629.914	16566.05
630.269	16627.51
630.623	16599.04
630.978	16479.5
631.332	16605.82
631.687	16620.74
632.041	16474.07
632.396	16543.68
632.75	16508.65
633.104	16488.08
633.459	16461.19
633.813	16425.71
634.167	16381.19
634.521	16372.15
634.875	16361.76
635.229	16325.38
635.583	16263
635.937	16296.22
636.291	16311.14
636.645	16291.25
636.999	16262.1
637.352	16232.5
637.706	16088.55
638.06	16185.49
638.413	16210.8
638.767	16146.85
639.121	16164.25
639.474	16042.22
639.828	16056.23
640.181	16097.59
640.534	16040.41
640.888	16016.91
641.241	15971.49
641.594	15998.6
641.947	15977.36
642.301	16080.18
642.654	15995.89
643.007	15980.07
643.36	15976.01
643.713	15922.9
644.066	15974.65
644.419	15952.05
644.771	15819.17
645.124	15697.37
645.477	15718.39
645.83	15599.52
646.182	15434.78
646.535	15390.03
646.888	15470.94
647.24	15297.83
647.593	15406.08
647.945	15385.29
648.298	15286.53
648.65	15266.19
649.002	15315.46
649.355	15450.82
649.707	15343.25
650.059	15530.37
650.411	15665.28
650.763	15701.44
651.115	15775.33
651.467	15782.57
651.819	15717.71
652.171	15706.41
652.523	15678.16
652.875	15741.89
653.227	15604.72
653.578	15827.99
653.93	15745.28
654.282	15577.37
654.633	15662.79
654.985	15704.6
655.337	15738.72
655.688	15753.64
656.039	15851.49
656.391	15652.4
656.742	15667.31
657.094	15692.17
657.445	15758.61
657.796	15639.29
658.147	15646.07
658.498	15684.04
658.849	15736.24
659.2	15705.73
659.551	15652.17
659.902	15697.6
660.253	15733.53
660.604	15780.31
660.955	15700.53
661.306	15719.74
661.656	15667.77
662.007	15787.99
662.358	15744.6
662.708	15776.46
663.059	15697.37
663.409	15615.56
663.76	15851.49
664.11	15766.07
664.461	15787.76
664.811	15866.18
665.161	15750.7
665.511	15771.49
665.862	15817.14
666.212	15804.49
666.562	15746.86
666.912	15697.37
667.262	15787.54
667.612	15780.31
667.962	15834.09
668.312	15756.8
668.662	15803.36
669.011	15787.99
669.361	15745.73
669.711	15806.97
670.06	15674.32
670.41	15701.21
670.76	15623.93
671.109	15746.41
671.459	15709.57
671.808	15675.68
672.157	15647.2
672.507	15577.82
672.856	15568.11
673.205	15608.33
673.554	15654.21
673.904	15587.54
674.253	15695.79
674.602	15580.31
674.951	15371.73
675.3	15319.53
675.649	15548
675.998	15533.76
676.346	15605.62
676.695	15539.63
677.044	15469.81
677.393	15488.11
677.741	15532.18
678.09	15413.31
678.438	15315.46
678.787	15468.45
679.135	15393.42
679.484	15327.44
679.832	15372.18
680.181	15330.15
680.529	15399.07
680.877	15296.93
681.225	15161.79
681.573	15326.76
681.922	15172.41
682.27	15116.37
682.618	15074.34
682.966	15077.05
683.314	15129.48
683.661	14942.36
684.009	14979.65
684.357	14965.86
684.705	14981.68
685.053	14939.88
685.4	14848.35
685.748	14730.62
686.095	14739.65
686.443	14698.98
686.79	14675.93
687.138	14689.26
687.485	14742.37
687.832	14551.64
688.18	14673.44
688.527	14541.92
688.874	14526.1
689.221	14521.81
689.568	14426.67
689.915	14436.61
690.262	14361.13
690.609	14414.24
690.956	14230.74
691.303	14258.31
691.65	14233.23
691.997	14269.16
692.344	14128.15
692.69	14064.87
693.037	14072.55
693.383	14012.67
693.73	14062.16
694.077	13953.01
694.423	13906.68
694.769	13885.21
695.116	13821.71
695.462	13704.65
695.808	13748.49
696.155	13757.31
696.501	13617.2
696.847	13671.89
697.193	13497.2
697.539	13545.11
697.885	13421.95
698.231	13422.4
698.577	13330.65
698.923	13324.32
699.269	13296.75
699.614	13261.28
699.96	13147.83
700.306	13081.17
700.651	13035.29
700.997	13052.69
701.342	13003.2
701.688	12959.59
702.033	12855.64
702.379	12845.24
702.724	12838.91
703.069	12775.86
703.415	12781.51
703.76	12710.1
704.105	12630.56
704.45	12683.89
704.795	12553.72
705.14	12550.56
705.485	12561.63
705.83	12433.95
706.175	12416.33
706.52	12421.07
706.865	12299.49
707.209	12341.3
707.554	12293.39
707.899	12204.58
708.243	12210.91
708.588	12160.06
708.932	12102.66
709.277	12063.79
709.621	12073.51
709.966	12014.98
710.31	11988.09
710.654	11863.12
710.998	11909.45
711.342	11868.32
711.687	11873.52
712.031	11885.04
712.375	11707.87
712.719	11780.64
713.063	11797.59
713.407	11721.88
713.75	11687.98
714.094	11721.43
714.438	11619.06
714.782	11691.6
715.125	11553.52
715.469	11654.54
715.812	11574.31
716.156	11433.08
716.499	11412.51
716.843	11530.93
717.186	11431.04
717.53	11443.02
717.873	11544.94
718.216	11410.25
718.559	11504.71
718.902	11272.18
719.246	11348.56
719.589	11314.21
719.932	11290.25
720.275	11288.67
720.617	11296.36
720.96	11245.06
721.303	11237.83
721.646	11300.88
721.989	11095.23
722.331	11267.66
722.674	11196.02
723.016	11176.58
723.359	11182.01
723.701	11181.56
724.044	11210.03
724.386	11089.58
724.729	11128.68
725.071	11063.14
725.413	11095.91
725.755	11089.13
726.097	11060.43
726.439	11021.11
726.782	10998.06
727.124	11048.68
727.465	11049.36
727.807	11026.53
728.149	11014.78
728.491	10916.48
728.833	10963.26
729.175	10994.22
729.516	10878.29
729.858	10845.52
730.199	10915.57
730.541	10892.07
730.882	10946.53
731.224	10917.83
731.565	10903.82
731.906	10921.68
732.248	10954.44
732.589	10843.26
732.93	10832.41
733.271	10834.9
733.612	10864.95
733.953	10841.68
734.294	10920.77
734.635	10872.64
734.976	10862.47
735.317	10819.76
735.658	10816.59
735.999	10844.62
736.339	10811.17
736.68	10900.89
737.021	10851.17
737.361	10811.4
737.702	10897.04
738.042	10896.82
738.383	10810.94
738.723	10945.86
739.063	10850.94
739.404	10933.2
739.744	10924.61
740.084	10904.28
740.424	10929.36
740.764	10937.95
741.104	10969.81
741.444	10898.63
741.784	10927.78
742.124	11022.69
742.464	11005.52
742.804	11069.02
743.143	11029.47
743.483	11062.24
743.823	11074.21
744.162	11097.49
744.502	11217.71
744.841	11158.51
745.181	11222.23
745.52	11220.65
745.86	11311.5
746.199	11282.12
746.538	11341.1
746.877	11483.92
747.216	11408.67
747.556	11504.03
747.895	11595.1
748.234	11506.07
748.573	11657.25
748.911	11737.7
749.25	11800.3
749.589	11817.7
749.928	11906.06
750.267	11963.91
750.605	12134.07
750.944	12167.75
751.283	12207.07
751.621	12343.56
751.96	12319.38
752.298	12450.22
752.636	12629.43
752.975	12658.58
753.313	12698.35
753.651	12856.09
753.989	12993.49
754.327	13083.88
754.666	13160.94
755.004	13278.68
755.342	13436.19
755.679	13530.87
