Data from hue_120_FLMS001491_00009.txt Node
Date: Tue Feb 07 16:58:52 GMT 2017
User: dcchb
Spectrometer: FLMS00149
Trigger mode: 0
Integration Time (sec): 2.000000E-2
Scans to average: 10
Electric dark correction enabled: true
Nonlinearity correction enabled: false
Boxcar width: 0
XAxis mode: Wavelengths
Number of Pixels in Spectrum: 2048
>>>>>Begin Spectral Data<<<<<
341.393	-24.8
341.776	-24.8
342.16	-24.8
342.543	-62.99
342.927	-60.96
343.31	-63.9
343.693	-53.73
344.077	-60.73
344.46	-77
344.843	-49.21
345.226	-58.02
345.61	-38.36
345.993	-20.96
346.376	13.84
346.759	14.97
347.142	10.45
347.525	52.48
347.908	65.14
348.291	80.28
348.674	89.55
349.057	95.2
349.44	122.54
349.823	126.38
350.206	164.57
350.588	198.02
350.971	205.02
351.354	232.59
351.737	227.62
352.119	260.16
352.502	253.38
352.884	278.92
353.267	297.9
353.65	301.52
354.032	295.42
354.414	305.81
354.797	336.77
355.179	317.79
355.562	320.27
355.944	326.15
356.326	336.77
356.709	345.13
357.091	332.25
357.473	352.82
357.855	348.3
358.238	348.75
358.62	341.97
359.002	344
359.384	346.71
359.766	333.83
360.148	327.51
360.53	348.97
360.912	357.56
361.294	343.78
361.676	320.27
362.057	337.45
362.439	309.88
362.821	338.35
363.203	342.65
363.584	332.03
363.966	331.35
364.348	327.96
364.729	323.21
365.111	305.13
365.493	316.21
365.874	304
366.256	310.56
366.637	345.58
367.019	325.47
367.4	322.08
367.781	320.27
368.163	321.86
368.544	308.07
368.925	304.68
369.306	323.44
369.688	323.21
370.069	319.82
370.45	304.91
370.831	317.79
371.212	322.76
371.593	324.34
371.974	315.98
372.355	335.19
372.736	308.52
373.117	293.61
373.498	304.23
373.879	324.57
374.26	337.9
374.641	307.39
375.021	311.91
375.402	322.99
375.783	322.08
376.163	326.38
376.544	328.64
376.925	319.14
377.305	335.19
377.686	329.31
378.066	352.36
378.447	332.93
378.827	341.74
379.208	332.7
379.588	356.43
379.968	327.73
380.349	329.99
380.729	343.32
381.109	342.19
381.489	333.38
381.87	330.67
382.25	337.9
382.63	337.67
383.01	350.78
383.39	332.7
383.77	348.97
384.15	369.54
384.53	351.23
384.91	350.1
385.29	337
385.67	346.49
386.049	355.08
386.429	360.05
386.809	356.66
387.189	352.36
387.568	347.84
387.948	357.11
388.328	355.75
388.707	365.7
389.087	381.52
389.466	365.7
389.846	366.83
390.225	371.57
390.605	360.5
390.984	369.09
391.363	352.82
391.743	365.47
392.122	370.67
392.501	380.39
392.881	392.81
393.26	394.4
393.639	391.46
394.018	381.29
394.397	391.91
394.776	386.04
395.155	412.02
395.534	356.66
395.913	385.13
396.292	394.17
396.671	413.38
397.05	406.6
397.429	405.47
397.808	408.63
398.186	408.41
398.565	439.37
398.944	403.89
399.323	392.81
399.701	427.39
400.08	402.31
400.458	408.86
400.837	433.49
401.215	410.22
401.594	435.53
401.972	442.3
402.351	417.45
402.729	416.99
403.107	407.73
403.486	435.75
403.864	414.06
404.242	430.33
404.62	440.04
404.999	465.35
405.377	447.28
405.755	454.28
406.133	442.76
406.511	466.48
406.889	442.53
407.267	444.11
407.645	457.67
408.023	465.81
408.401	476.65
408.779	471.23
409.156	446.37
409.534	462.64
409.912	490.89
410.29	478.91
410.667	493.6
411.045	483.66
411.422	475.75
411.8	468.97
412.178	460.38
412.555	468.29
412.933	481.63
413.31	491.57
413.687	488.41
414.065	497.44
414.442	525.24
414.819	496.99
415.197	489.54
415.574	523.88
415.951	502.42
416.328	503.32
416.705	528.86
417.082	520.72
417.46	533.83
417.837	536.09
418.214	539.03
418.591	532.47
418.967	542.19
419.344	541.96
419.721	538.35
420.098	544
420.475	550.32
420.852	550.78
421.228	578.12
421.605	571.79
421.982	554.84
422.358	574.5
422.735	575.18
423.111	576.76
423.488	604.56
423.864	596.65
424.241	618.35
424.617	587.84
424.994	623.32
425.37	604.11
425.746	599.59
426.123	618.8
426.499	619.02
426.875	623.77
427.251	633.03
427.627	617.67
428.003	621.96
428.379	650.43
428.756	656.54
429.132	669.64
429.507	666.93
429.883	673.71
430.259	659.47
430.635	673.03
431.011	666.93
431.387	708.06
431.763	701.73
432.138	693.6
432.514	717.33
432.89	693.82
433.265	704.67
433.641	711.68
434.016	715.07
434.392	734.05
434.767	740.38
435.143	752.35
435.518	746.48
435.894	758.45
436.269	781.05
436.644	746.03
437.02	791
437.395	771.79
437.77	794.84
438.145	818.11
438.52	803.43
438.895	807.94
439.271	815.85
439.646	837.32
440.021	846.36
440.395	859.24
440.77	807.49
441.145	835.06
441.52	871.22
441.895	873.93
442.27	878.23
442.645	864.21
443.019	875.74
443.394	883.88
443.769	898.79
444.143	878.68
444.518	899.69
444.892	922.52
445.267	892.69
445.641	911.9
446.016	926.13
446.39	911.67
446.764	937.88
447.139	927.49
447.513	933.82
447.887	959.13
448.262	946.92
448.636	935.17
449.01	961.39
449.384	947.38
449.758	974.72
450.132	991.67
450.506	992.8
450.88	994.15
451.254	983.53
451.628	1015.85
452.002	1023.98
452.376	1019.01
452.75	1053.14
453.123	1036.64
453.497	1083.42
453.871	1063.98
454.244	1085.23
454.618	1069.41
454.992	1094.49
455.365	1106.47
455.739	1127.26
456.112	1143.08
456.486	1151.66
456.859	1179.69
457.232	1170.65
457.606	1173.81
457.979	1193.47
458.352	1199.12
458.725	1223.3
459.099	1238.89
459.472	1262.85
459.845	1278.67
460.218	1266.92
460.591	1288.84
460.964	1308.72
461.337	1329.74
461.71	1335.84
462.083	1374.94
462.456	1401.38
462.829	1360.02
463.201	1421.71
463.574	1405.67
463.947	1441.37
464.32	1466.91
464.692	1495.61
465.065	1495.16
465.438	1534.48
465.81	1507.81
466.183	1556.4
466.555	1585.55
466.928	1605.66
467.3	1623.29
467.672	1644.31
468.045	1697.86
468.417	1736.51
468.789	1756.62
469.161	1757.07
469.534	1778.54
469.906	1845.88
470.278	1893.57
470.65	1866
471.022	1947.8
471.394	1964.07
471.766	1983.06
472.138	2045.65
472.51	2095.82
472.882	2114.8
473.253	2141.02
473.625	2204.52
473.997	2278.41
474.369	2303.05
474.74	2338.07
475.112	2396.15
475.484	2448.35
475.855	2517.96
476.227	2536.49
476.598	2650.16
476.97	2660.55
477.341	2804.5
477.713	2794.56
478.084	2873.43
478.455	2970.37
478.827	3084.04
479.198	3183.48
479.569	3190.03
479.94	3315.22
480.311	3360.19
480.682	3507.99
481.053	3620.98
481.424	3739.17
481.795	3807.64
482.166	3914.53
482.537	3980.29
482.908	4117.24
483.279	4233.84
483.65	4328.76
484.021	4466.38
484.391	4545.25
484.762	4655.53
485.133	4745.02
485.503	4898.01
485.874	5018.91
486.244	5157.89
486.615	5278.56
486.985	5426.13
487.356	5594.03
487.726	5720.58
488.097	5907.47
488.467	5964.65
488.837	6191.31
489.207	6284.86
489.578	6425.42
489.948	6610.05
490.318	6744.51
490.688	6802.36
491.058	6986.09
491.428	7187.89
491.798	7291.62
492.168	7574.32
492.538	7691.61
492.908	7855.67
493.278	7969.34
493.648	8102.22
494.017	8238.48
494.387	8334.98
494.757	8555.31
495.126	8694.52
495.496	8780.84
495.866	8928.64
496.235	9052.02
496.605	9178.12
496.974	9382.18
497.344	9515.29
497.713	9659.24
498.082	9689.07
498.452	9969.96
498.821	10025.1
499.19	10146.68
499.559	10294.93
499.928	10364.3
500.298	10509.38
500.667	10611.08
501.036	10675.03
501.405	10908.24
501.774	10881.8
502.143	11018.52
502.512	11117.05
502.88	11241.12
503.249	11310.95
503.618	11439.53
503.987	11533.31
504.356	11682.91
504.724	11721.78
505.093	11772.18
505.462	11880.42
505.83	12033.41
506.199	12118.16
506.567	12307.08
506.936	12261.2
507.304	12467.3
507.672	12453.97
508.041	12588.88
508.409	12690.57
508.777	12817.12
509.145	12841.07
509.514	12935.08
509.882	12909.1
510.25	13043.33
510.618	13141.86
510.986	13159.03
511.354	13301.4
511.722	13328.75
512.09	13447.61
512.458	13423.43
512.826	13544.79
513.193	13606.25
513.561	13639.02
513.929	13678.57
514.297	13759.92
514.664	13810.77
515.032	13819.35
515.4	13911.78
515.767	13986.13
516.135	14036.75
516.502	13909.75
516.869	14205.56
517.237	14206.69
517.604	14108.61
517.972	14283.75
518.339	14352
518.706	14270.64
519.073	14400.13
519.44	14326.46
519.808	14491.2
520.175	14481.26
520.542	14669.5
520.909	14635.15
521.276	14651.87
521.643	14690.74
522.009	14756.73
522.376	14782.49
522.743	14843.96
523.11	14943.62
523.477	14952.88
523.843	14984.52
524.21	15108.36
524.577	15164.63
524.943	15065.65
525.31	15101.13
525.676	15222.71
526.043	15179.32
526.409	15259.54
526.776	15360.78
527.142	15310.61
527.508	15377.05
527.874	15409.37
528.241	15381.57
528.607	15355.13
528.973	15487.78
529.339	15388.35
529.705	15390.39
530.071	15541.79
530.437	15472.64
530.803	15488.91
531.169	15546.09
531.535	15469.03
531.901	15444.62
532.267	15531.17
532.632	15508.58
532.998	15452.08
533.364	15477.62
533.73	15426.32
534.095	15473.77
534.461	15455.7
534.826	15437.62
535.192	15363.49
535.557	15450.95
535.923	15424.96
536.288	15368.24
536.653	15371.63
537.019	15298.86
537.384	15384.06
537.749	15238.98
538.114	15276.72
538.479	15270.84
538.845	15250.73
539.21	15182.71
539.575	15085.31
539.94	15112.88
540.305	15137.74
540.67	15044.41
541.034	15064.75
541.399	14998.31
541.764	15029.72
542.129	14969.61
542.494	14895.71
542.858	14918.08
543.223	14850.29
543.587	14890.74
543.952	14786.56
544.316	14761.02
544.681	14617.75
545.045	14656.39
545.41	14641.03
545.774	14603.29
546.138	14571.42
546.503	14596.51
546.867	14489.17
547.231	14509.96
547.595	14511.54
547.959	14429.96
548.324	14328.49
548.688	14363.75
549.052	14276.52
549.416	14200.14
549.779	14197.88
550.143	14194.71
550.507	14216.63
550.871	14180.93
551.235	14118.1
551.599	14133.47
551.962	13978.45
552.326	14075.39
552.689	14013.25
553.053	13883.99
553.417	13939.8
553.78	13997.43
554.143	13967.15
554.507	13891.89
554.87	13879.24
555.234	13982.06
555.597	13834.72
555.96	13896.19
556.323	13778.9
556.686	13860.03
557.05	13925.34
557.413	13800.82
557.776	13764.67
558.139	13838.34
558.502	13781.16
558.865	13733.25
559.228	13765.8
559.59	13787.72
559.953	13754.27
560.316	13840.82
560.679	13780.03
561.041	13772.35
561.404	13704.55
561.767	13842.4
562.129	13755.18
562.492	13777.32
562.854	13703.42
563.217	13812.57
563.579	13825.46
563.941	13803.76
564.304	13845.34
564.666	13854.16
565.028	13849.41
565.39	13895.51
565.753	13949.97
566.115	13855.74
566.477	13848.05
566.839	13932.12
567.201	13953.81
567.563	13862.97
567.925	13992.68
568.287	13961.72
568.648	13992
569.01	13961.72
569.372	14074.49
569.734	14004.66
570.095	14010.08
570.457	14015.06
570.819	14133.7
571.18	13995.17
571.542	14060.48
571.903	14040.37
572.265	14088.5
572.626	14117.43
572.987	14149.29
573.349	14111.32
573.71	14156.52
574.071	14196.75
574.432	14216.18
574.794	14303.18
575.155	14255.05
575.516	14162.85
575.877	14232
576.238	14223.19
576.599	14264.31
576.96	14158.1
577.32	14162.17
577.681	14302.05
578.042	14245.56
578.403	14238.55
578.763	14241.26
579.124	14239.23
579.485	14294.6
579.845	14287.36
580.206	14196.97
580.566	14210.3
580.927	14278.55
581.287	14372.79
581.648	14234.94
582.008	14384.31
582.368	14226.12
582.728	14213.24
583.089	14173.7
583.449	14170.53
583.809	14222.28
584.169	14257.99
584.529	14178.44
584.889	14328.49
585.249	14266.8
585.609	14178.89
585.969	14275.16
586.329	14168.72
586.688	14128.27
587.048	14184.09
587.408	14066.58
587.768	14102.74
588.127	14103.87
588.487	14088.05
588.846	14161.27
589.206	13977.54
589.565	14029.74
589.925	14074.26
590.284	14079.46
590.643	14047.14
591.003	14084.21
591.362	14104.54
591.721	14005.11
592.08	14053.25
592.44	14069.52
592.799	13940.48
593.158	14032.46
593.517	14015.96
593.876	14029.07
594.235	14011.89
594.593	14016.41
594.952	14046.47
595.311	14003.3
595.67	13934.38
596.029	14048.27
596.387	13980.03
596.746	14078.56
597.104	13990.88
597.463	13952.68
597.822	13960.14
598.18	13870.65
598.538	13936.64
598.897	14011.44
599.255	13886.02
599.613	14035.39
599.972	13996.75
600.33	14012.57
600.688	13987.49
601.046	13967.6
601.404	14009.41
601.762	13995.62
602.12	14002.17
602.478	14000.14
602.836	14059.12
603.194	13970.31
603.552	13851.22
603.91	13898.9
604.268	13938.45
604.625	13855.06
604.983	13907.04
605.341	13872.46
605.698	13976.19
606.056	13908.84
606.413	13968.28
606.771	14016.19
607.128	14037.2
607.485	13946.13
607.843	14012.12
608.2	14094.15
608.557	14084.66
608.914	13960.14
609.272	14150.64
609.629	14077.88
609.986	14050.53
610.343	13994.49
610.7	14075.39
611.057	14126.46
611.414	14096.18
611.771	14097.54
612.127	14151.32
612.484	14095.73
612.841	14098.67
613.198	14073.36
613.554	14068.84
613.911	14218.44
614.267	14118.56
614.624	14203.3
614.98	14152
615.337	14217.99
615.693	14150.19
616.05	14321.49
616.406	14328.95
616.762	14216.18
617.118	14240.59
617.475	14310.19
617.831	14330.08
618.187	14323.07
618.543	14267.48
618.899	14473.35
619.255	14382.96
619.611	14301.15
619.967	14441.26
620.323	14480.13
620.678	14379.11
621.034	14252.56
621.39	14305.44
621.746	14247.82
622.101	14419.11
622.457	14384.54
622.812	14306.12
623.168	14347.25
623.523	14378.21
623.879	14439
624.234	14282.84
624.589	14432.67
624.945	14355.39
625.3	14368.27
625.655	14373.92
626.01	14448.72
626.365	14389.06
626.72	14345.89
627.075	14432.9
627.43	14379.11
627.785	14328.27
628.14	14366.23
628.495	14325.78
628.85	14300.92
629.205	14358.32
629.559	14286.01
629.914	14298.21
630.269	14290.75
630.623	14296.18
630.978	14277.65
631.332	14302.05
631.687	14391.99
632.041	14328.49
632.396	14247.14
632.75	14185.45
633.104	14229.29
633.459	14183.64
633.813	14070.42
634.167	14177.31
634.521	14084.66
634.875	14177.76
635.229	14134.83
635.583	14076.07
635.937	14032.91
636.291	14017.32
636.645	13994.04
636.999	14034.72
637.352	14046.69
637.706	13951.33
638.06	13973.7
638.413	14004.89
638.767	13975.06
639.121	13982.51
639.474	13908.84
639.828	13868.39
640.181	13901.39
640.534	13832.91
640.888	13788.39
641.241	13800.6
641.594	13783.42
641.947	13873.14
642.301	13833.82
642.654	13894.15
643.007	13811.22
643.36	13742.07
643.713	13680.37
644.066	13806.25
644.419	13688.06
644.771	13613.26
645.124	13507.95
645.477	13448.52
645.83	13427.5
646.182	13303.44
646.535	13246.04
646.888	13446.26
647.24	13331.91
647.593	13345.69
647.945	13301.63
648.298	13250.78
648.65	13324
649.002	13219.14
649.355	13265.02
649.707	13302.53
650.059	13375.75
650.411	13447.39
650.763	13622.3
651.115	13665.23
651.467	13562.19
651.819	13593.37
652.171	13652.8
652.523	13572.81
652.875	13542.3
653.227	13570.32
653.578	13633.14
653.93	13653.26
654.282	13559.47
654.633	13505.92
654.985	13574.84
655.337	13565.12
655.688	13562.64
656.039	13664.1
656.391	13513.83
656.742	13551.11
657.094	13491
657.445	13593.15
657.796	13580.49
658.147	13560.15
658.498	13538.46
658.849	13610.77
659.2	13524.22
659.551	13503.88
659.902	13597.21
660.253	13628.85
660.604	13604.22
660.955	13579.13
661.306	13622.52
661.656	13629.75
662.007	13551.34
662.358	13606.7
662.708	13614.84
663.059	13638.34
663.409	13546.14
663.76	13559.7
664.11	13592.69
664.461	13632.01
664.811	13653.48
665.161	13677.66
665.511	13648.96
665.862	13621.85
666.212	13626.82
666.562	13740.71
666.912	13653.26
667.262	13566.03
667.612	13609.64
667.962	13693.93
668.312	13606.93
668.662	13636.76
669.011	13642.64
669.361	13640.15
669.711	13633.37
670.06	13627.72
670.41	13652.58
670.76	13585.46
671.109	13609.19
671.459	13636.31
671.808	13524.22
672.157	13615.97
672.507	13528.06
672.856	13510.66
673.205	13506.82
673.554	13508.85
673.904	13481.51
674.253	13641.28
674.602	13505.01
674.951	13352.25
675.3	13338.01
675.649	13518.35
675.998	13392.02
676.346	13443.77
676.695	13527.16
677.044	13410.55
677.393	13401.06
677.741	13401.29
678.09	13309.31
678.438	13336.65
678.787	13347.5
679.135	13361.97
679.484	13247.39
679.832	13274.74
680.181	13225.7
680.529	13260.27
680.877	13245.58
681.225	13249.2
681.573	13210.33
681.922	13213.95
682.27	13151.12
682.618	13041.52
682.966	13088.53
683.314	13091.01
683.661	13026.15
684.009	13045.59
684.357	12992.48
684.705	12927.17
685.053	12948.19
685.4	12975.31
685.748	12834.97
686.095	12853.28
686.443	12739.16
686.79	12747.07
687.138	12822.09
687.485	12831.36
687.832	12681.98
688.18	12787.29
688.527	12653.96
688.874	12689.44
689.221	12512.95
689.568	12561.99
689.915	12481.54
690.262	12521.99
690.609	12472.72
690.956	12454.42
691.303	12464.36
691.65	12338.26
691.997	12322.9
692.344	12237.93
692.69	12272.05
693.037	12296.68
693.383	12107.76
693.73	12112.28
694.077	12151.83
694.423	12065.05
694.769	11921.1
695.116	11936.47
695.462	11918.84
695.808	11846.52
696.155	11839.07
696.501	11821.89
696.847	11805.4
697.193	11675
697.539	11685.62
697.885	11608.34
698.231	11562.01
698.577	11613.76
698.923	11536.7
699.269	11498.29
699.614	11369.7
699.96	11369.25
700.306	11363.6
700.651	11376.93
700.997	11296.93
701.342	11283.15
701.688	11246.09
702.033	11186.88
702.379	11181.23
702.724	11041.8
703.069	11092.42
703.415	10966.1
703.76	11014.23
704.105	10926.55
704.45	11011.74
704.795	10909.15
705.14	10856.95
705.485	10768.13
705.83	10827.79
706.175	10717.51
706.52	10723.16
706.865	10644.3
707.209	10671.87
707.554	10662.6
707.899	10675.03
708.243	10589.16
708.588	10541.25
708.932	10476.17
709.277	10475.49
709.621	10478.65
709.966	10417.64
710.31	10427.35
710.654	10376.28
710.998	10432.32
711.342	10319.33
711.687	10292.67
712.031	10313.46
712.375	10241.82
712.719	10205.89
713.063	10181.03
713.407	10253.35
713.75	10150.98
714.094	10127.47
714.438	10101.49
714.782	10127.7
715.125	10060.81
715.469	10170.18
715.812	10047.7
716.156	10057.42
716.499	10087.02
716.843	9967.93
717.186	10026.69
717.53	9953.02
717.873	10041.6
718.216	9984.65
718.559	9887.03
718.902	9884.09
719.246	9975.84
719.589	9908.5
719.932	9847.26
720.275	9875.5
720.617	9781.04
720.96	9778.1
721.303	9780.82
721.646	9755.96
721.989	9711.44
722.331	9757.31
722.674	9780.36
723.016	9697.43
723.359	9706.47
723.701	9747.82
724.044	9663.08
724.386	9674.6
724.729	9699.24
725.071	9650.65
725.413	9614.27
725.755	9586.7
726.097	9608.84
726.439	9594.15
726.782	9577.43
727.124	9676.41
727.465	9567.49
727.807	9701.95
728.149	9612.91
728.491	9512.57
728.833	9505.12
729.175	9558.9
729.516	9526.81
729.858	9570.88
730.199	9566.81
730.541	9583.99
730.882	9496.08
731.224	9561.84
731.565	9494.5
731.906	9570.65
732.248	9493.37
732.589	9443.2
732.93	9469.41
733.271	9487.26
733.612	9490.65
733.953	9484.33
734.294	9490.65
734.635	9452.69
734.976	9477.32
735.317	9465.8
735.658	9444.55
735.999	9556.64
736.339	9510.54
736.68	9539.47
737.021	9514.61
737.361	9504.67
737.702	9611.33
738.042	9552.12
738.383	9563.87
738.723	9578.11
739.063	9554.16
739.404	9619.69
739.744	9607.71
740.084	9546.25
740.424	9613.82
740.764	9577.43
741.104	9645.45
741.444	9609.3
741.784	9566.13
742.124	9685.23
742.464	9678.22
742.804	9673.93
743.143	9661.27
743.483	9740.59
743.823	9779.23
744.162	9765.68
744.502	9829.85
744.841	9807.71
745.181	9822.17
745.52	9864.66
745.86	10001.15
746.199	9933.58
746.538	10031.21
746.877	10107.14
747.216	10080.02
747.556	10145.55
747.895	10218.54
748.234	10233.01
748.573	10231.43
748.911	10366.79
749.25	10465.77
749.589	10392.55
749.928	10519.78
750.267	10670.28
750.605	10647.91
750.944	10810.62
751.283	10861.69
751.621	10958.86
751.96	10994.8
752.298	11131.97
752.636	11211.51
752.975	11309.14
753.313	11344.39
753.651	11559.75
753.989	11587.77
754.327	11755.91
754.666	11837.49
755.004	11975.79
755.342	12234.09
755.679	12284.71
756.017	12362.22
756.355	12586.84
756.693	12679.5
757.031	12888.08
757.368	12984.35
757.706	13142.99
