Data from hue_00_FLMS001491_55.txt Node
Date: Mon Feb 06 15:29:55 GMT 2017
User: dcchb
Spectrometer: FLMS00149
Trigger mode: 0
Integration Time (sec): 2.000000E-2
Scans to average: 10
Electric dark correction enabled: true
Nonlinearity correction enabled: false
Boxcar width: 0
XAxis mode: Wavelengths
Number of Pixels in Spectrum: 2048
>>>>>Begin Spectral Data<<<<<
341.393	-24.1
341.776	-24.1
342.16	-24.1
342.543	-67.26
342.927	-64.32
343.31	-60.7
343.693	-71.78
344.077	-70.2
344.46	-54.6
344.843	-44.89
345.226	-37.2
345.61	-52.57
345.993	-17.32
346.376	-17.99
346.759	23.36
347.142	25.85
347.525	43.25
347.908	49.57
348.291	66.07
348.674	97.03
349.057	122.12
349.44	107.88
349.823	127.77
350.206	154.43
350.588	180.19
350.971	214.54
351.354	206.41
351.737	226.75
352.119	250.93
352.502	258.16
352.884	262.45
353.267	284.6
353.65	273.52
354.032	282.79
354.414	307.42
354.797	320.75
355.179	310.59
355.562	318.49
355.944	296.35
356.326	347.19
356.709	332.28
357.091	340.41
357.473	355.56
357.855	325.27
358.238	349.45
358.62	356.01
359.002	345.84
359.384	339.06
359.766	334.54
360.148	334.54
360.53	331.15
360.912	360.08
361.294	316.46
361.676	330.7
362.057	307.42
362.439	332.28
362.821	318.49
363.203	312.17
363.584	307.65
363.966	312.17
364.348	330.47
364.729	330.47
365.111	315.78
365.493	308.55
365.874	311.71
366.256	316.23
366.637	320.53
367.019	297.03
367.4	305.39
367.781	315.1
368.163	303.13
368.544	307.87
368.925	308.1
369.306	309.91
369.688	307.42
370.069	306.07
370.45	300.42
370.831	300.64
371.212	295.67
371.593	287.31
371.974	323.47
372.355	286.18
372.736	305.39
373.117	311.26
373.498	311.49
373.879	319.85
374.26	314.88
374.641	298.83
375.021	298.16
375.402	315.78
375.783	321.88
376.163	322.79
376.544	325.73
376.925	337.93
377.305	310.81
377.686	334.99
378.066	328.66
378.447	337.48
378.827	320.08
379.208	334.99
379.588	306.52
379.968	323.69
380.349	292.73
380.729	327.76
381.109	320.98
381.489	335.9
381.87	322.34
382.25	314.65
382.63	318.72
383.01	328.66
383.39	339.96
383.77	333.18
384.15	325.95
384.53	348.78
384.91	313.75
385.29	323.47
385.67	336.12
386.049	341.09
386.429	360.08
386.809	345.39
387.189	329.57
387.568	314.2
387.948	334.77
388.328	335.9
388.707	346.97
389.087	367.98
389.466	347.19
389.846	337.93
390.225	357.14
390.605	330.02
390.984	345.39
391.363	340.87
391.743	352.17
392.122	350.36
392.501	347.65
392.881	345.61
393.26	371.15
393.639	339.28
394.018	355.78
394.397	345.61
394.776	358.49
395.155	362.34
395.534	359.17
395.913	347.42
396.292	357.36
396.671	359.85
397.05	360.98
397.429	362.34
397.808	373.86
398.186	367.98
398.565	378.38
398.944	362.11
399.323	363.69
399.701	389.68
400.08	389.68
400.458	394.2
400.837	384.26
401.215	397.14
401.594	368.89
401.972	366.85
402.351	368.66
402.729	390.81
403.107	400.3
403.486	410.7
403.864	402.33
404.242	384.48
404.62	372.96
404.999	381.32
405.377	413.18
405.755	403.24
406.133	385.16
406.511	382.22
406.889	403.01
407.267	395.55
407.645	417.02
408.023	429.9
408.401	405.5
408.779	416.57
409.156	424.93
409.534	405.72
409.912	431.71
410.29	426.97
410.667	407.31
411.045	423.35
411.422	453.86
411.8	404.59
412.178	437.81
412.555	446.17
412.933	423.35
413.31	421.99
413.687	434.2
414.065	434.42
414.442	459.51
414.819	465.38
415.197	453.18
415.574	465.16
415.951	452.95
416.328	451.37
416.705	461.54
417.082	473.29
417.46	480.98
417.837	458.6
418.214	488.89
418.591	459.96
418.967	471.26
419.344	497.47
419.721	473.52
420.098	504.03
420.475	510.35
420.852	502.22
421.228	524.14
421.605	492.73
421.982	489.79
422.358	496.57
422.735	515.33
423.111	512.16
423.488	524.14
423.864	501.99
424.241	516
424.617	504.48
424.994	540.64
425.37	551.93
425.746	539.51
426.123	535.44
426.499	538.15
426.875	541.77
427.251	550.13
427.627	551.93
428.003	547.41
428.379	541.77
428.756	551.26
429.132	557.58
429.507	574.76
429.883	579.05
430.259	591.93
430.635	570.92
431.011	563.69
431.387	592.84
431.763	594.42
432.138	599.17
432.514	606.85
432.89	587.41
433.265	596.45
433.641	619.96
434.016	616.79
434.392	632.61
434.767	637.13
435.143	616.57
435.518	656.56
435.894	619.96
436.269	626.73
436.644	657.02
437.02	664.25
437.395	626.73
437.77	660.86
438.145	655.66
438.52	682.55
438.895	653.85
439.271	687.07
439.646	695.21
440.021	674.42
440.395	687.75
440.77	687.07
441.145	704.02
441.52	703.34
441.895	717.81
442.27	726.39
442.645	705.6
443.019	692.5
443.394	723
443.769	716
444.143	701.08
444.518	742.89
444.892	735.88
445.267	738.14
445.641	751.25
446.016	732.04
446.39	733.17
446.764	766.39
447.139	765.04
447.513	756.9
447.887	742.66
448.262	757.8
448.636	757.8
449.01	789.22
449.384	772.72
449.758	769.56
450.132	788.76
450.506	801.19
450.88	776.56
451.254	800.52
451.628	771.36
452.002	776.11
452.376	812.27
452.75	791.48
453.123	825.37
453.497	814.98
453.871	834.64
454.244	812.04
454.618	827.63
454.992	835.09
455.365	857.92
455.739	852.27
456.112	885.71
456.486	898.14
456.859	876.9
457.232	874.64
457.606	901.76
457.979	902.66
458.352	903.11
458.725	923.45
459.099	907.41
459.472	962.32
459.845	927.97
460.218	943.79
460.591	937.46
460.964	953.05
461.337	983.11
461.71	970.91
462.083	1004.58
462.456	987.86
462.829	988.99
463.201	1005.26
463.574	1012.26
463.947	1047.06
464.32	1059.94
464.692	1066.72
465.065	1067.85
465.438	1071.92
465.81	1082.54
466.183	1099.72
466.555	1115.54
466.928	1098.81
467.3	1135.2
467.672	1120.96
468.045	1191.92
468.417	1181.3
468.789	1162.54
469.161	1170
469.534	1218.58
469.906	1224.01
470.278	1225.36
470.65	1230.56
471.022	1279.6
471.394	1280.73
471.766	1289.99
472.138	1344.91
472.51	1346.49
472.882	1359.37
473.253	1380.84
473.625	1383.33
473.997	1407.05
474.369	1413.15
474.74	1444.34
475.112	1449.99
475.484	1490.89
475.855	1470.78
476.227	1525.92
476.598	1542.64
476.97	1561.63
477.341	1598.46
477.713	1614.28
478.084	1639.82
478.455	1659.93
478.827	1700.15
479.198	1762.75
479.569	1762.52
479.94	1782.86
480.311	1811.79
480.682	1857.89
481.053	1873.71
481.424	1916.64
481.795	1915.74
482.166	2006.13
482.537	2022.86
482.908	2034.38
483.279	2075.51
483.65	2127.49
484.021	2157.54
484.391	2162.29
484.762	2177.43
485.133	2199.8
485.503	2275.05
485.874	2300.36
486.244	2352.11
486.615	2369.29
486.985	2422.17
487.356	2459.68
487.726	2449.74
488.097	2532
488.467	2509.62
488.837	2597.08
489.207	2605.67
489.578	2662.61
489.948	2663.97
490.318	2729.5
490.688	2731.31
491.058	2782.16
491.428	2814.7
491.798	2819.67
492.168	2877.07
492.538	2903.51
492.908	2948.48
493.278	2998.2
493.648	2950.74
494.017	3043.62
494.387	3073.9
494.757	3113
495.126	3147.8
495.496	3110.51
495.866	3166.56
496.235	3214.46
496.605	3251.3
496.974	3257.4
497.344	3243.84
497.713	3293.78
498.082	3361.8
498.452	3392.54
498.821	3337.4
499.19	3397.28
499.559	3440.67
499.928	3430.73
500.298	3472.08
500.667	3495.36
501.036	3504.17
501.405	3533.55
501.774	3508.02
502.143	3566.32
502.512	3587.11
502.88	3607.67
503.249	3675.69
503.618	3646.99
503.987	3653.1
504.356	3699.2
504.724	3715.47
505.093	3710.72
505.462	3764.96
505.83	3737.84
506.199	3801.57
506.567	3839.53
506.936	3818.06
507.304	3859.19
507.672	3893.09
508.041	3875.46
508.409	3907.1
508.777	3895.58
509.145	3952.75
509.514	3946.65
509.882	3974.22
510.25	3939.64
510.618	4003.37
510.986	3999.3
511.354	4038.85
511.722	4054.44
512.09	4125.4
512.458	4069.58
512.826	4082.46
513.193	4156.13
513.561	4141.22
513.929	4152.52
514.297	4178.51
514.664	4179.86
515.032	4185.51
515.4	4229.8
515.767	4231.61
516.135	4279.29
516.502	4251.72
516.869	4336.47
517.237	4323.13
517.604	4273.64
517.972	4329.46
518.339	4382.79
518.706	4393.87
519.073	4383.92
519.44	4448.1
519.808	4460.08
520.175	4425.28
520.542	4445.17
520.909	4465.96
521.276	4503.02
521.643	4490.59
522.009	4508.44
522.376	4566.52
522.743	4585.95
523.11	4582.56
523.477	4670.47
523.843	4636.57
524.21	4669.57
524.577	4695.78
524.943	4737.14
525.31	4741.2
525.676	4764.93
526.043	4845.83
526.409	4838.38
526.776	4854.19
527.142	4849.9
527.508	4925.38
527.874	4924.93
528.241	4952.95
528.607	4958.37
528.973	4993.85
529.339	4983
529.705	5020.29
530.071	5062.1
530.437	5078.14
530.803	5095.54
531.169	5140.29
531.535	5128.54
531.901	5152.04
532.267	5164.02
532.632	5209.44
532.998	5244.92
533.364	5278.36
533.73	5246.5
534.095	5348.87
534.461	5326.5
534.826	5310.91
535.192	5394.75
535.557	5374.18
535.923	5465.03
536.288	5455.76
536.653	5388.87
537.019	5426.61
537.384	5477.68
537.749	5536.66
538.114	5507.28
538.479	5515.65
538.845	5580.28
539.21	5557.9
539.575	5613.72
539.94	5636.55
540.305	5658.47
540.67	5637
541.034	5694.62
541.399	5703.44
541.764	5698.92
542.129	5743.21
542.494	5744.79
542.858	5766.03
543.223	5808.07
543.587	5858.24
543.952	5866.6
544.316	5911.34
544.681	5889.42
545.045	5950.21
545.41	5964
545.774	5987.72
546.138	5963.09
546.503	6033.82
546.867	6075.63
547.231	6126.03
547.595	6114.73
547.959	6114.5
548.324	6134.39
548.688	6154.73
549.052	6197.21
549.416	6186.81
549.779	6187.94
550.143	6227.94
550.507	6284.89
550.871	6241.5
551.235	6197.66
551.599	6319.01
551.962	6320.14
552.326	6328.73
552.689	6425.23
553.053	6320.82
553.417	6336.42
553.78	6486.47
554.143	6437.2
554.507	6408.73
554.87	6471.1
555.234	6540.7
555.597	6478.56
555.96	6536.86
556.323	6507.26
556.686	6531.66
557.05	6604.66
557.413	6672.9
557.776	6686.69
558.139	6691.89
558.502	6772.79
558.865	6729.17
559.228	6797.65
559.59	6843.07
559.953	6746.12
560.316	6829.74
560.679	6884.88
561.041	6867.93
561.404	6861.37
561.767	6917.19
562.129	6880.13
562.492	6977.08
562.854	6988.38
563.217	6931.88
563.579	7020.69
563.941	7061.82
564.304	7051.2
564.666	7102.5
565.028	7166.9
565.39	7120.58
565.753	7194.02
566.115	7180.46
566.477	7187.24
566.839	7235.15
567.201	7248.71
567.563	7314.47
567.925	7370.51
568.287	7365.77
568.648	7382.26
569.01	7417.52
569.372	7416.39
569.734	7444.63
570.095	7540.68
570.457	7522.15
570.819	7603.73
571.18	7545.42
571.542	7679.2
571.903	7703.61
572.265	7691.63
572.626	7741.8
572.987	7795.36
573.349	7886.66
573.71	7850.95
574.071	7905.87
574.432	7929.59
574.794	8003.04
575.155	8088.01
575.516	8071.96
575.877	8215.69
576.238	8191.06
576.599	8264.73
576.96	8313.09
577.32	8350.6
577.681	8478.51
578.042	8498.62
578.403	8536.36
578.763	8670.14
579.124	8711.95
579.485	8829.46
579.845	8964.82
580.206	8997.59
580.566	9122.78
580.927	9223.8
581.287	9390.8
581.648	9402.55
582.008	9592.83
582.368	9692.03
582.728	9822.88
583.089	9872.37
583.449	9983.1
583.809	10182.19
584.169	10379.02
584.529	10471.9
584.889	10738.11
585.249	10765.45
585.609	10975.16
585.969	11173.8
586.329	11301.48
586.688	11572.21
587.048	11771.53
587.408	11908.25
587.768	12179.2
588.127	12392.98
588.487	12425.97
588.846	12721.11
589.206	12900.08
589.565	13151.83
589.925	13459.39
590.284	13632.49
590.643	13900.74
591.003	14125.59
591.362	14454.85
591.721	14579.59
592.08	14839.92
592.44	15140.7
592.799	15478.1
593.158	15699.11
593.517	15908.14
593.876	16142.03
594.235	16425.87
594.593	16743.15
594.952	16994.21
595.311	17249.12
595.67	17666.96
596.029	17916.9
596.387	18255.2
596.746	18521.18
597.104	18743.09
597.463	19024.22
597.822	19380.59
598.18	19509.85
598.538	19729.74
598.897	20137.41
599.255	20350.06
599.613	20858.29
599.972	20958.4
600.33	21313.2
600.688	21443.59
601.046	21792.96
601.404	22227.3
601.762	22342.1
602.12	22733.95
602.478	22926.26
602.836	23155.86
603.194	23364.67
603.552	23638.33
603.91	23786.35
604.268	24259.33
604.625	24363.74
604.983	24651.19
605.341	24788.36
605.698	25159.88
606.056	25362.36
606.413	25658.17
606.771	26038.5
607.128	26193.29
607.485	26271.94
607.843	26519.84
608.2	26868.98
608.557	27136.55
608.914	27323.43
609.272	27660.6
609.629	27775.17
609.986	28084.77
610.343	28093.58
610.7	28538.32
611.057	28655.38
611.414	28717.3
611.771	28887.01
612.127	29270.05
612.484	29379.65
612.841	29607.67
613.198	29787.1
613.554	29910.94
613.911	30204.71
614.267	30413.52
614.624	30611.26
614.98	30685.15
615.337	30932.15
615.693	31059.16
616.05	31152.71
616.406	31547.73
616.762	31381.41
617.118	31651.91
617.475	31781.4
617.831	31944.78
618.187	32123.08
618.543	32201.95
618.899	32402.17
619.255	32543.86
619.611	32603.75
619.967	32676.29
620.323	32968.94
620.678	33059.78
621.034	33107.01
621.39	33111.76
621.746	33198.31
622.101	33560.78
622.457	33485.08
622.812	33537.73
623.168	33749.03
623.523	33864.51
623.879	34041.45
624.234	33957.16
624.589	34059.75
624.945	34101.56
625.3	34268.56
625.655	34376.81
626.01	34421.1
626.365	34438.28
626.72	34541.55
627.075	34565.5
627.43	34471.95
627.785	34660.64
628.14	34749.68
628.495	34899.05
628.85	34719.17
629.205	34769.34
629.559	35155.54
629.914	34772.05
630.269	35036.45
630.623	34945.61
630.978	34965.27
631.332	35036.23
631.687	35233.73
632.041	35075.55
632.396	35314.86
632.75	35117.35
633.104	35253.85
633.459	35108.54
633.813	35004.81
634.167	35255.88
634.521	35194.41
634.875	35075.09
635.229	35170.01
635.583	35064.7
635.937	35183.57
636.291	35269.67
636.645	35387.4
636.999	35038.94
637.352	35381.53
637.706	35152.15
638.06	35340.62
638.413	35153.74
638.767	35202.55
639.121	35301.53
639.474	35026.28
639.828	35099.73
640.181	35290.68
640.534	35276.22
640.888	35208.88
641.241	34965.72
641.594	35081.65
641.947	35151.48
642.301	35128.2
642.654	35193.96
643.007	35078.94
643.36	35159.39
643.713	34924.36
644.066	35210.68
644.419	34833.07
644.771	34716.46
645.124	34504.26
645.477	34443.25
645.83	34229.02
646.182	34030.83
646.535	34110.15
646.888	34097.49
647.24	33998.29
647.593	34145.4
647.945	34081.9
648.298	34050.26
648.65	33992.19
649.002	33934.56
649.355	33980.43
649.707	34005.52
650.059	34256.59
650.411	34487.54
650.763	34459.97
651.115	34923.01
651.467	34832.39
651.819	34680.53
652.171	34737.25
652.523	34547.42
652.875	34691.15
653.227	34511.04
653.578	34751.94
653.93	34676.46
654.282	34399.63
654.633	34491.38
654.985	34537.03
655.337	34663.58
655.688	34584.26
656.039	34576.8
656.391	34336.36
656.742	34491.38
657.094	34505.17
657.445	34553.07
657.796	34368.22
658.147	34395.56
658.498	34400.31
658.849	34445.96
659.2	34301.1
659.551	34274.89
659.902	34527.54
660.253	34337.04
660.604	34566.63
660.955	34237.6
661.306	34568.89
661.656	34406.64
662.007	34421.55
662.358	34379.52
662.708	34331.61
663.059	34291.61
663.409	34084.84
663.76	34371.16
664.11	34301.1
664.461	34431.04
664.811	34141.79
665.161	34245.29
665.511	34317.15
665.862	34357.83
666.212	34284.38
666.562	34306.98
666.912	34261.78
667.262	34260.2
667.612	34210.48
667.962	34263.36
668.312	34169.36
668.662	34423.36
669.011	34324.61
669.361	34064.27
669.711	34105.4
670.06	34146.53
670.41	34033.54
670.76	34032.86
671.109	34279.86
671.459	34270.14
671.808	34029.92
672.157	34181.33
672.507	33903.6
672.856	33901.79
673.205	34001
673.554	34065.63
673.904	33979.98
674.253	34202.8
674.602	34082.13
674.951	33438.98
675.3	33384.29
675.649	33983.6
675.998	33939.08
676.346	33896.59
676.695	33961.9
677.044	33678.07
677.393	33910.83
677.741	33709.48
678.09	33764.17
678.438	33688.01
678.787	33779.54
679.135	33796.94
679.484	33346.78
679.832	33642.59
680.181	33611.4
680.529	33472.42
680.877	33518.75
681.225	33364.86
681.573	33588.35
681.922	33371.64
682.27	33354.01
682.618	33436.04
682.966	33342.03
683.314	33298.19
683.661	33162.38
684.009	33104.07
684.357	33092.55
684.705	32920.12
685.053	32951.31
685.4	33008.71
685.748	32819.33
686.095	32717.42
686.443	32771.65
686.79	32643.07
687.138	32765.32
687.485	32746.34
687.832	32779.11
688.18	32565.1
688.527	32517.65
688.874	32426.12
689.221	32336.18
689.568	32252.57
689.915	32253.7
690.262	32128.96
690.609	32159.01
690.956	32037.89
691.303	31904.1
691.65	31810.1
691.997	31823.43
692.344	31507.5
692.69	31564.9
693.037	31594.06
693.383	31336.66
693.73	31505.92
694.077	31341.86
694.423	31293.73
694.769	31193.84
695.116	31142.77
695.462	30995.43
695.808	30928.99
696.155	31037.91
696.501	30947.07
696.847	30773.74
697.193	30693.74
697.539	30765.15
697.885	30567.19
698.231	30364.48
698.577	30416.69
698.923	30385.5
699.269	30113.64
699.614	30001.78
699.96	29945.29
700.306	30010.37
700.651	29860.32
700.997	29679.76
701.342	29846.76
701.688	29663.49
702.033	29555.47
702.379	29619.87
702.724	29384.4
703.069	29473.66
703.415	29091.3
703.76	29210.16
704.105	29231.86
704.45	29018.3
704.795	28917.52
705.14	28911.19
705.485	28849.5
705.83	28669.84
706.175	28741.93
706.52	28737.41
706.865	28558.88
707.209	28558.43
707.554	28513.23
707.899	28521.14
708.243	28440.47
708.588	28430.75
708.932	28171.1
709.277	28205.67
709.621	28186.01
709.966	28064.43
710.31	28129.29
710.654	27861.5
710.998	27924.1
711.342	27913.7
711.687	27734.04
712.031	27685.91
712.375	27640.26
712.719	27610.88
713.063	27478.91
713.407	27595.29
713.75	27430.1
714.094	27489.53
714.438	27416.09
714.782	27310.1
715.125	27273.49
715.469	27388.97
715.812	27119.37
716.156	26994.86
716.499	26983.56
716.843	26926.16
717.186	26810.45
717.53	26909.21
717.873	27033.05
718.216	26899.72
718.559	26697.46
718.902	26565.71
719.246	26676.45
719.589	26534.98
719.932	26389.45
720.275	26385.15
720.617	26469.45
720.96	26464.25
721.303	26331.6
721.646	26214.31
721.989	26156.46
722.331	26368.88
722.674	26187.42
723.016	26178.83
723.359	26133.63
723.701	26131.15
724.044	25912.62
724.386	25905.62
724.729	25979.51
725.071	25890.25
725.413	25862.68
725.755	25803.02
726.097	25760.09
726.439	25625.17
726.782	25624.27
727.124	25647.09
727.465	25563.71
727.807	25473.99
728.149	25496.82
728.491	25545.85
728.833	25578.4
729.175	25352.86
729.516	25384.73
729.858	25269.25
730.199	25248.46
730.541	25296.37
730.882	25221.34
731.224	25302.24
731.565	25103.15
731.906	25094.79
732.248	25094.79
732.589	24940.67
732.93	24946.32
733.271	24945.64
733.612	24860
733.953	24881.92
734.294	24798.75
734.635	24778.19
734.976	24927.34
735.317	24758.53
735.658	24648.7
735.999	24711.07
736.339	24692.77
736.68	24716.05
737.021	24645.99
737.361	24398.09
737.702	24616.39
738.042	24484.19
738.383	24467.69
738.723	24487.12
739.063	24353.57
739.404	24401.25
739.744	24353.34
740.084	24297.98
740.424	24362.61
740.764	24296.85
741.104	24300.69
741.444	24147.02
741.784	24072.22
742.124	24127.81
742.464	24063.86
742.804	24017.53
743.143	23911.55
743.483	23961.71
743.823	23864.09
744.162	23806.46
744.502	23848.95
744.841	23842.62
745.181	23803.98
745.52	23787.48
745.86	23774.83
746.199	23593.59
746.538	23738.67
746.877	23751.32
747.216	23666.81
747.556	23624.77
747.895	23591.1
748.234	23466.59
748.573	23413.71
748.911	23426.81
749.25	23349.98
749.589	23355.18
749.928	23344.56
750.267	23379.36
750.605	23362.41
750.944	23357.66
751.283	23207.84
751.621	23237.21
751.96	22997.67
752.298	23073.15
752.636	23078.12
752.975	22982.53
753.313	22929.65
753.651	23035.19
753.989	22827.96
754.327	22791.35
754.666	22804
755.004	22770.56
755.342	22792.93
755.679	22700.05
756.017	22535.09
756.355	22562.43
756.693	22562.2
757.031	22512.71
757.368	22473.62
757.706	22404.92
758.044	22332.6
758.381	22353.4
758.719	22273.62
759.056	22240.4
759.394	22098.26
759.731	22027.53
760.068	21998.15
760.405	21881.32
760.743	21924.25
761.08	21885.16
761.417	21787.53
761.754	21804.26
