Data from hue_28_FLMS001491_00029.txt Node
Date: Tue Feb 07 17:17:04 GMT 2017
User: dcchb
Spectrometer: FLMS00149
Trigger mode: 0
Integration Time (sec): 2.000000E-2
Scans to average: 10
Electric dark correction enabled: true
Nonlinearity correction enabled: false
Boxcar width: 0
XAxis mode: Wavelengths
Number of Pixels in Spectrum: 2048
>>>>>Begin Spectral Data<<<<<
341.393	-37.24
341.776	-37.24
342.16	-37.24
342.543	-65.04
342.927	-60.97
343.31	-64.59
343.693	-69.33
344.077	-65.04
344.46	-71.14
344.843	-63.68
345.226	-55.55
345.61	-31.37
345.993	-19.84
346.376	-13.52
346.759	14.51
347.142	35.97
347.525	45.24
347.908	48.18
348.291	85.01
348.674	96.09
349.057	129.08
349.44	124.33
349.823	121.17
350.206	171.11
350.588	189.19
350.971	224.22
351.354	235.74
351.737	242.3
352.119	240.94
352.502	245.23
352.884	274.39
353.267	279.36
353.65	287.27
354.032	331.11
354.414	287.27
354.797	311.22
355.179	322.29
355.562	312.8
355.944	326.59
356.326	340.37
356.709	336.76
357.091	326.36
357.473	315.74
357.855	324.33
358.238	351.67
358.62	358.68
359.002	336.76
359.384	357.77
359.766	336.08
360.148	316.42
360.53	341.95
360.912	329.75
361.294	341.05
361.676	343.31
362.057	330.66
362.439	332.24
362.821	325.46
363.203	361.84
363.584	328.62
363.966	325.91
364.348	326.14
364.729	331.11
365.111	300.37
365.493	316.42
365.874	304.22
366.256	313.25
366.637	302.63
367.019	330.66
367.4	329.07
367.781	288.85
368.163	290.88
368.544	313.93
368.925	315.74
369.306	329.3
369.688	320.49
370.069	332.46
370.45	315.74
370.831	332.24
371.212	299.24
371.593	308.51
371.974	314.84
372.355	329.75
372.736	334.72
373.117	322.29
373.498	305.57
373.879	305.12
374.26	324.55
374.641	320.03
375.021	308.28
375.402	309.64
375.783	328.85
376.163	321.39
376.544	312.12
376.925	330.88
377.305	330.43
377.686	324.33
378.066	334.95
378.447	351.9
378.827	332.01
379.208	323.42
379.588	320.03
379.968	327.94
380.349	326.81
380.729	306.02
381.109	337.43
381.489	329.53
381.87	338.11
382.25	353.93
382.63	340.15
383.01	347.83
383.39	347.83
383.77	345.12
384.15	353.93
384.53	352.8
384.91	329.98
385.29	344.89
385.67	365.46
386.049	350.99
386.429	338.34
386.809	367.49
387.189	338.34
387.568	370.2
387.948	367.49
388.328	365
388.707	361.16
389.087	384.89
389.466	371.78
389.846	362.74
390.225	368.62
390.605	351.67
390.984	362.52
391.363	371.11
391.743	388.28
392.122	359.58
392.501	371.11
392.881	388.51
393.26	372.01
393.639	400.26
394.018	380.37
394.397	390.09
394.776	384.21
395.155	403.2
395.534	375.85
395.913	383.31
396.292	399.35
396.671	378.56
397.05	414.27
397.429	380.6
397.808	377.66
398.186	399.58
398.565	401.16
398.944	407.26
399.323	381.05
399.701	398.68
400.08	395.29
400.458	422.63
400.837	422.86
401.215	411.33
401.594	394.16
401.972	405.46
402.351	394.38
402.729	415.17
403.107	413.59
403.486	419.47
403.864	419.92
404.242	425.12
404.62	440.26
404.999	419.24
405.377	429.41
405.755	428.51
406.133	437.77
406.511	440.71
406.889	437.54
407.267	445.68
407.645	470.76
408.023	418.56
408.401	460.14
408.779	466.7
409.156	462.4
409.534	443.87
409.912	479.8
410.29	455.17
410.667	453.82
411.045	452.01
411.422	471.22
411.8	492.68
412.178	485.45
412.555	506.24
412.933	489.3
413.31	485.45
413.687	503.08
414.065	508.28
414.442	507.37
414.819	515.06
415.197	513.25
415.574	496.3
415.951	517.09
416.328	515.96
416.705	518.22
417.082	501.05
417.46	524.55
417.837	516.86
418.214	532.23
418.591	528.16
418.967	528.62
419.344	564.1
419.721	556.86
420.098	545.79
420.475	540.82
420.852	546.92
421.228	556.86
421.605	551.67
421.982	554.83
422.358	560.25
422.735	560.48
423.111	583.08
423.488	573.36
423.864	594.38
424.241	585.34
424.617	583.76
424.994	588.5
425.37	554.15
425.746	577.88
426.123	594.6
426.499	586.02
426.875	595.51
427.251	589.18
427.627	616.52
428.003	623.75
428.379	633.92
428.756	632.79
429.132	645.68
429.507	640.48
429.883	633.92
430.259	665.79
430.635	672.12
431.011	666.69
431.387	664.88
431.763	679.57
432.138	664.21
432.514	675.05
432.89	689.97
433.265	713.02
433.641	686.35
434.016	701.27
434.392	708.27
434.767	711.44
435.143	748.27
435.518	734.71
435.894	708.27
436.269	736.29
436.644	742.85
437.02	763.19
437.395	782.39
437.77	780.13
438.145	758.89
438.52	778.78
438.895	742.85
439.271	769.74
439.646	797.08
440.021	808.61
440.395	801.38
440.77	823.07
441.145	833.24
441.52	821.94
441.895	816.52
442.27	817.42
442.645	827.59
443.019	819.46
443.394	846.35
443.769	841.15
444.143	859.45
444.518	878.21
444.892	871.21
445.267	872.79
445.641	891.09
446.016	882.28
446.39	884.99
446.764	900.13
447.139	894.03
447.513	892
447.887	897.65
448.262	871.43
448.636	898.32
449.01	917.08
449.384	927.02
449.758	943.29
450.132	931.09
450.506	931.77
450.88	932.9
451.254	956.4
451.628	967.47
452.002	976.97
452.376	960.02
452.75	1001.15
453.123	1006.12
453.497	970.41
453.871	971.77
454.244	990.75
454.618	1008.6
454.992	1020.81
455.365	1019.9
455.739	1059.45
456.112	1083.4
456.486	1099
456.859	1088.6
457.232	1106.68
457.606	1102.16
457.979	1125.44
458.352	1110.3
458.725	1155.27
459.099	1127.02
459.472	1163.63
459.845	1179.45
460.218	1195.49
460.591	1211.54
460.964	1224.87
461.337	1219.45
461.71	1260.35
462.083	1253.12
462.456	1253.12
462.829	1255.6
463.201	1287.24
463.574	1296.73
463.947	1296.73
464.32	1344.19
464.692	1373.34
465.065	1353.68
465.438	1410.63
465.81	1393.68
466.183	1399.78
466.555	1465.99
466.928	1444.98
467.3	1456.73
467.672	1487.23
468.045	1485.2
468.417	1536.27
468.789	1517.52
469.161	1534.47
469.534	1574.01
469.906	1574.46
470.278	1627.57
470.65	1643.39
471.022	1651.52
471.394	1711.64
471.766	1711.64
472.138	1739.43
472.51	1782.82
472.882	1807
473.253	1793.22
473.625	1861.01
473.997	1894
474.369	1889.94
474.74	1953.89
475.112	1974.23
475.484	2007.45
475.855	2019.65
476.227	2065.3
476.598	2126.31
476.97	2139.42
477.341	2200.89
477.713	2230.49
478.084	2282.24
478.455	2287.67
478.827	2338.96
479.198	2418.51
479.569	2442.69
479.94	2482.01
480.311	2480.88
480.682	2605.62
481.053	2646.07
481.424	2655.57
481.795	2704.83
482.166	2789.12
482.537	2819.63
482.908	2923.81
483.279	2932.85
483.65	2941.66
484.021	3050.81
484.391	3095.1
484.762	3118.38
485.133	3169.9
485.503	3239.96
485.874	3349.56
486.244	3385.94
486.615	3460.97
486.985	3437.01
487.356	3560.63
487.726	3542.77
488.097	3678.14
488.467	3719.94
488.837	3781.64
489.207	3869.09
489.578	3892.37
489.948	3947.96
490.318	4018.02
490.688	4063.44
491.058	4140.05
491.428	4239.25
491.798	4248.29
492.168	4346.37
492.538	4355.41
492.908	4443.09
493.278	4479.47
493.648	4479.92
494.017	4601.05
494.387	4620.71
494.757	4697.09
495.126	4765.57
495.496	4761.95
495.866	4786.13
496.235	4858.67
496.605	4903.87
496.974	5004.66
497.344	4977.54
497.713	5085.56
498.082	5084.88
498.452	5165.1
498.821	5185.44
499.19	5207.36
499.559	5255.5
499.928	5298.21
500.298	5320.58
500.667	5368.71
501.036	5401.26
501.405	5486
501.774	5433.57
502.143	5523.06
502.512	5614.81
502.88	5639.22
503.249	5639.89
503.618	5646.9
503.987	5691.42
504.356	5760.57
504.724	5759.21
505.093	5799.66
505.462	5839.21
505.83	5913.33
506.199	5876.5
506.567	6005.08
506.936	5951.3
507.304	6037.62
507.672	6048.92
508.041	6055.02
508.409	6066.32
508.777	6138.19
509.145	6179.09
509.514	6254.57
509.882	6229.94
510.25	6247.11
510.618	6295.7
510.986	6297.05
511.354	6343.83
511.722	6445.3
512.09	6444.62
512.458	6471.06
512.826	6508.8
513.193	6518.29
513.561	6543.83
513.929	6606.65
514.297	6648.68
514.664	6690.71
515.032	6741.79
515.4	6758.28
515.767	6800.54
516.135	6797.15
516.502	6787.21
516.869	6852.29
517.237	6929.58
517.604	6860.43
517.972	6928
518.339	6951.72
518.706	6970.03
519.073	6997.82
519.44	7061.33
519.808	7165.28
520.175	7093.19
520.542	7198.5
520.909	7236.46
521.276	7219.51
521.643	7293.64
522.009	7294.31
522.376	7356.23
522.743	7386.74
523.11	7510.58
523.477	7505.38
523.843	7520.97
524.21	7627.86
524.577	7601.88
524.943	7693.85
525.31	7702.21
525.676	7823.79
526.043	7815.43
526.409	7805.26
526.776	7919.83
527.142	7981.3
527.508	7965.48
527.874	8093.16
528.241	8074.63
528.607	8121.41
528.973	8142.65
529.339	8120.05
529.705	8272.82
530.071	8311.01
530.437	8313.95
530.803	8356.21
531.169	8413.38
531.535	8400.95
531.901	8472.81
532.267	8531.34
532.632	8561.17
532.998	8596.88
533.364	8675.07
533.73	8616.54
534.095	8671.23
534.461	8772.47
534.826	8746.93
535.192	8817.21
535.557	8868.06
535.923	8893.82
536.288	8900.15
536.653	8988.51
537.019	8918.68
537.384	8950.77
537.749	9065.34
538.114	9111.22
538.479	9122.29
538.845	9125.68
539.21	9128.84
539.575	9225.11
539.94	9229.4
540.305	9217.65
540.67	9288.84
541.034	9376.97
541.399	9394.37
541.764	9398.21
542.129	9428.04
542.494	9543.75
542.858	9594.82
543.223	9480.25
543.587	9700.58
543.952	9598.66
544.316	9685.21
544.681	9683.4
545.045	9759.11
545.41	9834.13
545.774	9762.72
546.138	9835.49
546.503	9880.01
546.867	9862.83
547.231	9968.82
547.595	10005.2
547.959	10119.55
548.324	10099.21
548.688	10048.37
549.052	10115.48
549.416	10120.23
549.779	10138.31
550.143	10172.2
550.507	10269.6
550.871	10313.67
551.235	10252.88
551.599	10354.35
551.962	10402.48
552.326	10411.52
552.689	10506.21
553.053	10424.4
553.417	10537.17
553.78	10717.5
554.143	10556.37
554.507	10567
554.87	10701.68
555.234	10713.66
555.597	10771.51
555.96	10749.82
556.323	10871.17
556.686	10800.21
557.05	10836.14
557.413	10915.46
557.776	10872.3
558.139	10945.29
558.502	10977.83
558.865	11092.41
559.228	11099.41
559.59	11100.32
559.953	11110.26
560.316	11252.4
560.679	11241.55
561.041	11287.43
561.404	11338.73
561.767	11418.05
562.129	11338.28
562.492	11420.99
562.854	11479.74
563.217	11492.4
563.579	11472.28
563.941	11570.81
564.304	11697.81
564.666	11625.5
565.028	11733.29
565.39	11796.12
565.753	11802.67
566.115	11846.96
566.477	11948.43
566.839	11871.59
567.201	11987.3
567.563	12037.92
567.925	12070.23
568.287	12150.68
568.648	12133.06
569.01	12213.28
569.372	12333.96
569.734	12239.27
570.095	12359.49
570.457	12497.11
570.819	12523.1
571.18	12515.19
571.542	12514.06
571.903	12567.4
572.265	12613.04
572.626	12663.44
572.987	12733.27
573.349	12824.11
573.71	12869.08
574.071	12971.45
574.432	13058.91
574.794	13196.53
575.155	13195.63
575.516	13171.45
575.877	13300.48
576.238	13412.57
576.599	13470.42
576.96	13432.46
577.32	13620.48
577.681	13678.1
578.042	13825.22
578.403	13906.8
578.763	14027.92
579.124	14078.77
579.485	14300.68
579.845	14386.78
580.206	14482.37
580.566	14562.82
580.927	14736.15
581.287	14856.37
581.648	14976.15
582.008	15160.1
582.368	15264.27
582.728	15488.45
583.089	15598.05
583.449	15800.53
583.809	16069.9
584.169	16118.71
584.529	16332.72
584.889	16626.27
585.249	16740.17
585.609	16883.67
585.969	17174.05
586.329	17385.8
586.688	17649.97
587.048	17891.78
587.408	18095.84
587.768	18295.38
588.127	18444.08
588.487	18741.02
588.846	19193.89
589.206	19210.84
589.565	19417.84
589.925	19895.79
590.284	19988.67
590.643	20481.76
591.003	20690.35
591.362	21119.04
591.721	21161.52
592.08	21594.28
592.44	21856.19
592.799	22042.63
593.158	22329.17
593.517	22714.25
593.876	23037.4
594.235	23269.49
594.593	23659.08
594.952	23895.69
595.311	24163.7
595.67	24490.02
596.029	24932.04
596.387	25190.79
596.746	25568.41
597.104	25654.96
597.463	25826.71
597.822	26382.85
598.18	26564.54
598.538	26870.52
598.897	27210.85
599.255	27455.82
599.613	28112.98
599.972	28128.79
600.33	28450.14
600.688	28725.61
601.046	29124.02
601.404	29341.19
601.762	29547.06
602.12	30144.33
602.478	30268.63
602.836	30496.19
603.194	30637.43
603.552	31039.23
603.91	31046.68
604.268	31579.78
604.625	31767.12
604.983	32130.72
605.341	32154
605.698	32615.91
606.056	32890.48
606.413	32959.18
606.771	33449.78
607.128	33667.18
607.485	33811.81
607.843	33960.51
608.2	34383.09
608.557	34587.16
608.914	34779.47
609.272	35069.4
609.629	35397.08
609.986	35684.08
610.343	35625.55
610.7	36148.92
611.057	36117.74
611.414	36411.06
611.771	36511.4
612.127	36891.5
612.484	37050.82
612.841	37358.16
613.198	37235.22
613.554	37518.83
613.911	37857.8
614.267	38003.11
614.624	38157.01
614.98	38378.69
615.337	38653.49
615.693	38725.58
616.05	38855.74
616.406	39300.7
616.762	39308.16
617.118	39472
617.475	39574.37
617.831	39809.62
618.187	39894.59
618.543	39991.31
618.899	40184.75
619.255	40388.81
619.611	40444.85
619.967	40601.23
620.323	40731.63
620.678	40775.02
621.034	40853.66
621.39	40919.19
621.746	41049.36
622.101	41460.42
622.457	41265.62
622.812	41403.25
623.168	41530.48
623.523	41721.66
623.879	41879.17
624.234	41605.5
624.589	41840.98
624.945	41978.6
625.3	42077.13
625.655	42088.88
626.01	42269.44
626.365	42342.88
626.72	42350.34
627.075	42370.91
627.43	42533.61
627.785	42391.7
628.14	42626.27
628.495	42615.87
628.85	42573.39
629.205	42449.77
629.559	42763.44
629.914	42667.85
630.269	42896.99
630.623	42668.98
630.978	42867.39
631.332	42998.46
631.687	43209.53
632.041	42933.38
632.396	43144.44
632.75	43043.66
633.104	43054.28
633.459	42901.97
633.813	42923.21
634.167	42979.03
634.521	42904.22
634.875	43125.69
635.229	43088.4
635.583	42851.8
635.937	42914.39
636.291	42936.99
636.645	42965.01
636.999	42828.29
637.352	43057.89
637.706	42799.14
638.06	43023.09
638.413	42828.07
638.767	42851.8
639.121	42964.79
639.474	42725.47
639.828	42857.45
640.181	43029.19
640.534	42917.11
640.888	42822.87
641.241	42733.38
641.594	42862.64
641.947	43039.81
642.301	42725.02
642.654	42918.46
643.007	42914.85
643.36	42887.73
643.713	42815.19
644.066	42894.51
644.419	42727.51
644.771	42492.03
645.124	42155.77
645.477	42092.72
645.83	41871.71
646.182	41601.66
646.535	41682.56
646.888	41660.64
647.24	41458.16
647.593	41739.06
647.945	41547.42
648.298	41518.27
648.65	41605.28
649.002	41322.35
649.355	41559.18
649.707	41494.77
650.059	41670.36
650.411	42022.44
650.763	42149.89
651.115	42544.23
651.467	42386.27
651.819	42456.1
652.171	42284.58
652.523	42350.34
652.875	42305.82
653.227	42137.69
653.578	42445.03
653.93	42306.95
654.282	42212.72
654.633	42077.35
654.985	42209.1
655.337	42261.3
655.688	42139.95
656.039	42390.57
656.391	42049.33
656.742	42135.21
657.094	42074.42
657.445	42257.91
657.796	42120.74
658.147	42138.37
658.498	42099.27
658.849	42147.18
659.2	42114.87
659.551	42026.51
659.902	42164.36
660.253	42024.7
660.604	42153.06
660.955	41878.94
661.306	42068.99
661.656	42012.95
662.007	42000.07
662.358	42059.5
662.708	42019.28
663.059	41938.83
663.409	41739.51
663.76	42103.34
664.11	41992.84
664.461	42003.01
664.811	41944.25
665.161	42075.32
665.511	41950.8
665.862	41924.36
666.212	42041.2
666.562	42025.15
666.912	41802.11
667.262	41889.79
667.612	41795.78
667.962	41961.42
668.312	41954.42
668.662	42059.05
669.011	41846.85
669.361	41853.63
669.711	41990.12
670.06	41965.72
670.41	41778.6
670.76	41876
671.109	41803.01
671.459	41660.19
671.808	41645.5
672.157	41869.45
672.507	41460.87
672.856	41660.87
673.205	41557.82
673.554	41758.72
673.904	41604.82
674.253	41794.65
674.602	41648.21
674.951	41054.1
675.3	40800.33
675.649	41453.42
675.998	41445.05
676.346	41361.67
676.695	41656.35
677.044	41199.64
677.393	41336.81
677.741	41522.34
678.09	41324.38
678.438	41203.93
678.787	41398.05
679.135	41252.97
679.484	41006.2
679.832	41239.86
680.181	41011.62
680.529	41212.74
680.877	41023.14
681.225	41073.99
681.573	41198.73
681.922	40901.79
682.27	40894.33
682.618	41013.65
682.966	40809.14
683.314	41007.55
683.661	40827.67
684.009	40666.77
684.357	40737.28
684.705	40464.29
685.053	40483.27
685.4	40432.88
685.748	40237.4
686.095	40203.96
686.443	40084.19
686.79	39973
687.138	40010.29
687.485	40053
687.832	39827.47
688.18	40007.35
688.527	39673.12
688.874	39904.3
689.221	39611.43
689.568	39624.31
689.915	39431.77
690.262	39423.19
690.609	39382.74
690.956	39180.93
691.303	39023.2
691.65	39001.28
691.997	39113.36
692.344	38855.74
692.69	38906.82
693.037	38846.03
693.383	38446.26
693.73	38636.54
694.077	38374.17
694.423	38538.01
694.769	38387.28
695.116	38252.82
695.462	38212.6
695.808	38154.97
696.155	38078.59
696.501	37973.51
696.847	37776.45
697.193	37658.49
697.539	37724.25
697.885	37350.02
698.231	37313.86
698.577	37268.44
698.923	37330.81
699.269	37077.26
699.614	37039.52
699.96	36972.18
700.306	36978.73
700.651	36745.74
700.997	36611.28
701.342	36491.06
701.688	36599.08
702.033	36595.01
702.379	36377.39
702.724	36336.71
703.069	36485.18
703.415	36077.96
703.76	36199.77
704.105	36187.34
704.45	36050.62
704.795	35762.72
705.14	35657.41
705.485	35605.43
705.83	35395.27
706.175	35495.15
706.52	35346.46
706.865	35213.13
707.209	35381.71
707.554	35188.72
707.899	35284.76
708.243	34914.6
708.588	34957.77
708.932	34868.05
709.277	34897.66
709.621	34775.85
709.966	34555.07
710.31	34658.57
710.654	34400.72
710.998	34424.45
711.342	34473.03
711.687	34330.67
712.031	34042.54
712.375	34034.63
712.719	34142.42
713.063	33965.93
713.407	34197.79
713.75	33871.02
714.094	33842.99
714.438	33745.82
714.782	33741.75
715.125	33548.31
715.469	33739.27
715.812	33592.83
716.156	33355.32
716.499	33376.57
716.843	33520.97
717.186	33235.78
717.53	33414.76
717.873	33252.28
718.216	33156.01
718.559	33029.46
718.902	32918.05
719.246	32990.14
719.589	32850.93
719.932	32601.45
720.275	32723.7
720.617	32791.95
720.96	32630.82
721.303	32548.34
721.646	32628.11
721.989	32301.79
722.331	32502.01
722.674	32384.5
723.016	32394.67
723.359	32233.32
723.701	32348.34
724.044	32084.62
724.386	32016.15
724.729	32244.17
725.071	32115.81
725.413	31988.81
725.755	31981.57
726.097	31982.93
726.439	31756.04
726.782	31696.61
727.124	31795.59
727.465	31703.62
727.807	31668.36
728.149	31607.8
728.491	31447.58
728.833	31563.28
729.175	31471.31
729.516	31369.84
729.858	31433.79
730.199	31438.99
730.541	31358.31
730.882	31283.74
731.224	31287.58
731.565	31076.06
731.906	31192.89
732.248	31224.08
732.589	30935.5
732.93	30793.81
733.271	30912
733.612	31003.29
733.953	30938.66
734.294	30813.24
734.635	30657.77
734.976	30758.33
735.317	30547.49
735.658	30596.3
735.999	30580.03
736.339	30503.2
736.68	30579.8
737.021	30481.73
737.361	30361.28
737.702	30487.83
738.042	30429.07
738.383	30381.84
738.723	30463.2
739.063	30252.81
739.404	30367.83
739.744	30122.19
740.084	30159.48
740.424	30149.98
740.764	30112.24
741.104	30207.84
741.444	29969.88
741.784	29760.16
742.124	29911.57
742.464	29812.37
742.804	29801.97
743.143	29668.19
743.483	29674.29
743.823	29555.65
744.162	29475.43
744.502	29622.31
744.841	29500.96
745.181	29511.58
745.52	29464.13
745.86	29466.84
746.199	29328.99
746.538	29351.36
746.877	29338.25
747.216	29344.36
747.556	29294.64
747.895	29293.51
748.234	29065.27
748.573	29133.51
748.911	29050.58
749.25	29104.59
749.589	28908.66
749.928	29085.38
750.267	29058.71
750.605	28902.33
750.944	28947.98
751.283	28800.87
751.621	28883.35
751.96	28717.71
752.298	28629.12
752.636	28650.36
752.975	28536.92
753.313	28443.14
753.651	28647.65
753.989	28335.57
754.327	28387.54
754.666	28266.64
755.004	28296.7
755.342	28299.19
755.679	28215.35
756.017	27999.31
756.355	28159.3
756.693	27990.04
757.031	28139.42
757.368	27792.53
757.706	27776.49
758.044	27791.63
758.381	27783.49
758.719	27716.83
