Data from hue_180_FLMS001491_00055.txt Node
Date: Tue Feb 07 16:47:11 GMT 2017
User: dcchb
Spectrometer: FLMS00149
Trigger mode: 0
Integration Time (sec): 2.000000E-2
Scans to average: 10
Electric dark correction enabled: true
Nonlinearity correction enabled: false
Boxcar width: 0
XAxis mode: Wavelengths
Number of Pixels in Spectrum: 2048
>>>>>Begin Spectral Data<<<<<
341.393	-24.08
341.776	-24.08
342.16	-24.08
342.543	-54.81
342.927	-74.93
343.31	-84.87
343.693	-69.73
344.077	-61.82
344.46	-73.35
344.843	-58.88
345.226	-38.09
345.61	-40.8
345.993	-15.95
346.376	2.13
346.759	30.15
347.142	24.73
347.525	42.81
347.908	61.57
348.291	70.61
348.674	83.94
349.057	127.55
349.44	116.03
349.823	148.12
350.206	185.86
350.588	193.77
350.971	217.95
351.354	207.55
351.737	222.47
352.119	241.9
352.502	254.1
352.884	258.85
353.267	274.44
353.65	271.96
354.032	287.1
354.414	316.02
354.797	309.24
355.179	342.24
355.562	307.89
355.944	339.07
356.326	311.73
356.709	334.33
357.091	335.01
357.473	358.96
357.855	340.65
358.238	347.21
358.62	322.35
359.002	319.64
359.384	324.38
359.766	320.54
360.148	317.6
360.53	333.2
360.912	336.81
361.294	334.78
361.676	331.39
362.057	333.42
362.439	336.59
362.821	336.81
363.203	329.81
363.584	302.46
363.966	311.5
364.348	318.73
364.729	318.06
365.111	322.58
365.493	319.64
365.874	313.08
366.256	296.59
366.637	315.12
367.019	288.9
367.4	315.34
367.781	303.59
368.163	319.19
368.544	296.81
368.925	309.92
369.306	309.24
369.688	325.51
370.069	304.27
370.45	289.13
370.831	309.24
371.212	294.33
371.593	301.56
371.974	317.15
372.355	302.46
372.736	286.87
373.117	295.91
373.498	299.07
373.879	305.63
374.26	292.52
374.641	322.12
375.021	317.83
375.402	304.05
375.783	310.83
376.163	307.66
376.544	315.12
376.925	319.19
377.305	299.3
377.686	308.79
378.066	318.06
378.447	339.3
378.827	317.6
379.208	335.46
379.588	323.25
379.968	304.95
380.349	306.31
380.729	325.97
381.109	320.32
381.489	326.42
381.87	341.11
382.25	350.6
382.63	339.3
383.01	327.32
383.39	338.17
383.77	319.86
384.15	325.51
384.53	329.81
384.91	329.36
385.29	350.6
385.67	346.08
386.049	351.73
386.429	342.01
386.809	335.23
387.189	336.59
387.568	339.3
387.948	351.5
388.328	352.63
388.707	343.82
389.087	346.3
389.466	370.71
389.846	364.61
390.225	343.37
390.605	364.38
390.984	337.94
391.363	368.68
391.743	366.87
392.122	352.63
392.501	366.64
392.881	357.83
393.26	356.25
393.639	352.41
394.018	368.9
394.397	370.94
394.776	365.74
395.155	373.87
395.534	383.59
395.913	377.04
396.292	368
396.671	372.74
397.05	370.71
397.429	369.13
397.808	392.86
398.186	399.64
398.565	388.56
398.944	390.15
399.323	402.35
399.701	389.24
400.08	415.68
400.458	398.96
400.837	399.41
401.215	394.66
401.594	415.46
401.972	412.52
402.351	417.04
402.729	410.26
403.107	421.1
403.486	408.68
403.864	432.18
404.242	410.94
404.62	418.62
404.999	416.81
405.377	424.04
405.755	450.93
406.133	448.22
406.511	454.32
406.889	422.69
407.267	444.38
407.645	461.1
408.023	470.37
408.401	471.72
408.779	450.03
409.156	467.66
409.534	452.74
409.912	485.74
410.29	511.72
410.667	488.9
411.045	511.05
411.422	509.01
411.8	511.5
412.178	520.09
412.555	530.03
412.933	533.87
413.31	532.51
413.687	568.67
414.065	557.6
414.442	563.02
414.819	572.74
415.197	560.31
415.574	577.03
415.951	548.79
416.328	581.55
416.705	640.31
417.082	615.9
417.46	617.48
417.837	629.69
418.214	638.73
418.591	651.16
418.967	669.91
419.344	660.42
419.721	654.09
420.098	659.52
420.475	670.82
420.852	693.64
421.228	708.55
421.605	721.21
421.982	712.62
422.358	715.79
422.735	722.11
423.111	731.38
423.488	772.96
423.864	729.12
424.241	791.94
424.617	789.68
424.994	792.85
425.37	788.1
425.746	825.61
426.123	837.82
426.499	855.9
426.875	845.05
427.251	860.19
427.627	879.17
428.003	856.8
428.379	888.21
428.756	898.15
429.132	911.94
429.507	916.46
429.883	944.48
430.259	918.94
430.635	966.4
431.011	939.28
431.387	989.68
431.763	982.45
432.138	990.58
432.514	1011.6
432.89	993.07
433.265	1049.11
433.641	1055.66
434.016	1059.73
434.392	1097.7
434.767	1087.98
435.143	1103.35
435.518	1140.63
435.894	1154.19
436.269	1173.4
436.644	1182.44
437.02	1219.5
437.395	1204.14
437.77	1223.8
438.145	1257.69
438.52	1266.28
438.895	1303.34
439.271	1278.03
439.646	1349.89
440.021	1341.76
440.395	1354.87
440.77	1355.77
441.145	1365.26
441.52	1396.45
441.895	1397.35
442.27	1443.9
442.645	1429.44
443.019	1450.23
443.394	1444.81
443.769	1488.87
444.143	1474.18
444.518	1494.75
444.892	1520.28
445.267	1541.53
445.641	1560.74
446.016	1517.57
446.39	1563.67
446.764	1592.15
447.139	1595.54
447.513	1620.4
447.887	1614.97
448.262	1605.93
448.636	1610.45
449.01	1684.57
449.384	1645.25
449.758	1665.59
450.132	1683.22
450.506	1703.1
450.88	1739.71
451.254	1745.14
451.628	1762.31
452.002	1807.28
452.376	1827.85
452.75	1800.5
453.123	1811.8
453.497	1830.56
453.871	1856.77
454.244	1896.55
454.618	1923.66
454.992	1965.02
455.365	1933.83
455.739	1988.97
456.112	2006.6
456.486	2032.59
456.859	2052.47
457.232	2108.07
457.606	2078.69
457.979	2081.85
458.352	2189.87
458.725	2213.83
459.099	2193.49
459.472	2236.88
459.845	2282.07
460.218	2271.9
460.591	2318.68
460.964	2321.17
461.337	2411.79
461.71	2436.64
462.083	2442.29
462.456	2421.96
462.829	2483.65
463.201	2511.9
463.574	2533.14
463.947	2621.27
464.32	2624.66
464.692	2687.71
465.065	2703.08
465.438	2708.05
465.81	2773.81
466.183	2788.27
466.555	2856.52
466.928	2873.24
467.3	2884.09
467.672	2932
468.045	3025.1
468.417	3039.34
468.789	3036.4
469.161	3088.15
469.534	3136.97
469.906	3189.17
470.278	3248.38
470.65	3295.15
471.022	3331.54
471.394	3405.66
471.766	3498.31
472.138	3479.56
472.51	3584.41
472.882	3645.2
473.253	3662.83
473.625	3800
473.997	3818.98
474.369	3912.09
474.74	3915.25
475.112	4040.67
475.484	4070.05
475.855	4163.61
476.227	4194.79
476.598	4322.47
476.97	4353.88
477.341	4501.9
477.713	4544.16
478.084	4617.38
478.455	4748.67
478.827	4781.89
479.198	4891.72
479.569	4933.75
479.94	5137.36
480.311	5160.87
480.682	5288.77
481.053	5420.52
481.424	5494.87
481.795	5571.03
482.166	5683.79
482.537	5752.49
482.908	5855.76
483.279	5930.56
483.65	6111.35
484.021	6185.02
484.391	6296.88
484.762	6373.04
485.133	6445.58
485.503	6520.38
485.874	6748.62
486.244	6814.38
486.615	6888.51
486.985	6993.36
487.356	7179.57
487.726	7190.19
488.097	7401.26
488.467	7434.71
488.837	7607.36
489.207	7653.91
489.578	7817.75
489.948	7887.12
490.318	8059.32
490.688	8097.97
491.058	8167.12
491.428	8368.24
491.798	8468.12
492.168	8575.92
492.538	8629.7
492.908	8697.27
493.278	8863.37
493.648	8936.14
494.017	8935.46
494.387	9050.71
494.757	9145.4
495.126	9285.96
495.496	9220.65
495.866	9352.4
496.235	9458.16
496.605	9553.07
496.974	9559.17
497.344	9677.13
497.713	9716.68
498.082	9744.93
498.452	9899.05
498.821	9903.57
499.19	9943.11
499.559	10036.22
499.928	10040.06
500.298	10184.46
500.667	10209.77
501.036	10166.61
501.405	10320.28
501.774	10368.19
502.143	10463.55
502.512	10416.77
502.88	10519.14
503.249	10515.75
503.618	10551.23
503.987	10594.17
504.356	10669.65
504.724	10680.72
505.093	10672.59
505.462	10782.41
505.83	10775.86
506.199	10855.41
506.567	10956.65
506.936	10934.27
507.304	11047.72
507.672	11093.37
508.041	11166.36
508.409	11174.49
508.777	11238.67
509.145	11262.63
509.514	11217.21
509.882	11275.06
510.25	11293.81
510.618	11340.14
510.986	11413.13
511.354	11487.03
511.722	11468.95
512.09	11562.28
512.458	11489.29
512.826	11561.6
513.193	11577.42
513.561	11515.95
513.929	11628.49
514.297	11748.72
514.664	11769.05
515.032	11680.92
515.4	11769.05
515.767	11804.76
516.135	11821.93
516.502	11713.46
516.869	11866.68
517.237	11866.45
517.604	11830.52
517.972	11908.71
518.339	11891.31
518.706	11875.04
519.073	11862.61
519.44	11938.54
519.808	11990.29
520.175	11893.57
520.542	12079.33
520.909	12073.91
521.276	11954.36
521.643	12080.23
522.009	12146.67
522.376	12076.62
522.743	12091.53
523.11	12145.77
523.477	12209.04
523.843	12235.26
524.21	12296.27
524.577	12323.84
524.943	12340.57
525.31	12291.08
525.676	12400.68
526.043	12384.41
526.409	12314.8
526.776	12448.81
527.142	12351.86
527.508	12367.01
527.874	12448.13
528.241	12429.83
528.607	12368.36
528.973	12436.83
529.339	12410.39
529.705	12454.46
530.071	12451.75
530.437	12404.52
530.803	12359.55
531.169	12387.57
531.535	12398.42
531.901	12309.38
532.267	12316.61
532.632	12317.97
532.998	12287.23
533.364	12299.66
533.73	12310.28
534.095	12237.07
534.461	12280.68
534.826	12193.45
535.192	12136.73
535.557	12188.48
535.923	12127.46
536.288	12069.61
536.653	12096.96
537.019	12011.08
537.384	12040.01
537.749	11923.18
538.114	11894.02
538.479	11891.31
538.845	11856.51
539.21	11775.16
539.575	11766.8
539.94	11795.04
540.305	11780.13
540.67	11656.29
541.034	11734.03
541.399	11689.96
541.764	11631.43
542.129	11543.3
542.494	11510.76
542.858	11543.98
543.223	11506.69
543.587	11473.7
543.952	11380.14
544.316	11311.21
544.681	11226.24
545.045	11351.89
545.41	11274.6
545.774	11168.39
546.138	11122.97
546.503	11124.78
546.867	11094.27
547.231	11017.66
547.595	11051.79
547.959	11060.6
548.324	10872.58
548.688	10904.44
549.052	10746.93
549.416	10816.76
549.779	10813.83
550.143	10761.85
550.507	10700.16
550.871	10708.74
551.235	10625.36
551.599	10659.71
551.962	10620.61
552.326	10549.2
552.689	10554.17
553.053	10479.15
553.417	10430.11
553.78	10532.7
554.143	10399.6
554.507	10381.07
554.87	10342.43
555.234	10402.09
555.597	10295.65
555.96	10315.53
556.323	10332.93
556.686	10203.22
557.05	10254.74
557.413	10235.54
557.776	10188.08
558.139	10185.14
558.502	10127.74
558.865	10098.14
559.228	10162.09
559.59	10120.74
559.953	10092.04
560.316	10179.04
560.679	10070.12
561.041	10163.45
561.404	10113.51
561.767	10084.58
562.129	10001.19
562.492	10145.59
562.854	10089.78
563.217	10030.34
563.579	10025.15
563.941	10130.23
564.304	10134.07
564.666	10118.02
565.028	10070.12
565.39	10099.49
565.753	10093.62
566.115	10031.47
566.477	10108.53
566.839	10087.52
567.201	10186.05
567.563	10093.17
567.925	10111.25
568.287	10128.42
568.648	10134.52
569.01	10095.65
569.372	10206.38
569.734	10072.15
570.095	10228.98
570.457	10129.55
570.819	10091.36
571.18	10107.63
571.542	10179.04
571.903	10146.5
572.265	10127.06
572.626	10132.94
572.987	10158.02
573.349	10094.07
573.71	10172.03
574.071	10140.17
574.432	10239.38
574.794	10306.04
575.155	10148.53
575.516	10209.1
575.877	10168.65
576.238	10123.45
576.599	10219.72
576.96	10226.95
577.32	10190.34
577.681	10154.41
578.042	10263.78
578.403	10188.31
578.763	10149.66
579.124	10213.39
579.485	10205.71
579.845	10225.37
580.206	10165.71
580.566	10186.95
580.927	10151.92
581.287	10173.39
581.648	10105.82
582.008	10218.36
582.368	10179.94
582.728	10168.19
583.089	10123
583.449	10168.87
583.809	10112.38
584.169	10186.72
584.529	10112.6
584.889	10155.76
585.249	10091.13
585.609	10095.88
585.969	10085.48
586.329	10090
586.688	10154.18
587.048	10108.08
587.408	10009.55
587.768	10008.2
588.127	9990.57
588.487	9979.72
588.846	10025.82
589.206	9971.36
589.565	9952.61
589.925	9939.27
590.284	9941.31
590.643	9906.73
591.003	10009.78
591.362	10002.77
591.721	9927.75
592.08	10004.81
592.44	10010.91
592.799	9940.18
593.158	9858.6
593.517	9860.63
593.876	9914.64
594.235	9831.03
594.593	9840.74
594.952	9945.6
595.311	9932.04
595.67	9949.67
596.029	9974.98
596.387	9886.39
596.746	9917.58
597.104	9873.06
597.463	9812.27
597.822	9939.95
598.18	9821.08
598.538	9820.18
598.897	9899.5
599.255	9766.62
599.613	9910.12
599.972	9843.91
600.33	9832.61
600.688	9815.21
601.046	9783.12
601.404	9860.4
601.762	9783.57
602.12	9851.59
602.478	9927.07
602.836	9836.9
603.194	9803.46
603.552	9859.27
603.91	9760.75
604.268	9782.89
604.625	9828.09
604.983	9874.87
605.341	9830.8
605.698	9802.55
606.056	9852.95
606.413	9798.49
606.771	9778.6
607.128	9788.99
607.485	9772.5
607.843	9819.5
608.2	9816.34
608.557	9845.26
608.914	9753.74
609.272	9805.72
609.629	9856.56
609.986	9855.43
610.343	9831.48
610.7	9862.44
611.057	9890.23
611.414	9887.3
611.771	9827.86
612.127	9930.46
612.484	9962.32
612.841	9905.15
613.198	9863.79
613.554	9887.52
613.911	9987.41
614.267	9905.6
614.624	9905.83
614.98	9884.36
615.337	9897.47
615.693	9976.56
616.05	9818.37
616.406	9953.74
616.762	9951.7
617.118	9916
617.475	9951.48
617.831	10010.23
618.187	9975.88
618.543	9934.75
618.899	9946.05
619.255	9967.97
619.611	10005.94
619.967	10067.63
620.323	10014.75
620.678	9991.25
621.034	10017.24
621.39	9939.05
621.746	9964.58
622.101	10101.3
622.457	10012.26
622.812	10006.62
623.168	10047.74
623.523	10018.14
623.879	10088.42
624.234	9980.63
624.589	10053.62
624.945	9978.59
625.3	9978.14
625.655	9972.94
626.01	9986.95
626.365	10003.45
626.72	9979.05
627.075	9988.76
627.43	9960.74
627.785	9962.32
628.14	9994.19
628.495	10034.41
628.85	10037.58
629.205	9923.23
629.559	10076.22
629.914	9907.18
630.269	9917.13
630.623	9933.4
630.978	9911.48
631.332	9895.43
631.687	9893.17
632.041	9894.3
632.396	9902.89
632.75	9842.1
633.104	9816.11
633.459	9800.75
633.813	9807.98
634.167	9823.57
634.521	9814.76
634.875	9807.3
635.229	9810.69
635.583	9749.9
635.937	9805.94
636.291	9738.6
636.645	9707.19
636.999	9693.4
637.352	9739.28
637.706	9651.14
638.06	9730.24
638.413	9629.22
638.767	9649.34
639.121	9693.4
639.474	9570.02
639.828	9634.2
640.181	9603.69
640.534	9602.56
640.888	9595.78
641.241	9480.98
641.594	9586.51
641.947	9554.42
642.301	9546.97
642.654	9550.36
643.007	9595.1
643.36	9536.8
643.713	9516.68
644.066	9521.43
644.419	9506.97
644.771	9469.23
645.124	9437.36
645.477	9344.49
645.83	9274.66
646.182	9311.72
646.535	9215.22
646.888	9293.19
647.24	9218.39
647.593	9281.44
647.945	9248.44
648.298	9158.73
648.65	9219.29
649.002	9185.62
649.355	9167.09
649.707	9199.18
650.059	9263.58
650.411	9319.63
650.763	9328.67
651.115	9422.9
651.467	9413.41
651.819	9401.89
652.171	9453.41
652.523	9423.58
652.875	9370.25
653.227	9330.25
653.578	9372.73
653.93	9366.63
654.282	9384.26
654.633	9325.05
654.985	9400.3
655.337	9381.32
655.688	9405.05
656.039	9437.14
656.391	9351.94
656.742	9361.21
657.094	9392.62
657.445	9422.45
657.796	9407.54
658.147	9407.99
658.498	9428.78
658.849	9480.75
659.2	9430.13
659.551	9448.44
659.902	9418.38
660.253	9486.18
660.604	9433.98
660.955	9399.4
661.306	9497.48
661.656	9422.68
662.007	9484.82
662.358	9422.45
662.708	9436.46
663.059	9454.54
663.409	9382.45
663.76	9466.29
664.11	9503.13
664.461	9398.72
664.811	9480.3
665.161	9377.03
665.511	9388.55
665.862	9400.53
666.212	9398.27
666.562	9424.94
666.912	9472.39
667.262	9397.14
667.612	9427.2
667.962	9478.27
668.312	9436.69
668.662	9528.44
669.011	9376.12
669.361	9435.78
669.711	9468.78
670.06	9367.54
670.41	9402.11
670.76	9443.01
671.109	9453.18
671.459	9403.69
671.808	9409.79
672.157	9373.86
672.507	9410.02
672.856	9351.72
673.205	9417.03
673.554	9383.58
673.904	9328.67
674.253	9419.29
674.602	9334.54
674.951	9206.86
675.3	9163.25
675.649	9326.86
675.998	9318.5
676.346	9333.19
676.695	9297.48
677.044	9259.52
677.393	9306.97
677.741	9281.21
678.09	9248.9
678.438	9325.5
678.787	9230.82
679.135	9254.32
679.484	9156.24
679.832	9308.1
680.181	9173.19
680.529	9183.81
680.877	9142.68
681.225	9131.38
681.573	9183.13
681.922	9060.2
682.27	9059.07
682.618	9064.95
682.966	9097.94
683.314	9055.68
683.661	9011.84
684.009	8982.91
684.357	8955.34
684.705	9004.83
685.053	8995.57
685.4	8918.28
685.748	8909.92
686.095	8870.83
686.443	8912.63
686.79	8875.8
687.138	8908.57
687.485	8888.9
687.832	8782.01
688.18	8762.35
688.527	8705.41
688.874	8672.64
689.221	8721.9
689.568	8706.54
689.915	8667.89
690.262	8656.82
690.609	8616.14
690.956	8570.49
691.303	8520.33
691.65	8487.33
691.997	8489.82
692.344	8511.74
692.69	8396.26
693.037	8375.02
693.383	8348.35
693.73	8322.59
694.077	8364.4
694.423	8317.39
694.769	8308.35
695.116	8220.67
695.462	8267.68
695.808	8216.61
696.155	8240.33
696.501	8162.14
696.847	8120.79
697.193	8043.96
697.539	8119.89
697.885	8049.15
698.231	7960.12
698.577	8010.96
698.923	7994.46
699.269	7890.51
699.614	7917.86
699.96	7818.2
700.306	7853.23
700.651	7794.7
700.997	7777.3
701.342	7666.34
701.688	7746.11
702.033	7654.81
702.379	7674.7
702.724	7600.8
703.069	7631.08
703.415	7501.37
703.76	7565.78
704.105	7528.71
704.45	7498.66
704.795	7435.16
705.14	7429.73
705.485	7412.11
705.83	7349.74
706.175	7394.25
706.52	7401.49
706.865	7327.82
707.209	7288.95
707.554	7337.31
707.899	7319
708.243	7232.23
708.588	7243.98
708.932	7173.92
709.277	7156.75
709.621	7145.67
709.966	7130.08
710.31	7072.23
710.654	7106.58
710.998	7089.86
711.342	7083.98
711.687	7044.21
712.031	6954.04
712.375	7004.21
712.719	7048.5
713.063	6990.88
713.407	6963.98
713.75	6998.11
714.094	6975.96
714.438	6919.46
714.782	6926.47
715.125	6914.27
715.469	6910.88
715.812	6874.72
716.156	6852.57
716.499	6836.53
716.843	6815.29
717.186	6777.55
717.53	6832.46
717.873	6783.2
718.216	6790.65
718.559	6767.83
718.902	6747.49
719.246	6792.69
719.589	6698
719.932	6756.31
720.275	6674.05
720.617	6698.91
720.96	6663.88
721.303	6718.34
721.646	6688.74
721.989	6660.49
722.331	6701.62
722.674	6716.53
723.016	6710.88
723.359	6687.61
723.701	6705.69
724.044	6649.19
724.386	6608.96
724.729	6662.07
725.071	6673.82
725.413	6632.69
725.755	6626.37
726.097	6570.77
726.439	6573.49
726.782	6537.1
727.124	6608.06
727.465	6535.75
727.807	6530.32
728.149	6516.99
728.491	6547.05
728.833	6596.08
729.175	6565.12
729.516	6540.27
729.858	6579.36
730.199	6601.28
730.541	6577.78
730.882	6564.45
731.224	6610.55
731.565	6501.4
731.906	6522.41
732.248	6536.65
732.589	6511.34
732.93	6507.72
733.271	6545.01
733.612	6590.21
733.953	6567.61
734.294	6578.23
734.635	6514.96
734.976	6605.8
735.317	6546.37
735.658	6549.76
735.999	6543.66
736.339	6593.15
736.68	6580.04
737.021	6537.78
737.361	6563.09
737.702	6578.46
738.042	6575.75
738.383	6590.66
738.723	6586.82
739.063	6590.66
739.404	6609.19
739.744	6616.2
740.084	6596.08
740.424	6658.68
740.764	6646.03
741.104	6669.53
741.444	6663.2
741.784	6650.55
742.124	6731.9
742.464	6689.87
742.804	6748.62
743.143	6704.56
743.483	6847.6
743.823	6727.38
744.162	6793.59
744.502	6901.16
744.841	6877.88
745.181	6875.17
745.52	6904.78
745.86	6975.28
746.199	6985.45
746.538	7006.92
746.877	7088.27
747.216	7091.44
747.556	7106.8
747.895	7164.43
748.234	7227.48
748.573	7274.71
748.911	7300.7
749.25	7308.38
749.589	7339.11
749.928	7441.71
750.267	7534.36
750.605	7588.37
750.944	7660.01
751.283	7767.13
751.621	7803.28
751.96	7867.24
752.298	7975.48
752.636	8104.52
752.975	8111.07
753.313	8161.92
753.651	8380.9
753.989	8429.26
754.327	8442.81
754.666	8603.49
755.004	8713.09
755.342	8833.99
755.679	8972.97
756.017	9096.58
756.355	9279.18
756.693	9303.81
757.031	9485.27
757.368	9509
757.706	9757.58
758.044	9815.21
758.381	10037.8
758.719	10073.96
759.056	10306.04
759.394	10464.23
759.731	10436.43
760.068	10743.09
760.405	10861.06
760.743	10960.94
761.08	11183.31
761.417	11367.03
761.754	11480.25
762.091	11675.95
762.428	11820.81
762.765	11854.02
763.102	12184.86
763.438	12278.87
763.775	12462.6
764.112	12633.44
