Data from hue_100_FLMS001491_00072.txt Node
Date: Tue Feb 07 17:03:37 GMT 2017
User: dcchb
Spectrometer: FLMS00149
Trigger mode: 0
Integration Time (sec): 2.000000E-2
Scans to average: 10
Electric dark correction enabled: true
Nonlinearity correction enabled: false
Boxcar width: 0
XAxis mode: Wavelengths
Number of Pixels in Spectrum: 2048
>>>>>Begin Spectral Data<<<<<
341.393	3.86
341.776	3.86
342.16	3.86
342.543	-46.31
342.927	-55.8
343.31	-70.49
343.693	-58.97
344.077	-62.36
344.46	-66.2
344.843	-61.68
345.226	-38.63
345.61	-53.09
345.993	-27.1
346.376	-4.96
346.759	8.6
347.142	26.68
347.525	37.08
347.908	65.32
348.291	84.31
348.674	109.84
349.057	111.65
349.44	148.26
349.823	127.92
350.206	163.85
350.588	193.68
350.971	225.54
351.354	228.03
351.737	254.92
352.119	255.37
352.502	276.84
352.884	268.71
353.267	308.71
353.65	300.35
354.032	315.49
354.414	313
354.797	331.53
355.179	295.37
355.562	310.97
355.944	332.21
356.326	329.27
356.709	345.54
357.091	315.49
357.473	345.54
357.855	338.31
358.238	350.74
358.62	342.83
359.002	342.38
359.384	341.7
359.766	357.52
360.148	316.16
360.53	346.67
360.912	337.63
361.294	347.35
361.676	335.37
362.057	342.6
362.439	305.77
362.821	328.82
363.203	341.7
363.584	318.42
363.966	330.17
364.348	332.43
364.729	315.49
365.111	334.69
365.493	312.32
365.874	318.65
366.256	305.54
366.637	331.3
367.019	336.28
367.4	308.25
367.781	329.5
368.163	331.08
368.544	319.55
368.925	305.54
369.306	330.4
369.688	320.91
370.069	310.97
370.45	316.84
370.831	320.46
371.212	317.52
371.593	316.39
371.974	307.35
372.355	313.23
372.736	339.67
373.117	307.58
373.498	340.34
373.879	329.72
374.26	329.5
374.641	314.36
375.021	304.19
375.402	348.48
375.783	329.95
376.163	346.67
376.544	337.41
376.925	324.53
377.305	324.98
377.686	322.49
378.066	338.08
378.447	358.42
378.827	339.89
379.208	329.05
379.588	335.6
379.968	332.66
380.349	347.58
380.729	343.73
381.109	360.91
381.489	339.67
381.87	331.3
382.25	362.49
382.63	360
383.01	341.93
383.39	354.58
383.77	376.05
384.15	373.56
384.53	377.86
384.91	370.85
385.29	352.1
385.67	354.36
386.049	374.69
386.429	353.9
386.809	367.01
387.189	380.34
387.568	381.92
387.948	371.76
388.328	390.06
388.707	386.9
389.087	374.69
389.466	366.78
389.846	374.92
390.225	397.07
390.605	404.75
390.984	394.13
391.363	378.08
391.743	403.39
392.122	402.94
392.501	388.7
392.881	403.85
393.26	398.87
393.639	381.7
394.018	390.06
394.397	406.11
394.776	411.3
395.155	397.74
395.534	409.27
395.913	411.75
396.292	398.42
396.671	407.01
397.05	419.89
397.429	431.42
397.808	396.61
398.186	428.7
398.565	421.92
398.944	428.48
399.323	404.75
399.701	405.43
400.08	428.48
400.458	423.73
400.837	412.88
401.215	435.71
401.594	439.32
401.972	440.91
402.351	428.25
402.729	451.98
403.107	461.7
403.486	437.97
403.864	445.65
404.242	454.69
404.62	449.04
404.999	464.63
405.377	456.05
405.755	480.91
406.133	456.95
406.511	472.09
406.889	475.93
407.267	472.54
407.645	474.58
408.023	494.24
408.401	474.13
408.779	487.68
409.156	491.98
409.534	474.58
409.912	503.73
410.29	489.04
410.667	495.14
411.045	512.54
411.422	507.57
411.8	505.99
412.178	535.14
412.555	528.59
412.933	521.36
413.31	553.67
413.687	520.68
414.065	546.21
414.442	539.66
414.819	560.68
415.197	560.45
415.574	548.47
415.951	535.82
416.328	543.05
416.705	554.35
417.082	575.37
417.46	545.54
417.837	584.41
418.214	560.23
418.591	565.2
418.967	571.52
419.344	596.38
419.721	599.32
420.098	580.34
420.475	603.84
420.852	591.86
421.228	611.52
421.605	605.65
421.982	608.59
422.358	599.77
422.735	604.74
423.111	619.43
423.488	635.25
423.864	636.61
424.241	646.32
424.617	647.45
424.994	640
425.37	655.59
425.746	665.53
426.123	685.87
426.499	683.61
426.875	681.8
427.251	670.96
427.627	675.25
428.003	698.07
428.379	712.99
428.756	698.53
429.132	685.87
429.507	717.28
429.883	718.19
430.259	729.03
430.635	729.03
431.011	734.01
431.387	746.66
431.763	764.06
432.138	776.72
432.514	771.75
432.89	763.38
433.265	803.83
433.641	783.04
434.016	778.75
434.392	794.34
434.767	812.2
435.143	814
435.518	825.76
435.894	843.16
436.269	858.3
436.644	865.08
437.02	851.74
437.395	863.72
437.77	861.23
438.145	881.57
438.52	890.61
438.895	884.96
439.271	903.95
439.646	908.01
440.021	900.1
440.395	929.03
440.77	920.44
441.145	930.39
441.52	910.27
441.895	950.95
442.27	972.64
442.645	951.4
443.019	947.11
443.394	967.22
443.769	980.55
444.143	977.84
444.518	995.69
444.892	955.47
445.267	983.04
445.641	1010.16
446.016	999.54
446.39	1030.04
446.764	1038.4
447.139	1025.75
447.513	1037.5
447.887	1033.43
448.262	1029.37
448.636	1050.16
449.01	1075.92
449.384	1069.36
449.758	1079.08
450.132	1087.67
450.506	1069.59
450.88	1125.86
451.254	1110.27
451.628	1118.63
452.002	1140.55
452.376	1142.58
452.75	1143.03
453.123	1148.23
453.497	1177.61
453.871	1195.91
454.244	1184.84
454.618	1207.67
454.992	1240.43
455.365	1228.46
455.739	1260.32
456.112	1257.38
456.486	1300.32
456.859	1298.96
457.232	1318.85
457.606	1307.78
457.979	1345.06
458.352	1377.61
458.725	1362.92
459.099	1407.21
459.472	1425.97
459.845	1427.1
460.218	1428.45
460.591	1444.27
460.964	1439.52
461.337	1522.23
461.71	1507.55
462.083	1514.55
462.456	1533.99
462.829	1567.2
463.201	1592.97
463.574	1592.06
463.947	1592.51
464.32	1671.16
464.692	1664.6
465.065	1686.98
465.438	1719.29
465.81	1739.86
466.183	1726.07
466.555	1791.15
466.928	1817.37
467.3	1847.42
467.672	1857.59
468.045	1885.16
468.417	1903.69
468.789	1943.69
469.161	1983.01
469.534	2002.45
469.906	2039.28
470.278	2099.39
470.65	2096.23
471.022	2169.9
471.394	2205.83
471.766	2221.2
472.138	2285.15
472.51	2329.9
472.882	2372.61
473.253	2413.06
473.625	2464.36
473.997	2542.09
474.369	2597.69
474.74	2604.24
475.112	2663.67
475.484	2721.52
475.855	2801.3
476.227	2844.23
476.598	2899.6
476.97	2977.34
477.341	3059.14
477.713	3131.46
478.084	3177.56
478.455	3305.92
478.827	3353.82
479.198	3515.4
479.569	3540.03
479.94	3639.01
480.311	3700.26
480.682	3841.95
481.053	3954.26
481.424	4045.11
481.795	4142.05
482.166	4326.68
482.537	4340.92
482.908	4509.95
483.279	4565.32
483.65	4734.35
484.021	4838.3
484.391	4948.36
484.762	5099.54
485.133	5135.47
485.503	5292.76
485.874	5431.28
486.244	5583.6
486.615	5779.75
486.985	5835.79
487.356	6027.65
487.726	6142.23
488.097	6338.83
488.467	6410.24
488.837	6610.46
489.207	6812.26
489.578	6915.54
489.948	6998.7
490.318	7205.25
490.688	7357.33
491.058	7469.2
491.428	7665.35
491.798	7864.44
492.168	8054.27
492.538	8171.32
492.908	8304.43
493.278	8499
493.648	8648.83
494.017	8733.34
494.387	8913
494.757	9023.28
495.126	9189.38
495.496	9259.21
495.866	9404.51
496.235	9632.3
496.605	9789.36
496.974	9851.51
497.344	9981.9
497.713	10230.71
498.082	10283.59
498.452	10451.04
498.821	10545.05
499.19	10623.46
499.559	10752.27
499.928	10931.25
500.298	11024.58
500.667	11159.72
501.036	11294.41
501.405	11343.44
501.774	11468.41
502.143	11575.3
502.512	11666.6
502.88	11799.7
503.249	11805.35
503.618	11909.76
503.987	12080.83
504.356	12197.66
504.724	12287.6
505.093	12363.08
505.462	12392.23
505.83	12517.43
506.199	12601.72
506.567	12867.02
506.936	12917.87
507.304	13087.13
507.672	13052.1
508.041	13198.54
508.409	13282.6
508.777	13356.73
509.145	13491.86
509.514	13395.14
509.882	13588.36
510.25	13635.14
510.618	13678.3
510.986	13715.81
511.354	13901.57
511.722	13930.5
512.09	14043.49
512.458	14032.64
512.826	14089.14
513.193	14234.89
513.561	14241.22
513.929	14359.64
514.297	14456.58
514.664	14523.25
515.032	14579.97
515.4	14659.97
515.767	14798.95
516.135	14749.91
516.502	14685.96
516.869	14881.43
517.237	14931.15
517.604	14956.91
517.972	15096.34
518.339	15097.92
518.706	15055.21
519.073	15078.94
519.44	15167.3
519.808	15359.61
520.175	15230.8
520.542	15451.36
520.909	15449.1
521.276	15388.31
521.643	15518.93
522.009	15548.31
522.376	15713.27
522.743	15694.06
523.11	15859.71
523.477	15880.27
523.843	15877.56
524.21	16055.19
524.577	16077.56
524.943	16201.4
525.31	16116.2
525.676	16165.24
526.043	16260.6
526.409	16297.89
526.776	16369.53
527.142	16409.3
527.508	16522.74
527.874	16476.19
528.241	16546.92
528.607	16538.11
528.973	16612.46
529.339	16579.24
529.705	16746.92
530.071	16700.37
530.437	16748.5
530.803	16724.77
531.169	16807.71
531.535	16699.91
531.901	16696.52
532.267	16762.74
532.632	16722.06
532.998	16733.36
533.364	16865.11
533.73	16821.27
534.095	16852
534.461	16925.22
534.826	16772.91
535.192	16760.25
535.557	16890.19
535.923	16890.42
536.288	16849.06
536.653	16855.16
537.019	16776.3
537.384	16774.94
537.749	16784.66
538.114	16863.07
538.479	16691.33
538.845	16815.39
539.21	16735.17
539.575	16777.65
539.94	16684.55
540.305	16765.45
540.67	16617.43
541.034	16634.38
541.399	16549.86
541.764	16590.99
542.129	16595.51
542.494	16588.96
542.858	16545.57
543.223	16485.46
543.587	16478.9
543.952	16404.1
544.316	16434.16
544.681	16336.08
545.045	16434.16
545.41	16465.57
545.774	16488.17
546.138	16325.46
546.503	16297.89
546.867	16259.47
547.231	16374.72
547.595	16221.51
547.959	16182.41
548.324	16179.48
548.688	16273.71
549.052	16173.6
549.416	16157.78
549.779	16097.44
550.143	16094.51
550.507	16051.8
550.871	16134.96
551.235	15986.71
551.599	16082.53
551.962	16019.93
552.326	16037.78
552.689	16010.44
553.053	15866.04
553.417	15874.62
553.78	16040.95
554.143	15899.94
554.507	15865.81
554.87	15850.9
555.234	16003.21
555.597	15868.98
555.96	15857.45
556.323	15891.57
556.686	15844.8
557.05	15879.6
557.413	15896.09
557.776	15861.29
558.139	15948.07
558.502	15870.11
558.865	15800.28
559.228	15896.32
559.59	16020.84
559.953	15987.16
560.316	16060.61
560.679	15937.9
561.041	15998.92
561.404	16062.87
561.767	16107.84
562.129	16004.11
562.492	16140.83
562.854	16059.93
563.217	16089.76
563.579	16095.41
563.941	16096.99
564.304	16165.92
564.666	16159.36
565.028	16133.83
565.39	16179.48
565.753	16249.76
566.115	16294.05
566.477	16284.11
566.839	16346.7
567.201	16368.62
567.563	16372.69
567.925	16342.86
568.287	16341.05
568.648	16289.08
569.01	16410.43
569.372	16498.11
569.734	16537.88
570.095	16492.91
570.457	16539.92
570.819	16567.26
571.18	16557.54
571.542	16559.8
571.903	16569.97
572.265	16645.23
572.626	16654.27
572.987	16705.34
573.349	16768.39
573.71	16697.88
574.071	16736.52
574.432	16816.97
574.794	16842.74
575.155	16715.05
575.516	16627.37
575.877	16879.34
576.238	16814.49
576.599	16936.97
576.96	16772.23
577.32	16811.55
577.681	16921.83
578.042	16877.99
578.403	16858.55
578.763	16880.93
579.124	16784.21
579.485	16913.47
579.845	16930.64
580.206	16903.07
580.566	16826.24
580.927	16806.58
581.287	16924.09
581.648	16901.94
582.008	16962.28
582.368	16893.36
582.728	16922.28
583.089	16782.17
583.449	16910.08
583.809	16849.29
584.169	16894.03
584.529	16856.52
584.889	16982.17
585.249	16777.65
585.609	16746.01
585.969	16887.25
586.329	16790.99
586.688	16843.64
587.048	16746.01
587.408	16742.4
587.768	16738.56
588.127	16774.26
588.487	16689.29
588.846	16787.14
589.206	16745.56
589.565	16717.09
589.925	16709.41
590.284	16701.04
590.643	16709.63
591.003	16676.86
591.362	16707.82
591.721	16795.73
592.08	16788.05
592.44	16644.77
592.799	16670.76
593.158	16683.64
593.517	16700.37
593.876	16698.33
594.235	16646.13
594.593	16692
594.952	16666.92
595.311	16570.65
595.67	16600.48
596.029	16792.11
596.387	16694.49
596.746	16626.24
597.104	16582.4
597.463	16666.02
597.822	16743.53
598.18	16661.5
598.538	16544.89
598.897	16735.85
599.255	16441.62
599.613	16762.29
599.972	16631.44
600.33	16667.37
600.688	16623.98
601.046	16710.99
601.404	16813.13
601.762	16666.24
602.12	16725
602.478	16698.11
602.836	16713.47
603.194	16577.21
603.552	16626.24
603.91	16557.77
604.268	16676.64
604.625	16612.91
604.983	16714.6
605.341	16496.76
605.698	16685
606.056	16706.92
606.413	16684.32
606.771	16663.53
607.128	16716.18
607.485	16670.76
607.843	16645
608.2	16754.6
608.557	16710.08
608.914	16722.29
609.272	16808.39
609.629	16790.31
609.986	16899.46
610.343	16725.22
610.7	16877.08
611.057	16811.32
611.414	16811.78
611.771	16888.38
612.127	16864.2
612.484	16845.45
612.841	16973.58
613.198	16862.85
613.554	16982.84
613.911	16990.75
614.267	16950.08
614.624	16947.14
614.98	16923.64
615.337	17151.2
615.693	17033.24
616.05	16956.86
616.406	17088.38
616.762	16991.66
617.118	17092.45
617.475	17000.02
617.831	17107.36
618.187	17068.04
618.543	17124.54
618.899	17194.59
619.255	17130.64
619.611	17073.92
619.967	17240.69
620.323	17214.7
620.678	17160.01
621.034	17153.46
621.39	17094.25
621.746	17091.09
622.101	17314.81
622.457	17211.31
622.812	17096.29
623.168	17209.05
623.523	17131.99
623.879	17287.92
624.234	17109.17
624.589	17177.87
624.945	17150.75
625.3	17233.23
625.655	17224.42
626.01	17288.6
626.365	17226.91
626.72	17189.62
627.075	17126.12
627.43	17183.29
627.785	17097.87
628.14	17132.67
628.495	17236.85
628.85	17128.6
629.205	17135.61
629.559	17184.42
629.914	17103.29
630.269	17123.63
630.623	17069.17
630.978	17019.68
631.332	17102.62
631.687	17120.47
632.041	16955.95
632.396	16992.79
632.75	17013.13
633.104	16944.43
633.459	16897.65
633.813	16911.66
634.167	16851.1
634.521	16857.42
634.875	16904.2
635.229	16934.48
635.583	16761.16
635.937	16829.18
636.291	16826.01
636.645	16814.49
636.999	16681.84
637.352	16736.75
637.706	16687.03
638.06	16739.24
638.413	16696.98
638.767	16589.41
639.121	16658.33
639.474	16549.86
639.828	16685.68
640.181	16513.93
640.534	16583.31
640.888	16524.1
641.241	16468.96
641.594	16543.53
641.947	16480.71
642.301	16522.97
642.654	16513.7
643.007	16582.4
643.36	16496.3
643.713	16416.31
644.066	16448.4
644.419	16286.14
644.771	16337.21
645.124	16084.79
645.477	16033.04
645.83	16119.82
646.182	16017.22
646.535	15985.58
646.888	15971.12
647.24	15791.92
647.593	15893.38
647.945	15943.32
648.298	15806.6
648.65	15703.33
649.002	15829.88
649.355	15881.63
649.707	15842.31
650.059	15956.43
650.411	16202.53
650.763	16135.18
651.115	16314.16
651.467	16204.11
651.819	16229.42
652.171	16152.81
652.523	16143.77
652.875	16189.64
653.227	16121.62
653.578	16324.1
653.93	16165.24
654.282	16150.1
654.633	16093.15
654.985	16218.57
655.337	16182.64
655.688	16150.32
656.039	16273.71
656.391	16113.26
656.742	16165.01
657.094	16129.76
657.445	16281.85
657.796	16266.71
658.147	16141.06
658.498	16194.84
658.849	16221.28
659.2	16191.9
659.551	16064
659.902	16186.71
660.253	16202.75
660.604	16140.61
660.955	16140.15
661.306	16191.68
661.656	16284.78
662.007	16273.94
662.358	16316.87
662.708	16276.2
663.059	16221.51
663.409	16149.42
663.76	16230.1
664.11	16203.66
664.461	16308.51
664.811	16330.21
665.161	16182.19
665.511	16152.36
665.862	16203.88
666.212	16221.28
666.562	16287.27
666.912	16167.95
667.262	16222.64
667.612	16153.49
667.962	16266.71
668.312	16242.07
668.662	16265.35
669.011	16270.09
669.361	16197.1
669.711	16235.52
670.06	16179.48
670.41	16125.69
670.76	16169.53
671.109	16281.39
671.459	16247.72
671.808	16118.23
672.157	16165.46
672.507	16121.85
672.856	16046.37
673.205	16093.83
673.554	16091.12
673.904	16044.56
674.253	16154.84
674.602	16109.2
674.951	15834.63
675.3	15839.15
675.649	15984.9
675.998	15977.45
676.346	16000.27
676.695	16052.7
677.044	15917.11
677.393	15924.57
677.741	15950.56
678.09	15895.19
678.438	15931.8
678.787	15941.06
679.135	15970.22
679.484	15737.23
679.832	15864.68
680.181	15734.97
680.529	15747.4
680.877	15620.62
681.225	15747.4
681.573	15745.59
681.922	15612.71
682.27	15553.96
682.618	15493.62
682.966	15548.31
683.314	15581.53
683.661	15532.71
684.009	15398.25
684.357	15402.1
684.705	15347.63
685.053	15446.16
685.4	15417.01
685.748	15297.47
686.095	15253.4
686.443	15285.04
686.79	15243.46
687.138	15303.79
687.485	15284.58
687.832	15153.74
688.18	15206.62
688.527	15118.26
688.874	15043.01
689.221	14980.41
689.568	14994.2
689.915	14923.01
690.262	14973.41
690.609	14836.91
690.956	14760.3
691.303	14843.69
691.65	14737.25
691.997	14723.69
692.344	14517.82
692.69	14571.38
693.037	14607.09
693.383	14462.01
693.73	14494.77
694.077	14344.95
694.423	14336.59
694.769	14341.56
695.116	14259.07
695.462	14232.18
695.808	14155.12
696.155	14180.43
696.501	14076.03
696.847	14118.29
697.193	13957.84
697.539	13989.02
697.885	13805.53
698.231	13775.47
698.577	13845.53
698.923	13717.62
699.269	13750.84
699.614	13616.38
699.96	13563.95
700.306	13525.08
700.651	13525.08
700.997	13458.42
701.342	13407.35
701.688	13312.66
702.033	13354.92
702.379	13255.71
702.724	13261.13
703.069	13230.4
703.415	13072.44
703.76	13141.82
704.105	13104.98
704.45	13074.25
704.795	12946.79
705.14	12911.54
705.485	12989.96
705.83	12896.62
706.175	12931.43
706.52	12788.6
706.865	12673.35
707.209	12712.9
707.554	12672.68
707.899	12661.6
708.243	12630.19
708.588	12522.85
708.932	12478.1
709.277	12473.81
709.621	12499.12
709.966	12312.23
710.31	12443.53
710.654	12357.43
710.998	12287.37
711.342	12348.16
711.687	12219.58
712.031	12246.47
712.375	12088.51
712.719	12180.48
713.063	12097.55
713.407	12212.57
713.75	12078.79
714.094	12070.43
714.438	12020.49
714.782	12013.03
715.125	11962.41
715.469	11977.1
715.812	11922.86
716.156	11876.99
716.499	11846.48
716.843	11884.45
717.186	11769.42
717.53	11850.55
717.873	11875.86
718.216	11782.08
718.559	11758.35
718.902	11658.01
719.246	11709.54
719.589	11679.48
719.932	11646.04
720.275	11660.05
720.617	11549.77
720.96	11693.04
721.303	11627.28
721.646	11628.18
721.989	11648.52
722.331	11632.02
722.674	11667.05
723.016	11525.59
723.359	11533.04
723.701	11518.81
724.044	11471.35
724.386	11455.98
724.729	11511.12
725.071	11482.65
725.413	11540.95
725.755	11478.13
726.097	11366.04
726.439	11378.25
726.782	11371.69
727.124	11427.74
727.465	11340.05
727.807	11342.77
728.149	11287.4
728.491	11352.94
728.833	11269.55
729.175	11310.23
729.516	11349.09
729.858	11282.2
730.199	11327.63
730.541	11293.73
730.882	11296.89
731.224	11277.46
731.565	11285.14
731.906	11288.53
732.248	11197.01
732.589	11201.98
732.93	11141.87
733.271	11251.24
733.612	11154.52
733.953	11269.32
734.294	11177.8
734.635	11222.54
734.976	11208.98
735.317	11178.93
735.658	11158.36
735.999	11222.54
736.339	11188.87
736.68	11269.55
737.021	11267.29
737.361	11224.13
737.702	11231.58
738.042	11247.85
738.383	11225.71
738.723	11281.53
739.063	11260.28
739.404	11326.95
739.744	11289.21
740.084	11276.55
740.424	11351.81
740.764	11262.54
741.104	11403.56
741.444	11333.05
741.784	11319.72
742.124	11335.54
742.464	11425.48
742.804	11339.15
743.143	11369.66
743.483	11443.33
743.823	11370.11
744.162	11422.09
744.502	11478.13
744.841	11459.15
745.181	11571.24
745.52	11517.9
745.86	11587.28
746.199	11557.9
746.538	11655.98
746.877	11766.03
747.216	11822.08
747.556	11780.95
747.895	11880.83
748.234	11800.83
748.573	11977.1
748.911	11923.09
749.25	12075.85
749.589	12088.96
749.928	12166.25
750.267	12322.4
750.605	12296.87
750.944	12398.56
751.283	12463.64
751.621	12551.1
751.96	12613.92
752.298	12715.61
752.636	12896.4
752.975	12895.95
753.313	12979.79
753.651	13128.48
753.989	13224.3
754.327	13354.01
754.666	13315.6
755.004	13545.19
755.342	13788.13
755.679	13873.1
756.017	13897.5
756.355	14085.29
