Data from hue_140_FLMS001491_00098.txt Node
Date: Tue Feb 07 16:56:41 GMT 2017
User: dcchb
Spectrometer: FLMS00149
Trigger mode: 0
Integration Time (sec): 2.000000E-2
Scans to average: 10
Electric dark correction enabled: true
Nonlinearity correction enabled: false
Boxcar width: 0
XAxis mode: Wavelengths
Number of Pixels in Spectrum: 2048
>>>>>Begin Spectral Data<<<<<
341.393	6.1
341.776	6.1
342.16	6.1
342.543	-58.3
342.927	-44.07
343.31	-79.09
343.693	-60.79
344.077	-79.55
344.46	-65.08
344.843	-67.34
345.226	-33.22
345.61	-6.78
345.993	-22.15
346.376	-17.4
346.759	7.91
347.142	31.86
347.525	50.39
347.908	75.25
348.291	75.25
348.674	80.22
349.057	110.51
349.44	122.48
349.823	126.78
350.206	158.19
350.588	201.35
350.971	216.27
351.354	238.41
351.737	239.77
352.119	267.34
352.502	251.97
352.884	248.13
353.267	281.8
353.65	310.73
354.032	300.56
354.414	313.66
354.797	310.5
355.179	330.16
355.562	310.73
355.944	340.33
356.326	329.93
356.709	343.95
357.091	353.44
357.473	329.48
357.855	325.19
358.238	348.01
358.62	348.24
359.002	336.49
359.384	343.04
359.766	338.3
360.148	338.07
360.53	346.66
360.912	345.75
361.294	341.91
361.676	315.92
362.057	354.34
362.439	335.81
362.821	333.32
363.203	340.1
363.584	322.48
363.966	342.36
364.348	313.66
364.729	333.32
365.111	326.09
365.493	315.47
365.874	335.81
366.256	324.29
366.637	340.33
367.019	316.6
367.4	320.44
367.781	318.64
368.163	308.69
368.544	326.09
368.925	319.09
369.306	320.22
369.688	316.15
370.069	314.57
370.45	317.28
370.831	320.22
371.212	332.87
371.593	329.26
371.974	313.89
372.355	306.43
372.736	325.19
373.117	320.44
373.498	311.86
373.879	332.65
374.26	315.25
374.641	311.86
375.021	331.29
375.402	347.79
375.783	316.6
376.163	324.51
376.544	327.45
376.925	345.98
377.305	315.92
377.686	350.5
378.066	334.91
378.447	318.64
378.827	337.84
379.208	347.11
379.588	319.31
379.968	345.53
380.349	347.11
380.729	347.79
381.109	336.26
381.489	331.06
381.87	355.24
382.25	338.75
382.63	335.13
383.01	346.21
383.39	335.81
383.77	338.07
384.15	330.61
384.53	331.29
384.91	365.64
385.29	352.53
385.67	344.4
386.049	361.57
386.429	374
386.809	352.08
387.189	357.96
387.568	360.22
387.948	364.96
388.328	381.91
388.707	374.23
389.087	345.3
389.466	363.15
389.846	377.62
390.225	357.73
390.605	380.33
390.984	375.13
391.363	353.89
391.743	372.65
392.122	352.76
392.501	375.36
392.881	384.17
393.26	387.79
393.639	398.41
394.018	385.98
394.397	374.68
394.776	394.34
395.155	377.39
395.534	379.2
395.913	395.7
396.292	377.62
396.671	400.89
397.05	378.75
397.429	390.72
397.808	410.16
398.186	377.62
398.565	401.12
398.944	399.09
399.323	410.16
399.701	401.57
400.08	394.11
400.458	412.42
400.837	410.61
401.215	412.87
401.594	422.81
401.972	436.15
402.351	403.15
402.729	411.74
403.107	428.92
403.486	405.87
403.864	407.22
404.242	409.03
404.62	426.88
404.999	428.01
405.377	433.21
405.755	418.07
406.133	438.18
406.511	443.15
406.889	432.53
407.267	454.9
407.645	453.77
408.023	439.76
408.401	453.77
408.779	443.38
409.156	433.89
409.534	438.63
409.912	466.43
410.29	457.16
410.667	457.62
411.045	487.44
411.422	471.85
411.8	502.59
412.178	486.77
412.555	491.74
412.933	499.2
413.31	489.93
413.687	485.64
414.065	473.89
414.442	489.25
414.819	480.89
415.197	503.04
415.574	494
415.951	479.31
416.328	475.92
416.705	501.46
417.082	501.68
417.46	535.58
417.837	518.63
418.214	540.55
418.591	540.32
418.967	509.37
419.344	526.77
419.721	522.25
420.098	530.38
420.475	534
420.852	559.99
421.228	552.08
421.605	552.75
421.982	542.13
422.358	540.1
422.735	559.76
423.111	564.28
423.488	590.04
423.864	564.73
424.241	548.46
424.617	555.92
424.994	552.98
425.37	574.22
425.746	598.4
426.123	608.8
426.499	591.17
426.875	604.96
427.251	612.64
427.627	626.2
428.003	614.22
428.379	629.36
428.756	610.15
429.132	620.77
429.507	636.82
429.883	632.07
430.259	629.36
430.635	627.55
431.011	643.82
431.387	655.35
431.763	657.38
432.138	662.58
432.514	676.14
432.89	669.13
433.265	654.9
433.641	691.51
434.016	717.27
434.392	698.51
434.767	703.03
435.143	696.7
435.518	748.68
435.894	741
436.269	717.5
436.644	750.71
437.02	747.78
437.395	755.46
437.77	765.86
438.145	745.52
438.52	767.44
438.895	767.21
439.271	758.85
439.646	794.78
440.021	798.17
440.395	791.62
440.77	808.57
441.145	823.93
441.52	829.36
441.895	801.79
442.27	833.65
442.645	839.98
443.019	836.36
443.394	842.69
443.769	841.11
444.143	839.75
444.518	822.58
444.892	832.75
445.267	858.73
445.641	870.94
446.016	860.32
446.39	873.2
446.764	853.08
447.139	901.67
447.513	888.34
447.887	886.98
448.262	892.41
448.636	896.02
449.01	887.89
449.384	933.31
449.758	905.96
450.132	928.34
450.506	937.6
450.88	939.41
451.254	943.48
451.628	933.76
452.002	955.68
452.376	962.01
452.75	973.76
453.123	959.75
453.497	994.78
453.871	983.93
454.244	1019.63
454.618	1038.62
454.992	1030.26
455.365	1056.47
455.739	1026.64
456.112	1074.32
456.486	1077.26
456.859	1083.81
457.232	1103.7
457.606	1086.3
457.979	1120.87
458.352	1147.31
458.725	1120.2
459.099	1157.48
459.472	1184.38
459.845	1185.28
460.218	1197.71
460.591	1195.9
460.964	1220.53
461.337	1256.01
461.71	1251.72
462.083	1277.48
462.456	1300.53
462.829	1293.98
463.201	1293.3
463.574	1323.13
463.947	1338.04
464.32	1376.91
464.692	1387.53
465.065	1377.82
465.438	1404.71
465.81	1438.61
466.183	1444.93
466.555	1493.97
466.928	1504.59
467.3	1506.85
467.672	1529
468.045	1580.07
468.417	1587.75
468.789	1569.9
469.161	1632.95
469.534	1683.57
469.906	1665.72
470.278	1743.68
470.65	1737.58
471.022	1774.64
471.394	1821.87
471.766	1853.51
472.138	1851.48
472.51	1920.85
472.882	1948.65
473.253	1976.45
473.625	2056.22
473.997	2084.01
474.369	2130.34
474.74	2166.04
475.112	2203.78
475.484	2272.03
475.855	2340.96
476.227	2347.51
476.598	2444.23
476.97	2464.79
477.341	2567.16
477.713	2606.94
478.084	2673.83
478.455	2750.66
478.827	2800.15
479.198	2897.1
479.569	2899.36
479.94	3027.94
480.311	3092.35
480.682	3189.52
481.053	3280.59
481.424	3413.47
481.795	3451.43
482.166	3568.95
482.537	3613.69
482.908	3763.52
483.279	3858.43
483.65	3913.34
484.021	4096.62
484.391	4144.52
484.762	4201.02
485.133	4326.67
485.503	4398.53
485.874	4631.74
486.244	4699.31
486.615	4821.12
486.985	4934.33
487.356	5074.22
487.726	5139.75
488.097	5287.54
488.467	5376.13
488.837	5551.04
489.207	5697.93
489.578	5775.89
489.948	5939.96
490.318	6097.47
490.688	6166.17
491.058	6322.77
491.428	6464.24
491.798	6544.46
492.168	6732.93
492.538	6829.2
492.908	6993.49
493.278	7131.11
493.648	7205.69
494.017	7384.66
494.387	7508.28
494.757	7631.44
495.126	7746.91
495.496	7861.71
495.866	7922.96
496.235	8064.65
496.605	8237.98
496.974	8285.43
497.344	8418.76
497.713	8585.76
498.082	8735.36
498.452	8802.03
498.821	8898.52
499.19	9018.97
499.559	9148.46
499.928	9300.09
500.298	9244.73
500.667	9408.34
501.036	9522.69
501.405	9603.36
501.774	9711.38
502.143	9787.09
502.512	9804.26
502.88	9967.65
503.249	10059.17
503.618	10149.34
503.987	10164.7
504.356	10241.54
504.724	10392.72
505.093	10469.78
505.462	10432.95
505.83	10606.5
506.199	10674.3
506.567	10773.95
506.936	10802.88
507.304	10918.81
507.672	11049.43
508.041	11119.93
508.409	11166.94
508.777	11307.73
509.145	11291.23
509.514	11301.62
509.882	11325.13
510.25	11414.84
510.618	11490.09
510.986	11517.89
511.354	11612.8
511.722	11688.05
512.09	11751.1
512.458	11734.15
512.826	11848.5
513.193	11837.43
513.561	11956.97
513.929	12055.73
514.297	12084.88
514.664	12134.14
515.032	12132.34
515.4	12290.3
515.767	12233.58
516.135	12390.86
516.502	12223.86
516.869	12396.28
517.237	12455.27
517.604	12449.39
517.972	12560.35
518.339	12507.47
518.706	12579.1
519.073	12625.43
519.44	12571.42
519.808	12661.36
520.175	12686.67
520.542	12742.04
520.909	12798.31
521.276	12760.34
521.643	12869.27
522.009	12965.76
522.376	12961.24
522.743	12987.23
523.11	13059.77
523.477	13104.06
523.843	13189.71
524.21	13218.18
524.577	13270.16
524.943	13266.54
525.31	13248.69
525.676	13265.64
526.043	13312.64
526.409	13409.14
526.776	13464.5
527.142	13362.81
527.508	13373.43
527.874	13517.84
528.241	13466.54
528.607	13464.28
528.973	13538.18
529.339	13458.18
529.705	13559.19
530.071	13557.38
530.437	13603.48
530.803	13572.07
531.169	13638.96
531.535	13528.68
531.901	13517.84
532.267	13474.22
532.632	13632.86
532.998	13574.33
533.364	13663.14
533.73	13580.21
534.095	13616.82
534.461	13578.85
534.826	13566.2
535.192	13487.1
535.557	13620.88
535.923	13512.41
536.288	13537.05
536.653	13486.2
537.019	13392.64
537.384	13488.68
537.749	13362.81
538.114	13462.02
538.479	13330.04
538.845	13319.65
539.21	13264.96
539.575	13305.19
539.94	13226.77
540.305	13167.79
540.67	13148.35
541.034	13259.31
541.399	13187
541.764	13118.98
542.129	13143.61
542.494	13046.21
542.858	13064.06
543.223	12972.31
543.587	13016.15
543.952	12988.59
544.316	12950.39
544.681	12914.91
545.045	12928.93
545.41	12890.51
545.774	12879.66
546.138	12788.14
546.503	12795.6
546.867	12714.02
547.231	12832.2
547.595	12725.54
547.959	12722.15
548.324	12669.5
548.688	12599.44
549.052	12541.14
549.416	12467.24
549.779	12552.89
550.143	12540.24
550.507	12534.13
550.871	12468.6
551.235	12382.5
551.599	12456.85
551.962	12438.99
552.326	12300.92
552.689	12396.06
553.053	12293.46
553.417	12230.86
553.78	12356.29
554.143	12244.42
554.507	12284.42
554.87	12218.21
555.234	12293.69
555.597	12132.11
555.96	12211.2
556.323	12192.67
556.686	12149.74
557.05	12203.75
557.413	12202.84
557.776	12139.79
558.139	12144.31
558.502	12139.34
558.865	12157.19
559.228	12112.68
559.59	12235.16
559.953	12101.6
560.316	12118.78
560.679	12135.95
561.041	12175.95
561.404	12210.75
561.767	12242.39
562.129	12140.47
562.492	12264.31
562.854	12177.08
563.217	12143.86
563.579	12098.21
563.941	12138.21
564.304	12234.03
564.666	12257.76
565.028	12182.96
565.39	12224.09
565.753	12199
566.115	12230.86
566.477	12266.12
566.839	12270.19
567.201	12251.43
567.563	12281.71
567.925	12298.89
568.287	12368.26
568.648	12356.51
569.01	12339.79
569.372	12392.22
569.734	12289.62
570.095	12451.88
570.457	12429.73
570.819	12454.14
571.18	12416.17
571.542	12429.28
571.903	12502.72
572.265	12491.2
572.626	12472.44
572.987	12493.23
573.349	12509.95
573.71	12485.55
574.071	12479.22
574.432	12494.59
574.794	12584.75
575.155	12505.66
575.516	12497.07
575.877	12537.75
576.238	12546.79
576.599	12583.4
576.96	12579.33
577.32	12502.72
577.681	12564.64
578.042	12600.35
578.403	12556.51
578.763	12545.21
579.124	12516.28
579.485	12601.25
579.845	12728.48
580.206	12592.66
580.566	12563.06
580.927	12574.13
581.287	12649.84
581.648	12549.27
582.008	12639.67
582.368	12622.49
582.728	12650.74
583.089	12593.34
583.449	12526.45
583.809	12524.87
584.169	12564.64
584.529	12536.17
584.889	12624.3
585.249	12460.92
585.609	12463.63
585.969	12559.9
586.329	12489.16
586.688	12473.8
587.048	12495.49
587.408	12478.32
587.768	12457.3
588.127	12476.06
588.487	12452.33
588.846	12502.95
589.206	12444.19
589.565	12392.67
589.925	12453.01
590.284	12431.54
590.643	12488.94
591.003	12487.58
591.362	12482.16
591.721	12435.15
592.08	12481.71
592.44	12443.74
592.799	12377.08
593.158	12342.95
593.517	12351.99
593.876	12375.49
594.235	12404.87
594.593	12277.42
594.952	12238.55
595.311	12347.7
595.67	12311.77
596.029	12340.47
596.387	12446.45
596.746	12345.89
597.104	12361.48
597.463	12358.09
597.822	12352.44
598.18	12333.24
598.538	12269.51
598.897	12301.37
599.255	12329.17
599.613	12455.27
599.972	12347.25
600.33	12357.19
600.688	12336.62
601.046	12350.86
601.404	12445.32
601.762	12331.65
602.12	12351.77
602.478	12354.48
602.836	12348.6
603.194	12338.88
603.552	12377.53
603.91	12222.73
604.268	12323.07
604.625	12320.81
604.983	12332.56
605.341	12305.44
605.698	12318.09
606.056	12307.25
606.413	12302.5
606.771	12343.63
607.128	12410.07
607.485	12335.95
607.843	12285.1
608.2	12307.02
608.557	12393.57
608.914	12355.38
609.272	12371.2
609.629	12420.46
609.986	12410.97
610.343	12413.23
610.7	12483.06
611.057	12493.46
611.414	12521.7
611.771	12480.35
612.127	12506.79
612.484	12539.11
612.841	12568.26
613.198	12511.31
613.554	12447.58
613.911	12479.22
614.267	12519.22
614.624	12496.62
614.98	12575.71
615.337	12609.84
615.693	12575.26
616.05	12546.11
616.406	12638.54
616.762	12549.5
617.118	12507.24
617.475	12531.87
617.831	12637.86
618.187	12547.47
618.543	12615.04
618.899	12718.08
619.255	12726.45
619.611	12659.55
619.967	12698.2
620.323	12765.54
620.678	12681.47
621.034	12627.01
621.39	12690.97
621.746	12631.08
622.101	12817.06
622.457	12700.46
622.812	12690.06
623.168	12674.69
623.523	12697.97
623.879	12669.72
624.234	12632.21
624.589	12752.21
624.945	12747.24
625.3	12729.61
625.655	12626.79
626.01	12717.41
626.365	12663.17
626.72	12682.83
627.075	12704.75
627.43	12579.78
627.785	12611.19
628.14	12681.02
628.495	12716.28
628.85	12598.76
629.205	12574.13
629.559	12690.97
629.914	12590.18
630.269	12615.71
630.623	12639.89
630.978	12542.04
631.332	12596.96
631.687	12615.71
632.041	12509.5
632.396	12560.57
632.75	12543.62
633.104	12471.76
633.459	12481.71
633.813	12475.15
634.167	12538.43
634.521	12486.9
634.875	12489.62
635.229	12399.45
635.583	12402.16
635.937	12434.7
636.291	12414.14
636.645	12398.54
636.999	12373.69
637.352	12321.94
637.706	12285.78
638.06	12352.67
638.413	12330.07
638.767	12298.66
639.121	12300.47
639.474	12260.69
639.828	12223.41
640.181	12207.36
640.534	12177.08
640.888	12182.96
641.241	12097.08
641.594	12137.31
641.947	12199.68
642.301	12150.87
642.654	12200.81
643.007	12205.1
643.36	12180.7
643.713	12169.85
644.066	12210.07
644.419	12089.63
644.771	12025.45
645.124	11934.6
645.477	11896.86
645.83	11893.7
646.182	11807.15
646.535	11770.76
646.888	11774.83
647.24	11719.24
647.593	11755.85
647.945	11770.99
648.298	11714.95
648.65	11663.2
649.002	11684.66
649.355	11725.34
649.707	11700.03
650.059	11735.28
650.411	11821.38
650.763	11896.64
651.115	11988.39
651.467	11933.47
651.819	11949.06
652.171	11910.42
652.523	11948.39
652.875	11912.68
653.227	11862.06
653.578	12004.43
653.93	11972.57
654.282	11973.92
654.633	11832.01
654.985	11915.39
655.337	11944.54
655.688	12009.85
656.039	11946.58
656.391	11826.13
656.742	11973.92
657.094	11866.35
657.445	11919.46
657.796	11988.84
658.147	11983.64
658.498	11999.23
658.849	11988.39
659.2	11962.17
659.551	11930.53
659.902	11945.22
660.253	11983.87
660.604	11952.91
660.955	11989.29
661.306	11930.99
661.656	11941.61
662.007	11961.04
662.358	12052.34
662.708	12048.27
663.059	11943.64
663.409	11956.07
663.76	12053.47
664.11	11964.88
664.461	12077.2
664.811	12050.53
665.161	12029.29
665.511	12017.76
665.862	11929.86
666.212	12055.95
666.562	12040.36
666.912	11973.7
667.262	12014.15
667.612	12046.91
667.962	12046.24
668.312	12017.99
668.662	12120.59
669.011	11922.85
669.361	11969.4
669.711	11999.91
670.06	11961.95
670.41	11931.89
670.76	11975.5
671.109	12041.27
671.459	11905
671.808	11856.41
672.157	11933.7
672.507	11926.69
672.856	11914.94
673.205	11872.46
673.554	11925.11
673.904	11909.74
674.253	11941.38
674.602	11844.66
674.951	11714.72
675.3	11642.86
675.649	11876.07
675.998	11879.69
676.346	11870.42
676.695	11884.43
677.044	11794.72
677.393	11841.04
677.741	11793.81
678.09	11716.3
678.438	11731.22
678.787	11722.86
679.135	11724.66
679.484	11759.46
679.832	11723.53
680.181	11620.94
680.529	11636.53
680.877	11599.47
681.225	11570.09
681.573	11641.5
681.922	11564.22
682.27	11549.07
682.618	11505.01
682.966	11572.35
683.314	11547.94
683.661	11464.11
684.009	11432.69
684.357	11407.84
684.705	11364.22
685.053	11394.05
685.4	11384.33
685.748	11266.37
686.095	11306.82
686.443	11270.21
686.79	11289.87
687.138	11296.65
687.485	11207.61
687.832	11243.77
688.18	11221.4
688.527	11172.81
688.874	11175.53
689.221	11075.87
689.568	11123.78
689.915	11068.86
690.262	11033.38
690.609	10989.09
690.956	10918.36
691.303	10915.19
691.65	10845.36
691.997	10895.08
692.344	10825.48
692.69	10753.39
693.037	10774.86
693.383	10635.88
693.73	10791.13
694.077	10642.66
694.423	10620.74
694.769	10554.07
695.116	10523.79
695.462	10464.36
695.808	10411.7
696.155	10446.28
696.501	10355.89
696.847	10398.37
697.193	10269.33
697.539	10290.35
697.885	10230.69
698.231	10195.89
698.577	10208.09
698.923	10220.52
699.269	10118.15
699.614	10093.52
699.96	10048.78
700.306	10052.39
700.651	9965.39
700.997	9983.69
701.342	9921.32
701.688	9869.8
702.033	9829.12
702.379	9922.68
702.724	9793.19
703.069	9775.56
703.415	9700.54
703.76	9708.9
704.105	9688.33
704.45	9698.95
704.795	9515.91
705.14	9592.52
705.485	9534.21
705.83	9509.58
706.175	9497.15
706.52	9497.38
706.865	9437.04
707.209	9468.45
707.554	9415.8
707.899	9341.45
708.243	9355.91
708.588	9368.79
708.932	9279.3
709.277	9240.21
709.621	9227.78
709.966	9180.32
710.31	9218.06
710.654	9131.74
710.998	9145.3
711.342	9147.1
711.687	9172.19
712.031	8980.33
712.375	9050.16
712.719	9035.69
713.063	8992.08
713.407	9083.6
713.75	9009.48
714.094	8991.18
714.438	8978.97
714.782	8953.21
715.125	8931.97
715.469	8883.16
715.812	8934.91
716.156	8858.07
716.499	8796.83
716.843	8810.62
717.186	8759.54
717.53	8835.02
717.873	8811.52
718.216	8744.4
718.559	8754.35
718.902	8692.2
719.246	8642.71
719.589	8728.81
719.932	8657.63
720.275	8613.11
720.617	8641.13
720.96	8632.99
721.303	8637.96
721.646	8654.24
721.989	8616.95
722.331	8545.09
722.674	8587.34
723.016	8673.22
723.359	8602.03
723.701	8559.1
724.044	8553
724.386	8517.29
724.729	8586.89
725.071	8513.9
725.413	8555.26
725.755	8530.62
726.097	8536.05
726.439	8489.27
726.782	8474.35
727.124	8560.45
727.465	8449.72
727.807	8445.2
728.149	8443.17
728.491	8451.98
728.833	8431.42
729.175	8421.93
729.516	8439.78
729.858	8397.29
730.199	8423.28
730.541	8358.88
730.882	8439.1
731.224	8412.21
731.565	8373.11
731.906	8363.4
732.248	8408.14
732.589	8334.02
732.93	8398.88
733.271	8384.19
733.612	8374.92
733.953	8337.86
734.294	8403.17
734.635	8305.32
734.976	8360.23
735.317	8353.9
735.658	8394.58
735.999	8364.07
736.339	8366.56
736.68	8434.13
737.021	8374.02
737.361	8390.06
737.702	8424.19
738.042	8381.7
738.383	8387.8
738.723	8403.62
739.063	8408.14
739.404	8522.04
739.744	8453.11
740.084	8456.95
740.424	8483.62
740.764	8468.03
741.104	8544.63
741.444	8453.11
741.784	8457.18
742.124	8497.4
742.464	8496.73
742.804	8486.56
743.143	8566.33
743.483	8583.5
743.823	8603.16
744.162	8561.36
744.502	8637.51
744.841	8602.26
745.181	8662.37
745.52	8673.22
745.86	8812.42
746.199	8750.28
746.538	8747.11
746.877	8913.66
747.216	8964.96
747.556	8982.36
747.895	8943.04
748.234	9069.14
748.573	9014.9
748.911	9079.31
749.25	9236.82
749.589	9183.26
749.928	9297.61
750.267	9360.66
750.605	9510.94
750.944	9488.56
751.283	9572.18
751.621	9672.97
751.96	9735.56
752.298	9826.18
752.636	9893.75
752.975	9960.42
753.313	9937.37
753.651	10198.38
753.989	10159.96
754.327	10398.37
754.666	10518.59
755.004	10585.26
755.342	10745.03
755.679	10810.34
756.017	10873.84
756.355	11088.3
756.693	11121.97
757.031	11283.55
757.368	11436.08
757.706	11581.16
758.044	11755.17
758.381	11916.75
758.719	12015.5
759.056	12169.85
759.394	12310.86
