Data from hue_180_FLMS001491_00034.txt Node
Date: Tue Feb 07 16:46:54 GMT 2017
User: dcchb
Spectrometer: FLMS00149
Trigger mode: 0
Integration Time (sec): 2.000000E-2
Scans to average: 10
Electric dark correction enabled: true
Nonlinearity correction enabled: false
Boxcar width: 0
XAxis mode: Wavelengths
Number of Pixels in Spectrum: 2048
>>>>>Begin Spectral Data<<<<<
341.393	-23.86
341.776	-23.86
342.16	-23.86
342.543	-48.49
342.927	-64.98
343.31	-77.87
343.693	-62.72
344.077	-60.92
344.46	-53.91
344.843	-39.45
345.226	-64.98
345.61	-34.25
345.993	-35.61
346.376	-13.46
346.759	-4.42
347.142	35.8
347.525	39.42
347.908	78.74
348.291	59.08
348.674	117.38
349.057	117.16
349.44	121.9
349.823	135.46
350.206	170.94
350.588	194.22
350.971	199.64
351.354	199.42
351.737	253.65
352.119	251.17
352.502	261.33
352.884	267.21
353.267	284.61
353.65	298.4
354.032	288.23
354.414	296.36
354.797	310.15
355.179	320.99
355.562	327.32
355.944	320.99
356.326	333.65
356.709	334.33
357.091	313.99
357.473	335.91
357.855	351.28
358.238	326.42
358.62	330.49
359.002	348.56
359.384	331.84
359.766	338.17
360.148	332.07
360.53	347.66
360.912	330.94
361.294	356.25
361.676	344.95
362.057	320.54
362.439	344.27
362.821	332.75
363.203	328.68
363.584	322.12
363.966	336.14
364.348	321.9
364.729	324.61
365.111	320.32
365.493	315.8
365.874	324.16
366.256	300.88
366.637	322.12
367.019	302.46
367.4	306.98
367.781	326.42
368.163	307.89
368.544	314.89
368.925	320.09
369.306	338.17
369.688	322.58
370.069	320.09
370.45	300.2
370.831	304.95
371.212	318.28
371.593	321.45
371.974	312.41
372.355	313.54
372.736	306.98
373.117	315.8
373.498	330.94
373.879	327.1
374.26	312.41
374.641	326.87
375.021	334.1
375.402	301.56
375.783	303.14
376.163	319.86
376.544	336.81
376.925	344.72
377.305	356.7
377.686	329.13
378.066	345.4
378.447	340.43
378.827	331.84
379.208	329.58
379.588	312.41
379.968	314.67
380.349	336.14
380.729	348.34
381.109	312.41
381.489	357.38
381.87	350.15
382.25	348.79
382.63	329.36
383.01	336.36
383.39	333.88
383.77	339.07
384.15	318.51
384.53	336.14
384.91	361.22
385.29	335.91
385.67	362.8
386.049	360.32
386.429	360.54
386.809	339.52
387.189	349.02
387.568	352.18
387.948	364.38
388.328	356.25
388.707	361.45
389.087	339.75
389.466	363.03
389.846	357.6
390.225	355.8
390.605	359.19
390.984	360.32
391.363	366.42
391.743	380.2
392.122	366.87
392.501	381.33
392.881	396.92
393.26	382.01
393.639	369.58
394.018	375.23
394.397	391.95
394.776	380.88
395.155	396.7
395.534	410.03
395.913	382.24
396.292	379.75
396.671	383.82
397.05	395.34
397.429	391.28
397.808	412.29
398.186	408.45
398.565	402.12
398.944	384.04
399.323	400.09
399.701	396.7
400.08	403.93
400.458	423.82
400.837	399.18
401.215	405.51
401.594	417.94
401.972	429.01
402.351	435.79
402.729	420.88
403.107	445.28
403.486	434.66
403.864	433.08
404.242	420.43
404.62	433.76
404.999	444.38
405.377	452.97
405.755	459.07
406.133	443.93
406.511	462.91
406.889	464.27
407.267	483.48
407.645	467.66
408.023	477.83
408.401	484.15
408.779	481.22
409.156	522.8
409.534	500.2
409.912	516.7
410.29	514.44
410.667	520.76
411.045	530.93
411.422	532.51
411.8	504.72
412.178	554.21
412.555	543.36
412.933	575.45
413.31	551.04
413.687	551.5
414.065	555.56
414.442	590.37
414.819	600.31
415.197	593.3
415.574	611.38
415.951	618.16
416.328	625.17
416.705	606.41
417.082	649.57
417.46	622.23
417.837	647.99
418.214	628.1
418.591	656.58
418.967	655.67
419.344	677.37
419.721	672.17
420.098	673.75
420.475	690.02
420.852	717.37
421.228	717.14
421.605	717.82
421.982	747.2
422.358	742.68
422.735	744.49
423.111	767.08
423.488	774.54
423.864	785.39
424.241	802.56
424.617	815.67
424.994	831.26
425.37	824.26
425.746	838.72
426.123	828.55
426.499	848.21
426.875	880.98
427.251	866.52
427.627	890.02
428.003	882.11
428.379	897.7
428.756	915.78
429.132	920.3
429.507	932.05
429.883	973.86
430.259	964.14
430.635	963.92
431.011	989.45
431.387	1014.31
431.763	1011.82
432.138	1004.14
432.514	1036.68
432.89	1035.55
433.265	1065.61
433.641	1098.38
434.016	1102.44
434.392	1113.74
434.767	1143.57
435.143	1133.4
435.518	1186.51
435.894	1167.3
436.269	1208.88
436.644	1224.02
437.02	1228.09
437.395	1235.55
437.77	1272.83
438.145	1278.94
438.52	1319.84
438.895	1323.23
439.271	1327.3
439.646	1346.05
440.021	1351.48
440.395	1397.35
440.77	1368.42
441.145	1389.21
441.52	1455.43
441.895	1427.63
442.27	1467.63
442.645	1442.09
443.019	1470.34
443.394	1487.74
443.769	1491.59
444.143	1524.8
444.518	1567.52
444.892	1540.85
445.267	1559.61
445.641	1559.83
446.016	1567.97
446.39	1609.77
446.764	1612.03
447.139	1587.18
447.513	1593.28
447.887	1654.74
448.262	1673.05
448.636	1669.66
449.01	1687.51
449.384	1688.87
449.758	1688.42
450.132	1759.6
450.506	1764.35
450.88	1752.6
451.254	1786.04
451.628	1768.87
452.002	1783.78
452.376	1837.11
452.75	1831.69
453.123	1868.52
453.497	1905.13
453.871	1892.48
454.244	1943.1
454.618	1997.79
454.992	1980.39
455.365	1978.13
455.739	2034.17
456.112	2065.81
456.486	2089.99
456.859	2105.35
457.232	2144.45
457.606	2153.26
457.979	2168.4
458.352	2221.28
458.725	2257.21
459.099	2207.95
459.472	2293.15
459.845	2321.85
460.218	2320.94
460.591	2350.77
460.964	2376.99
461.337	2461.28
461.71	2496.53
462.083	2519.13
462.456	2494.5
462.829	2515.29
463.201	2573.36
463.574	2565.68
463.947	2637.54
464.32	2714.6
464.692	2718.9
465.065	2719.8
465.438	2798.67
465.81	2828.5
466.183	2882.96
466.555	2922.06
466.928	2957.76
467.3	2949.85
467.672	3016.52
468.045	3070.3
468.417	3117.31
468.789	3145.1
469.161	3180.58
469.534	3259
469.906	3316.4
470.278	3352.55
470.65	3399.11
471.022	3460.57
471.394	3511.42
471.766	3561.81
472.138	3638.2
472.51	3701.02
472.882	3790.28
473.253	3789.38
473.625	3831.41
473.997	3960.45
474.369	3952.99
474.74	4033.44
475.112	4109.82
475.484	4206.54
475.855	4283.38
476.227	4320.44
476.598	4474.78
476.97	4515.01
477.341	4626.42
477.713	4701.67
478.084	4738.96
478.455	4893.76
478.827	4909.8
479.198	5128.1
479.569	5076.35
479.94	5246.06
480.311	5339.62
480.682	5440.63
481.053	5613.28
481.424	5710.91
481.795	5686.95
482.166	5874.52
482.537	5955.65
482.908	6061.86
483.279	6152.03
483.65	6233.16
484.021	6461.85
484.391	6485.8
484.762	6586.37
485.133	6687.61
485.503	6822.07
485.874	6940.03
486.244	7008.95
486.615	7196.52
486.985	7219.12
487.356	7359
487.726	7481.48
488.097	7717.86
488.467	7681.25
488.837	7916.73
489.207	8001.02
489.578	8081.02
489.948	8227.23
490.318	8337.96
490.688	8359.88
491.058	8530.27
491.428	8612.75
491.798	8725.75
492.168	8902.92
492.538	8950.15
492.908	9009.35
493.278	9158.05
493.648	9198.95
494.017	9371.83
494.387	9402.79
494.757	9494.76
495.126	9567.98
495.496	9663.35
495.866	9693.63
496.235	9850.46
496.605	9880.07
496.974	10007.52
497.344	10057.01
497.713	10058.82
498.082	10130.45
498.452	10301.07
498.821	10316.66
499.19	10330.45
499.559	10440.05
499.928	10466.49
500.298	10528.41
500.667	10614.28
501.036	10528.86
501.405	10729.53
501.774	10670.78
502.143	10786.71
502.512	10871.45
502.88	10901.73
503.249	10903.32
503.618	10927.95
503.987	11010.88
504.356	11070.09
504.724	11195.51
505.093	11070.77
505.462	11139.24
505.83	11232.12
506.199	11322.74
506.567	11348.05
506.936	11363.19
507.304	11489.74
507.672	11495.16
508.041	11487.93
508.409	11597.53
508.777	11600.47
509.145	11679.79
509.514	11678.89
509.882	11737.64
510.25	11739.23
510.618	11861.48
510.986	11757.53
511.354	11958.65
511.722	11863.29
512.09	11939.9
512.458	11904.87
512.826	11992.1
513.193	11987.81
513.561	12065.32
513.929	12111.42
514.297	12135.6
514.664	12136.73
515.032	12155.26
515.4	12202.04
515.767	12233.68
516.135	12303.5
516.502	12206.56
516.869	12302.6
517.237	12364.75
517.604	12275.93
517.972	12349.38
518.339	12402.26
518.706	12426.44
519.073	12341.47
519.44	12391.41
519.808	12460.34
520.175	12406.78
520.542	12514.57
520.909	12561.58
521.276	12514.57
521.643	12566.55
522.009	12602.71
522.376	12675.02
522.743	12611.74
523.11	12702.14
523.477	12765.86
523.843	12814.9
524.21	12832.3
524.577	12852.19
524.943	12795.92
525.31	12824.39
525.676	12871.4
526.043	12875.47
526.409	12926.76
526.776	12988.68
527.142	12985.75
527.508	12989.59
527.874	12967.89
528.241	13011.06
528.607	13016.48
528.973	12977.84
529.339	12937.84
529.705	13037.95
530.071	13015.8
530.437	12901
530.803	12946.2
531.169	13012.64
531.535	12885.18
531.901	12911.17
532.267	12996.82
532.632	12915.92
532.998	12869.37
533.364	12893.09
533.73	12831.17
534.095	12987.33
534.461	12875.01
534.826	12838.86
535.192	12784.4
535.557	12738.3
535.923	12734.68
536.288	12753.21
536.653	12767.45
537.019	12723.83
537.384	12633.44
537.749	12620.56
538.114	12595.93
538.479	12495.36
538.845	12441.81
539.21	12396.61
539.575	12363.62
539.94	12433.9
540.305	12440
540.67	12407
541.034	12284.3
541.399	12341.24
541.764	12232.77
542.129	12201.36
542.494	12121.36
542.858	12152.55
543.223	12091.53
543.587	12073.23
543.952	11976.51
544.316	11941.03
544.681	11912.78
545.045	11917.98
545.41	11918.88
545.774	11864.65
546.138	11751.65
546.503	11757.3
546.867	11737.87
547.231	11762.05
547.595	11680.92
547.959	11558.44
548.324	11592.56
548.688	11563.18
549.052	11474.6
549.416	11415.62
549.779	11472.57
550.143	11393.47
550.507	11461.72
550.871	11344.66
551.235	11315.51
551.599	11252.91
551.962	11273.7
552.326	11256.3
552.689	11201.16
553.053	11112.8
553.417	11089.07
553.78	11206.81
554.143	11027.61
554.507	11074.84
554.87	11043.2
555.234	11089.07
555.597	10934.05
555.96	10919.13
556.323	10983.31
556.686	10880.94
557.05	10966.82
557.413	10932.01
557.776	10851.11
558.139	10859.25
558.502	10829.64
558.865	10861.73
559.228	10924.33
559.59	10804.33
559.953	10807.05
560.316	10797.56
560.679	10875.52
561.041	10804.33
561.404	10875.75
561.767	10908.51
562.129	10811.79
562.492	10821.28
562.854	10815.63
563.217	10789.87
563.579	10788.29
563.941	10734.96
564.304	10801.17
564.666	10845.69
565.028	10808.18
565.39	10715.07
565.753	10797.1
566.115	10834.16
566.477	10847.05
566.839	10873.71
567.201	10838.23
567.563	10860.38
567.925	10955.29
568.287	10889.98
568.648	10852.47
569.01	10867.16
569.372	10915.97
569.734	10804.33
570.095	10860.6
570.457	10918.46
570.819	10957.78
571.18	10921.17
571.542	10875.75
571.903	10958.23
572.265	10921.39
572.626	10955.74
572.987	10935.86
573.349	10970.43
573.71	10993.48
574.071	10977.66
574.432	10976.53
574.794	11036.87
575.155	10993.26
575.516	10997.55
575.877	10978.57
576.238	10969.08
576.599	11001.62
576.96	10991.45
577.32	10923.88
577.681	11063.08
578.042	11050.43
578.403	11055.4
578.763	11053.14
579.124	10997.32
579.485	11005.23
579.845	11006.36
580.206	11022.86
580.566	10967.04
580.927	11032.8
581.287	11021.96
581.648	10955.52
582.008	11016.98
582.368	10992.58
582.728	11001.84
583.089	10922.07
583.449	10924.33
583.809	10982.41
584.169	10982.63
584.529	10968.85
584.889	11016.98
585.249	10947.61
585.609	10873.94
585.969	10914.39
586.329	10854.05
586.688	10857.21
587.048	10821.74
587.408	10792.13
587.768	10856.08
588.127	10841.17
588.487	10812.24
588.846	10879.13
589.206	10743.77
589.565	10772.92
589.925	10844.56
590.284	10787.16
590.643	10845.69
591.003	10821.06
591.362	10815.18
591.721	10828.74
592.08	10792.58
592.44	10801.85
592.799	10792.81
593.158	10770.66
593.517	10774.96
593.876	10765.01
594.235	10759.59
594.593	10722.53
594.952	10742.42
595.311	10609.54
595.67	10639.14
596.029	10713.04
596.387	10752.13
596.746	10736.99
597.104	10714.62
597.463	10662.87
597.822	10606.15
598.18	10588.3
598.538	10719.82
598.897	10808.4
599.255	10667.84
599.613	10731.34
599.972	10612.7
600.33	10793.26
600.688	10623.32
601.046	10651.34
601.404	10758.91
601.762	10674.85
602.12	10732.7
602.478	10720.27
602.836	10732.02
603.194	10699.93
603.552	10615.64
603.91	10596.88
604.268	10675.75
604.625	10626.94
604.983	10638.69
605.341	10588.97
605.698	10601.63
606.056	10690.21
606.413	10636.66
606.771	10686.15
607.128	10637.11
607.485	10606.15
607.843	10652.47
608.2	10654.96
608.557	10733.83
608.914	10679.37
609.272	10766.82
609.629	10718.01
609.986	10775.41
610.343	10690.21
610.7	10788.74
611.057	10794.17
611.414	10749.42
611.771	10796.2
612.127	10739.03
612.484	10753.26
612.841	10780.61
613.198	10783.09
613.554	10771.34
613.911	10804.33
614.267	10809.08
614.624	10698.57
614.98	10765.69
615.337	10852.47
615.693	10827.16
616.05	10781.51
616.406	10771.57
616.762	10903.54
617.118	10758.91
617.475	10788.06
617.831	10898.57
618.187	10842.53
618.543	10886.82
618.899	10860.6
619.255	10888.85
619.611	10875.52
619.967	10915.07
620.323	10931.56
620.678	10875.97
621.034	10862.86
621.39	10920.94
621.746	10895.86
622.101	10946.93
622.457	10849.08
622.812	10917.55
623.168	10934.5
623.523	10894.95
623.879	10879.36
624.234	10901.51
624.589	10863.99
624.945	10930.43
625.3	10912.13
625.655	10963.88
626.01	10967.49
626.365	10946.03
626.72	10839.14
627.075	10926.59
627.43	10865.8
627.785	10820.38
628.14	10831.68
628.495	10869.42
628.85	10775.18
629.205	10835.75
629.559	10870.77
629.914	10762.75
630.269	10807.05
630.623	10806.14
630.978	10734.96
631.332	10807.27
631.687	10795.52
632.041	10774.96
632.396	10811.79
632.75	10685.47
633.104	10689.76
633.459	10732.47
633.813	10706.71
634.167	10609.54
634.521	10727.5
634.875	10721.85
635.229	10688.86
635.583	10545.58
635.937	10615.86
636.291	10535.87
636.645	10539.48
636.999	10529.54
637.352	10515.53
637.706	10534.74
638.06	10525.25
638.413	10503.33
638.767	10497.68
639.121	10552.36
639.474	10495.42
639.828	10419.94
640.181	10445.02
640.534	10381.52
640.888	10480.05
641.241	10407.28
641.594	10399.37
641.947	10494.06
642.301	10402.99
642.654	10448.41
643.007	10447.96
643.36	10389.2
643.713	10316.44
644.066	10387.85
644.419	10350.79
644.771	10286.38
645.124	10198.7
645.477	10155.54
645.83	10211.58
646.182	10038.7
646.535	10054.52
646.888	10100.62
647.24	9968.42
647.593	10049.1
647.945	10058.82
648.298	9937.92
648.65	9952.83
649.002	9947.18
649.355	10015.43
649.707	10024.24
650.059	10014.52
650.411	10082.32
650.763	10136.78
651.115	10223.78
651.467	10215.88
651.819	10214.52
652.171	10181.07
652.523	10201.19
652.875	10171.36
653.227	10218.14
653.578	10229.21
653.93	10174.29
654.282	10204.8
654.633	10145.14
654.985	10188.08
655.337	10226.72
655.688	10235.08
656.039	10217.01
656.391	10191.47
656.742	10193.73
657.094	10168.19
657.445	10243.45
657.796	10228.53
658.147	10235.76
658.498	10191.02
658.849	10283.67
659.2	10144.69
659.551	10202.32
659.902	10243.22
660.253	10158.7
660.604	10280.73
660.955	10233.95
661.306	10205.03
661.656	10208.42
662.007	10278.47
662.358	10263.78
662.708	10188.08
663.059	10241.41
663.409	10253.84
663.76	10238.93
664.11	10246.16
664.461	10224.69
664.811	10275.53
665.161	10231.69
665.511	10274.63
665.862	10204.8
666.212	10312.6
666.562	10275.53
666.912	10231.47
667.262	10215.88
667.612	10215.65
667.962	10261.52
668.312	10230.56
668.662	10293.39
669.011	10257.23
669.361	10257
669.711	10199.38
670.06	10183.79
670.41	10217.23
670.76	10206.38
671.109	10174.75
671.459	10243.22
671.808	10177.23
672.157	10168.19
672.507	10110.57
672.856	10215.42
673.205	10103.11
673.554	10211.58
673.904	10112.83
674.253	10162.54
674.602	10158.48
674.951	10033.28
675.3	9937.69
675.649	10094.52
675.998	10109.44
676.346	10122.32
676.695	10033.51
677.044	10021.76
677.393	10060.4
677.741	10091.36
678.09	10035.99
678.438	9978.82
678.787	10007.52
679.135	10078.25
679.484	9962.55
679.832	10070.57
680.181	9902.44
680.529	9973.4
680.877	9863.34
681.225	9836.45
681.573	9968.65
681.922	9785.38
682.27	9784.02
682.618	9836.22
682.966	9814.3
683.314	9856.34
683.661	9723.46
684.009	9792.16
684.357	9764.36
684.705	9691.6
685.053	9680.3
685.4	9664.93
685.748	9633.97
686.095	9675.55
686.443	9635.33
686.79	9641.65
687.138	9562.33
687.485	9576.57
687.832	9502.67
688.18	9508.55
688.527	9411.6
688.874	9406.41
689.221	9437.36
689.568	9398.95
689.915	9353.07
690.262	9377.03
690.609	9383.81
690.956	9296.13
691.303	9267.43
691.65	9223.81
691.997	9255.67
692.344	9176.58
692.69	9140.42
693.037	9116.24
693.383	9121.44
693.73	9088.9
694.077	8957.83
694.423	9048
694.769	8993.99
695.116	8941.33
695.462	8945.17
695.808	8887.55
696.155	8925.97
696.501	8892.52
696.847	8825.86
697.193	8731.17
697.539	8793.54
697.885	8687.1
698.231	8656.82
698.577	8679.64
698.923	8691.62
699.269	8618.18
699.614	8527.11
699.96	8506.99
700.306	8481.46
700.651	8452.53
700.997	8460.89
701.342	8358.75
701.688	8402.82
702.033	8358.07
702.379	8339.31
702.724	8316.04
703.069	8288.47
703.415	8208.02
703.76	8201.47
704.105	8172.31
704.45	8214.35
704.795	8110.17
705.14	8118.3
705.485	8060.9
705.83	8046.67
706.175	8013
706.52	8025.65
706.865	7940.46
707.209	7896.61
707.554	7928.7
707.899	7941.36
708.243	7901.81
708.588	7934.81
708.932	7784.07
709.277	7879.21
709.621	7803.51
709.966	7717.86
710.31	7771.65
710.654	7715.6
710.998	7733.45
711.342	7775.04
711.687	7691.65
712.031	7639.22
712.375	7640.58
712.719	7621.82
713.063	7587.02
713.407	7623.18
713.75	7563.74
714.094	7564.65
714.438	7452.56
714.782	7534.14
715.125	7500.24
715.469	7458.43
715.812	7507.02
716.156	7479
716.499	7475.61
716.843	7458.43
717.186	7439.23
717.53	7438.32
717.873	7427.25
718.216	7403.07
718.559	7387.25
718.902	7329.4
719.246	7350.87
719.589	7363.3
719.932	7323.07
720.275	7291.88
720.617	7332.11
720.96	7306.8
721.303	7349.28
721.646	7337.99
721.989	7257.54
722.331	7281.94
722.674	7284.65
723.016	7250.08
723.359	7241.04
723.701	7268.61
724.044	7246.46
724.386	7155.84
724.729	7211.21
725.071	7176.63
725.413	7175.96
725.755	7168.27
726.097	7190.87
726.439	7149.52
726.782	7112.91
727.124	7158.33
727.465	7120.82
727.807	7128.27
728.149	7180.02
728.491	7182.28
728.833	7141.61
729.175	7162.4
729.516	7158.33
729.858	7109.06
730.199	7092.34
730.541	7055.05
730.882	7136.86
731.224	7169.85
731.565	7144.32
731.906	7104.32
732.248	7060.7
732.589	7088.5
732.93	7066.35
733.271	7138.89
733.612	7122.4
733.953	7078.56
734.294	7108.84
734.635	7049.41
734.976	7105.67
735.317	7072
735.658	7129.85
735.999	7104.09
736.339	7081.27
736.68	7095.96
737.021	7134.37
737.361	7073.81
737.702	7123.53
738.042	7120.14
738.383	7120.14
738.723	7149.06
739.063	7119.23
739.404	7154.71
739.744	7151.32
740.084	7116.07
740.424	7168.72
740.764	7186.8
741.104	7219.34
741.444	7165.11
741.784	7202.85
742.124	7234.94
742.464	7275.84
742.804	7274.71
743.143	7270.87
743.483	7234.48
743.823	7310.42
744.162	7302.05
744.502	7316.52
744.841	7351.54
745.181	7407.81
745.52	7394.48
745.86	7455.5
746.199	7505.66
746.538	7529.84
746.877	7596.06
747.216	7612.1
747.556	7658.65
747.895	7702.5
748.234	7728.48
748.573	7783.17
748.911	7910.85
749.25	7867.69
749.589	7916.95
749.928	8012.54
750.267	8093.9
750.605	8048.47
750.944	8158.3
751.283	8215.93
751.621	8347.45
751.96	8390.16
752.298	8499.31
752.636	8553.55
752.975	8575.92
753.313	8692.75
753.651	8844.39
753.989	8872.41
754.327	8990.14
754.666	9089.8
755.004	9207.54
755.342	9355.11
755.679	9411.15
756.017	9493.41
756.355	9708.32
756.693	9759.39
757.031	10030.57
757.368	10073.05
757.706	10207.51
758.044	10366.83
758.381	10486.83
758.719	10598.69
759.056	10786.03
759.394	10919.59
