Data from hue_200_FLMS001491_00067.txt Node
Date: Tue Feb 07 16:43:47 GMT 2017
User: dcchb
Spectrometer: FLMS00149
Trigger mode: 0
Integration Time (sec): 2.000000E-2
Scans to average: 10
Electric dark correction enabled: true
Nonlinearity correction enabled: false
Boxcar width: 0
XAxis mode: Wavelengths
Number of Pixels in Spectrum: 2048
>>>>>Begin Spectral Data<<<<<
341.393	-30.93
341.776	-30.93
342.16	-30.93
342.543	-57.82
342.927	-72.51
343.31	-77.26
343.693	-67.77
344.077	-84.04
344.46	-63.02
344.843	-43.36
345.226	-38.84
345.61	-28.22
345.993	-16.47
346.376	-10.14
346.759	3.42
347.142	39.58
347.525	50.42
347.908	58.33
348.291	70.31
348.674	100.59
349.057	106.47
349.44	118.67
349.823	146.69
350.206	145.56
350.588	187.37
350.971	218.1
351.354	229.4
351.737	224.88
352.119	255.84
352.502	256.52
352.884	269.17
353.267	271.21
353.65	270.76
354.032	292
354.414	294.94
354.797	317.08
355.179	323.64
355.562	329.51
355.944	315.05
356.326	315.27
356.709	327.7
357.091	330.42
357.473	328.83
357.855	322.73
358.238	317.76
358.62	332.9
359.002	345.33
359.384	330.42
359.766	340.58
360.148	338.55
360.53	315.73
360.912	341.71
361.294	330.87
361.676	331.32
362.057	323.41
362.439	336.52
362.821	339.68
363.203	337.87
363.584	306.91
363.966	333.8
364.348	328.83
364.729	323.41
365.111	321.83
365.493	317.76
365.874	327.7
366.256	331.77
366.637	314.14
367.019	309.17
367.4	323.64
367.781	303.75
368.163	341.26
368.544	318.21
368.925	308.95
369.306	326.57
369.688	318.21
370.069	320.25
370.45	325.22
370.831	313.47
371.212	309.85
371.593	320.02
371.974	304.43
372.355	310.08
372.736	340.36
373.117	310.75
373.498	328.38
373.879	299
374.26	303.07
374.641	297.42
375.021	319.57
375.402	325.9
375.783	341.71
376.163	325.44
376.544	321.38
376.925	331.77
377.305	332
377.686	319.79
378.066	322.73
378.447	315.05
378.827	334.93
379.208	332.45
379.588	339.91
379.968	346.91
380.349	338.55
380.729	355.05
381.109	331.77
381.489	360.24
381.87	369.96
382.25	355.05
382.63	360.7
383.01	358.66
383.39	363.18
383.77	351.88
384.15	364.31
384.53	359.34
384.91	347.59
385.29	361.15
385.67	354.14
386.049	346.46
386.429	353.47
386.809	374.93
387.189	364.09
387.568	351.43
387.948	368.38
388.328	379.91
388.707	367.7
389.087	358.66
389.466	378.55
389.846	357.98
390.225	386.91
390.605	374.93
390.984	392.33
391.363	370.19
391.743	386.91
392.122	416.06
392.501	393.01
392.881	385.78
393.26	396.18
393.639	379.23
394.018	391.66
394.397	389.85
394.776	399.57
395.155	407.7
395.534	399.11
395.913	388.94
396.292	405.67
396.671	401.37
397.05	408.15
397.429	421.49
397.808	415.38
398.186	420.13
398.565	423.29
398.944	412.22
399.323	425.33
399.701	438.43
400.08	427.81
400.458	450.86
400.837	439.11
401.215	457.19
401.594	484.08
401.972	460.36
402.351	450.64
402.729	450.19
403.107	460.13
403.486	459.45
403.864	469.39
404.242	476.63
404.62	482.05
404.999	473.69
405.377	482.95
405.755	482.73
406.133	493.57
406.511	509.17
406.889	516.17
407.267	516.17
407.645	519.56
408.023	524.08
408.401	528.6
408.779	546.68
409.156	543.06
409.534	544.19
409.912	547.13
410.29	579
410.667	586
411.045	595.27
411.422	601.82
411.8	585.1
412.178	626.68
412.555	638.43
412.933	651.31
413.31	656.06
413.687	666.23
414.065	669.62
414.442	679.33
414.819	682.95
415.197	687.02
415.574	696.96
415.951	712.33
416.328	726.56
416.705	716.62
417.082	741.25
417.46	758.88
417.837	774.92
418.214	781.48
418.591	806.56
418.967	794.81
419.344	801.59
419.721	812.44
420.098	836.16
420.475	850.85
420.852	852.89
421.228	890.17
421.605	886.78
421.982	900.12
422.358	920.91
422.735	964.75
423.111	941.02
423.488	967.46
423.864	993.9
424.241	1025.99
424.617	1006.78
424.994	1016.72
425.37	1063.5
425.746	1058.31
426.123	1087.46
426.499	1082.03
426.875	1121.58
427.251	1147.12
427.627	1160
428.003	1176.49
428.379	1165.42
428.756	1180.11
429.132	1202.93
429.507	1210.17
429.883	1258.53
430.259	1257.62
430.635	1257.85
431.011	1260.79
431.387	1287.45
431.763	1353.21
432.138	1356.6
432.514	1360.44
432.89	1367.22
433.265	1400.44
433.641	1469.82
434.016	1445.41
434.392	1502.59
434.767	1534.45
435.143	1505.53
435.518	1571.96
435.894	1557.28
436.269	1631.4
436.644	1674.33
437.02	1640.89
437.395	1704.62
437.77	1744.16
438.145	1779.64
438.52	1795.69
438.895	1845.18
439.271	1838.62
439.646	1869.36
440.021	1917.72
440.395	1902.35
440.77	1904.84
441.145	1958.39
441.52	2000.43
441.895	2030.71
442.27	2058.73
442.645	2046.53
443.019	2121.1
443.394	2096.24
443.769	2142.12
444.143	2124.49
444.518	2190.93
444.892	2179.18
445.267	2192.96
445.641	2191.61
446.016	2258.27
446.39	2275.22
446.764	2309.35
447.139	2289.46
447.513	2370.81
447.887	2312.28
448.262	2373.53
448.636	2366.97
449.01	2428.66
449.384	2441.55
449.758	2461.43
450.132	2499.62
450.506	2489.91
450.88	2497.59
451.254	2507.53
451.628	2599.73
452.002	2604.03
452.376	2582.33
452.75	2652.39
453.123	2651.26
453.497	2686.29
453.871	2715.21
454.244	2766.06
454.618	2794.08
454.992	2825.04
455.365	2817.13
455.739	2919.5
456.112	2946.62
456.486	2959.05
456.859	2990.01
457.232	3054.64
457.606	3036.56
457.979	3083.79
458.352	3148.87
458.725	3188.19
459.099	3216.21
459.472	3209.66
459.845	3284.01
460.218	3313.16
460.591	3361.07
460.964	3372.37
461.337	3425.7
461.71	3506.83
462.083	3571.91
462.456	3507.28
462.829	3582.08
463.201	3632.93
463.574	3617.56
463.947	3697.33
464.32	3775.75
464.692	3788.4
465.065	3822.3
465.438	3881.06
465.81	3928.74
466.183	4004.22
466.555	4105.01
466.928	4096.42
467.3	4126.02
467.672	4150.2
468.045	4263.42
468.417	4293.47
468.789	4319.01
469.161	4366.24
469.534	4441.49
469.906	4532.56
470.278	4502.73
470.65	4608.49
471.022	4636.06
471.394	4782.73
471.766	4782.73
472.138	4870.86
472.51	4969.39
472.882	4983.4
473.253	5095.71
473.625	5133.45
473.997	5243.05
474.369	5272.88
474.74	5297.74
475.112	5440.34
475.484	5529.6
475.855	5601.24
476.227	5704.51
476.598	5780.44
476.97	5730.73
477.341	5942.7
477.713	5957.16
478.084	6042.58
478.455	6233.08
478.827	6222.01
479.198	6425.17
479.569	6437.6
479.94	6597.14
480.311	6621.55
480.682	6772.28
481.053	6939.96
481.424	6971.37
481.795	7056.11
482.166	7199.16
482.537	7316.9
482.908	7456.78
483.279	7460.85
483.65	7607.51
484.021	7744.23
484.391	7794.85
484.762	7896.32
485.133	7897
485.503	8012.47
485.874	8180.6
486.244	8218.57
486.615	8436.19
486.985	8456.3
487.356	8630.08
487.726	8645.9
488.097	8794.83
488.467	8876.86
488.837	9016.97
489.207	9128.6
489.578	9240.92
489.948	9365.66
490.318	9417.86
490.688	9410.18
491.058	9560.68
491.428	9683.39
491.798	9800.9
492.168	9956.83
492.538	9936.49
492.908	9955.47
493.278	10205.41
493.648	10196.6
494.017	10303.49
494.387	10390.94
494.757	10430.26
495.126	10524.95
495.496	10569.92
495.866	10669.58
496.235	10736.47
496.605	10780.76
496.974	10801.55
497.344	10900.31
497.713	11006.07
498.082	10983.92
498.452	11125.61
498.821	11167.87
499.19	11082
499.559	11218.04
499.928	11267.3
500.298	11285.38
500.667	11365.15
501.036	11399.95
501.405	11444.25
501.774	11484.7
502.143	11550.01
502.512	11566.96
502.88	11668.87
503.249	11649.44
503.618	11738.93
503.987	11729.66
504.356	11807.63
504.724	11821.86
505.093	11863.22
505.462	11896.44
505.83	11884.69
506.199	11927.62
506.567	12078.58
506.936	12108.18
507.304	12138.47
507.672	12120.61
508.041	12163.78
508.409	12308.86
508.777	12296.88
509.145	12371.45
509.514	12357.9
509.882	12460.94
510.25	12373.94
510.618	12469.08
510.986	12420.72
511.354	12538.91
511.722	12593.82
512.09	12673.82
512.458	12721.5
512.826	12699.58
513.193	12733.93
513.561	12702.29
513.929	12735.51
514.297	12849.63
514.664	12921.27
515.032	12751.11
515.4	12932.34
515.767	12918.56
516.135	12893.25
516.502	12914.49
516.869	12925.79
517.237	13016.41
517.604	12885.79
517.972	12970.53
518.339	13089.63
518.706	13041.04
519.073	13008.05
519.44	13147.25
519.808	13224.99
520.175	13102.51
520.542	13230.41
520.909	13243.52
521.276	13265.67
521.643	13311.99
522.009	13363.97
522.376	13351.54
522.743	13330.53
523.11	13402.84
523.477	13478.09
523.843	13474.93
524.21	13536.62
524.577	13594.93
524.943	13579.78
525.31	13522.61
525.676	13613
526.043	13650.29
526.409	13679.22
526.776	13757.18
527.142	13608.71
527.508	13701.59
527.874	13680.12
528.241	13711.31
528.607	13662.95
528.973	13745.2
529.339	13741.14
529.705	13789.72
530.071	13698.88
530.437	13712.66
530.803	13775.03
531.169	13687.35
531.535	13638.54
531.901	13634.7
532.267	13642.16
532.632	13699.78
532.998	13707.24
533.364	13630.4
533.73	13710.85
534.095	13714.92
534.461	13591.76
534.826	13584.76
535.192	13589.73
535.557	13616.17
535.923	13621.59
536.288	13548.15
536.653	13517.64
537.019	13388.6
537.384	13390.86
537.749	13324.65
538.114	13367.13
538.479	13360.13
538.845	13304.76
539.21	13181.83
539.575	13151.77
539.94	13206.69
540.305	13149.96
540.67	13072.45
541.034	13190.87
541.399	13148.16
541.764	13042.62
542.129	13096.18
542.494	12982.51
542.858	13027.03
543.223	12896.86
543.587	12979.12
543.952	12812.12
544.316	12840.37
544.681	12800.6
545.045	12763.31
545.41	12786.58
545.774	12750.88
546.138	12698.68
546.503	12581.84
546.867	12570.55
547.231	12563.31
547.595	12474.28
547.959	12452.58
548.324	12366.93
548.688	12380.49
549.052	12296.65
549.416	12345.47
549.779	12245.13
550.143	12239.03
550.507	12267.5
550.871	12239.03
551.235	12143.89
551.599	12114.29
551.962	12120.61
552.326	12085.13
552.689	12058.47
553.053	11930.56
553.417	11890.79
553.78	12000.62
554.143	11848.3
554.507	11938.25
554.87	11851.02
555.234	11949.32
555.597	11818.47
555.96	11772.83
556.323	11830
556.686	11744.13
557.05	11801.75
557.413	11735.99
557.776	11684.47
558.139	11756.78
558.502	11727.4
558.865	11699.83
559.228	11732.38
559.59	11678.37
559.953	11659.38
560.316	11699.61
560.679	11705.71
561.041	11722.43
561.404	11623.68
561.767	11697.35
562.129	11652.6
562.492	11703.68
562.854	11643.56
563.217	11618.03
563.579	11678.82
563.941	11647.63
564.304	11690.57
564.666	11706.61
565.028	11644.47
565.39	11639.5
565.753	11670.68
566.115	11710.23
566.477	11757.91
566.839	11720.85
567.201	11781.87
567.563	11727.4
567.925	11782.54
568.287	11794.29
568.648	11752.26
569.01	11815.54
569.372	11862.32
569.734	11764.01
570.095	11860.28
570.457	11862.32
570.819	11899.83
571.18	11811.47
571.542	11864.58
571.903	11851.92
572.265	11878.81
572.626	11820.51
572.987	11877.23
573.349	11889.89
573.71	12013.5
574.071	11973.27
574.432	11923.78
574.794	12003.33
575.155	11957
575.516	11898.7
575.877	12046.04
576.238	12034.29
576.599	12051.69
576.96	12023.67
577.32	12044.23
577.681	12043.1
578.042	12022.76
578.403	12034.97
578.763	11985.93
579.124	12012.82
579.485	12105.02
579.845	12109.54
580.206	12020.5
580.566	11975.08
580.927	12052.59
581.287	12042.88
581.648	12033.16
582.008	12136.88
582.368	12010.11
582.728	12036.1
583.089	12055.76
583.449	12017.57
583.809	11943.89
584.169	12047.62
584.529	12024.8
584.889	12114.74
585.249	11952.71
585.609	11941.86
585.969	11991.13
586.329	11934.86
586.688	11963.78
587.048	11904.35
587.408	12005.59
587.768	11923.56
588.127	11989.77
588.487	11929.43
588.846	11961.75
589.206	11909.55
589.565	11913.16
589.925	11919.49
590.284	11898.25
590.643	11924.46
591.003	11910.45
591.362	11864.8
591.721	11926.49
592.08	11814.86
592.44	11876.78
592.799	11870
593.158	11893.05
593.517	11891.02
593.876	11859.83
594.235	11776.22
594.593	11905.93
594.952	11842.43
595.311	11794.29
595.67	11822.09
596.029	11852.82
596.387	11889.21
596.746	11877.46
597.104	11829.1
597.463	11816.67
597.822	11793.39
598.18	11774.63
598.538	11792.71
598.897	11837.91
599.255	11766.95
599.613	11915.87
599.972	11800.17
600.33	11784.35
600.688	11707.29
601.046	11788.19
601.404	11866.61
601.762	11875.2
602.12	11811.92
602.478	11871.81
602.836	11863.9
603.194	11770.11
603.552	11868.42
603.91	11713.62
604.268	11846.04
604.625	11728.76
604.983	11776.67
605.341	11723.79
605.698	11747.97
606.056	11869.77
606.413	11715.88
606.771	11792.49
607.128	11880.85
607.485	11848.98
607.843	11776.22
608.2	11878.36
608.557	11916.78
608.914	11834.97
609.272	11887.63
609.629	11862.99
609.986	11942.54
610.343	11894.18
610.7	12031.35
611.057	11919.49
611.414	11933.95
611.771	11942.09
612.127	12005.59
612.484	12011.46
612.841	11998.13
613.198	11962.88
613.554	11890.56
613.911	12062.54
614.267	12012.59
614.624	11952.93
614.98	12005.36
615.337	12035.19
615.693	12036.77
616.05	11954.29
616.406	12029.54
616.762	11924.23
617.118	12043.33
617.475	11997.45
617.831	12053.95
618.187	12102.99
618.543	12006.27
618.899	12129.88
619.255	12108.64
619.611	12090.33
619.967	12100.73
620.323	12123.78
620.678	12127.62
621.034	12065.47
621.39	12063.67
621.746	12024.8
622.101	12217.11
622.457	12079.71
622.812	12021.63
623.168	12133.04
623.523	12117
623.879	12185.92
624.234	12083.55
624.589	12196.77
624.945	12099.15
625.3	12108.18
625.655	12099.15
626.01	12038.13
626.365	12137.34
626.72	12084.23
627.075	12067.28
627.43	12039.94
627.785	12018.92
628.14	12013.95
628.495	12114.74
628.85	12090.11
629.205	11939.15
629.559	12085.36
629.914	12015.76
630.269	11970.56
630.623	11964.01
630.978	11893.05
631.332	11961.52
631.687	11960.62
632.041	11891.92
632.396	11946.61
632.75	11881.75
633.104	11923.56
633.459	11817.12
633.813	11815.76
634.167	11852.6
634.521	11785.03
634.875	11788.87
635.229	11810.57
635.583	11712.94
635.937	11681.53
636.291	11723.34
636.645	11693.05
636.999	11637.01
637.352	11690.57
637.706	11681.3
638.06	11718.36
638.413	11606.73
638.767	11633.85
639.121	11629.55
639.474	11574.64
639.828	11566.96
640.181	11626.39
640.534	11633.85
640.888	11531.48
641.241	11490.12
641.594	11514.75
641.947	11505.26
642.301	11523.79
642.654	11599.05
643.007	11582.55
643.36	11508.2
643.713	11459.84
644.066	11419.39
644.419	11443.34
644.771	11405.15
645.124	11326.51
645.477	11228.21
645.83	11214.65
646.182	11143.46
646.535	11111.15
646.888	11098.72
647.24	11078.16
647.593	11080.41
647.945	11056.01
648.298	11063.24
648.65	10991.15
649.002	10961.32
649.355	11044.48
649.707	11038.38
650.059	11118.61
650.411	11172.39
650.763	11257.59
651.115	11286.74
651.467	11293.29
651.819	11228.21
652.171	11274.53
652.523	11353.85
652.875	11356.34
653.227	11254.87
653.578	11314.31
653.93	11330.35
654.282	11213.29
654.633	11264.59
654.985	11306.17
655.337	11260.75
655.688	11360.86
656.039	11338.49
656.391	11203.12
656.742	11291.71
657.094	11289.45
657.445	11262.78
657.796	11262.56
658.147	11265.27
658.498	11339.84
658.849	11266.17
659.2	11262.33
659.551	11223.69
659.902	11287.87
660.253	11315.89
660.604	11373.97
660.955	11307.98
661.306	11344.14
661.656	11331.93
662.007	11331.71
662.358	11302.33
662.708	11260.52
663.059	11363.35
663.409	11230.92
663.76	11298.04
664.11	11280.86
664.461	11367.41
664.811	11307.08
665.161	11320.86
665.511	11308.88
665.862	11279.05
666.212	11386.62
666.562	11375.55
666.912	11286.29
667.262	11312.73
667.612	11292.84
667.962	11284.93
668.312	11273.63
668.662	11407.86
669.011	11293.52
669.361	11304.59
669.711	11261.43
670.06	11297.58
670.41	11229.56
670.76	11198.38
671.109	11277.47
671.459	11235.89
671.808	11242.9
672.157	11188.43
672.507	11151.83
672.856	11196.8
673.205	11187.3
673.554	11213.74
673.904	11119.96
674.253	11215.78
674.602	11166.29
674.951	10987.54
675.3	10999.97
675.649	11110.24
675.998	11075.67
676.346	11112.73
676.695	11106.63
677.044	11051.72
677.393	11113.86
677.741	11066.4
678.09	11103.92
678.438	11062.56
678.787	11054.43
679.135	11054.2
679.484	10956.8
679.832	10975.56
680.181	10888.33
680.529	10950.7
680.877	10941.44
681.225	10934.43
681.573	10916.8
681.922	10823.25
682.27	10748.22
682.618	10855.79
682.966	10881.78
683.314	10867.09
683.661	10735.57
684.009	10752.06
684.357	10841.33
684.705	10696.24
685.053	10652.18
685.4	10652.4
685.748	10625.96
686.095	10558.62
686.443	10531.05
686.79	10536.7
687.138	10557.94
687.485	10484.95
687.832	10505.51
688.18	10459.19
688.527	10435.69
688.874	10387.55
689.221	10376.7
689.568	10330.83
689.915	10336.03
690.262	10306.65
690.609	10346.2
690.956	10188.23
691.303	10199.99
691.65	10158.86
691.997	10190.49
692.344	10176.03
692.69	10001.57
693.037	10045.87
693.383	10033.44
693.73	10007.9
694.077	9993.21
694.423	9892.42
694.769	9916.83
695.116	9873.67
695.462	9804.97
695.808	9798.87
696.155	9839.77
696.501	9680.68
696.847	9689.49
697.193	9657.63
697.539	9598.87
697.885	9556.84
698.231	9512.09
698.577	9551.42
698.923	9499.89
699.269	9494.24
699.614	9449.72
699.96	9332.21
700.306	9356.17
700.651	9325.43
700.997	9276.85
701.342	9178.54
701.688	9237.07
702.033	9196.62
702.379	9179.67
702.724	9133.57
703.069	9243.4
703.415	9072.78
703.76	9055.16
704.105	9089.05
704.45	8996.85
704.795	8962.5
705.14	8943.52
705.485	8941.49
705.83	8850.42
706.175	8881.6
706.52	8802.06
706.865	8786.92
707.209	8782.17
707.554	8699.91
707.899	8756.18
708.243	8640.25
708.588	8710.99
708.932	8590.99
709.277	8659.01
709.621	8596.64
709.966	8507.15
710.31	8543.53
710.654	8475.51
710.998	8551.89
711.342	8507.15
711.687	8483.65
712.031	8396.64
712.375	8409.3
712.719	8443.65
713.063	8353.93
713.407	8394.38
713.75	8360.94
714.094	8419.47
714.438	8369.3
714.782	8299.92
715.125	8256.08
715.469	8302.63
715.812	8274.61
716.156	8197.55
716.499	8193.49
716.843	8266.7
717.186	8147.16
717.53	8217.89
717.873	8207.5
718.216	8194.16
718.559	8124.11
718.902	8105.35
719.246	8059.48
719.589	8029.87
719.932	8050.21
720.275	8016.77
720.617	8052.47
720.96	8031
721.303	8017.9
721.646	8002.98
721.989	7966.15
722.331	8035.52
722.674	7991
723.016	8001.85
723.359	7976.32
723.701	7986.94
724.044	7949.42
724.386	7905.58
724.729	7924.11
725.071	7902.65
725.413	7959.59
725.755	7930.22
726.097	7855.41
726.439	7875.53
726.782	7903.1
727.124	7858.13
727.465	7893.61
727.807	7887.96
728.149	7880.5
728.491	7845.92
728.833	7864.91
729.175	7873.49
729.516	7846.83
729.858	7807.28
730.199	7909.2
730.541	7835.75
730.882	7833.04
731.224	7823.1
731.565	7811.8
731.906	7876.66
732.248	7833.95
732.589	7788.52
732.93	7830.1
733.271	7794.4
733.612	7794.4
733.953	7831.69
734.294	7812.7
734.635	7852.48
734.976	7805.47
735.317	7776.32
735.658	7805.25
735.999	7782.2
736.339	7766.15
736.68	7873.95
737.021	7806.83
737.361	7785.36
737.702	7885.92
738.042	7802.99
738.383	7841.18
738.723	7801.63
739.063	7854.29
739.404	7910.55
739.744	7807.73
740.084	7884.34
740.424	7858.8
740.764	7864.91
741.104	7973.6
741.444	7928.63
741.784	7891.57
742.124	7922.76
742.464	7960.5
742.804	7944.45
743.143	7939.93
743.483	8036.2
743.823	7972.02
744.162	7971.34
744.502	8074.17
744.841	8074.62
745.181	8118.91
745.52	8148.74
745.86	8141.06
746.199	8208.4
746.538	8290.21
746.877	8234.16
747.216	8303.31
747.556	8356.19
747.895	8468.28
748.234	8420.37
748.573	8516.64
748.911	8496.75
749.25	8664.66
749.589	8657.2
749.928	8765.67
750.267	8854.48
750.605	8889.74
750.944	8904.88
751.283	9031.66
751.621	9096.96
751.96	9164.08
752.298	9236.85
752.636	9381.7
752.975	9519.78
753.313	9580.34
753.651	9696.95
753.989	9715.93
754.327	9843.39
754.666	9921.58
755.004	10126.77
755.342	10224.39
755.679	10317.05
756.017	10493.76
756.355	10664.61
756.693	10724.04
757.031	10950.25
757.368	10979.63
757.706	11192.05
758.044	11284.93
