Data from hue_50_FLMS001491_34.txt Node
Date: Mon Feb 06 15:10:02 GMT 2017
User: dcchb
Spectrometer: FLMS00149
Trigger mode: 0
Integration Time (sec): 2.000000E-2
Scans to average: 10
Electric dark correction enabled: true
Nonlinearity correction enabled: false
Boxcar width: 0
XAxis mode: Wavelengths
Number of Pixels in Spectrum: 2048
>>>>>Begin Spectral Data<<<<<
341.393	-19.58
341.776	-19.58
342.16	-19.58
342.543	-72.46
342.927	-75.62
343.31	-63.42
343.693	-73.59
344.077	-81.5
344.46	-48.5
344.843	-48.28
345.226	-39.46
345.61	-23.42
345.993	-20.03
346.376	-8.95
346.759	6.19
347.142	33.76
347.525	40.54
347.908	53.42
348.291	69.69
348.674	87.54
349.057	116.01
349.44	120.99
349.823	146.07
350.206	158.72
350.588	195.56
350.971	204.83
351.354	215.9
351.737	232.17
352.119	224.03
352.502	259.06
352.884	259.96
353.267	278.04
353.65	286.63
354.032	281.43
354.414	327.53
354.797	312.62
355.179	320.3
355.562	324.6
355.944	328.44
356.326	325.27
356.709	313.52
357.091	341.32
357.473	347.87
357.855	352.39
358.238	338.83
358.62	344.71
359.002	341.32
359.384	347.65
359.766	351.94
360.148	346.74
360.53	340.64
360.912	336.57
361.294	333.41
361.676	323.92
362.057	351.26
362.439	326.18
362.821	322.11
363.203	327.08
363.584	327.76
363.966	322.11
364.348	338.61
364.729	330.47
365.111	323.92
365.493	315.78
365.874	311.04
366.256	309.23
366.637	323.92
367.019	313.3
367.4	315.78
367.781	295.9
368.163	320.98
368.544	330.02
368.925	325.73
369.306	317.82
369.688	330.7
370.069	332.28
370.45	296.8
370.831	313.75
371.212	308.78
371.593	322.11
371.974	327.53
372.355	294.31
372.736	300.87
373.117	312.84
373.498	320.08
373.879	323.92
374.26	310.59
374.641	308.55
375.021	315.56
375.402	309.68
375.783	329.79
376.163	309.23
376.544	326.4
376.925	318.04
377.305	298.38
377.686	311.04
378.066	323.47
378.447	301.32
378.827	321.21
379.208	329.79
379.588	326.4
379.968	338.61
380.349	356.46
380.729	329.12
381.109	338.61
381.489	332.96
381.87	323.24
382.25	344.03
382.63	332.28
383.01	315.78
383.39	306.74
383.77	357.59
384.15	341.32
384.53	331.83
384.91	346.74
385.29	340.87
385.67	328.66
386.049	372.96
386.429	329.57
386.809	350.58
387.189	361.88
387.568	336.8
387.948	344.26
388.328	354.65
388.707	353.52
389.087	355.33
389.466	363.01
389.846	364.37
390.225	352.17
390.605	345.39
390.984	384.03
391.363	337.93
391.743	351.04
392.122	344.93
392.501	385.84
392.881	365.5
393.26	376.57
393.639	365.27
394.018	366.63
394.397	384.26
394.776	371.15
395.155	357.82
395.534	348.78
395.913	362.56
396.292	382
396.671	377.93
397.05	366.18
397.429	385.39
397.808	367.76
398.186	359.4
398.565	358.49
398.944	377.48
399.323	379.96
399.701	387.19
400.08	368.66
400.458	372.28
400.837	368.44
401.215	373.86
401.594	371.15
401.972	375.89
402.351	390.81
402.729	400.98
403.107	398.27
403.486	371.83
403.864	398.94
404.242	399.17
404.62	399.4
404.999	398.04
405.377	410.02
405.755	408.44
406.133	393.97
406.511	370.24
406.889	407.98
407.267	412.96
407.645	394.88
408.023	407.98
408.401	420.64
408.779	410.47
409.156	410.24
409.534	425.16
409.912	399.85
410.29	424.25
410.667	444.59
411.045	417.25
411.422	418.38
411.8	433.97
412.178	425.16
412.555	437.14
412.933	440.3
413.31	433.07
413.687	436.23
414.065	432.16
414.442	438.94
414.819	436.68
415.197	439.85
415.574	456.12
415.951	452.73
416.328	451.6
416.705	451.15
417.082	470.35
417.46	449.34
417.837	481.88
418.214	464.48
418.591	475.55
418.967	460.64
419.344	474.42
419.721	474.65
420.098	491.6
420.475	475.78
420.852	477.13
421.228	485.95
421.605	503.35
421.982	481.88
422.358	519.39
422.735	485.5
423.111	496.79
423.488	499.96
423.864	505.38
424.241	508.77
424.617	509.9
424.994	501.77
425.37	516.23
425.746	513.07
426.123	545.16
426.499	519.39
426.875	514.87
427.251	532.05
427.627	537.02
428.003	515.78
428.379	546.29
428.756	537.47
429.132	549.9
429.507	550.35
429.883	555.1
430.259	571.6
430.635	554.65
431.011	562.1
431.387	547.41
431.763	591.26
432.138	577.7
432.514	590.58
432.89	574.53
433.265	587.19
433.641	610.46
434.016	594.42
434.392	611.14
434.767	598.04
435.143	621.54
435.518	624.25
435.894	618.37
436.269	617.92
436.644	600.52
437.02	631.03
437.395	639.84
437.77	629.67
438.145	635.55
438.52	640.97
438.895	658.37
439.271	640.75
439.646	663.34
440.021	670.8
440.395	676.45
440.77	673.29
441.145	656.34
441.52	672.16
441.895	671.25
442.27	653.17
442.645	673.51
443.019	695.89
443.394	678.48
443.769	685.72
444.143	703.34
444.518	691.59
444.892	713.96
445.267	697.02
445.641	713.06
446.016	711.25
446.39	714.64
446.764	703.57
447.139	697.69
447.513	718.03
447.887	706.73
448.262	717.58
448.636	753.96
449.01	737.24
449.384	751.25
449.758	748.31
450.132	772.72
450.506	768.88
450.88	736.34
451.254	784.02
451.628	751.25
452.002	783.34
452.376	760.06
452.75	794.19
453.123	793.51
453.497	807.75
453.871	830.57
454.244	827.18
454.618	810.46
454.992	818.59
455.365	817.24
455.739	824.7
456.112	834.41
456.486	831.7
456.859	855.43
457.232	878.03
457.606	882.1
457.979	880.29
458.352	908.31
458.725	898.59
459.099	904.24
459.472	919.38
459.845	967.74
460.218	927.07
460.591	936.11
460.964	935.65
461.337	972.94
461.71	984.69
462.083	1005.03
462.456	1016.33
462.829	984.47
463.201	994.18
463.574	1022.88
463.947	1043.45
464.32	1064.01
464.692	1071.69
465.065	1056.78
465.438	1093.16
465.81	1115.31
466.183	1119.15
466.555	1149.89
466.928	1140.62
467.3	1170.68
467.672	1188.08
468.045	1232.14
468.417	1222.88
468.789	1233.95
469.161	1233.05
469.534	1273.95
469.906	1284.8
470.278	1309.2
470.65	1373.16
471.022	1385.59
471.394	1367.28
471.766	1400.05
472.138	1425.36
472.51	1455.64
472.882	1500.61
473.253	1521.63
473.625	1536.99
473.997	1577.22
474.369	1608.63
474.74	1645.01
475.112	1686.37
475.484	1751
475.855	1752.58
476.227	1826.25
476.598	1848.4
476.97	1902.63
477.341	1946.25
477.713	2013.14
478.084	2050.43
478.455	2113.7
478.827	2135.85
479.198	2229.63
479.569	2298.56
479.94	2351.44
480.311	2419
480.682	2496.52
481.053	2562.05
481.424	2660.35
481.795	2701.93
482.166	2790.75
482.537	2843.17
482.908	2950.52
483.279	3029.84
483.65	3100.57
484.021	3213.56
484.391	3301.92
484.762	3380.11
485.133	3441.8
485.503	3527
485.874	3652.64
486.244	3723.38
486.615	3879.98
486.985	4001.11
487.356	4082.92
487.726	4244.04
488.097	4306.41
488.467	4375.11
488.837	4546.41
489.207	4683.8
489.578	4788.66
489.948	4952.95
490.318	5033.17
490.688	5150.01
491.058	5234.3
491.428	5429.09
491.798	5517.91
492.168	5711.12
492.538	5746.37
492.908	5952.24
493.278	6067.27
493.648	6135.52
494.017	6288.28
494.387	6444.66
494.757	6518.78
495.126	6714.48
495.496	6783.41
495.866	6956.06
496.235	7077.64
496.605	7140.01
496.974	7299.78
497.344	7490.51
497.713	7556.04
498.082	7697.28
498.452	7840.78
498.821	7907.9
499.19	7995.13
499.559	8151.73
499.928	8294.1
500.298	8455.91
500.667	8533.65
501.036	8533.19
501.405	8699.07
501.774	8812.51
502.143	8985.84
502.512	9035.78
502.88	9139.28
503.249	9284.81
503.618	9408.42
503.987	9426.5
504.356	9577.46
504.724	9738.59
505.093	9803.44
505.462	9876.66
505.83	9985.13
506.199	10128.41
506.567	10342.86
506.936	10332.69
507.304	10510.99
507.672	10573.37
508.041	10688.84
508.409	10775.62
508.777	10906.92
509.145	11009.51
509.514	11125.22
509.882	11272.1
510.25	11326.11
510.618	11395.94
510.986	11457.86
511.354	11617.63
511.722	11759.1
512.09	11895.59
512.458	11897.85
512.826	12048.81
513.193	12132.2
513.561	12203.61
513.929	12370.61
514.297	12431.4
514.664	12579.87
515.032	12592.75
515.4	12747.09
515.767	12793.87
516.135	12947.09
516.502	12889.92
516.869	13213.3
517.237	13236.57
517.604	13261.88
517.972	13401.77
518.339	13554.76
518.706	13503.46
519.073	13651.7
519.44	13725.83
519.808	13911.36
520.175	13929.44
520.542	14061.18
520.909	14128.53
521.276	14259.82
521.643	14383.21
522.009	14470.21
522.376	14655.07
522.743	14695.97
523.11	14869.07
523.477	15003.76
523.843	14981.61
524.21	15234.94
524.577	15337.08
524.943	15405.33
525.31	15481.03
525.676	15633.57
526.043	15712.67
526.409	15814.36
526.776	15973.68
527.142	16029.04
527.508	16139.1
527.874	16234.91
528.241	16327.11
528.607	16363.5
528.973	16566.65
529.339	16532.98
529.705	16808
530.071	16906.31
530.437	16938.17
530.803	17107.88
531.169	17157.83
531.535	17173.19
531.901	17216.81
532.267	17476.46
532.632	17520.75
532.998	17490.02
533.364	17636.91
533.73	17743.35
534.095	17929.1
534.461	17906.28
534.826	17963.68
535.192	18121.19
535.557	18285.48
535.923	18187.18
536.288	18254.29
536.653	18434.63
537.019	18332.71
537.384	18508.3
537.749	18539.48
538.114	18613.61
538.479	18657.45
538.845	18731.12
539.21	18741.96
539.575	18868.29
539.94	18980.83
540.305	19086.14
540.67	18989.42
541.034	19132.92
541.399	19279.58
541.764	19264.89
542.129	19441.61
542.494	19465.34
542.858	19433.47
543.223	19557.99
543.587	19695.84
543.952	19595.73
544.316	19783.29
544.681	19716.63
545.045	19827.81
545.41	19992.33
545.774	19959.79
546.138	20067.58
546.503	20118.88
546.867	20162.72
547.231	20333.11
547.595	20340.57
547.959	20517.74
548.324	20416.05
548.688	20471.86
549.052	20582.37
549.416	20696.49
549.779	20599.09
550.143	20776.04
550.507	20913.43
550.871	20940.55
551.235	20998.63
551.599	21055.35
551.962	21200.43
552.326	21206.08
552.689	21288.11
553.053	21210.6
553.417	21354.33
553.78	21679.06
554.143	21599.29
554.507	21629.35
554.87	21660.53
555.234	21879.51
555.597	21863.24
555.96	21838.38
556.323	22118.6
556.686	22117.7
557.05	22270.69
557.413	22288.09
557.776	22346.84
558.139	22513.62
558.502	22588.87
558.865	22683.56
559.228	22765.36
559.59	22852.37
559.953	22884
560.316	23120.83
560.679	23124.45
561.041	23294.16
561.404	23265.91
561.767	23537.54
562.129	23429.98
562.492	23683.3
562.854	23637.43
563.217	23690.76
563.579	23777.31
563.941	23979.34
564.304	24026.12
564.666	24188.83
565.028	24098.21
565.39	24328.03
565.753	24457.75
566.115	24524.86
566.477	24595.82
566.839	24717.63
567.201	24805.76
567.563	24782.71
567.925	25048.69
568.287	25016.6
568.648	25146.54
569.01	25285.52
569.372	25409.13
569.734	25291.17
570.095	25629.92
570.457	25713.53
570.819	25739.07
571.18	25658.17
571.542	26026.52
571.903	26002.79
572.265	26110.13
572.626	26158.72
572.987	26264.25
573.349	26293.18
573.71	26396.23
574.071	26552.15
574.432	26744.47
574.794	26850.9
575.155	26839.83
575.516	26795.09
575.877	27068.07
576.238	26986.27
576.599	27130.67
576.96	27334.06
577.32	27337.45
577.681	27427.16
578.042	27612.01
578.403	27449.98
578.763	27677.1
579.124	27747.38
579.485	27872.57
579.845	28081.38
580.206	27917.09
580.566	28085
580.927	28176.29
581.287	28423.74
581.648	28243.64
582.008	28515.49
582.368	28474.59
582.728	28651.08
583.089	28790.97
583.449	28806.56
583.809	28883.17
584.169	29162.71
584.529	29053.56
584.889	29331.52
585.249	29312.31
585.609	29367
585.969	29474.11
586.329	29619.64
586.688	29786.42
587.048	29810.15
587.408	29946.42
587.768	29990.93
588.127	29992.74
588.487	30013.31
588.846	30243.81
589.206	30155.22
589.565	30312.51
589.925	30645.83
590.284	30603.8
590.643	30682.44
591.003	30860.52
591.362	31043.56
591.721	31011.47
592.08	31167.4
592.44	31274.52
592.799	31313.61
593.158	31511.12
593.517	31557.45
593.876	31694.84
594.235	31673.83
594.593	31826.59
594.952	32013.03
595.311	31766.03
595.67	32049.19
596.029	32272.23
596.387	32253.7
596.746	32449.18
597.104	32428.84
597.463	32373.47
597.822	32772.33
598.18	32601.49
598.538	32684.65
598.897	32864.76
599.255	32775.27
599.613	33211.87
599.972	33183.39
600.33	33328.47
600.688	33250.96
601.046	33367.12
601.404	33642.59
601.762	33518.53
602.12	33872.64
602.478	33844.84
602.836	33969.36
603.194	33903.83
603.552	33972.3
603.91	33919.87
604.268	34244.16
604.625	34267.21
604.983	34377.26
605.341	34139.75
605.698	34471.04
606.056	34545.17
606.413	34626.74
606.771	34796.68
607.128	34835.1
607.485	34732.05
607.843	34796.91
608.2	34999.39
608.557	35092.27
608.914	34999.62
609.272	35281.87
609.629	35338.36
609.986	35479.15
610.343	35343.11
610.7	35771.57
611.057	35708.98
611.414	35639.37
611.771	35804.12
612.127	35877.56
612.484	35975.41
612.841	36131.56
613.198	35940.38
613.554	36111.68
613.911	36247.49
614.267	36280.03
614.624	36343.31
614.98	36329.75
615.337	36638.22
615.693	36607.71
616.05	36543.08
616.406	36784.65
616.762	36624.43
617.118	36691.55
617.475	36675.5
617.831	36897.19
618.187	36959.34
618.543	37028.94
618.899	37238.2
619.255	37172.21
619.611	37201.37
619.967	37492.88
620.323	37505.77
620.678	37287.01
621.034	37368.14
621.39	37312.32
621.746	37334.02
622.101	37720.45
622.457	37448.37
622.812	37553
623.168	37653.56
623.523	37737.4
623.879	37898.3
624.234	37680.45
624.589	37798.86
624.945	37744.4
625.3	37838.86
625.655	37875.47
626.01	37878.64
626.365	37881.12
626.72	37867.79
627.075	37979.2
627.43	37804.06
627.785	37715.48
628.14	37976.94
628.495	37964.06
628.85	37822.37
629.205	37769.04
629.559	38099.42
629.914	37910.73
630.269	37934.91
630.623	37917.05
630.978	37835.02
631.332	37966.32
631.687	38012.64
632.041	37987.11
632.396	38006.32
632.75	37912.08
633.104	38012.87
633.459	37788.7
633.813	37751.41
634.167	37988.01
634.521	37934
634.875	37944.17
635.229	37822.59
635.583	37706.66
635.937	37732.43
636.291	37735.14
636.645	37799.09
636.999	37678.64
637.352	37709.6
637.706	37639.55
638.06	37933.1
638.413	37660.34
638.767	37599.77
639.121	37610.62
639.474	37315.49
639.828	37388.25
640.181	37616.5
640.534	37533.79
640.888	37378.08
641.241	37377.41
641.594	37371.98
641.947	37510.96
642.301	37313.68
642.654	37380.12
643.007	37358.65
643.36	37360.46
643.713	37288.37
644.066	37303.74
644.419	37249.95
644.771	36984.87
645.124	36603.64
645.477	36590.76
645.83	36410.43
646.182	36164.56
646.535	36055.63
646.888	36235.74
647.24	36002.75
647.593	36242.75
647.945	36169.98
648.298	36033.04
648.65	35922.08
649.002	35756.88
649.355	36100.38
649.707	35832.81
650.059	35902.87
650.411	36492.23
650.763	36455.17
651.115	36915.95
651.467	36624.66
651.819	36689.52
652.171	36613.59
652.523	36603.64
652.875	36647.71
653.227	36462.18
653.578	36677.99
653.93	36617.65
654.282	36549.63
654.633	36374.5
654.985	36508.05
655.337	36450.65
655.688	36510.99
656.039	36583.08
656.391	36275.97
656.742	36372.46
657.094	36363.42
657.445	36519.12
657.796	36365.68
658.147	36241.39
658.498	36336.3
658.849	36307.15
659.2	36287.49
659.551	36268.28
659.902	36267.61
660.253	36261.05
660.604	36373.14
660.955	36135.63
661.306	36240.71
661.656	36104.67
662.007	36292.24
662.358	36100.15
662.708	36103.32
663.059	36121.17
663.409	35849.09
663.76	36136.54
664.11	36111.9
664.461	36197.33
664.811	36259.92
665.161	36155.97
665.511	36032.13
665.862	36011.79
666.212	36187.83
666.562	36203.65
666.912	36169.53
667.262	36154.39
667.612	36166.14
667.962	36014.28
668.312	36021.28
668.662	36200.71
669.011	36052.92
669.361	35995.97
669.711	36035.07
670.06	36056.54
670.41	35951.68
670.76	35847.96
671.109	35965.01
671.459	35923.89
671.808	35883.21
672.157	35913.04
672.507	35734.29
672.856	35688.86
673.205	35792.36
673.554	35944
673.904	35844.79
674.253	35986.71
674.602	35864.9
674.951	35387.63
675.3	35250.23
675.649	35646.38
675.998	35750.33
676.346	35711.01
676.695	35732.7
677.044	35600.05
677.393	35570.9
677.741	35664.23
678.09	35431.92
678.438	35382.66
678.787	35461.07
679.135	35475.99
679.484	35198.26
679.832	35431.92
680.181	35174.53
680.529	35366.84
680.877	35295.43
681.225	35233.06
681.573	35343.34
681.922	35165.71
682.27	35013.85
682.618	35037.58
682.966	34897.02
683.314	35055.66
683.661	34959.39
684.009	34827.87
684.357	34631.04
684.705	34742
685.053	34718.72
685.4	34735.67
685.748	34545.17
686.095	34459.52
686.443	34485.28
686.79	34283.7
687.138	34410.93
687.485	34382.23
687.832	34238.28
688.18	34284.83
688.527	34179.07
688.874	34130.49
689.221	34001
689.568	33934.11
689.915	34065.63
690.262	33931.17
690.609	33775.24
690.956	33707.9
691.303	33596.49
691.65	33438.3
691.997	33515.81
692.344	33246.67
692.69	33337.29
693.037	33264.52
693.383	33059.78
693.73	33073.79
694.077	33004.87
694.423	33034.47
694.769	32782.27
695.116	32752.67
695.462	32692.78
695.808	32573.69
696.155	32688.26
696.501	32354.26
696.847	32426.35
697.193	32221.16
697.539	32285.56
697.885	31995.85
698.231	32022.97
698.577	32016.19
698.923	31983.65
699.269	31763.09
699.614	31717.22
699.96	31555.87
700.306	31644.22
700.651	31474.96
700.997	31374.85
701.342	31369.2
701.688	31250.56
702.033	31161.75
702.379	31188.87
702.724	31122.88
703.069	31168.53
703.415	30776.9
703.76	30838.37
704.105	30860.74
704.45	30805.6
704.795	30656.68
705.14	30390.25
705.485	30522.45
705.83	30343.47
706.175	30339.17
706.52	30190.48
706.865	30277.25
707.209	30204.26
707.554	29981.9
707.899	30104.15
708.243	29882.69
708.588	29965.62
708.932	29632.98
709.277	29650.6
709.621	29725.63
709.966	29470.5
710.31	29506.43
710.654	29378.3
710.998	29356.83
711.342	29337.39
711.687	29213.33
712.031	29255.59
712.375	29069.6
712.719	29131.97
713.063	29135.82
713.407	29134.69
713.75	28995.93
714.094	28851.53
714.438	28842.04
714.782	28907.57
715.125	28633.68
715.469	28754.13
715.812	28565.89
716.156	28472.56
716.499	28390.98
716.843	28406.34
717.186	28336.06
717.53	28557.3
717.873	28440.92
718.216	28341.71
718.559	28257.65
718.902	28029.18
719.246	28051.32
719.589	27948.28
719.932	27823.31
720.275	27882.74
720.617	27827.15
720.96	27771.56
721.303	27756.19
721.646	27800.94
721.989	27612.24
722.331	27605.46
722.674	27635.06
723.016	27627.15
723.359	27626.93
723.701	27469.42
724.044	27347.39
724.386	27263.55
724.729	27328.63
725.071	27147.39
725.413	27239.82
725.755	27280.5
726.097	27095.87
726.439	26976.1
726.782	27009.77
727.124	27136.32
727.465	26956.44
727.807	27014.97
728.149	26832.37
728.491	26826.72
728.833	26843.22
729.175	26811.13
729.516	26608.88
729.858	26616.11
730.199	26711.7
730.541	26523.23
730.882	26556
731.224	26637.35
731.565	26439.16
731.906	26461.76
732.248	26494.08
732.589	26436.68
732.93	26277.59
733.271	26315.1
733.612	26257.93
733.953	26312.84
734.294	26202.33
734.635	26011.83
734.976	26136.12
735.317	26051.6
735.658	26037.14
735.999	26061.77
736.339	25850.7
736.68	25970.02
737.021	25873.3
737.361	25846.41
737.702	25902.23
738.042	25799.86
738.383	25616.59
738.723	25829.24
739.063	25626.98
739.404	25732.06
739.744	25587.66
740.084	25549.47
740.424	25564.84
740.764	25470.6
741.104	25492.97
741.444	25401
741.784	25275.58
742.124	25351.51
742.464	25368.01
742.804	25150.84
743.143	25299.31
743.483	25209.14
743.823	25167.11
744.162	25099.31
744.502	25077.84
744.841	24991.29
745.181	25019.09
745.52	24953.33
745.86	24960.56
746.199	24999.43
746.538	24860.22
746.877	25002.14
747.216	24916.27
747.556	24890.05
747.895	24899.77
748.234	24666.55
748.573	24675.14
748.911	24511.76
749.25	24536.16
749.589	24515.6
749.928	24624.97
750.267	24591.08
750.605	24380.69
750.944	24413.68
751.283	24248.94
751.621	24376.62
751.96	24167.81
752.298	24104.76
752.636	24187.25
752.975	24021.37
753.313	24064.08
753.651	23987.48
753.989	23938.89
754.327	23970.08
754.666	23763.98
755.004	23805.56
755.342	23873.58
755.679	23773.24
756.017	23518.79
756.355	23623.19
756.693	23557.66
757.031	23625.68
757.368	23413.93
