Data from hue_290_FLMS001491_00058.txt Node
Date: Tue Feb 07 15:52:56 GMT 2017
User: dcchb
Spectrometer: FLMS00149
Trigger mode: 0
Integration Time (sec): 2.000000E-2
Scans to average: 10
Electric dark correction enabled: true
Nonlinearity correction enabled: false
Boxcar width: 0
XAxis mode: Wavelengths
Number of Pixels in Spectrum: 2048
>>>>>Begin Spectral Data<<<<<
341.393	-20.69
341.776	-20.69
342.16	-20.69
342.543	-41.71
342.927	-72.44
343.31	-58.43
343.693	-66.79
344.077	-69.5
344.46	-51.88
344.843	-52.56
345.226	-54.36
345.61	-21.82
345.993	-11.2
346.376	-6
346.759	17.73
347.142	46.65
347.525	32.64
347.908	43.04
348.291	66.09
348.674	86.42
349.057	99.98
349.44	142.47
349.823	142.02
350.206	159.19
350.588	171.85
350.971	197.61
351.354	194.9
351.737	235.8
352.119	249.13
352.502	238.74
352.884	261.33
353.267	264.05
353.65	300.2
354.032	297.94
354.414	292.07
354.797	301.33
355.179	305.63
355.562	316.7
355.944	306.08
356.326	312.18
356.709	311.73
357.091	319.86
357.473	331.16
357.855	330.71
358.238	319.41
358.62	320.32
359.002	343.82
359.384	346.08
359.766	332.07
360.148	340.43
360.53	346.98
360.912	323.93
361.294	310.15
361.676	326.19
362.057	329.81
362.439	316.25
362.821	339.75
363.203	321.9
363.584	312.18
363.966	313.76
364.348	314.21
364.729	320.99
365.111	316.25
365.493	302.92
365.874	302.69
366.256	293.2
366.637	305.4
367.019	307.21
367.4	307.21
367.781	304.05
368.163	299.53
368.544	285.29
368.925	320.32
369.306	312.63
369.688	320.77
370.069	307.21
370.45	296.81
370.831	322.35
371.212	320.77
371.593	303.82
371.974	323.93
372.355	328.68
372.736	323.03
373.117	299.3
373.498	310.15
373.879	312.18
374.26	324.61
374.641	305.85
375.021	317.38
375.402	321.22
375.783	326.19
376.163	310.37
376.544	334.33
376.925	323.25
377.305	295.91
377.686	327.1
378.066	315.12
378.447	337.94
378.827	323.48
379.208	313.31
379.588	319.41
379.968	341.33
380.349	325.97
380.729	326.42
381.109	334.55
381.489	320.09
381.87	335.23
382.25	335.68
382.63	331.62
383.01	350.82
383.39	330.49
383.77	338.62
384.15	335.23
384.53	331.84
384.91	349.69
385.29	369.81
385.67	359.64
386.049	342.46
386.429	336.59
386.809	346.98
387.189	357.83
387.568	350.15
387.948	353.31
388.328	349.02
388.707	334.78
389.087	365.29
389.466	368.22
389.846	354.21
390.225	356.7
390.605	375.68
390.984	361.22
391.363	361.22
391.743	372.07
392.122	356.25
392.501	373.87
392.881	354.67
393.26	365.29
393.639	357.15
394.018	372.52
394.397	393.53
394.776	385.63
395.155	384.04
395.534	412.52
395.913	384.5
396.292	399.41
396.671	376.13
397.05	401.67
397.429	394.21
397.808	398.73
398.186	402.12
398.565	410.26
398.944	402.8
399.323	389.24
399.701	414.78
400.08	397.15
400.458	420.2
400.837	421.1
401.215	413.2
401.594	416.13
401.972	430.14
402.351	411.39
402.729	439.86
403.107	426.53
403.486	442.57
403.864	432.86
404.242	428.11
404.62	455.91
404.999	451.16
405.377	451.84
405.755	449.8
406.133	447.77
406.511	449.58
406.889	457.04
407.267	471.72
407.645	483.25
408.023	488
408.401	457.49
408.779	474.66
409.156	474.89
409.534	482.8
409.912	503.36
410.29	501.55
410.667	508.33
411.045	525.28
411.422	525.06
411.8	544.94
412.178	551.04
412.555	538.39
412.933	557.82
413.31	572.74
413.687	570.03
414.065	568.22
414.442	589.01
414.819	575.68
415.197	585.62
415.574	585.17
415.951	598.5
416.328	612.96
416.705	613.87
417.082	647.09
417.46	653.42
417.837	661.55
418.214	673.98
418.591	670.14
418.967	673.08
419.344	676.24
419.721	699.97
420.098	686.41
420.475	713.53
420.852	708.78
421.228	728.22
421.605	728.89
421.982	744.26
422.358	758.72
422.735	754.66
423.111	749.01
423.488	768.44
423.864	765.28
424.241	800.98
424.617	810.02
424.994	790.59
425.37	798.72
425.746	792.39
426.123	822.68
426.499	823.58
426.875	829.68
427.251	849.34
427.627	855.9
428.003	859.51
428.379	877.36
428.756	900.41
429.132	931.15
429.507	922.56
429.883	934.54
430.259	939.28
430.635	941.09
431.011	949.45
431.387	974.08
431.763	969.56
432.138	982.67
432.514	984.71
432.89	1000.52
433.265	1017.25
433.641	1046.63
434.016	1057.92
434.392	1096.79
434.767	1072.84
435.143	1071.71
435.518	1110.35
435.894	1104.7
436.269	1140.18
436.644	1137.92
437.02	1153.06
437.395	1176.11
437.77	1201.2
438.145	1225.83
438.52	1210.24
438.895	1208.88
439.271	1224.25
439.646	1266.73
440.021	1255.43
440.395	1267.86
440.77	1255.21
441.145	1270.12
441.52	1294.08
441.895	1289.33
442.27	1283
442.645	1301.53
443.019	1310.12
443.394	1310.8
443.769	1336.33
444.143	1315.32
444.518	1340.63
444.892	1354.87
445.267	1340.85
445.641	1351.93
446.016	1349.44
446.39	1366.62
446.764	1374.07
447.139	1382.89
447.513	1399.84
447.887	1386.05
448.262	1392.38
448.636	1403.9
449.01	1447.74
449.384	1442.32
449.758	1454.3
450.132	1462.66
450.506	1478.93
450.88	1487.97
451.254	1463.34
451.628	1487.52
452.002	1505.37
452.376	1489.33
452.75	1492.26
453.123	1514.41
453.497	1538.14
453.871	1558.25
454.244	1562.77
454.618	1552.83
454.992	1572.26
455.365	1598.02
455.739	1605.48
456.112	1601.41
456.486	1612.49
456.859	1631.47
457.232	1656.1
457.606	1657.46
457.979	1653.39
458.352	1701.07
458.725	1719.15
459.099	1716.66
459.472	1727.96
459.845	1742.65
460.218	1765.93
460.591	1767.28
460.964	1777.68
461.337	1815.87
461.71	1817.23
462.083	1813.16
462.456	1835.3
462.829	1845.93
463.201	1839.82
463.574	1842.99
463.947	1883.89
464.32	1911.01
464.692	1942.42
465.065	1934.96
465.438	1967.73
465.81	1990.56
466.183	2016.32
466.555	2036.66
466.928	2043.43
467.3	2031.91
467.672	2069.2
468.045	2145.81
468.417	2098.8
468.789	2110.55
469.161	2118.46
469.534	2148.74
469.906	2197.1
470.278	2183.09
470.65	2214.96
471.022	2240.04
471.394	2277.78
471.766	2272.81
472.138	2312.13
472.51	2320.94
472.882	2353.71
473.253	2361.84
473.625	2382.86
473.997	2475.51
474.369	2454.95
474.74	2438.9
475.112	2496.08
475.484	2535.63
475.855	2553.03
476.227	2593.48
476.598	2615.4
476.97	2623.31
477.341	2688.39
477.713	2701.04
478.084	2734.04
478.455	2797.54
478.827	2792.79
479.198	2856.75
479.569	2829.4
479.94	2905.11
480.311	2933.36
480.682	2942.39
481.053	3037.53
481.424	3068.72
481.795	3103.52
482.166	3108.27
482.537	3139.68
482.908	3186.68
483.279	3202.73
483.65	3247.47
484.021	3289.05
484.391	3324.76
484.762	3306.68
485.133	3380.8
485.503	3370.63
485.874	3401.14
486.244	3482.72
486.615	3511.42
486.985	3523.85
487.356	3611.3
487.726	3581.47
488.097	3656.05
488.467	3609.95
488.837	3743.5
489.207	3748.02
489.578	3770.4
489.948	3821.02
490.318	3818.76
490.688	3861.92
491.058	3875.48
491.428	3964.51
491.798	3986.89
492.168	4078.64
492.538	4057.62
492.908	4035.47
493.278	4089.71
493.648	4113.44
494.017	4127.67
494.387	4169.48
494.757	4206.54
495.126	4215.13
495.496	4244.96
495.866	4280.89
496.235	4276.14
496.605	4320.21
496.974	4352.98
497.344	4365.18
497.713	4381.68
498.082	4382.36
498.452	4447.44
498.821	4395.01
499.19	4498.51
499.559	4521.11
499.928	4508
500.298	4533.76
500.667	4523.6
501.036	4518.4
501.405	4608.79
501.774	4602.92
502.143	4649.24
502.512	4644.04
502.88	4672.74
503.249	4693.76
503.618	4705.29
503.987	4721.78
504.356	4775.79
504.724	4714.55
505.093	4729.01
505.462	4757.26
505.83	4791.61
506.199	4773.98
506.567	4839.52
506.936	4822.57
507.304	4901.44
507.672	4905.96
508.041	4847.2
508.409	4939.4
508.777	4971.72
509.145	4973.75
509.514	4930.82
509.882	4981.21
510.25	5010.14
510.618	5024.37
510.986	5020.98
511.354	5084.71
511.722	5087.42
512.09	5091.94
512.458	5110.47
512.826	5127.65
513.193	5118.83
513.561	5198.83
513.929	5151.15
514.297	5190.02
514.664	5258.94
515.032	5230.24
515.4	5265.27
515.767	5269.34
516.135	5267.31
516.502	5289.23
516.869	5293.52
517.237	5318.6
517.604	5310.92
517.972	5325.83
518.339	5307.53
518.706	5378.26
519.073	5345.27
519.44	5402.67
519.808	5431.82
520.175	5399.96
520.542	5450.13
520.909	5524.7
521.276	5442.67
521.643	5528.99
522.009	5562.66
522.376	5541.65
522.743	5566.73
523.11	5615.09
523.477	5599.5
523.843	5624.13
524.21	5699.61
524.577	5701.42
524.943	5734.19
525.31	5807.4
525.676	5868.65
526.043	5839.04
526.409	5878.36
526.776	5876.33
527.142	5874.97
527.508	5890.57
527.874	5968.76
528.241	5956.78
528.607	5965.82
528.973	5965.59
529.339	5998.59
529.705	6028.41
530.071	6087.4
530.437	6058.47
530.803	6093.05
531.169	6147.06
531.535	6119.03
531.901	6154.29
532.267	6205.81
532.632	6218.69
532.998	6269.76
533.364	6242.65
533.73	6263.66
534.095	6258.69
534.461	6357.67
534.826	6331.01
535.192	6369.2
535.557	6380.72
535.923	6416.65
536.288	6422.3
536.653	6408.07
537.019	6442.64
537.384	6458.69
537.749	6516.54
538.114	6513.83
538.479	6481.74
538.845	6583.65
539.21	6557.44
539.575	6567.38
539.94	6595.18
540.305	6613.94
540.67	6639.92
541.034	6682.86
541.399	6677.89
541.764	6669.3
542.129	6715.85
542.494	6723.99
542.858	6695.29
543.223	6716.76
543.587	6822.29
543.952	6817.09
544.316	6849.64
544.681	6820.26
545.045	6786.36
545.41	6860.03
545.774	6854.38
546.138	6874.95
546.503	6905
546.867	6895.74
547.231	6951.33
547.595	6939.58
547.959	7020.03
548.324	7023.42
548.688	6995.62
549.052	7044.66
549.416	7046.69
549.779	7041.95
550.143	7061.83
550.507	7086.24
550.871	7114.04
551.235	7091.21
551.599	7161.49
551.962	7107.26
552.326	7190.19
552.689	7225.22
553.053	7237.2
553.417	7235.39
553.78	7219.8
554.143	7247.14
554.507	7221.15
554.87	7333.69
555.234	7314.93
555.597	7337.76
555.96	7337.53
556.323	7396.51
556.686	7387.7
557.05	7432.22
557.413	7468.38
557.776	7376.18
558.139	7403.07
558.502	7466.57
558.865	7474.7
559.228	7542.27
559.59	7548.83
559.953	7538.21
560.316	7647.13
560.679	7642.16
561.041	7623.85
561.404	7698.2
561.767	7751.08
562.129	7672.89
562.492	7775.71
562.854	7733.91
563.217	7705.88
563.579	7800.8
563.941	7896.84
564.304	7883.28
564.666	7854.81
565.028	7853
565.39	7815.26
565.753	7948.82
566.115	7951.53
566.477	7959.89
566.839	8043.5
567.201	7986.1
567.563	8085.54
567.925	8164.86
568.287	8104.07
568.648	8151.75
569.01	8151.75
569.372	8194.46
569.734	8195.82
570.095	8231.75
570.457	8297.73
570.819	8311.52
571.18	8338.64
571.542	8384.51
571.903	8339.77
572.265	8419.76
572.626	8518.29
572.987	8482.36
573.349	8511.06
573.71	8542.47
574.071	8650.49
574.432	8703.82
574.794	8687.78
575.155	8716.71
575.516	8747.67
575.877	8758.74
576.238	8833.54
576.599	8893.88
576.96	8946.08
577.32	8977.72
577.681	9025.85
578.042	9124.15
578.403	9158.73
578.763	9231.27
579.124	9277.14
579.485	9331.6
579.845	9461.09
580.206	9490.47
580.566	9510.13
580.927	9615.67
581.287	9763.68
581.648	9797.81
582.008	9788.99
582.368	9949.22
582.728	10035.09
583.089	10068.53
583.449	10148.31
583.809	10279.38
584.169	10454.06
584.529	10498.35
584.889	10629.88
585.249	10628.29
585.609	10739.48
585.969	10894.5
586.329	10943.54
586.688	11111.22
587.048	11173.14
587.408	11314.6
587.768	11473.24
588.127	11546.69
588.487	11628.49
588.846	11897.87
589.206	11930.18
589.565	12024.19
589.925	12280
590.284	12336.05
590.643	12423.95
591.003	12631.18
591.362	12825.07
591.721	12947.1
592.08	13021
592.44	13178.96
592.799	13403.59
593.158	13492.63
593.517	13622.34
593.876	13780.53
594.235	13823.92
594.593	13992.5
594.952	14100.07
595.311	14281.08
595.67	14441.53
596.029	14575.53
596.387	14715.64
596.746	14802.42
597.104	14948.86
597.463	15047.84
597.822	15240.38
598.18	15367.6
598.538	15380.94
598.897	15613.02
599.255	15672.23
599.613	16038.1
599.972	15939.11
600.33	16134.59
600.688	16215.04
601.046	16385.2
601.404	16541.81
601.762	16573.45
602.12	16838.3
602.478	16895.25
602.836	16999.65
603.194	16987.67
603.552	17174.34
603.91	17206.2
604.268	17298.63
604.625	17379.98
604.983	17551.5
605.341	17558.73
605.698	17750.82
606.056	17812.06
606.413	17844.83
606.771	18055.22
607.128	18070.36
607.485	18142.67
607.843	18155.1
608.2	18289.11
608.557	18344.93
608.914	18537.24
609.272	18516
609.629	18699.49
609.986	18856.1
610.343	18812.94
610.7	18960.73
611.057	19022.42
611.414	19055.42
611.771	19174.06
612.127	19288.86
612.484	19299.25
612.841	19490.43
613.198	19326.6
613.554	19538.12
613.911	19638.45
614.267	19636.87
614.624	19719.81
614.98	19825.11
615.337	19919.35
615.693	19947.82
616.05	19951.44
616.406	20152.79
616.762	20070.53
617.118	20079.34
617.475	20229.17
617.831	20324.99
618.187	20275.95
618.543	20352.78
618.899	20339.23
619.255	20461.93
619.611	20478.43
619.967	20594.36
620.323	20640.46
620.678	20721.14
621.034	20548.26
621.39	20674.81
621.746	20647.69
622.101	20937.85
622.457	20737.41
622.812	20838.2
623.168	20891.53
623.523	20894.92
623.879	21036.83
624.234	20796.39
624.589	21004.74
624.945	20932.2
625.3	21126.1
625.655	21057.4
626.01	21157.73
626.365	21205.87
626.72	21164.29
627.075	21150.73
627.43	21140.56
627.785	21072.54
628.14	21261.69
628.495	21291.52
628.85	21291.06
629.205	21167.23
629.559	21298.52
629.914	21194.8
630.269	21258.3
630.623	21162.93
630.978	21141.24
631.332	21284.96
631.687	21270.05
632.041	21152.54
632.396	21108.02
632.75	21160.22
633.104	21158.41
633.459	21037.74
633.813	21121.58
634.167	21079.32
634.521	21153.89
634.875	21177.85
635.229	21177.85
635.583	21137.4
635.937	20929.27
636.291	20977.4
636.645	21001.58
636.999	21015.82
637.352	21061.24
637.706	20963.39
638.06	21004.74
638.413	20863.96
638.767	20969.94
639.121	21038.87
639.474	20774.47
639.828	20886.56
640.181	20939.21
640.534	20866.67
640.888	20817.86
641.241	20766.56
641.594	20794.58
641.947	20849.95
642.301	20871.64
642.654	20948.25
643.007	20879.32
643.36	20823.51
643.713	20848.14
644.066	20762.94
644.419	20821.7
644.771	20636.39
645.124	20499.9
645.477	20493.57
645.83	20304.65
646.182	20179.91
646.535	20266.23
646.888	20305.55
647.24	20151.21
647.593	20368.83
647.945	20390.07
648.298	20231.66
648.65	20157.08
649.002	20242.05
649.355	20301.94
649.707	20261.49
650.059	20338.55
650.411	20541.71
650.763	20510.07
651.115	20763.85
651.467	20729.5
651.819	20649.95
652.171	20650.18
652.523	20607.01
652.875	20626.68
653.227	20604.08
653.578	20647.01
653.93	20697.63
654.282	20567.02
654.633	20597.75
654.985	20622.83
655.337	20732.44
655.688	20536.73
656.039	20766.33
656.391	20585.32
656.742	20659.89
657.094	20619.67
657.445	20655.6
657.796	20710.06
658.147	20710.06
658.498	20616.73
658.849	20687.69
659.2	20696.96
659.551	20672.1
659.902	20790.51
660.253	20764.07
660.604	20745.32
660.955	20731.53
661.306	20787.8
661.656	20650.18
662.007	20711.64
662.358	20696.28
662.708	20806.78
663.059	20728.37
663.409	20691.76
663.76	20665.32
664.11	20691.08
664.461	20817.18
664.811	20785.99
665.161	20772.43
665.511	20818.31
665.862	20747.35
666.212	20780.34
666.562	20784.19
666.912	20742.83
667.262	20812.21
667.612	20743.51
667.962	20855.6
668.312	20789.83
668.662	20897.18
669.011	20824.41
669.361	20716.39
669.711	20762.26
670.06	20703.74
670.41	20605.66
670.76	20698.99
671.109	20813.34
671.459	20755.03
671.808	20608.82
672.157	20717.75
672.507	20567.92
672.856	20538.09
673.205	20661.7
673.554	20534.25
673.904	20577.18
674.253	20677.07
674.602	20619.9
674.951	20349.85
675.3	20216.74
675.649	20633.23
675.998	20536.96
676.346	20470.75
676.695	20494.25
677.044	20418.09
677.393	20544.19
677.741	20533.12
678.09	20515.49
678.438	20268.27
678.787	20435.72
679.135	20415.38
679.484	20279.34
679.832	20343.52
680.181	20195.5
680.529	20177.65
680.877	20164.77
681.225	20156.86
681.573	20284.31
681.922	20136.74
682.27	20016.3
682.618	20098.78
682.966	20022.62
683.314	19969.74
683.661	19975.39
684.009	19851.55
684.357	19816.98
684.705	19837.09
685.053	19796.19
685.4	19770.2
685.748	19682.75
686.095	19735.63
686.443	19673.71
686.79	19661.95
687.138	19583.76
687.485	19563.2
687.832	19436.88
688.18	19551.9
688.527	19437.33
688.874	19347.39
689.221	19300.61
689.568	19161.85
689.915	19215.19
690.262	19177.45
690.609	19054.51
690.956	19087.73
691.303	19049.32
691.65	19000.73
691.997	18995.98
692.344	18859.94
692.69	18791.02
693.037	18845.25
693.383	18655.88
693.73	18720.74
694.077	18537.46
694.423	18552.15
694.769	18477.13
695.116	18458.82
695.462	18468.99
695.808	18292.05
696.155	18428.99
696.501	18266.96
696.847	18205.95
697.193	18165.04
697.539	18106.29
697.885	18053.86
698.231	17926.86
698.577	17859.29
698.923	17883.02
699.269	17866.52
699.614	17717.37
699.96	17652.29
700.306	17684.38
700.651	17524.61
700.997	17500.2
701.342	17474.44
701.688	17330.49
702.033	17328.46
702.379	17330.04
702.724	17253.66
703.069	17190.38
703.415	17069.93
703.76	17033.1
704.105	17048.92
704.45	16975.02
704.795	16850.96
705.14	16816.83
705.485	16760.34
705.83	16767.34
706.175	16784.29
706.52	16732.54
706.865	16644.18
707.209	16544.52
707.554	16522.15
707.899	16550.85
708.243	16507.24
708.588	16479.21
708.932	16236.06
709.277	16360.8
709.621	16366
709.966	16141.6
710.31	16310.4
710.654	16055.72
710.998	16108.6
711.342	16123.29
711.687	16104.31
712.031	16038.32
712.375	15945.22
712.719	15914.26
713.063	15879.68
713.407	16019.79
713.75	15886.01
714.094	15848.27
714.438	15740.7
714.782	15723.53
715.125	15718.1
715.469	15709.06
715.812	15677.43
716.156	15559.24
716.499	15522.4
716.843	15535.28
717.186	15471.33
717.53	15501.84
717.873	15557.2
718.216	15594.27
718.559	15436.3
718.902	15234.73
719.246	15408.06
719.589	15358.79
719.932	15281.73
720.275	15265.23
720.617	15252.81
720.96	15283.54
721.303	15232.69
721.646	15220.94
721.989	15205.57
722.331	15224.11
722.674	15092.36
723.016	15191.79
723.359	15133.94
723.701	15099.36
724.044	15060.27
724.386	15013.49
724.729	15043.32
725.071	14987.73
725.413	15081.28
725.755	14959.03
726.097	14957.22
726.439	14797.9
726.782	14856.88
727.124	14968.74
727.465	14852.36
727.807	14859.6
728.149	14878.35
728.491	14775.98
728.833	14880.39
729.175	14764.91
729.516	14819.6
729.858	14784.12
730.199	14776.21
730.541	14762.2
730.882	14761.74
731.224	14782.08
731.565	14726.27
731.906	14720.16
732.248	14727.17
732.589	14655.98
732.93	14590.22
733.271	14729.2
733.612	14725.59
733.953	14701.41
734.294	14641.3
734.635	14608.08
734.976	14713.38
735.317	14656.21
735.658	14662.09
735.999	14662.99
736.339	14691.01
736.68	14701.41
737.021	14619.38
737.361	14570.79
737.702	14700.96
738.042	14723.1
738.383	14656.89
738.723	14650.34
739.063	14678.58
739.404	14679.26
739.744	14606.27
740.084	14595.42
740.424	14636.55
740.764	14656.89
741.104	14726.72
741.444	14627.28
741.784	14638.36
742.124	14728.98
742.464	14765.81
742.804	14691.92
743.143	14766.72
743.483	14797.45
743.823	14768.3
744.162	14758.35
744.502	14865.24
744.841	14832.48
745.181	14833.83
745.52	14807.85
745.86	14928.07
746.199	14955.41
746.538	14968.29
746.877	15081.28
747.216	15098.91
747.556	15128.51
747.895	15159.02
748.234	15154.28
748.573	15158.12
748.911	15266.14
749.25	15400.15
749.589	15380.71
749.928	15453.7
750.267	15505.68
750.605	15545.45
750.944	15675.84
751.283	15660.93
751.621	15713.58
751.96	15776.63
752.298	15939.79
752.636	16015.72
752.975	15984.09
753.313	16039.45
753.651	16281.03
753.989	16252.55
754.327	16304.53
754.666	16434.47
755.004	16547.46
755.342	16678.76
755.679	16812.31
756.017	16798.3
756.355	16929.6
756.693	16959.88
757.031	17156.26
757.368	17193.55
757.706	17262.92
758.044	17381.34
758.381	17480.32
758.719	17593.31
759.056	17757.15
759.394	17840.31
759.731	17844.83
