Data from hue_310_FLMS001491_48.txt Node
Date: Mon Feb 06 15:49:45 GMT 2017
User: dcchb
Spectrometer: FLMS00149
Trigger mode: 0
Integration Time (sec): 2.000000E-2
Scans to average: 10
Electric dark correction enabled: true
Nonlinearity correction enabled: false
Boxcar width: 0
XAxis mode: Wavelengths
Number of Pixels in Spectrum: 2048
>>>>>Begin Spectral Data<<<<<
341.393	-14.49
341.776	-14.49
342.16	-14.49
342.543	-81.16
342.927	-71.44
343.31	-74.15
343.693	-85.9
344.077	-57.43
344.46	-65.34
344.843	-57.88
345.226	-46.35
345.61	-22.85
345.993	-11.33
346.376	6.75
346.759	-11.78
347.142	26.64
347.525	33.64
347.908	60.99
348.291	88.78
348.674	90.36
349.057	125.84
349.44	108.9
349.823	147.76
350.206	179.63
350.588	204.49
350.971	212.4
351.354	226.63
351.737	230.02
352.119	256.24
352.502	253.75
352.884	267.08
353.267	285.39
353.65	283.35
354.032	302.11
354.414	315.67
354.797	308.21
355.179	311.38
355.562	317.93
355.944	324.93
356.326	330.58
356.709	343.47
357.091	304.14
357.473	356.12
357.855	329.45
358.238	318.38
358.62	358.15
359.002	342.56
359.384	337.82
359.766	345.5
360.148	320.87
360.53	326.97
360.912	320.19
361.294	296.24
361.676	337.14
362.057	344.37
362.439	323.13
362.821	322.45
363.203	329.23
363.584	322.68
363.966	313.41
364.348	313.41
364.729	324.48
365.111	308.21
365.493	326.06
365.874	333.07
366.256	317.03
366.637	327.65
367.019	300.53
367.4	312.96
367.781	319.74
368.163	326.06
368.544	295.78
368.925	321.55
369.306	338.27
369.688	304.14
370.069	299.17
370.45	305.05
370.831	305.5
371.212	319.06
371.593	310.47
371.974	307.99
372.355	318.83
372.736	318.83
373.117	304.37
373.498	312.28
373.879	306.18
374.26	298.49
374.641	321.77
375.021	300.53
375.402	312.05
375.783	299.4
376.163	330.36
376.544	343.01
376.925	341.88
377.305	321.55
377.686	340.08
378.066	328.1
378.447	340.3
378.827	333.52
379.208	326.52
379.588	326.97
379.968	339.62
380.349	339.85
380.729	343.47
381.109	343.47
381.489	345.05
381.87	333.97
382.25	359.06
382.63	350.02
383.01	350.92
383.39	342.11
383.77	336.91
384.15	338.95
384.53	332.39
384.91	340.3
385.29	333.3
385.67	347.99
386.049	341.66
386.429	348.89
386.809	343.01
387.189	342.56
387.568	357.48
387.948	320.87
388.328	331.71
388.707	338.95
389.087	360.64
389.466	354.31
389.846	373.3
390.225	368.1
390.605	346.18
390.984	364.48
391.363	364.71
391.743	359.28
392.122	388.89
392.501	357.93
392.881	368.32
393.26	362.45
393.639	368.32
394.018	360.19
394.397	351.83
394.776	347.53
395.155	393.86
395.534	402.9
395.913	393.86
396.292	365.84
396.671	396.12
397.05	373.52
397.429	387.08
397.808	375.78
398.186	373.07
398.565	386.4
398.944	403.8
399.323	400.87
399.701	397.7
400.08	411.49
400.458	394.76
400.837	411.94
401.215	417.81
401.594	410.36
401.972	417.81
402.351	421.88
402.729	399.51
403.107	404.71
403.486	416.23
403.864	434.54
404.242	441.09
404.62	421.88
404.999	434.54
405.377	434.54
405.755	431.82
406.133	437.25
406.511	444.48
406.889	442.9
407.267	451.26
407.645	448.77
408.023	461.65
408.401	458.49
408.779	460.98
409.156	465.95
409.534	480.64
409.912	488.55
410.29	462.11
410.667	479.28
411.045	481.09
411.422	491.03
411.8	494.87
412.178	534.19
412.555	492.16
412.933	522.9
413.31	532.61
413.687	543.23
414.065	538.49
414.442	548.88
414.819	553.4
415.197	556.34
415.574	574.65
415.951	600.18
416.328	588.88
416.705	596.34
417.082	591.82
417.46	636.34
417.837	627.53
418.214	613.51
418.591	643.12
418.967	618.49
419.344	671.59
419.721	653.74
420.098	656.23
420.475	663.91
420.852	674.76
421.228	691.25
421.605	687.86
421.982	676.34
422.358	705.49
422.735	723.34
423.111	695.55
423.488	730.8
423.864	744.13
424.241	732.61
424.617	752.72
424.994	765.83
425.37	761.08
425.746	764.02
426.123	772.15
426.499	785.26
426.875	778.03
427.251	812.83
427.627	802.66
428.003	838.82
428.379	826.62
428.756	867.97
429.132	845.15
429.507	855.09
429.883	853.51
430.259	885.82
430.635	871.81
431.011	888.08
431.387	886.73
431.763	916.33
432.138	913.62
432.514	936.22
432.89	931.47
433.265	936.22
433.641	983.22
434.016	968.76
434.392	999.49
434.767	1013.28
435.143	1034.29
435.518	1009.44
435.894	1048.53
436.269	1048.53
436.644	1027.29
437.02	1052.6
437.395	1077.23
437.77	1063.22
438.145	1082.2
438.52	1096.21
438.895	1116.55
439.271	1101.86
439.646	1140.51
440.021	1118.13
440.395	1146.16
440.77	1166.95
441.145	1155.2
441.52	1178.47
441.895	1163.11
442.27	1187.29
442.645	1177.57
443.019	1196.78
443.394	1165.36
443.769	1201.52
444.143	1182.54
444.518	1214.86
444.892	1204.91
445.267	1237.23
445.641	1222.99
446.016	1212.6
446.39	1224.8
446.764	1222.76
447.139	1231.35
447.513	1256.89
447.887	1209.66
448.262	1239.71
448.636	1243.55
449.01	1272.25
449.384	1284.23
449.758	1274.97
450.132	1294.85
450.506	1272.03
450.88	1276.55
451.254	1289.88
451.628	1294.4
452.002	1342.99
452.376	1301.18
452.75	1298.92
453.123	1344.12
453.497	1341.63
453.871	1324.91
454.244	1366.04
454.618	1362.2
454.992	1334.63
455.365	1367.17
455.739	1405.81
456.112	1399.93
456.486	1398.35
456.859	1400.61
457.232	1427.73
457.606	1456.66
457.979	1453.49
458.352	1467.28
458.725	1485.36
459.099	1485.58
459.472	1512.02
459.845	1510.44
460.218	1527.39
460.591	1531
460.964	1534.17
461.337	1585.01
461.71	1559.25
462.083	1569.65
462.456	1580.95
462.829	1609.87
463.201	1606.71
463.574	1616.2
463.947	1627.05
464.32	1665.01
464.692	1662.53
465.065	1664.11
465.438	1695.75
465.81	1669.31
466.183	1691
466.555	1730.55
466.928	1756.76
467.3	1740.72
467.672	1774.61
468.045	1781.17
468.417	1794.27
468.789	1820.71
469.161	1791.11
469.534	1818.23
469.906	1848.96
470.278	1868.4
470.65	1875.4
471.022	1907.94
471.394	1918.34
471.766	1951.33
472.138	1935.06
472.51	1969.41
472.882	2017.09
473.253	2025
473.625	2049.41
473.997	2085.11
474.369	2053.7
474.74	2086.47
475.112	2121.5
475.484	2125.34
475.855	2149.52
476.227	2152.46
476.598	2204.21
476.97	2201.72
477.341	2269.06
477.713	2269.06
478.084	2305.9
478.455	2304.32
478.827	2343.41
479.198	2391.32
479.569	2379.12
479.94	2428.61
480.311	2430.42
480.682	2473.35
481.053	2492.11
481.424	2554.71
481.795	2519.91
482.166	2600.13
482.537	2590.64
482.908	2630.19
483.279	2659.79
483.65	2692.78
484.021	2756.06
484.391	2742.95
484.762	2748.83
485.133	2797.64
485.503	2812.33
485.874	2869.05
486.244	2855.04
486.615	2885.55
486.985	2898.43
487.356	2962.38
487.726	2989.72
488.097	3004.64
488.467	3015.49
488.837	3067.01
489.207	3082.38
489.578	3134.13
489.948	3142.71
490.318	3167.12
490.688	3206.22
491.058	3275.59
491.428	3271.98
491.798	3282.82
492.168	3324.63
492.538	3299.55
492.908	3361.01
493.278	3364.63
493.648	3363.95
494.017	3407.11
494.387	3428.81
494.757	3477.62
495.126	3468.58
495.496	3469.26
495.866	3515.81
496.235	3537.73
496.605	3546.09
496.974	3565.75
497.344	3589.71
497.713	3570.95
498.082	3622.93
498.452	3648.69
498.821	3674.45
499.19	3707.22
499.559	3677.84
499.928	3702.02
500.298	3709.25
500.667	3724.85
501.036	3732.53
501.405	3754.45
501.774	3744.51
502.143	3825.18
502.512	3766.43
502.88	3789.25
503.249	3826.09
503.618	3866.54
503.987	3876.48
504.356	3910.15
504.724	3882.58
505.093	3931.62
505.462	3911.06
505.83	3947.21
506.199	3961
506.567	3953.31
506.936	3993.31
507.304	3990.38
507.672	3957.38
508.041	3978.85
508.409	4039.64
508.777	4058.85
509.145	4074.89
509.514	4050.26
509.882	4044.16
510.25	4060.66
510.618	4113.31
510.986	4096.81
511.354	4190.37
511.722	4161.67
512.09	4163.7
512.458	4151.95
512.826	4143.59
513.193	4226.98
513.561	4207.54
513.929	4197.6
514.297	4253.65
514.664	4257.49
515.032	4252.74
515.4	4266.75
515.767	4341.33
516.135	4318.73
516.502	4259.97
516.869	4286.41
517.237	4355.11
517.604	4334.32
517.972	4344.72
518.339	4349.69
518.706	4359.63
519.073	4370.48
519.44	4386.07
519.808	4433.53
520.175	4418.16
520.542	4421.78
520.909	4442.57
521.276	4406.86
521.643	4418.16
522.009	4470.36
522.376	4523.02
522.743	4530.02
523.11	4533.86
523.477	4534.32
523.843	4555.78
524.21	4615.67
524.577	4610.25
524.943	4648.44
525.31	4641.21
525.676	4666.52
526.043	4700.19
526.409	4726.4
526.776	4758.94
527.142	4781.09
527.508	4776.34
527.874	4830.58
528.241	4826.51
528.607	4846.17
528.973	4857.47
529.339	4913.51
529.705	4959.16
530.071	4972.04
530.437	4973.63
530.803	5018.6
531.169	4980.63
531.535	5033.29
531.901	5081.19
532.267	5070.35
532.632	5097.92
532.998	5144.47
533.364	5134.3
533.73	5138.82
534.095	5139.27
534.461	5244.58
534.826	5182.21
535.192	5256.56
535.557	5283
535.923	5223.79
536.288	5275.31
536.653	5358.93
537.019	5320.51
537.384	5314.18
537.749	5367.29
538.114	5359.83
538.479	5391.69
538.845	5464.69
539.21	5421.52
539.575	5459.49
539.94	5472.37
540.305	5518.92
540.67	5542.65
541.034	5555.76
541.399	5550.56
541.764	5550.11
542.129	5648.18
542.494	5627.17
542.858	5681.86
543.223	5708.75
543.587	5722.08
543.952	5728.86
544.316	5712.82
544.681	5776.32
545.045	5783.55
545.41	5794.85
545.774	5880.04
546.138	5820.16
546.503	5868.74
546.867	5919.36
547.231	5945.58
547.595	5972.47
547.959	5968.4
548.324	6014.28
548.688	6005.92
549.052	6006.14
549.416	6010.89
549.779	6098.34
550.143	6079.81
550.507	6172.46
550.871	6162.97
551.235	6107.16
551.599	6209.3
551.962	6158.23
552.326	6190.32
552.689	6248.17
553.053	6216.53
553.417	6241.62
553.78	6295.85
554.143	6301.95
554.507	6329.75
554.87	6338.11
555.234	6363.65
555.597	6356.87
555.96	6400.26
556.323	6411.33
556.686	6353.48
557.05	6440.48
557.413	6427.37
557.776	6496.07
558.139	6499.46
558.502	6484.77
558.865	6513.02
559.228	6525.9
559.59	6600.93
559.953	6618.1
560.316	6629.18
560.679	6650.87
561.041	6650.42
561.404	6684.99
561.767	6716.18
562.129	6661.72
562.492	6773.8
562.854	6714.37
563.217	6804.31
563.579	6794.14
563.941	6818.78
564.304	6874.37
564.666	6867.59
565.028	6884.54
565.39	6925.89
565.753	6953.01
566.115	6957.98
566.477	6948.72
566.839	7022.16
567.201	7030.75
567.563	7096.51
567.925	7142.83
568.287	7152.78
568.648	7131.54
569.01	7125.21
569.372	7207.92
569.734	7168.6
570.095	7273.68
570.457	7293.79
570.819	7332.89
571.18	7358.87
571.542	7402.04
571.903	7331.08
572.265	7396.16
572.626	7515.71
572.987	7485.42
573.349	7638.87
573.71	7591.41
574.071	7673.44
574.432	7741.24
574.794	7800.67
575.155	7787.56
575.516	7845.87
575.877	7997.28
576.238	8041.12
576.599	8100.55
576.96	8099.42
577.32	8186.65
577.681	8247.66
578.042	8364.95
578.403	8429.81
578.763	8551.16
579.124	8612.63
579.485	8762.68
579.845	8875.44
580.206	8852.17
580.566	9011.26
580.927	9187.07
581.287	9349.56
581.648	9365.6
582.008	9551.59
582.368	9664.8
582.728	9853.05
583.089	9965.36
583.449	10093.27
583.809	10289.64
584.169	10430.21
584.529	10668.17
584.889	10827.94
585.249	11002.85
585.609	11095.73
585.969	11421.14
586.329	11587.69
586.688	11789.04
587.048	12078.98
587.408	12316.48
587.768	12458.4
588.127	12763.25
588.487	12922.8
588.846	13244.82
589.206	13406.17
589.565	13595.32
589.925	13977.01
590.284	14163.22
590.643	14443.89
591.003	14743.09
591.362	15037.09
591.721	15282.06
592.08	15551.2
592.44	15844.75
592.799	16097.4
593.158	16417.85
593.517	16724.73
593.876	16914.78
594.235	17257.6
594.593	17554.54
594.952	17817.36
595.311	18070.01
595.67	18479.26
596.029	18788.86
596.387	19111.33
596.746	19425.22
597.104	19583.64
597.463	19795.38
597.822	20236.05
598.18	20386.1
598.538	20769.6
598.897	21165.29
599.255	21208.45
599.613	21777.03
599.972	21923.24
600.33	22278.93
600.688	22521.64
601.046	22830.11
601.404	23152.13
601.762	23334.05
602.12	23733.81
602.478	23969.29
602.836	24197.98
603.194	24358.65
603.552	24705.08
603.91	24824.18
604.268	25109.59
604.625	25415.12
604.983	25612.41
605.341	25729.46
605.698	26241.77
606.056	26484.25
606.413	26746.39
606.771	27039.94
607.128	27195.64
607.485	27287.16
607.843	27641.96
608.2	27897.54
608.557	28175.05
608.914	28238.33
609.272	28454.59
609.629	28902.26
609.986	29247.11
610.343	29069.26
610.7	29643.49
611.057	29799.87
611.414	29946.53
611.771	30095
612.127	30391.49
612.484	30394.43
612.841	30706.28
613.198	30863.34
613.554	30937.24
613.911	31234.63
614.267	31351.24
614.624	31439.37
614.98	31801.4
615.337	31925.46
615.693	32124.1
616.05	32264.21
616.406	32527.03
616.762	32328.16
617.118	32699.22
617.475	32798.88
617.831	33012.21
618.187	33149.61
618.543	33328.13
618.899	33597.96
619.255	33711.85
619.611	33672.98
619.967	33903.04
620.323	34083.37
620.678	34023.03
621.034	34088.79
621.39	34164.27
621.746	34246.08
622.101	34698.72
622.457	34547.54
622.812	34769
623.168	34920.18
623.523	34995.44
623.879	35202.89
624.234	34936.68
624.589	35253.28
624.945	35292.15
625.3	35302.09
625.655	35378.02
626.01	35549.77
626.365	35580.73
626.72	35599.26
627.075	35737.56
627.43	35647.17
627.785	35591.58
628.14	35807.17
628.495	35878.35
628.85	35923.77
629.205	35982.53
629.559	36102.98
629.914	36036.54
630.269	36101.4
630.623	36121.73
630.978	36280.37
631.332	36300.26
631.687	36238.34
632.041	36254.84
632.396	36424.32
632.75	36173.94
633.104	36455.51
633.459	36203.99
633.813	36276.31
634.167	36395.85
634.521	36460.03
634.875	36549.52
635.229	36427.26
635.583	36256.87
635.937	36398.34
636.291	36377.77
636.645	36359.47
636.999	36438.11
637.352	36559.24
637.706	36314.05
638.06	36499.13
638.413	36362.41
638.767	36299.13
639.121	36383.87
639.474	36304.33
639.828	36192.47
640.181	36385.46
640.534	36289.64
640.888	36298.45
641.241	36244.89
641.594	36338.45
641.947	36346.81
642.301	36220.49
642.654	36231.34
643.007	36382.74
643.36	36332.12
643.713	36287.38
644.066	36477.66
644.419	36211.22
644.771	36078.35
645.124	35646.04
645.477	35588.19
645.83	35384.13
646.182	35258.25
646.535	35346.61
646.888	35315.43
647.24	35180.97
647.593	35368.76
647.945	35136.22
648.298	35173.74
648.65	35093.74
649.002	35078.6
649.355	35298.25
649.707	35166.73
650.059	35352.04
650.411	35628.19
650.763	35712.93
651.115	36139.36
651.467	35995.18
651.819	36111.79
652.171	35914.51
652.523	35909.54
652.875	35863.21
653.227	35786.15
653.578	35994.28
653.93	36001.06
654.282	35920.84
654.633	35713.61
654.985	35801.74
655.337	35808.97
655.688	35825.02
656.039	35880.84
656.391	35627.06
656.742	35660.95
657.094	35692.59
657.445	35860.72
657.796	35810.78
658.147	35721.29
658.498	35540.73
658.849	35831.57
659.2	35644.46
659.551	35526.27
659.902	35709.32
660.253	35646.94
660.604	35795.87
660.955	35544.57
661.306	35604.46
661.656	35576.21
662.007	35596.1
662.358	35537.79
662.708	35747.96
663.059	35630.67
663.409	35497.8
663.76	35615.53
664.11	35514.07
664.461	35742.08
664.811	35526.27
665.161	35470.45
665.511	35718.35
665.862	35574.63
666.212	35641.29
666.562	35727.17
666.912	35597.91
667.262	35617.79
667.612	35520.39
667.962	35634.74
668.312	35434.07
668.662	35708.41
669.011	35635.42
669.361	35431.13
669.711	35469.55
670.06	35488.76
670.41	35385.93
670.76	35418.7
671.109	35486.95
671.459	35381.87
671.808	35319.04
672.157	35559.71
672.507	35190.46
672.856	35231.14
673.205	35186.39
673.554	35399.49
673.904	35202.89
674.253	35343.22
674.602	35270.91
674.951	34703.47
675.3	34822.56
675.649	35244.24
675.998	35164.7
676.346	35151.36
676.695	35370.79
677.044	34907.53
677.393	35178.71
677.741	35363.56
678.09	35030.69
678.438	35053.51
678.787	35142.32
679.135	35061.42
679.484	34836.12
679.832	35046.06
680.181	34766.97
680.529	35006.06
680.877	34847.64
681.225	34823.91
681.573	34975.78
681.922	34750.92
682.27	34601.55
682.618	34701.66
682.966	34583.24
683.314	34689
683.661	34476.81
684.009	34370.14
684.357	34304.38
684.705	34314.78
685.053	34408.11
685.4	34242.91
685.748	34091.73
686.095	34166.08
686.443	34085.86
686.79	33943.26
687.138	34012.41
687.485	34026.87
687.832	33828.23
688.18	33960.43
688.527	33800.89
688.874	33712.31
689.221	33635.92
689.568	33605.64
689.915	33495.81
690.262	33578.3
690.609	33381.47
690.956	33220.34
691.303	33134.02
691.65	33112.32
691.997	33189.38
692.344	32927.92
692.69	32918.2
693.037	32948.03
693.383	32699.68
693.73	32815.83
694.077	32692.45
694.423	32581.26
694.769	32498.78
695.116	32381.04
695.462	32349.86
695.808	32254.72
696.155	32426.92
696.501	32121.61
696.847	32168.39
697.193	31872.35
697.539	32187.37
697.885	31814.73
698.231	31703.32
698.577	31701.29
698.923	31663.09
699.269	31468.97
699.614	31348.75
699.96	31286.15
700.306	31353.72
700.651	31197.57
700.997	31147.4
701.342	31097.46
701.688	31036.44
702.033	31040.29
702.379	30904.02
702.724	30721.65
703.069	30878.93
703.415	30455.89
703.76	30438.49
704.105	30511.49
704.45	30393.97
704.795	30285.5
705.14	30190.82
705.485	30216.13
705.83	29941.56
706.175	30117.6
706.52	29962.12
706.865	29931.84
707.209	29745.4
707.554	29723.71
707.899	29815.91
708.243	29558.97
708.588	29589.48
708.932	29443.04
709.277	29494.79
709.621	29500.44
709.966	29234.23
710.31	29378.63
710.654	29100.9
710.998	29134.12
711.342	29091.64
711.687	28977.06
712.031	28964.86
712.375	28849.38
712.719	28820.91
713.063	28809.61
713.407	28845.54
713.75	28667.47
714.094	28688.26
714.438	28520.8
714.782	28577.75
715.125	28335.5
715.469	28499.56
715.812	28390.64
716.156	28131.44
716.499	28224.99
716.843	28309.51
717.186	28107.03
717.53	28182.96
717.873	28254.82
718.216	28138.21
718.559	28036.3
718.902	27815.06
719.246	27948.84
719.589	27717.21
719.932	27745.46
720.275	27703.2
720.617	27691
720.96	27624.1
721.303	27533.26
721.646	27586.14
721.989	27465.92
722.331	27449.19
722.674	27429.76
723.016	27444
723.359	27275.86
723.701	27360.61
724.044	27224.57
724.386	27003.1
724.729	27103.21
725.071	27108.64
725.413	27107.73
725.755	27144.34
726.097	27063.21
726.439	26795.88
726.782	26743.45
727.124	26892.15
727.465	26763.79
727.807	26680.85
728.149	26615.54
728.491	26581.87
728.833	26779.61
729.175	26563.12
729.516	26489.44
729.858	26492.61
730.199	26504.36
730.541	26409.22
730.882	26236.12
731.224	26506.17
731.565	26252.39
731.906	26320.18
732.248	26242.45
732.589	26128.55
732.93	26093.75
733.271	26102.11
733.612	26142.11
733.953	26091.26
734.294	25999.97
734.635	25896.69
734.976	26081.77
735.317	25821.21
735.658	25879.74
735.999	25847.43
736.339	25819.86
736.68	25973.75
737.021	25719.97
737.361	25572.41
737.702	25682.69
738.042	25728.56
738.383	25548.68
738.723	25632.07
739.063	25551.16
739.404	25590.94
739.744	25477.27
740.084	25439.53
740.424	25468.45
740.764	25324.05
741.104	25486.53
741.444	25308.23
741.784	25087
742.124	25267.33
742.464	25187.78
742.804	25133.32
743.143	25140.55
743.483	25118.41
743.823	25002.93
744.162	25039.99
744.502	24992.53
744.841	24769.04
745.181	24904.85
745.52	24931.52
745.86	24919.99
746.199	24718.19
746.538	24711.19
746.877	24838.64
747.216	24701.7
747.556	24587.57
747.895	24660.79
748.234	24592.55
748.573	24413.57
748.911	24555.71
749.25	24483.85
749.589	24362.5
749.928	24306.68
750.267	24326.56
750.605	24311.65
750.944	24206.34
751.283	24131.31
751.621	24197.3
751.96	24028.27
752.298	24039.57
752.636	24132.44
752.975	23898.33
753.313	23838.67
753.651	23920.47
753.989	23732.23
754.327	23677.32
754.666	23604.77
755.004	23681.61
755.342	23658.11
755.679	23600.71
756.017	23566.13
756.355	23674.38
756.693	23435.74
757.031	23356.87
757.368	23249.76
757.706	23276.42
758.044	23183.99
758.381	23154.84
758.719	23063.55
759.056	23011.57
