Data from hue_350_FLMS001491_59.txt Node
Date: Mon Feb 06 15:38:14 GMT 2017
User: dcchb
Spectrometer: FLMS00149
Trigger mode: 0
Integration Time (sec): 2.000000E-2
Scans to average: 10
Electric dark correction enabled: true
Nonlinearity correction enabled: false
Boxcar width: 0
XAxis mode: Wavelengths
Number of Pixels in Spectrum: 2048
>>>>>Begin Spectral Data<<<<<
341.393	0.54
341.776	0.54
342.16	0.54
342.543	-44.89
342.927	-67.71
343.31	-95.51
343.693	-50.99
344.077	-66.35
344.46	-44.89
344.843	-58.9
345.226	-25.68
345.61	-31.78
345.993	-32
346.376	7.09
346.759	-1.05
347.142	26.52
347.525	25.85
347.908	55.45
348.291	84.38
348.674	78.5
349.057	129.35
349.44	140.19
349.823	142.23
350.206	181.55
350.588	206.41
350.971	202.34
351.354	226.97
351.737	223.81
352.119	249.8
352.502	268.55
352.884	280.3
353.267	276.46
353.65	307.42
354.032	323.24
354.414	308.55
354.797	314.43
355.179	296.57
355.562	337.48
355.944	359.17
356.326	331.38
356.709	325.05
357.091	334.77
357.473	355.1
357.855	343.8
358.238	335.9
358.62	348.32
359.002	329.34
359.384	359.4
359.766	343.35
360.148	346.06
360.53	337.7
360.912	334.09
361.294	333.18
361.676	319.62
362.057	344.03
362.439	356.23
362.821	337.7
363.203	328.89
363.584	332.28
363.966	344.48
364.348	318.72
364.729	342.67
365.111	333.41
365.493	329.57
365.874	332.05
366.256	297.25
366.637	313.97
367.019	292.96
367.4	329.12
367.781	291.6
368.163	315.56
368.544	342.67
368.925	304.71
369.306	326.63
369.688	313.52
370.069	316.01
370.45	295.67
370.831	317.36
371.212	314.65
371.593	318.04
371.974	317.82
372.355	297.93
372.736	306.74
373.117	307.87
373.498	301.77
373.879	325.05
374.26	325.27
374.641	325.5
375.021	310.36
375.402	325.27
375.783	298.61
376.163	331.15
376.544	310.13
376.925	318.72
377.305	298.83
377.686	317.14
378.066	327.99
378.447	302.45
378.827	322.56
379.208	337.48
379.588	314.2
379.968	329.34
380.349	334.99
380.729	346.29
381.109	327.76
381.489	306.97
381.87	347.42
382.25	351.94
382.63	323.92
383.01	329.79
383.39	331.15
383.77	346.74
384.15	332.96
384.53	338.61
384.91	348.78
385.29	344.26
385.67	361.88
386.049	342.9
386.429	336.57
386.809	337.7
387.189	352.62
387.568	353.52
387.948	349.45
388.328	366.18
388.707	357.36
389.087	344.93
389.466	359.17
389.846	341.32
390.225	356.46
390.605	356.91
390.984	359.17
391.363	373.86
391.743	365.27
392.122	349.23
392.501	346.29
392.881	358.27
393.26	361.88
393.639	355.33
394.018	350.13
394.397	348.55
394.776	363.92
395.155	346.06
395.534	362.79
395.913	367.76
396.292	349.91
396.671	351.26
397.05	372.28
397.429	364.37
397.808	379.06
398.186	363.69
398.565	366.4
398.944	367.53
399.323	403.01
399.701	389.45
400.08	400.3
400.458	381.09
400.837	380.64
401.215	383.58
401.594	374.76
401.972	376.57
402.351	402.33
402.729	402.56
403.107	407.31
403.486	395.55
403.864	403.92
404.242	398.49
404.62	406.63
404.999	402.56
405.377	399.17
405.755	393.29
406.133	405.72
406.511	400.07
406.889	421.99
407.267	413.41
407.645	418.6
408.023	414.99
408.401	428.77
408.779	419.28
409.156	430.58
409.534	426.74
409.912	421.32
410.29	428.1
410.667	449.11
411.045	443.24
411.422	438.49
411.8	453.86
412.178	455.67
412.555	445.04
412.933	444.14
413.31	473.29
413.687	463.58
414.065	451.82
414.442	474.65
414.819	460.19
415.197	456.8
415.574	489.11
415.951	485.95
416.328	487.98
416.705	483.24
417.082	480.3
417.46	484.82
417.837	486.63
418.214	496.57
418.591	482.56
418.967	500.64
419.344	504.7
419.721	508.09
420.098	497.47
420.475	506.51
420.852	511.48
421.228	509.68
421.605	515.33
421.982	536.12
422.358	520.75
422.735	537.47
423.111	512.39
423.488	521.2
423.864	542.44
424.241	543.8
424.617	538.83
424.994	552.39
425.37	558.94
425.746	576.79
426.123	567.53
426.499	565.95
426.875	565.49
427.251	563.23
427.627	562.33
428.003	600.52
428.379	576.34
428.756	584.48
429.132	574.76
429.507	584.02
429.883	607.3
430.259	589.22
430.635	595.1
431.011	611.59
431.387	626.73
431.763	625.61
432.138	617.92
432.514	628.99
432.89	619.28
433.265	650.92
433.641	669.22
434.016	672.16
434.392	647.07
434.767	671.48
435.143	662.67
435.518	663.34
435.894	679.84
436.269	702.21
436.644	680.29
437.02	710.12
437.395	693.4
437.77	716
438.145	732.95
438.52	708.77
438.895	722.1
439.271	731.14
439.646	728.2
440.021	751.48
440.395	698.37
440.77	716.45
441.145	730.46
441.52	765.26
441.895	746.73
442.27	744.92
442.645	738.37
443.019	787.86
443.394	766.62
443.769	773.85
444.143	772.27
444.518	777.69
444.892	761.42
445.267	769.33
445.641	784.92
446.016	774.3
446.39	763.23
446.764	812.72
447.139	783.12
447.513	782.89
447.887	801.42
448.262	795.09
448.636	805.26
449.01	828.09
449.384	816.56
449.758	829.89
450.132	822.21
450.506	830.35
450.88	845.49
451.254	837.58
451.628	844.36
452.002	857.69
452.376	870.8
452.75	839.61
453.123	853.17
453.497	866.28
453.871	867.41
454.244	875.77
454.618	886.16
454.992	904.24
455.365	895.65
455.739	915.09
456.112	913.06
456.486	926.84
456.859	924.13
457.232	931.59
457.606	939.04
457.979	958.48
458.352	965.03
458.725	975.2
459.099	969.78
459.472	999.83
459.845	969.1
460.218	997.12
460.591	995.54
460.964	1000.51
461.337	1050
461.71	1041.87
462.083	1034.86
462.456	1031.92
462.829	1035.99
463.201	1092.71
463.574	1079.83
463.947	1087.97
464.32	1076.89
464.692	1101.98
465.065	1120.06
465.438	1118.7
465.81	1127.29
466.183	1157.12
466.555	1153.05
466.928	1188.75
467.3	1169.77
467.672	1175.2
468.045	1185.82
468.417	1226.49
468.789	1216.55
469.161	1217.45
469.534	1279.6
469.906	1267.17
470.278	1273.27
470.65	1298.13
471.022	1306.72
471.394	1318.02
471.766	1345.13
472.138	1345.59
472.51	1388.07
472.882	1384.46
473.253	1394.4
473.625	1431.69
473.997	1483.89
474.369	1479.37
474.74	1481.63
475.112	1517.33
475.484	1523.66
475.855	1548.07
476.227	1546.94
476.598	1620.16
476.97	1635.07
477.341	1645.24
477.713	1693.83
478.084	1701.73
478.455	1713.71
478.827	1730.21
479.198	1768.85
479.569	1806.59
479.94	1834.61
480.311	1847.72
480.682	1911.45
481.053	1898.79
481.424	1962.07
481.795	2004.33
482.166	2027.15
482.537	2053.36
482.908	2077.09
483.279	2105.34
483.65	2155.06
484.021	2183.08
484.391	2203.64
484.762	2229.86
485.133	2240.7
485.503	2290.87
485.874	2332.68
486.244	2332
486.615	2377.65
486.985	2417.87
487.356	2472.11
487.726	2477.99
488.097	2506.69
488.467	2554.37
488.837	2568.15
489.207	2656.74
489.578	2668.94
489.948	2700.8
490.318	2717.75
490.688	2754.81
491.058	2783.74
491.428	2823.51
491.798	2856.05
492.168	2877.07
492.538	2901.03
492.908	2922.27
493.278	2957.07
493.648	3011.53
494.017	3059.67
494.387	3073
494.757	3075.71
495.126	3128.82
495.496	3153
495.866	3149.83
496.235	3169.04
496.605	3195.93
496.974	3249.04
497.344	3286.33
497.713	3286.55
498.082	3307.34
498.452	3342.82
498.821	3355.48
499.19	3399.54
499.559	3373.1
499.928	3432.31
500.298	3437.06
500.667	3509.37
501.036	3450.16
501.405	3496.04
501.774	3518.86
502.143	3577.39
502.512	3514.79
502.88	3630.27
503.249	3583.72
503.618	3601.35
503.987	3626.2
504.356	3665.98
504.724	3630.72
505.093	3705.98
505.462	3720.44
505.83	3688.35
506.199	3758.18
506.567	3734.68
506.936	3752.08
507.304	3800.21
507.672	3802.92
508.041	3781.23
508.409	3861.68
508.777	3861
509.145	3872.75
509.514	3883.15
509.882	3889.25
510.25	3890.38
510.618	3933.31
510.986	3919.3
511.354	3973.31
511.722	3986.65
512.09	3986.87
512.458	4009.02
512.826	4036.14
513.193	4046.76
513.561	4052.63
513.929	4075.23
514.297	4133.99
514.664	4128.11
515.032	4100.77
515.4	4149.13
515.767	4145.06
516.135	4170.6
516.502	4099.86
516.869	4205.4
517.237	4175.12
517.604	4152.52
517.972	4254.66
518.339	4199.3
518.706	4232.29
519.073	4247.43
519.44	4234.78
519.808	4272.51
520.175	4301.21
520.542	4307.32
520.909	4323.81
521.276	4313.87
521.643	4379.4
522.009	4411.04
522.376	4362.91
522.743	4381.44
523.11	4449.46
523.477	4475.22
523.843	4497.82
524.21	4517.71
524.577	4557.25
524.943	4557.93
525.31	4602
525.676	4625.27
526.043	4637.25
526.409	4681.77
526.776	4729.23
527.142	4676.12
527.508	4729.23
527.874	4824.82
528.241	4734.42
528.607	4780.75
528.973	4809.68
529.339	4851.93
529.705	4822.78
530.071	4888.09
530.437	4885.61
530.803	4926.28
531.169	4970.35
531.535	4915.89
531.901	4989.11
532.267	4995.21
532.632	5016.68
532.998	5018.71
533.364	5060.52
533.73	5086.73
534.095	5070.91
534.461	5105.26
534.826	5132.15
535.192	5132.15
535.557	5217.12
535.923	5193.39
536.288	5208.54
536.653	5232.49
537.019	5247.63
537.384	5263.22
537.749	5294.86
538.114	5290.57
538.479	5349.32
538.845	5317.01
539.21	5357.68
539.575	5343.22
539.94	5366.72
540.305	5430
540.67	5463.9
541.034	5492.6
541.399	5530.56
541.764	5482.43
542.129	5606.04
542.494	5566.94
542.858	5576.66
543.223	5583.89
543.587	5638.58
543.952	5653.95
544.316	5615.3
544.681	5639.71
545.045	5659.6
545.41	5777.56
545.774	5755.87
546.138	5770.33
546.503	5771.91
546.867	5793.83
547.231	5829.31
547.595	5873.15
547.959	5869.31
548.324	5880.61
548.688	5921.28
549.052	5911.12
549.416	5926.48
549.779	5961.51
550.143	5959.7
550.507	6000.6
550.871	5965.8
551.235	6082.18
551.599	6138.91
551.962	6051
552.326	6106.36
552.689	6097.78
553.053	6127.61
553.417	6187.04
553.78	6256.64
554.143	6218.68
554.507	6211.67
554.87	6244.89
555.234	6250.99
555.597	6292.8
555.96	6324.89
556.323	6314.27
556.686	6302.52
557.05	6376.64
557.413	6388.39
557.776	6432.46
558.139	6407.83
558.502	6488.5
558.865	6455.28
559.228	6486.24
559.59	6497.99
559.953	6465.68
560.316	6537.54
560.679	6528.73
561.041	6618.44
561.404	6646.92
561.767	6670.42
562.129	6689.4
562.492	6693.47
562.854	6658.89
563.217	6685.33
563.579	6698.44
563.941	6758.33
564.304	6766.91
564.666	6795.16
565.028	6795.16
565.39	6852.79
565.753	6851.66
566.115	6939.56
566.477	6862.5
566.839	6934.37
567.201	6984.08
567.563	6936.4
567.925	7045.78
568.287	7067.24
568.648	7109.5
569.01	7105.89
569.372	7120.35
569.734	7127.81
570.095	7162.38
570.457	7190.4
570.819	7232.21
571.18	7242.83
571.542	7290.74
571.903	7325.54
572.265	7361.93
572.626	7423.62
572.987	7461.81
573.349	7504.52
573.71	7471.98
574.071	7552.2
574.432	7597.85
574.794	7692.54
575.155	7776.83
575.516	7690.96
575.877	7793.55
576.238	7820.9
576.599	7931.63
576.96	8032.87
577.32	8081.91
577.681	8104.05
578.042	8197.84
578.403	8321.22
578.763	8363.71
579.124	8462.24
579.485	8591.95
579.845	8688.44
580.206	8777.03
580.566	8900.64
580.927	8965.5
581.287	9099.28
581.648	9226.51
582.008	9351.25
582.368	9435.99
582.728	9622.88
583.089	9715.99
583.449	9906.72
583.809	10074.62
584.169	10179.03
584.529	10320.04
584.889	10607.94
585.249	10688.39
585.609	10912.57
585.969	11063.75
586.329	11287.7
586.688	11433.23
587.048	11713.68
587.408	11819.89
587.768	12058.75
588.127	12425.29
588.487	12482.92
588.846	12796.58
589.206	12982.34
589.565	13227.31
589.925	13525.83
590.284	13721.76
590.643	14000.62
591.003	14315.19
591.362	14526.93
591.721	14789.98
592.08	15105.45
592.44	15402.84
592.799	15759.67
593.158	15944.07
593.517	16136.16
593.876	16512.87
594.235	16775.24
594.593	17101.56
594.952	17432.39
595.311	17536.57
595.67	17927.75
596.029	18360.96
596.387	18606.15
596.746	18924.11
597.104	19134.72
597.463	19418.33
597.822	19868.71
598.18	20037.52
598.538	20360.68
598.897	20702.59
599.255	20734.68
599.613	21462.8
599.972	21602.45
600.33	21962.45
600.688	22095.55
601.046	22558.81
601.404	22862.53
601.762	23038.35
602.12	23372.58
602.478	23576.41
602.836	23982.96
603.194	24128.94
603.552	24412.1
603.91	24670.4
604.268	24926.21
604.625	25240.33
604.983	25552.41
605.341	25824.49
605.698	26012.96
606.056	26504.02
606.413	26532.27
606.771	26832.83
607.128	27107.85
607.485	27238.46
607.843	27431.68
608.2	27754.16
608.557	28077.54
608.914	28223.98
609.272	28576.73
609.629	28821.47
609.986	29161.13
610.343	29123.61
610.7	29548.23
611.057	29613.09
611.414	29738.06
611.771	30110.48
612.127	30268.67
612.484	30556.8
612.841	30926.05
613.198	30758.37
613.554	30935.09
613.911	31276.32
614.267	31526.49
614.624	31639.03
614.98	31742.53
615.337	32044.67
615.693	32137.09
616.05	32385.67
616.406	32598.32
616.762	32641.94
617.118	32723.29
617.475	32981.82
617.831	33091.87
618.187	33414.8
618.543	33615.92
618.899	33773.21
619.255	33878.74
619.611	33991.06
619.967	34084.39
620.323	34241.22
620.678	34338.39
621.034	34313.08
621.39	34491.38
621.746	34537.48
622.101	35027.64
622.457	34768.66
622.812	34981.99
623.168	35100.86
623.523	35078.48
623.879	35342.43
624.234	35260.63
624.589	35344.24
624.945	35558.92
625.3	35703.33
625.655	35731.8
626.01	35892.02
626.365	35850.89
626.72	35995.3
627.075	36076.65
627.43	36113.49
627.785	36044.56
628.14	36135.63
628.495	36154.39
628.85	36312.8
629.205	36139.02
629.559	36538.56
629.914	36370.65
630.269	36369.07
630.623	36482.06
630.978	36412.69
631.332	36634.38
631.687	36907.81
632.041	36534.49
632.396	36626.01
632.75	36677.54
633.104	36711.66
633.459	36592.34
633.813	36666.69
634.167	36618.56
634.521	36717.31
634.875	36779.46
635.229	36720.93
635.583	36609.74
635.937	36619.91
636.291	36656.52
636.645	36712.11
636.999	36571.55
637.352	36729.97
637.706	36572.68
638.06	36802.28
638.413	36578.11
638.767	36581.27
639.121	36700.14
639.474	36488.62
639.828	36661.95
640.181	36596.86
640.534	36817.42
640.888	36729.06
641.241	36474.83
641.594	36555.51
641.947	36735.84
642.301	36623.08
642.654	36662.85
643.007	36627.14
643.36	36621.04
643.713	36480.93
644.066	36579.69
644.419	36492.01
644.771	36209.75
645.124	35925.69
645.477	35908.97
645.83	35628.3
646.182	35519.6
646.535	35379.04
646.888	35595.98
647.24	35321.19
647.593	35548.3
647.945	35529.77
648.298	35302.43
648.65	35340.85
649.002	35247.97
649.355	35431.24
649.707	35384.92
650.059	35430.11
650.411	35932.93
650.763	36070.77
651.115	36432.35
651.467	36231.67
651.819	36066.93
652.171	36267.83
652.523	36116.65
652.875	36040.72
653.227	35875.3
653.578	36142.19
653.93	36134.05
654.282	35971.34
654.633	35851.57
654.985	36127.95
655.337	35946.48
655.688	36042.3
656.039	36029.19
656.391	35788.97
656.742	35854.28
657.094	35824.68
657.445	36030.1
657.796	35766.83
658.147	35804.79
658.498	35852.48
658.849	35868.75
659.2	36059.7
659.551	35837.56
659.902	35967.95
660.253	35854.28
660.604	36005.47
660.955	35697.45
661.306	35892.7
661.656	35744.91
662.007	35793.72
662.358	35736.55
662.708	35736.77
663.059	35742.42
663.409	35518.7
663.76	35745.81
664.11	35790.56
664.461	35750.11
664.811	35690.22
665.161	35815.41
665.511	35624.68
665.862	35872.59
666.212	35893.83
666.562	35894.96
666.912	35747.39
667.262	35474.41
667.612	35687.96
667.962	35704.68
668.312	35606.61
668.662	35886.37
669.011	35713.95
669.361	35610.22
669.711	35608.19
670.06	35626.94
670.41	35579.71
670.76	35467.85
671.109	35694.51
671.459	35561.64
671.808	35689.77
672.157	35567.96
672.507	35324.81
672.856	35412.94
673.205	35459.27
673.554	35454.75
673.904	35400.51
674.253	35577.91
674.602	35525.48
674.951	35018.37
675.3	34811.82
675.649	35350.79
675.998	35234.64
676.346	35332.04
676.695	35503.11
677.044	35257.46
677.393	35261.3
677.741	35376.1
678.09	35234.64
678.438	35000.97
678.787	35115.32
679.135	35273.73
679.484	34964.14
679.832	35165.71
680.181	34804.14
680.529	34996.9
680.877	34920.07
681.225	34884.37
681.573	35106.73
681.922	35017.24
682.27	34887.53
682.618	34714.88
682.966	34672.62
683.314	34770.47
683.661	34633.98
684.009	34360.31
684.357	34382.46
684.705	34394.43
685.053	34389.91
685.4	34272.18
685.748	34216.36
686.095	34118.06
686.443	34051.17
686.79	34036.03
687.138	34235.79
687.485	34021.11
687.832	33917.84
688.18	33947.89
688.527	33776.15
688.874	33910.83
689.221	33706.77
689.568	33699.09
689.915	33699.54
690.262	33578.86
690.609	33475.14
690.956	33321.24
691.303	33394.01
691.65	33193.79
691.997	33231.53
692.344	32952.89
692.69	32999.67
693.037	33038.76
693.383	32707.47
693.73	32923.74
694.077	32616.63
694.423	32492.79
694.769	32509.29
695.116	32532.79
695.462	32448.27
695.808	32387.48
696.155	32438.1
696.501	32084.44
696.847	32046.47
697.193	31818.68
697.539	32019.36
697.885	31851.45
698.231	31600.84
698.577	31671.57
698.923	31577.56
699.269	31470.67
699.614	31453.04
699.96	31242.65
700.306	31347.74
700.651	31099.61
700.997	31071.36
701.342	31004.92
701.688	31030.23
702.033	30903.23
702.379	30803.79
702.724	30824.36
703.069	30721.76
703.415	30351.15
703.76	30424.37
704.105	30585.95
704.45	30471.83
704.795	30253.53
705.14	30171.04
705.485	30223.7
705.83	29992.06
706.175	30023.02
706.52	29955.91
706.865	29891.73
707.209	29796.59
707.554	29641.34
707.899	29727.66
708.243	29652.64
708.588	29556.82
708.932	29430.05
709.277	29379.88
709.621	29369.26
709.966	29199.77
710.31	29379.43
710.654	28985.76
710.998	29069.83
711.342	29045.2
711.687	28915.71
712.031	28940.34
712.375	28740.12
712.719	28788.93
713.063	28787.12
713.407	28923.39
713.75	28765.66
714.094	28658.54
714.438	28526.79
714.782	28477.08
715.125	28379
715.469	28463.97
715.812	28362.95
716.156	28030.99
716.499	28132.45
716.843	28217.42
717.186	28045
717.53	28086.8
717.873	28197.31
718.216	27886.13
718.559	27847.71
718.902	27710.77
719.246	27773.82
719.589	27667.38
719.932	27615.63
720.275	27515.07
720.617	27598.91
720.96	27561.62
721.303	27520.49
721.646	27463.09
721.989	27256.54
722.331	27408.86
722.674	27328.86
723.016	27312.36
723.359	27308.97
723.701	27251.35
724.044	27125.02
724.386	26975.65
724.729	27091.35
725.071	26991.01
725.413	27013.39
725.755	27019.71
726.097	26848.64
726.439	26726.84
726.782	26729.55
727.124	26902.88
727.465	26723.22
727.807	26643.23
728.149	26657.24
728.491	26615.66
728.833	26614.98
729.175	26461.99
729.516	26501.99
729.858	26289.11
730.199	26442.78
730.541	26281.65
730.882	26356.45
731.224	26351.71
731.565	26188.55
731.906	26225.16
732.248	26221.77
732.589	26170.47
732.93	25996.92
733.271	26005.95
733.612	26003.92
733.953	25965.5
734.294	25943.81
734.635	25899.06
734.976	25936.13
735.317	25756.7
735.658	25698.62
735.999	25690.26
736.339	25720.31
736.68	25791.95
737.021	25693.65
737.361	25538.85
737.702	25712.18
738.042	25573.42
738.383	25519.87
738.723	25560.77
739.063	25509.47
739.404	25461.79
739.744	25443.71
740.084	25249.14
740.424	25290.72
740.764	25349.25
741.104	25369.14
741.444	25160.33
741.784	25058.63
742.124	25121.68
742.464	25081.01
742.804	25123.94
743.143	24899.09
743.483	24983.38
743.823	24846.21
744.162	24830.84
744.502	24882.37
744.841	24921.24
745.181	24894.12
745.52	24695.48
745.86	24769.15
746.199	24763.28
746.538	24704.75
746.877	24745.87
747.216	24704.07
747.556	24599.66
747.895	24682.6
748.234	24518.31
748.573	24397.41
748.911	24462.49
749.25	24390.4
749.589	24383.4
749.928	24348.15
750.267	24263.63
750.605	24253.68
750.944	24232.67
751.283	24087.36
751.621	24261.59
751.96	24100.02
752.298	24040.58
752.636	24014.37
752.975	23892.56
753.313	23805.33
753.651	23943.18
753.989	23849.63
754.327	23692.34
754.666	23625.68
755.004	23682.85
755.342	23721.49
755.679	23620.71
756.017	23474.04
756.355	23486.47
756.693	23409.19
757.031	23462.52
757.368	23269.53
757.706	23253.94
758.044	23139.82
758.381	23121.51
758.719	23113.6
759.056	23205.58
759.394	23063.66
759.731	23042.42
760.068	22858.69
760.405	22903.89
760.743	22731.01
761.08	22730.56
