Data from hue_34_FLMS001491_00032.txt Node
Date: Tue Feb 07 17:25:31 GMT 2017
User: dcchb
Spectrometer: FLMS00149
Trigger mode: 0
Integration Time (sec): 2.000000E-2
Scans to average: 10
Electric dark correction enabled: true
Nonlinearity correction enabled: false
Boxcar width: 0
XAxis mode: Wavelengths
Number of Pixels in Spectrum: 2048
>>>>>Begin Spectral Data<<<<<
341.393	-14.1
341.776	-14.1
342.16	-14.1
342.543	-47.99
342.927	-64.49
343.31	-54.77
343.693	-73.76
344.077	-75.56
344.46	-61.55
344.843	-64.94
345.226	-38.73
345.61	-38.05
345.993	-18.16
346.376	-11.84
346.759	41.04
347.142	16.19
347.525	21.16
347.908	58.44
348.291	81.95
348.674	96.86
349.057	121.72
349.44	142.74
349.823	147.48
350.206	163.75
350.588	196.75
350.971	215.73
351.354	217.31
351.737	227.03
352.119	251.89
352.502	280.59
352.884	280.81
353.267	295.95
353.65	292.34
354.032	298.89
354.414	316.29
354.797	313.13
355.179	341.83
355.562	329.17
355.944	317.42
356.326	348.83
356.709	341.15
357.091	331.66
357.473	360.36
357.855	333.01
358.238	325.56
358.62	341.38
359.002	346.12
359.384	344.09
359.766	334.82
360.148	356.29
360.53	337.31
360.912	345.89
361.294	361.26
361.676	341.6
362.057	333.24
362.439	329.17
362.821	330.53
363.203	316.97
363.584	318.78
363.966	325.78
364.348	350.64
364.729	347.93
365.111	335.27
365.493	330.3
365.874	312.68
366.256	335.5
366.637	309.51
367.019	329.17
367.4	329.17
367.781	310.64
368.163	339.34
368.544	312.68
368.925	316.52
369.306	321.26
369.688	312.45
370.069	332.11
370.45	335.5
370.831	325.56
371.212	313.58
371.593	321.49
371.974	340.02
372.355	325.78
372.736	319
373.117	311.32
373.498	313.35
373.879	328.27
374.26	327.82
374.641	314.94
375.021	309.29
375.402	336.63
375.783	331.43
376.163	340.25
376.544	342.51
376.925	356.52
377.305	329.17
377.686	330.08
378.066	324.43
378.447	312.68
378.827	330.75
379.208	328.27
379.588	333.69
379.968	337.31
380.349	327.36
380.729	327.36
381.109	346.12
381.489	347.02
381.87	328.95
382.25	340.7
382.63	343.86
383.01	341.6
383.39	342.28
383.77	358.78
384.15	341.6
384.53	366.46
384.91	342.28
385.29	367.82
385.67	338.44
386.049	355.16
386.429	353.13
386.809	355.16
387.189	356.52
387.568	366.46
387.948	348.38
388.328	355.16
388.707	361.26
389.087	367.14
389.466	351.09
389.846	366.01
390.225	381.37
390.605	361.71
390.984	377.08
391.363	380.7
391.743	362.84
392.122	383.41
392.501	378.89
392.881	392.22
393.26	385.89
393.639	372.56
394.018	370.75
394.397	382.28
394.776	371.43
395.155	376.63
395.534	368.95
395.913	352.9
396.292	373.46
396.671	382.05
397.05	365.1
397.429	368.72
397.808	393.8
398.186	365.1
398.565	394.48
398.944	399.9
399.323	405.78
399.701	383.18
400.08	373.69
400.458	388.83
400.837	401.94
401.215	405.1
401.594	408.94
401.972	429.96
402.351	410.3
402.729	407.36
403.107	415.72
403.486	409.17
403.864	418.44
404.242	425.89
404.62	410.07
404.999	399.23
405.377	410.53
405.755	429.28
406.133	443.52
406.511	425.89
406.889	418.66
407.267	439.23
407.645	417.76
408.023	453.01
408.401	439.45
408.779	445.1
409.156	423.86
409.534	415.72
409.912	445.1
410.29	421.37
410.667	451.43
411.045	469.96
411.422	451.88
411.8	464.54
412.178	450.52
412.555	461.37
412.933	476.96
413.31	469.51
413.687	470.64
414.065	475.38
414.442	452.11
414.819	503.18
415.197	484.87
415.574	486.23
415.951	465.21
416.328	476.96
416.705	480.35
417.082	490.75
417.46	473.12
417.837	503.4
418.214	486.46
418.591	490.75
418.967	504.53
419.344	505.89
419.721	494.37
420.098	488.26
420.475	508.15
420.852	505.44
421.228	519.68
421.605	495.04
421.982	533.69
422.358	523.74
422.735	527.81
423.111	518.09
423.488	535.27
423.864	533.69
424.241	533.91
424.617	522.39
424.994	523.52
425.37	545.44
425.746	530.97
426.123	542.5
426.499	550.41
426.875	587.24
427.251	588.37
427.627	575.49
428.003	573.69
428.379	565.55
428.756	565.55
429.132	598.77
429.507	606
429.883	586.34
430.259	609.62
430.635	594.48
431.011	584.76
431.387	596.96
431.763	616.85
432.138	624.31
432.514	637.86
432.89	615.49
433.265	624.53
433.641	652.55
434.016	638.77
434.392	645.55
434.767	661.82
435.143	657.53
435.518	665.21
435.894	668.82
436.269	668.15
436.644	677.41
437.02	668.15
437.395	678.32
437.77	696.85
438.145	681.71
438.52	707.02
438.895	686.45
439.271	700.46
439.646	691.65
440.021	716.73
440.395	723.96
440.77	707.24
441.145	740.91
441.52	731.2
441.895	718.54
442.27	768.26
442.645	741.14
443.019	743.85
443.394	750.18
443.769	749.73
444.143	747.92
444.518	785.88
444.892	757.64
445.267	765.54
445.641	773.68
446.016	781.59
446.39	771.19
446.764	769.16
447.139	769.39
447.513	790.85
447.887	784.3
448.262	796.05
448.636	791.53
449.01	818.42
449.384	813
449.758	820.46
450.132	828.14
450.506	825.66
450.88	815.04
451.254	826.79
451.628	847.12
452.002	872.43
452.376	840.8
452.75	862.94
453.123	857.75
453.497	881.93
453.871	902.72
454.244	891.42
454.618	874.92
454.992	903.17
455.365	905.43
455.739	878.54
456.112	922.38
456.486	941.13
456.859	927.8
457.232	947.23
457.606	968.48
457.979	954.24
458.352	980.68
458.725	995.82
459.099	997.18
459.472	995.37
459.845	1026.78
460.218	1019.32
460.591	1030.17
460.964	1050.06
461.337	1074.69
461.71	1077.18
462.083	1071.75
462.456	1097.29
462.829	1085.54
463.201	1124.63
463.574	1122.37
463.947	1131.41
464.32	1141.13
464.692	1154.91
465.065	1178.42
465.438	1172.99
465.81	1210.73
466.183	1213.44
466.555	1246.21
466.928	1250.96
467.3	1227.68
467.672	1248.24
468.045	1288.92
468.417	1297.73
468.789	1326.21
469.161	1344.06
469.534	1369.82
469.906	1397.62
470.278	1377.28
470.65	1420.22
471.022	1466.54
471.394	1464.06
471.766	1479.2
472.138	1530.72
472.51	1545.19
472.882	1578.86
473.253	1594.68
473.625	1596.71
473.997	1643.71
474.369	1661.34
474.74	1685.07
475.112	1733.43
475.484	1763.03
475.855	1800.09
476.227	1789.47
476.598	1863.6
476.97	1894.55
477.341	1935.91
477.713	2023.36
478.084	2002.35
478.455	2092.06
478.827	2094.78
479.198	2153.08
479.569	2210.7
479.94	2246.64
480.311	2279.4
480.682	2354.66
481.053	2401.21
481.424	2479.85
481.795	2517.14
482.166	2585.61
482.537	2614.99
482.908	2711.71
483.279	2768.66
483.65	2813.63
484.021	2910.12
484.391	2964.13
484.762	3017.24
485.133	3090.23
485.503	3173.84
485.874	3254.97
486.244	3303.78
486.615	3371.13
486.985	3464
487.356	3517.56
487.726	3575.87
488.097	3708.07
488.467	3774.28
488.837	3854.73
489.207	3914.61
489.578	4002.97
489.948	4052.24
490.318	4149.18
490.688	4208.39
491.058	4335.62
491.428	4416.75
491.798	4432.34
492.168	4551.89
492.538	4623.97
492.908	4705.78
493.278	4809.73
493.648	4825.33
494.017	4927.47
494.387	4948.03
494.757	5074.58
495.126	5112.1
495.496	5199.1
495.866	5281.81
496.235	5353.22
496.605	5419.21
496.974	5455.82
497.344	5556.61
497.713	5619.88
498.082	5698.07
498.452	5764.06
498.821	5785.53
499.19	5874.79
499.559	5953.43
499.928	5965.86
500.298	6077.95
500.667	6145.74
501.036	6173.09
501.405	6194.1
501.774	6251.95
502.143	6363.59
502.512	6349.8
502.88	6465.73
503.249	6526.3
503.618	6573.3
503.987	6533.53
504.356	6651.04
504.724	6653.53
505.093	6718.16
505.462	6748.44
505.83	6842.9
506.199	6925.16
506.567	6986.62
506.936	7007.19
507.304	7073.4
507.672	7157.02
508.041	7178.26
508.409	7165.38
508.777	7264.81
509.145	7323.56
509.514	7389.33
509.882	7410.57
510.25	7451.92
510.618	7516.1
510.986	7533.95
511.354	7605.82
511.722	7688.75
512.09	7741.86
512.458	7713.84
512.826	7778.69
513.193	7835.64
513.561	7818.92
513.929	7928.07
514.297	7972.36
514.664	8050.1
515.032	8094.62
515.4	8112.02
515.767	8172.13
516.135	8187.27
516.502	8164.67
516.869	8251.45
517.237	8268.17
517.604	8350.88
517.972	8420.48
518.339	8407.15
518.706	8408.28
519.073	8401.28
519.44	8446.7
519.808	8604.21
520.175	8575.73
520.542	8724.43
520.909	8739.35
521.276	8776.63
521.643	8784.32
522.009	8862.51
522.376	8909.51
522.743	8984.09
523.11	9020.24
523.477	9079.22
523.843	9121.71
524.21	9223.85
524.577	9275.15
524.943	9353.34
525.31	9337.3
525.676	9444.41
526.043	9467.01
526.409	9517.86
526.776	9504.98
527.142	9676.05
527.508	9667.91
527.874	9786.32
528.241	9778.42
528.607	9754.24
528.973	9911.75
529.339	9951.29
529.705	10043.04
530.071	10093.66
530.437	10082.59
530.803	10148.12
531.169	10193.32
531.535	10161
531.901	10224.28
532.267	10297.95
532.632	10342.69
532.998	10372.98
533.364	10494.78
533.73	10443.03
534.095	10530.71
534.461	10696.58
534.826	10648
535.192	10630.14
535.557	10798.05
535.923	10751.27
536.288	10805.05
536.653	10782.68
537.019	10934.77
537.384	10938.38
537.749	10988.78
538.114	10995.78
538.479	11025.16
538.845	11073.97
539.21	11097.02
539.575	11174.76
539.94	11255.66
540.305	11270.13
540.67	11268.55
541.034	11363.46
541.399	11359.62
541.764	11435.32
542.129	11493.17
542.494	11502.89
542.858	11584.7
543.223	11574.07
543.587	11662.43
543.952	11704.47
544.316	11785.14
544.681	11768.87
545.045	11845.71
545.41	11887.29
545.774	11888.64
546.138	11936.1
546.503	12059.03
546.867	11901.52
547.231	12153.95
547.595	12097.45
547.959	12216.77
548.324	12209.54
548.688	12237.33
549.052	12268.52
549.416	12347.84
549.779	12370.89
550.143	12387.16
550.507	12485.24
550.871	12465.58
551.235	12552.58
551.599	12638
551.962	12636.19
552.326	12671.45
552.689	12726.81
553.053	12750.31
553.417	12702.18
553.78	12988.73
554.143	12877.54
554.507	12902.4
554.87	12957.31
555.234	12988.27
555.597	12973.36
555.96	13025.56
556.323	13107.14
556.686	13132.23
557.05	13122.28
557.413	13273.46
557.776	13325.67
558.139	13294.48
558.502	13325.44
558.865	13400.69
559.228	13516.17
559.59	13577.19
559.953	13555.72
560.316	13688.37
560.679	13662.38
561.041	13772.66
561.404	13837.52
561.767	13906.89
562.129	13881.13
562.492	14036.83
562.854	13960.68
563.217	14074.35
563.579	14052.65
563.941	14089.71
564.304	14185.53
564.666	14194.8
565.028	14321.12
565.39	14366.32
565.753	14415.13
566.115	14335.13
566.477	14568.35
566.839	14537.61
567.201	14674.33
567.563	14600.44
567.925	14702.58
568.287	14696.7
568.648	14672.07
569.01	14839.07
569.372	14897.83
569.734	14877.04
570.095	14959.3
570.457	15061.89
570.819	15145.05
571.18	15126.75
571.542	15211.49
571.903	15292.17
572.265	15363.35
572.626	15515.89
572.987	15446.06
573.349	15521.09
573.71	15668.2
574.071	15762.44
574.432	15847.86
574.794	16038.14
575.155	16042.43
575.516	15956.78
575.877	16131.69
576.238	16388.18
576.599	16394.06
576.96	16439.93
577.32	16555.19
577.681	16630.44
578.042	16789.3
578.403	16928.96
578.763	17027.04
579.124	17127.6
579.485	17356.97
579.845	17528.49
580.206	17644.2
580.566	17676.29
580.927	17913.57
581.287	18073.79
581.648	18125.31
582.008	18413.22
582.368	18470.62
582.728	18741.12
583.089	18907.44
583.449	19161.22
583.809	19318.5
584.169	19444.6
584.529	19521.21
584.889	19948.54
585.249	20007.98
585.609	20142.89
585.969	20589.88
586.329	20734.51
586.688	20932.25
587.048	21117.55
587.408	21299.92
587.768	21517.09
588.127	21806.57
588.487	22001.6
588.846	22363.85
589.206	22452.66
589.565	22815.59
589.925	23074.11
590.284	23282.69
590.643	23418.06
591.003	23758.84
591.362	24154.99
591.721	24433.62
592.08	24654.18
592.44	24959.71
592.799	25152.93
593.158	25364.67
593.517	25664.33
593.876	25957.88
594.235	26136.63
594.593	26311.99
594.952	26725.09
595.311	26927.34
595.67	27181.35
596.029	27505.63
596.387	27799.41
596.746	28035.79
597.104	28181.32
597.463	28523.23
597.822	28780.63
598.18	29045.48
598.538	29147.4
598.897	29521.17
599.255	29504.45
599.613	30249.29
599.972	30229.85
600.33	30495.38
600.688	30695.15
601.046	30893.79
601.404	31258.53
601.762	31364.29
602.12	31604.73
602.478	32011.95
602.836	32144.15
603.194	32180.76
603.552	32464.6
603.91	32554.31
604.268	33025.49
604.625	32955.88
604.983	33434.74
605.341	33415.99
605.698	33740.27
606.056	33933.26
606.413	34149.3
606.771	34337.09
607.128	34402.63
607.485	34616.18
607.843	34742.73
608.2	34978.88
608.557	35438.98
608.914	35345.2
609.272	35585.42
609.629	35839.88
609.986	35975.24
610.343	35839.65
610.7	36385.4
611.057	36508.79
611.414	36497.03
611.771	36691.83
612.127	37004.37
612.484	37073.06
612.841	37196.45
613.198	37167.53
613.554	37428.99
613.911	37647.51
614.267	37837.11
614.624	37922.08
614.98	38051.34
615.337	38312.81
615.693	38290.43
616.05	38467.83
616.406	38747.37
616.762	38719.58
617.118	38822.17
617.475	38986.69
617.831	39030.08
618.187	39187.13
618.543	39237.98
618.899	39568.59
619.255	39499.44
619.611	39538.99
619.967	39741.7
620.323	40060.33
620.678	39834.8
621.034	39723.39
621.39	39936.49
621.746	39990.95
622.101	40525.4
622.457	40187.56
622.812	40329.25
623.168	40551.17
623.523	40461
623.879	40668.22
624.234	40437.72
624.589	40746.87
624.945	40872.29
625.3	40973.75
625.655	40906.64
626.01	41034.32
626.365	41050.36
626.72	41050.14
627.075	41051.72
627.43	41066.63
627.785	41031.38
628.14	41265.04
628.495	41221.43
628.85	41226.85
629.205	41143.01
629.559	41384.59
629.914	41204.26
630.269	41310.92
630.623	41271.6
630.978	41270.92
631.332	41257.81
631.687	41558.37
632.041	41412.39
632.396	41523.8
632.75	41378.71
633.104	41416.45
633.459	41264.37
633.813	41414.42
634.167	41377.81
634.521	41331.26
634.875	41493.06
635.229	41452.61
635.583	41381.88
635.937	41434.53
636.291	41312.73
636.645	41269.34
636.999	41287.19
637.352	41511.37
637.706	41124.94
638.06	41377.81
638.413	41230.7
638.767	41203.35
639.121	41238.15
639.474	41140.53
639.828	41205.39
640.181	41207.42
640.534	41257.59
640.888	41190.92
641.241	40912.51
641.594	41071.6
641.947	41054.2
642.301	40988.44
642.654	41109.12
643.007	41060.53
643.36	41034.54
643.713	41027.09
644.066	41151.83
644.419	40950.02
644.771	40813.53
645.124	40370.83
645.477	40293.09
645.83	39985.3
646.182	40007.22
646.535	39818.08
646.888	39824.63
647.24	39736.27
647.593	40049.48
647.945	39924.97
648.298	39677.74
648.65	39682.26
649.002	39608.37
649.355	39676.61
649.707	39629.16
650.059	39764.07
650.411	40301.45
650.763	40408.57
651.115	40710.03
651.467	40512.3
651.819	40484.95
652.171	40507.55
652.523	40423.26
652.875	40397.27
653.227	40249.25
653.578	40563.37
653.93	40432.3
654.282	40195.69
654.633	40267.78
654.985	40431.85
655.337	40250.83
655.688	40397.72
656.039	40435.91
656.391	40100.56
656.742	40181.91
657.094	40289.03
657.445	40318.86
657.796	40310.27
658.147	40325.18
658.498	40115.92
658.849	40208.35
659.2	40183.27
659.551	40038.41
659.902	40316.37
660.253	40135.13
660.604	40262.59
660.955	40024.63
661.306	40246.31
661.656	40071.63
662.007	40167.9
662.358	40132.87
662.708	40067.79
663.059	40109.37
663.409	39810.39
663.76	40104.85
664.11	40023.27
664.461	40204.51
664.811	40032.99
665.161	40052.87
665.511	39910.05
665.862	39927.23
666.212	40210.16
666.562	40075.7
666.912	40043.83
667.262	39986.66
667.612	39935.81
667.962	39981.69
668.312	39933.1
668.662	40085.19
669.011	40032.08
669.361	39815.37
669.711	39931.29
670.06	39911.86
670.41	39822.6
670.76	39865.99
671.109	40110.5
671.459	39865.76
671.808	39804.07
672.157	39819.66
672.507	39647.01
672.856	39607.46
673.205	39550.97
673.554	39874.35
673.904	39708.02
674.253	39781.02
674.602	39639.32
674.951	39082.28
675.3	38892.9
675.649	39640.91
675.998	39599.33
676.346	39607.91
676.695	39774.24
677.044	39423.51
677.393	39506.67
677.741	39501.02
678.09	39448.6
678.438	39395.49
678.787	39474.58
679.135	39431.19
679.484	39153.01
679.832	39280.24
680.181	39126.34
680.529	39209.05
680.877	39000.92
681.225	39105.55
681.573	39352.55
681.922	39054.03
682.27	38879.12
682.618	38976.52
682.966	38911.66
683.314	38891.1
683.661	38880.02
684.009	38658.56
684.357	38573.59
684.705	38585.34
685.053	38531.56
685.4	38552.12
685.748	38239.36
686.095	38492.69
686.443	38173.37
686.79	38190.55
687.138	38336.08
687.485	38151
687.832	38029.2
688.18	38007.73
688.527	37992.36
688.874	37948.97
689.221	37886.83
689.568	37676.21
689.915	37728.41
690.262	37638.47
690.609	37669.21
690.956	37362.55
691.303	37328.2
691.65	37151.71
691.997	37262.66
692.344	37083.91
692.69	36977.7
693.037	36990.58
693.383	36752.85
693.73	36755.78
694.077	36663.58
694.423	36642.34
694.769	36579.29
695.116	36481.67
695.462	36385.17
695.808	36322.12
696.155	36382.01
696.501	35957.39
696.847	36099.76
697.193	35930.27
697.539	35906.99
697.885	35489.6
698.231	35707
698.577	35724.63
698.923	35600.34
699.269	35373.22
699.614	35262.49
699.96	35246.9
700.306	35101.14
700.651	34992.22
700.997	34902.5
701.342	34773.01
701.688	34877.64
702.033	34700.47
702.379	34590.19
702.724	34534.15
703.069	34753.58
703.415	34251.44
703.76	34268.39
704.105	34169.86
704.45	34193.14
704.795	33982.75
705.14	33964.22
705.485	33805.81
705.83	33848.29
706.175	33901.4
706.52	33748.41
706.865	33599.03
707.209	33654.17
707.554	33484.01
707.899	33565.36
708.243	33283.79
708.588	33366.5
708.932	33116.56
709.277	33220.74
709.621	33066.84
709.966	32840.63
710.31	32995.88
710.654	32635.89
710.998	32707.76
711.342	32602.22
711.687	32655.33
712.031	32510.47
712.375	32352.28
712.719	32453.07
713.063	32335.56
713.407	32550.92
713.75	32287.65
714.094	32175.57
714.438	32096.7
714.782	32084.27
715.125	32123.59
715.469	31986.42
715.812	31852.64
716.156	31746.2
716.499	31836.59
716.843	31794.79
717.186	31697.84
717.53	31781.68
717.873	31628.91
718.216	31635.69
718.559	31499.43
718.902	31213.33
719.246	31306.89
719.589	31173.78
719.932	31064.18
720.275	31093.33
720.617	31116.16
720.96	30999.78
721.303	31021.7
721.646	30938.99
721.989	30802.5
722.331	30881.59
722.674	30774.47
723.016	30738.32
723.359	30628.26
723.701	30934.92
724.044	30527.02
724.386	30357.31
724.729	30561.6
725.071	30546.91
725.413	30355.95
725.755	30345.33
726.097	30130.2
726.439	30169.97
726.782	30028.05
727.124	30237.31
727.465	29978.11
727.807	30068.73
728.149	30111.67
728.491	29965.23
728.833	30027.15
729.175	29859.24
729.516	29815.18
729.858	29817.21
730.199	29836.19
730.541	29746.25
730.882	29741.05
731.224	29805.91
731.565	29516.88
731.906	29581.51
732.248	29725.01
732.589	29444.34
732.93	29330.44
733.271	29334.74
733.612	29377
733.953	29346.49
734.294	29215.19
734.635	29174.97
734.976	29252.48
735.317	29112.14
735.658	29151.92
735.999	29051.81
736.339	28863.11
736.68	29037.34
737.021	28890.68
737.361	28824.02
737.702	29095.87
738.042	28820.85
738.383	28780.18
738.723	28771.81
739.063	28674.87
739.404	28713.06
739.744	28610.46
740.084	28669.44
740.424	28680.29
740.764	28471.48
741.104	28675.09
741.444	28458.38
741.784	28382.45
742.124	28380.41
742.464	28365.5
742.804	28232.62
743.143	28297.7
743.483	28233.52
743.823	28156.24
744.162	28085.96
744.502	28193.52
744.841	28045.28
745.181	28127.99
745.52	27976.13
745.86	28112.85
746.199	27924.38
746.538	27955.56
746.877	27937.71
747.216	27908.56
747.556	27826.3
747.895	27793.99
748.234	27716.7
748.573	27633.99
748.911	27711.5
749.25	27683.93
749.589	27398.74
749.928	27379.53
750.267	27501.57
750.605	27381.12
750.944	27402.81
751.283	27176.38
751.621	27292.76
751.96	27089.37
752.298	27154
752.636	27221.12
752.975	27048.92
753.313	26938.42
753.651	27094.8
753.989	26840.34
754.327	26821.81
754.666	26712.66
755.004	26843.28
755.342	26789.04
755.679	26697.07
756.017	26585.43
756.355	26755.82
756.693	26584.53
757.031	26535.71
757.368	26235.61
757.706	26376.62
758.044	26309.51
