Data from hue_250_FLMS001491_00055.txt Node
Date: Tue Feb 07 16:01:10 GMT 2017
User: dcchb
Spectrometer: FLMS00149
Trigger mode: 0
Integration Time (sec): 2.000000E-2
Scans to average: 10
Electric dark correction enabled: true
Nonlinearity correction enabled: false
Boxcar width: 0
XAxis mode: Wavelengths
Number of Pixels in Spectrum: 2048
>>>>>Begin Spectral Data<<<<<
341.393	12.78
341.776	12.78
342.16	12.78
342.543	-65.41
342.927	-48.46
343.31	-69.48
343.693	-75.13
344.077	-59.08
344.46	-59.08
344.843	-42.81
345.226	-31.51
345.61	-32.64
345.993	-16.14
346.376	-11.4
346.759	14.82
347.142	41.71
347.525	34.48
347.908	39.22
348.291	63.85
348.674	82.16
349.057	121.03
349.44	137.52
349.823	143.4
350.206	170.52
350.588	210.29
350.971	217.97
351.354	223.4
351.737	226.79
352.119	245.77
352.502	274.24
352.884	263.62
353.267	292.32
353.65	298.88
354.032	294.58
354.414	301.14
354.797	302.72
355.179	314.7
355.562	330.97
355.944	315.83
356.326	329.16
356.709	339.55
357.091	313.11
357.473	339.1
357.855	326.45
358.238	334.36
358.62	347.91
359.002	344.07
359.384	332.77
359.766	329.16
360.148	315.37
360.53	319.89
360.912	337.97
361.294	338.42
361.676	322.38
362.057	315.83
362.439	340.23
362.821	329.38
363.203	341.59
363.584	335.71
363.966	315.15
364.348	304.75
364.729	317.41
365.111	292.55
365.493	309.72
365.874	317.41
366.256	309.72
366.637	334.58
367.019	313.57
367.4	337.29
367.781	302.27
368.163	336.16
368.544	300.91
368.925	309.5
369.306	340.68
369.688	310.18
370.069	327.12
370.45	298.88
370.831	312.44
371.212	309.95
371.593	313.79
371.974	294.36
372.355	310.4
372.736	313.11
373.117	325.77
373.498	311.98
373.879	312.44
374.26	305.2
374.641	322.83
375.021	321.02
375.402	309.5
375.783	325.09
376.163	319.44
376.544	329.61
376.925	304.53
377.305	322.83
377.686	336.39
378.066	314.02
378.447	336.84
378.827	350.17
379.208	331.42
379.588	340.91
379.968	327.8
380.349	338.2
380.729	310.18
381.109	347.01
381.489	332.1
381.87	356.5
382.25	341.59
382.63	340.68
383.01	333.68
383.39	348.59
383.77	350.63
384.15	343.62
384.53	351.98
384.91	336.16
385.29	378.2
385.67	358.76
386.049	343.17
386.429	359.44
386.809	347.69
387.189	351.53
387.568	360.12
387.948	351.76
388.328	363.28
388.707	354.92
389.087	362.6
389.466	370.51
389.846	354.24
390.225	367.35
390.605	381.13
390.984	378.42
391.363	371.87
391.743	376.39
392.122	364.86
392.501	379.33
392.881	353.79
393.26	371.19
393.639	388.59
394.018	378.87
394.397	382.26
394.776	394.47
395.155	389.95
395.534	398.08
395.913	377.29
396.292	394.69
396.671	405.99
397.05	383.62
397.429	395.14
397.808	410.96
398.186	430.17
398.565	418.87
398.944	404.86
399.323	422.49
399.701	415.48
400.08	427.91
400.458	426.33
400.837	430.17
401.215	434.47
401.594	433.56
401.972	424.3
402.351	422.49
402.729	406.67
403.107	434.47
403.486	427.01
403.864	429.49
404.242	423.62
404.62	450.06
404.999	460
405.377	459.32
405.755	466.1
406.133	448.48
406.511	456.61
406.889	484.41
407.267	458.65
407.645	472.43
408.023	486.22
408.401	499.1
408.779	488.02
409.156	496.61
409.534	493
409.912	511.75
410.29	510.85
410.667	512.43
411.045	515.59
411.422	532.32
411.8	554.24
412.178	554.01
412.555	542.49
412.933	565.54
413.31	557.17
413.687	565.99
414.065	577.97
414.442	582.48
414.819	589.94
415.197	603.28
415.574	597.4
415.951	598.98
416.328	623.84
416.705	611.86
417.082	614.12
417.46	644.18
417.837	636.72
418.214	633.1
418.591	640.79
418.967	654.12
419.344	664.74
419.721	673.78
420.098	682.82
420.475	680.79
420.852	710.84
421.228	689.37
421.605	698.41
421.982	702.93
422.358	723.5
422.735	727.79
423.111	740.45
423.488	762.14
423.864	748.13
424.241	787.45
424.617	778.64
424.994	794.68
425.37	798.07
425.746	798.3
426.123	822.25
426.499	832.65
426.875	838.3
427.251	858.18
427.627	885.53
428.003	875.58
428.379	903.83
428.756	897.5
429.132	902.25
429.507	916.94
429.883	924.85
430.259	967.56
430.635	955.36
431.011	956.49
431.387	982.7
431.763	987.45
432.138	982.7
432.514	1013.43
432.89	1011.4
433.265	1035.13
433.641	1035.81
434.016	1047.11
434.392	1064.96
434.767	1118.97
435.143	1110.38
435.518	1108.57
435.894	1153.09
436.269	1142.02
436.644	1185.18
437.02	1191.28
437.395	1191.06
437.77	1236.25
438.145	1240.55
438.52	1241.9
438.895	1261.11
439.271	1271.05
439.646	1307.44
440.021	1345.18
440.395	1307.66
440.77	1333.88
441.145	1363.26
441.52	1396.7
441.895	1370.26
442.27	1396.7
442.645	1375.91
443.019	1418.39
443.394	1453.2
443.769	1434.89
444.143	1419.07
444.518	1478.05
444.892	1457.04
445.267	1478.28
445.641	1490.94
446.016	1507.43
446.39	1511.5
446.764	1537.49
447.139	1527.32
447.513	1532.52
447.887	1548.11
448.262	1582.46
448.636	1573.87
449.01	1575.45
449.384	1610.03
449.758	1613.64
450.132	1601.21
450.506	1639.41
450.88	1616.36
451.254	1659.97
451.628	1665.17
452.002	1662.23
452.376	1710.59
452.75	1737.93
453.123	1723.02
453.497	1758.72
453.871	1737.71
454.244	1764.83
454.618	1827.2
454.992	1787.65
455.365	1824.71
455.739	1852.51
456.112	1859.74
456.486	1911.49
456.859	1919.4
457.232	1955.56
457.606	1951.26
457.979	1968.89
458.352	1997.36
458.725	1989.23
459.099	2054.76
459.472	2078.72
459.845	2063.8
460.218	2087.98
460.591	2097.7
460.964	2112.16
461.337	2184.7
461.71	2200.97
462.083	2217.24
462.456	2223.57
462.829	2241.65
463.201	2265.6
463.574	2291.37
463.947	2272.16
464.32	2360.52
464.692	2383.79
465.065	2385.15
465.438	2402.78
465.81	2445.26
466.183	2450.46
466.555	2515.54
466.928	2526.61
467.3	2528.42
467.672	2578.59
468.045	2647.29
468.417	2636.67
468.789	2650.9
469.161	2694.29
469.534	2707.85
469.906	2770.45
470.278	2754.18
470.65	2830.79
471.022	2830.34
471.394	2875.08
471.766	2957.34
472.138	2936.32
472.51	3028.75
472.882	3046.6
473.253	3046.37
473.625	3101.29
473.997	3160.72
474.369	3180.38
474.74	3206.14
475.112	3280.94
475.484	3305.12
475.855	3315.52
476.227	3367.72
476.598	3477.78
476.97	3511
477.341	3563.88
477.713	3609.75
478.084	3579.02
478.455	3675.28
478.827	3733.81
479.198	3853.36
479.569	3856.97
479.94	3913.7
480.311	3984.88
480.682	4039.79
481.053	4124.54
481.424	4153.01
481.795	4223.97
482.166	4189.17
482.537	4340.58
482.908	4428.94
483.279	4466
483.65	4489.95
484.021	4545.09
484.391	4603.4
484.762	4657.63
485.133	4706.67
485.503	4726.33
485.874	4842.94
486.244	4811.07
486.615	4938.08
486.985	4959.32
487.356	5082.93
487.726	5129.94
488.097	5167.45
488.467	5162.93
488.837	5283.83
489.207	5357.05
489.578	5395.24
489.948	5502.13
490.318	5501.45
490.688	5514.11
491.058	5613.76
491.428	5645.4
491.798	5700.54
492.168	5781.22
492.538	5829.58
492.908	5853.53
493.278	5922.91
493.648	5964.26
494.017	6060.98
494.387	6063.7
494.757	6118.61
495.126	6176.91
495.496	6188.66
495.866	6247.42
496.235	6227.08
496.605	6383.24
496.974	6368.55
497.344	6438.6
497.713	6422.11
498.082	6493.97
498.452	6454.87
498.821	6533.74
499.19	6558.15
499.559	6598.15
499.928	6644.25
500.298	6645.15
500.667	6708.88
501.036	6696.67
501.405	6784.36
501.774	6748.88
502.143	6759.72
502.512	6826.39
502.88	6829.1
503.249	6863.9
503.618	6880.62
503.987	6976.67
504.356	6957.23
504.724	7005.37
505.093	7016.44
505.462	7025.03
505.83	7082.43
506.199	7118.81
506.567	7144.8
506.936	7181.41
507.304	7207.17
507.672	7208.07
508.041	7210.11
508.409	7327.62
508.777	7382.98
509.145	7344.57
509.514	7420.05
509.882	7309.54
510.25	7414.85
510.618	7416.88
510.986	7447.84
511.354	7544.11
511.722	7545.24
512.09	7540.49
512.458	7550.89
512.826	7638.34
513.193	7624.33
513.561	7656.87
513.929	7689.64
514.297	7764.67
514.664	7781.62
515.032	7788.85
515.4	7832.01
515.767	7789.75
516.135	7811.67
516.502	7773.26
516.869	7871.11
517.237	7905.23
517.604	7887.15
517.972	7925.12
518.339	7921.05
518.706	7952.01
519.073	7891.9
519.44	8018.45
519.808	8016.19
520.175	8035.17
520.542	8094.83
520.909	8114.72
521.276	8032.23
521.643	8108.61
522.009	8153.81
522.376	8175.51
522.743	8165.79
523.11	8227.03
523.477	8273.36
523.843	8229.06
524.21	8321.49
524.577	8344.77
524.943	8378.21
525.31	8383.18
525.676	8421.15
526.043	8472.45
526.409	8475.38
526.776	8541.6
527.142	8554.7
527.508	8577.75
527.874	8623.18
528.241	8544.08
528.607	8559.45
528.973	8577.53
529.339	8594.03
529.705	8571.88
530.071	8653.23
530.437	8702.72
530.803	8690.29
531.169	8744.3
531.535	8710.63
531.901	8730.75
532.267	8761.03
532.632	8795.83
532.998	8749.73
533.364	8829.5
533.73	8755.15
534.095	8813.23
534.461	8825.66
534.826	8831.31
535.192	8828.37
535.557	8850.29
535.923	8740.91
536.288	8797.86
536.653	8831.31
537.019	8756.96
537.384	8796.96
537.749	8874.24
538.114	8795.6
538.479	8826.34
538.845	8856.84
539.21	8780.69
539.575	8809.16
539.94	8739.56
540.305	8745.21
540.67	8755.38
541.034	8854.58
541.399	8836.28
541.764	8778.65
542.129	8806
542.494	8832.21
542.858	8826.79
543.223	8798.77
543.587	8785.21
543.952	8763.74
544.316	8802.83
544.681	8750.63
545.045	8847.13
545.41	8825.21
545.774	8780.46
546.138	8816.84
546.503	8811.19
546.867	8796.96
547.231	8816.17
547.595	8798.99
547.959	8848.03
548.324	8804.19
548.688	8766.9
549.052	8768.94
549.416	8763.51
549.779	8749.95
550.143	8802.83
550.507	8817.97
550.871	8786.11
551.235	8739.33
551.599	8788.6
551.962	8713.8
552.326	8772.78
552.689	8869.72
553.053	8764.42
553.417	8733.68
553.78	8777.75
554.143	8732.55
554.507	8829.27
554.87	8812.32
555.234	8926.22
555.597	8779.11
555.96	8802.61
556.323	8824.98
556.686	8816.62
557.05	8824.75
557.413	8783.62
557.776	8858.43
558.139	8881.25
558.502	8885.09
558.865	8869.5
559.228	8890.06
559.59	8895.71
559.953	8951.76
560.316	9031.75
560.679	9036.5
561.041	8987.01
561.404	9097.06
561.767	9019.78
562.129	8997.63
562.492	9092.09
562.854	9083.5
563.217	9072.2
563.579	9144.75
563.941	9128.7
564.304	9176.83
564.666	9209.38
565.028	9255.03
565.39	9233.1
565.753	9274.69
566.115	9333.67
566.477	9315.36
566.839	9251.64
567.201	9419.77
567.563	9344.74
567.925	9426.77
568.287	9382.25
568.648	9363.27
569.01	9505.87
569.372	9562.14
569.734	9443.95
570.095	9513.32
570.457	9544.73
570.819	9599.42
571.18	9603.49
571.542	9637.16
571.903	9583.6
572.265	9629.93
572.626	9650.04
572.987	9698.63
573.349	9756.93
573.71	9707.67
574.071	9806.42
574.432	9811.85
574.794	9880.55
575.155	9850.49
575.516	9876.93
575.877	9869.47
576.238	9942.46
576.599	9997.15
576.96	9904.95
577.32	9905.86
577.681	9938.17
578.042	9971.16
578.403	10002.8
578.763	10040.09
579.124	10039.86
579.485	10121.22
579.845	10115.12
580.206	10138.84
580.566	10071.5
580.927	10190.37
581.287	10182.91
581.648	10173.64
582.008	10229.24
582.368	10179.07
582.728	10300.2
583.089	10240.99
583.449	10276.92
583.809	10255.45
584.169	10289.8
584.529	10292.74
584.889	10351.72
585.249	10347.43
585.609	10307.43
585.969	10397.37
586.329	10394.66
586.688	10410.02
587.048	10430.14
587.408	10434.66
587.768	10416.12
588.127	10415.67
588.487	10448.67
588.846	10449.8
589.206	10429.01
589.565	10456.8
589.925	10547.65
590.284	10540.64
590.643	10549
591.003	10532.28
591.362	10531.6
591.721	10537.25
592.08	10553.07
592.44	10570.7
592.799	10539.06
593.158	10574.54
593.517	10576.35
593.876	10681.43
594.235	10589
594.593	10606.4
594.952	10650.02
595.311	10606.63
595.67	10659.51
596.029	10637.59
596.387	10699.05
596.746	10691.6
597.104	10708.32
597.463	10597.81
597.822	10666.74
598.18	10705.38
598.538	10669.23
598.897	10657.47
599.255	10712.61
599.613	10801.65
599.972	10735.21
600.33	10753.06
600.688	10713.07
601.046	10703.8
601.404	10795.55
601.762	10721.2
602.12	10840.07
602.478	10821.31
602.836	10827.19
603.194	10772.73
603.552	10801.88
603.91	10809.56
604.268	10851.59
604.625	10785.38
604.983	10899.5
605.341	10831.03
605.698	10879.39
606.056	10859.73
606.413	10891.14
606.771	10923
607.128	10901.99
607.485	10828.32
607.843	10876.23
608.2	10926.17
608.557	10962.55
608.914	10900.86
609.272	11008.65
609.629	10945.83
609.986	11026.96
610.343	10985.15
610.7	11117.8
611.057	10998.71
611.414	10994.64
611.771	11050.23
612.127	11056.33
612.484	11060.85
612.841	11104.47
613.198	11023.79
613.554	11021.76
613.911	11137.01
614.267	11113.06
614.624	11071.7
614.98	11139.95
615.337	11231.47
615.693	11101.53
616.05	11146.73
616.406	11170
616.762	11176.1
617.118	11136.33
617.475	11130.68
617.831	11193.05
618.187	11147.4
618.543	11144.92
618.899	11202.32
619.255	11289.32
619.611	11207.74
619.967	11232.15
620.323	11232.15
620.678	11297.01
621.034	11234.18
621.39	11260.17
621.746	11226.05
622.101	11345.14
622.457	11228.08
622.812	11247.51
623.168	11246.84
623.523	11252.26
623.879	11292.49
624.234	11233.28
624.589	11310.56
624.945	11256.78
625.3	11277.57
625.655	11242.09
626.01	11260.17
626.365	11286.84
626.72	11240.28
627.075	11233.28
627.43	11264.01
627.785	11223.79
628.14	11249.32
628.495	11243.45
628.85	11254.75
629.205	11208.87
629.559	11236.89
629.914	11152.15
630.269	11216.56
630.623	11134.07
630.978	11083
631.332	11158.48
631.687	11172.49
632.041	11152.83
632.396	11134.75
632.75	11069.21
633.104	11098.14
633.459	11067.63
633.813	11040.97
634.167	11036
634.521	11002.32
634.875	11071.25
635.229	11013.85
635.583	11006.62
635.937	11045.03
636.291	10937.47
636.645	10974.08
636.999	10978.6
637.352	10911.25
637.706	10969.33
638.06	10899.73
638.413	10897.69
638.767	10910.57
639.121	10838.49
639.474	10864.93
639.828	10812.27
640.181	10861.08
640.534	10822.67
640.888	10766.85
641.241	10816.79
641.594	10789.67
641.947	10843.91
642.301	10844.36
642.654	10769.11
643.007	10757.81
643.36	10741.77
643.713	10737.02
644.066	10729.34
644.419	10735.66
644.771	10664.71
645.124	10599.17
645.477	10490.92
645.83	10494.54
646.182	10483.02
646.535	10378.16
646.888	10380.65
647.24	10366.18
647.593	10380.65
647.945	10399.85
648.298	10296.13
648.65	10290.25
649.002	10354.21
649.355	10402.57
649.707	10361.21
650.059	10308.1
650.411	10518.49
650.763	10509.91
651.115	10656.12
651.467	10610.92
651.819	10562.56
652.171	10522.11
652.523	10531.38
652.875	10556.69
653.227	10469.23
653.578	10603.92
653.93	10551.71
654.282	10457.03
654.633	10479.4
654.985	10518.49
655.337	10458.84
655.688	10494.09
656.039	10549.45
656.391	10528.66
656.742	10519.62
657.094	10507.65
657.445	10577.02
657.796	10565.73
658.147	10501.32
658.498	10495.67
658.849	10516.46
659.2	10497.7
659.551	10523.47
659.902	10484.15
660.253	10452.28
660.604	10472.62
660.955	10508.33
661.306	10505.84
661.656	10471.72
662.007	10552.62
662.358	10536.12
662.708	10534.31
663.059	10471.26
663.409	10458.84
663.76	10588.1
664.11	10461.09
664.461	10493.18
664.811	10506.29
665.161	10556.69
665.511	10520.98
665.862	10519.62
666.212	10526.4
666.562	10565.27
666.912	10539.06
667.262	10478.72
667.612	10455.67
667.962	10561.43
668.312	10508.55
668.662	10545.61
669.011	10511.72
669.361	10497.93
669.711	10442.34
670.06	10478.04
670.41	10505.39
670.76	10466.29
671.109	10500.19
671.459	10454.09
671.808	10432.62
672.157	10461.32
672.507	10449.57
672.856	10485.5
673.205	10379.74
673.554	10489.12
673.904	10368.67
674.253	10469.46
674.602	10430.14
674.951	10273.98
675.3	10189.92
675.649	10394.66
675.998	10380.87
676.346	10357.37
676.695	10357.82
677.044	10255
677.393	10274.89
677.741	10316.92
678.09	10314.66
678.438	10283.25
678.787	10281.44
679.135	10269.91
679.484	10240.99
679.832	10208.67
680.181	10166.64
680.529	10207.32
680.877	10215.68
681.225	10169.58
681.573	10150.59
681.922	10117.6
682.27	10038.06
682.618	10123.02
682.966	10069.69
683.314	10102.69
683.661	10033.54
684.009	10021.33
684.357	9987.89
684.705	10002.35
685.053	10012.29
685.4	9943.59
685.748	9880.55
686.095	9920.09
686.443	9887.55
686.79	9876.93
687.138	9822.92
687.485	9864.27
687.832	9808.91
688.18	9870.38
688.527	9718.97
688.874	9784.5
689.221	9689.59
689.568	9730.94
689.915	9626.54
690.262	9620.21
690.609	9612.53
690.956	9496.37
691.303	9600.78
691.65	9481.01
691.997	9512.65
692.344	9395.59
692.69	9400.11
693.037	9421.8
693.383	9403.5
693.73	9391.07
694.077	9292.99
694.423	9295.25
694.769	9299.77
695.116	9276.95
695.462	9234.01
695.808	9185.42
696.155	9211.86
696.501	9124.86
696.847	9126.21
697.193	9003.51
697.539	9070.85
697.885	9013.9
698.231	8992.43
698.577	8980.23
698.923	8961.7
699.269	8906.11
699.614	8810.74
699.96	8851.87
700.306	8794.47
700.651	8797.18
700.997	8754.47
701.342	8728.03
701.688	8672.44
702.033	8694.36
702.379	8695.49
702.724	8629.73
703.069	8585.89
703.415	8505.21
703.76	8519.68
704.105	8554.7
704.45	8469.96
704.795	8436.52
705.14	8402.84
705.485	8415.05
705.83	8368.49
706.175	8392.45
706.52	8358.55
706.865	8337.99
707.209	8232.68
707.554	8210.98
707.899	8243.53
708.243	8202.4
708.588	8210.76
708.932	8192
709.277	8116.07
709.621	8131.44
709.966	8067.71
710.31	8066.58
710.654	8016.19
710.998	8034.72
711.342	8035.4
711.687	7995.85
712.031	7935.74
712.375	7945.68
712.719	7974.61
713.063	7937.77
713.407	7960.82
713.75	7916.3
714.094	7925.79
714.438	7881.28
714.782	7900.26
715.125	7844.21
715.469	7848.51
715.812	7778
716.156	7756.99
716.499	7787.04
716.843	7820.49
717.186	7738
717.53	7717.44
717.873	7802.18
718.216	7791.11
718.559	7709.3
718.902	7719.25
719.246	7708.85
719.589	7692.58
719.932	7621.85
720.275	7648.74
720.617	7606.93
720.96	7651.23
721.303	7635.18
721.646	7625.01
721.989	7532.13
722.331	7583.88
722.674	7591.11
723.016	7544.11
723.359	7602.41
723.701	7595.41
724.044	7483.32
724.386	7477.9
724.729	7546.14
725.071	7570.55
725.413	7498.01
725.755	7517.44
726.097	7484.22
726.439	7435.19
726.782	7446.71
727.124	7491
727.465	7403.1
727.807	7470.21
728.149	7376.43
728.491	7429.08
728.833	7466.6
729.175	7399.25
729.516	7423.89
729.858	7455.07
730.199	7407.39
730.541	7413.04
730.882	7425.92
731.224	7333.49
731.565	7357
731.906	7452.36
732.248	7393.38
732.589	7320.61
732.93	7286.94
733.271	7339.37
733.612	7421.4
733.953	7371.23
734.294	7368.29
734.635	7345.47
734.976	7387.96
735.317	7308.86
735.658	7331.69
735.999	7329.88
736.339	7362.65
736.68	7342.08
737.021	7362.87
737.361	7296.43
737.702	7334.17
738.042	7295.3
738.383	7301.86
738.723	7332.59
739.063	7354.51
739.404	7348.41
739.744	7347.05
740.084	7276.09
740.424	7355.87
740.764	7371.01
741.104	7360.84
741.444	7370.1
741.784	7284.91
742.124	7387.96
742.464	7404.23
742.804	7350.67
743.143	7299.14
743.483	7393.15
743.823	7428.18
744.162	7376.2
744.502	7437.67
744.841	7417.11
745.181	7442.87
745.52	7479.93
745.86	7531.68
746.199	7498.91
746.538	7557.44
746.877	7642.41
747.216	7623.43
747.556	7611
747.895	7642.19
748.234	7675.41
748.573	7723.54
748.911	7813.93
749.25	7797.66
749.589	7824.55
749.928	7850.09
750.267	7938.22
750.605	7966.7
750.944	7967.15
751.283	8017.32
751.621	8111.33
751.96	8024.1
752.298	8183.19
752.636	8225.67
752.975	8251.44
753.313	8310.64
753.651	8367.36
753.989	8478.77
754.327	8527.81
754.666	8553.8
755.004	8656.4
755.342	8838.54
755.679	8835.6
756.017	8890.74
756.355	9032.66
756.693	9034.69
757.031	9236.72
757.368	9300.67
757.706	9382.03
758.044	9402.14
758.381	9619.76
758.719	9696.14
759.056	9762.13
759.394	9872.86
759.731	9897.72
760.068	10074.89
760.405	10047.32
760.743	10231.72
761.08	10397.82
761.417	10400.31
761.754	10491.83
762.091	10626.51
762.428	10703.57
762.765	10851.14
763.102	10979.5
763.438	11051.81
763.775	11005.26
764.112	11160.29
