Data from hue_60_FLMS001491_50.txt Node
Date: Mon Feb 06 15:17:28 GMT 2017
User: dcchb
Spectrometer: FLMS00149
Trigger mode: 0
Integration Time (sec): 2.000000E-2
Scans to average: 10
Electric dark correction enabled: true
Nonlinearity correction enabled: false
Boxcar width: 0
XAxis mode: Wavelengths
Number of Pixels in Spectrum: 2048
>>>>>Begin Spectral Data<<<<<
341.393	5.03
341.776	5.03
342.16	5.03
342.543	-62.77
342.927	-63.67
343.31	-82.65
343.693	-59.38
344.077	-79.72
344.46	-53.5
344.843	-46.04
345.226	-35.42
345.61	-38.59
345.993	-32.94
346.376	-15.99
346.759	3.45
347.142	13.39
347.525	59.26
347.908	51.35
348.291	74.63
348.674	110.56
349.057	131.58
349.44	111.24
349.823	153.05
350.206	177.68
350.588	198.7
350.971	209.77
351.354	217.45
351.737	233.72
352.119	245.7
352.502	264.68
352.884	276.43
353.267	268.75
353.65	284.34
354.032	299.26
354.414	297.45
354.797	291.57
355.179	329.09
355.562	318.92
355.944	335.64
356.326	342.65
356.709	325.7
357.091	325.7
357.473	331.57
357.855	351.69
358.238	354.4
358.62	332.7
359.002	348.3
359.384	336.54
359.766	334.51
360.148	336.54
360.53	344.68
360.912	328.86
361.294	322.53
361.676	325.02
362.057	330.67
362.439	319.37
362.821	314.4
363.203	332.7
363.584	332.7
363.966	340.16
364.348	330.22
364.729	293.83
365.111	324.57
365.493	314.17
365.874	311.69
366.256	302.2
366.637	305.36
367.019	318.01
367.4	328.86
367.781	296.32
368.163	306.94
368.544	319.6
368.925	301.97
369.306	314.4
369.688	311.46
370.069	293.61
370.45	315.08
370.831	306.94
371.212	300.84
371.593	320.27
371.974	308.52
372.355	306.04
372.736	325.25
373.117	303.33
373.498	332.03
373.879	313.95
374.26	305.81
374.641	321.18
375.021	301.74
375.402	324.12
375.783	313.27
376.163	306.04
376.544	317.11
376.925	317.11
377.305	318.47
377.686	337
378.066	334.96
378.447	303.1
378.827	321.18
379.208	314.62
379.588	312.36
379.968	299.94
380.349	328.41
380.729	313.95
381.109	307.85
381.489	358.69
381.87	339.71
382.25	352.59
382.63	365.47
383.01	337.67
383.39	325.47
383.77	320.27
384.15	348.75
384.53	330.22
384.91	337.45
385.29	346.04
385.67	361.4
386.049	330.9
386.429	347.39
386.809	355.3
387.189	363.44
387.568	346.71
387.948	344.23
388.328	341.74
388.707	351.01
389.087	343.78
389.466	359.6
389.846	347.62
390.225	365.24
390.605	347.17
390.984	341.29
391.363	369.54
391.743	358.01
392.122	386.04
392.501	355.08
392.881	352.36
393.26	380.16
393.639	369.31
394.018	362.53
394.397	356.88
394.776	389.2
395.155	362.76
395.534	377.9
395.913	366.37
396.292	381.29
396.671	360.27
397.05	379.03
397.429	351.23
397.808	355.53
398.186	360.5
398.565	361.85
398.944	382.65
399.323	374.28
399.701	366.83
400.08	368.86
400.458	390.1
400.837	388.29
401.215	388.97
401.594	363.89
401.972	376.32
402.351	386.71
402.729	345.13
403.107	384.68
403.486	393.49
403.864	404.34
404.242	388.07
404.62	396.88
404.999	386.94
405.377	398.69
405.755	399.82
406.133	407.05
406.511	389.65
406.889	404.79
407.267	401.4
407.645	398.46
408.023	411.8
408.401	403.44
408.779	399.59
409.156	413.83
409.534	421.97
409.912	418.58
410.29	418.8
410.667	431.68
411.045	414.73
411.422	420.61
411.8	439.82
412.178	438.92
412.555	424.68
412.933	435.07
413.31	440.04
413.687	422.42
414.065	454.96
414.442	468.52
414.819	451.57
415.197	439.82
415.574	455.86
415.951	463.1
416.328	461.29
416.705	454.96
417.082	475.75
417.46	481.63
417.837	453.83
418.214	466.48
418.591	489.08
418.967	469.87
419.344	468.52
419.721	479.14
420.098	474.17
420.475	466.26
420.852	487.73
421.228	492.47
421.605	484.34
421.982	504
422.358	497.22
422.735	504.9
423.111	502.87
423.488	496.09
423.864	486.82
424.241	499.25
424.617	486.6
424.994	543.32
425.37	511.68
425.746	529.31
426.123	520.49
426.499	517.33
426.875	504.68
427.251	520.95
427.627	530.89
428.003	551.45
428.379	553.49
428.756	524.79
429.132	569.53
429.507	556.65
429.883	565.01
430.259	570.89
430.635	545.35
431.011	540.38
431.387	569.76
431.763	561.62
432.138	571.34
432.514	573.15
432.89	559.14
433.265	607.95
433.641	600.49
434.016	591.45
434.392	597.78
434.767	615.41
435.143	605.92
435.518	624.22
435.894	615.63
436.269	623.99
436.644	629.64
437.02	619.48
437.395	631.45
437.77	635.97
438.145	655.41
438.52	649.98
438.895	645.01
439.271	638.46
439.646	668.29
440.021	675.74
440.395	687.27
440.77	687.72
441.145	667.38
441.52	665.35
441.895	684.11
442.27	677.33
442.645	703.09
443.019	693.82
443.394	701.51
443.769	704.44
444.143	715.74
444.518	713.71
444.892	686.59
445.267	716.65
445.641	703.54
446.016	720.94
446.39	712.58
446.764	736.31
447.139	719.13
447.513	720.72
447.887	734.27
448.262	737.66
448.636	751.68
449.01	734.95
449.384	740.6
449.758	769.08
450.132	776.08
450.506	760.71
450.88	788.96
451.254	769.08
451.628	768.62
452.002	765.23
452.376	780.37
452.75	805.46
453.123	807.94
453.497	827.15
453.871	801.17
454.244	854.27
454.618	804.1
454.992	837.77
455.365	850.66
455.739	843.42
456.112	844.55
456.486	865.12
456.859	876.19
457.232	892.01
457.606	875.74
457.979	893.37
458.352	922.97
458.725	951.22
459.099	920.26
459.472	943.99
459.845	961.61
460.218	964.32
460.591	962.29
460.964	959.81
461.337	1005.45
461.71	1010.43
462.083	1017.66
462.456	1023.08
462.829	1042.74
463.201	1055.4
463.574	1050.42
463.947	1055.85
464.32	1080.25
464.692	1105.56
465.065	1124.32
465.438	1122.29
465.81	1110.31
466.183	1156.18
466.555	1173.58
466.928	1196.86
467.3	1184.88
467.672	1198.9
468.045	1227.14
468.417	1230.08
468.789	1287.03
469.161	1252.9
469.534	1304.43
469.906	1316.41
470.278	1345.56
470.65	1374.48
471.022	1417.65
471.394	1442.05
471.766	1442.5
472.138	1474.37
472.51	1500.58
472.882	1559.34
473.253	1560.02
473.625	1605.89
473.997	1645.44
474.369	1671.2
474.74	1730.41
475.112	1731.76
475.484	1775.6
475.855	1839.1
476.227	1880.69
476.598	1955.71
476.97	1993.22
477.341	2043.39
477.713	2095.59
478.084	2114.35
478.455	2162.26
478.827	2260.79
479.198	2342.59
479.569	2350.96
479.94	2463.49
480.311	2525.41
480.682	2595.92
481.053	2665.07
481.424	2749.59
481.795	2792.75
482.166	2864.84
482.537	2977.61
482.908	3092.18
483.279	3172.85
483.65	3251.95
484.021	3376.46
484.391	3470.93
484.762	3550.47
485.133	3617.59
485.503	3727.42
485.874	3885.83
486.244	3943.91
486.615	4112.94
486.985	4222.09
487.356	4338.93
487.726	4433.16
488.097	4628.86
488.467	4695.75
488.837	4814.85
489.207	4960.38
489.578	5155.63
489.948	5251.67
490.318	5394.26
490.688	5450.99
491.058	5598.78
491.428	5728.04
491.798	5867.92
492.168	6093.46
492.538	6206.22
492.908	6355.82
493.278	6475.59
493.648	6636.49
494.017	6772.31
494.387	6906.09
494.757	7069.7
495.126	7278.51
495.496	7288
495.866	7462.23
496.235	7666.3
496.605	7796.24
496.974	7936.8
497.344	8064.25
497.713	8226.51
498.082	8395.99
498.452	8512.38
498.821	8646.83
499.19	8834.17
499.559	8936.09
499.928	9131.79
500.298	9146.71
500.667	9365.69
501.036	9455.85
501.405	9690.88
501.774	9708.28
502.143	9953.02
502.512	9970.19
502.88	10193.91
503.249	10237.08
503.618	10444.08
503.987	10553.23
504.356	10722.94
504.724	10773.78
505.093	10880.22
505.462	11018.75
505.83	11160.89
506.199	11389.59
506.567	11490.6
506.936	11518.85
507.304	11835.45
507.672	11875.22
508.041	12040.87
508.409	12178.95
508.777	12304.59
509.145	12469.79
509.514	12532.16
509.882	12687.18
510.25	12748.2
510.618	12945.7
510.986	13078.81
511.354	13161.97
511.722	13398.8
512.09	13488.52
512.458	13532.36
512.826	13716.08
513.193	13818.68
513.561	13958.33
513.929	14144.09
514.297	14232.9
514.664	14372.11
515.032	14441.71
515.4	14629.05
515.767	14717.41
516.135	14771.65
516.502	14794.24
516.869	15224.51
517.237	15220.45
517.604	15298.41
517.972	15494.56
518.339	15566.2
518.706	15735.69
519.073	15752.64
519.44	15917.15
519.808	16152.17
520.175	16187.43
520.542	16394.88
520.909	16472.84
521.276	16513.75
521.643	16643.46
522.009	16877.8
522.376	17047.07
522.743	17132.49
523.11	17353.95
523.477	17528.41
523.843	17676.88
524.21	17784.45
524.577	17985.35
524.943	18079.13
525.31	18208.84
525.676	18455.84
526.043	18492.9
526.409	18629.17
526.776	18783.52
527.142	18938.32
527.508	19021.7
527.874	19177.63
528.241	19255.6
528.607	19322.94
528.973	19528.36
529.339	19632.53
529.705	19832.76
530.071	19954.79
530.437	20026.65
530.803	20133.76
531.169	20322.46
531.535	20224.16
531.901	20333.31
532.267	20500.08
532.632	20706.86
532.998	20750.7
533.364	20833.86
533.73	20912.95
534.095	21089.45
534.461	21195.88
534.826	21275.43
535.192	21308.65
535.557	21557.68
535.923	21515.87
536.288	21655.08
536.653	21734.85
537.019	21699.82
537.384	21860.72
537.749	22038.8
538.114	22053.49
538.479	22008.52
538.845	22147.72
539.21	22159.7
539.575	22279.7
539.94	22412.8
540.305	22519.69
540.67	22563.98
541.034	22556.07
541.399	22760.36
541.764	22701.83
542.129	22757.2
542.494	22853.69
542.858	22940.02
543.223	22958.55
543.587	23101.14
543.952	23147.92
544.316	23323.96
544.681	23300.23
545.045	23381.59
545.41	23498.2
545.774	23638.98
546.138	23555.37
546.503	23744.97
546.867	23725.53
547.231	23873.33
547.595	24004.85
547.959	24103.15
548.324	24069.71
548.688	24164.84
549.052	24254.79
549.416	24297.95
549.779	24354.22
550.143	24534.1
550.507	24604.38
550.871	24739.74
551.235	24582.23
551.599	24856.13
551.962	24885.28
552.326	25007.53
552.689	25078.04
553.053	25087.76
553.417	25081.2
553.78	25564.36
554.143	25461.76
554.507	25543.34
554.87	25668.31
555.234	25889.32
555.597	25719.15
555.96	25844.57
556.323	25937.68
556.686	26000.28
557.05	26221.97
557.413	26255.19
557.776	26412.02
558.139	26516.87
558.502	26575.18
558.865	26714.38
559.228	26786.92
559.59	26939.46
559.953	26965.68
560.316	27297.42
560.679	27303.29
561.041	27452.44
561.404	27597.07
561.767	27824.86
562.129	27741.02
562.492	28020.79
562.854	27907.12
563.217	27912.54
563.579	28206.77
563.941	28354.11
564.304	28388.01
564.666	28698.96
565.028	28653.77
565.39	28772.41
565.753	28874.33
566.115	28931.05
566.477	28993.19
566.839	29160.42
567.201	29364.03
567.563	29466.85
567.925	29547.3
568.287	29624.81
568.648	29668.43
569.01	29979.83
569.372	29958.14
569.734	29940.06
570.095	30196.1
570.457	30465.92
570.819	30328.3
571.18	30395.42
571.542	30625.01
571.903	30646.03
572.265	30775.74
572.626	30867.49
572.987	30901.39
573.349	31005.12
573.71	31092.12
574.071	31346.8
574.432	31214.83
574.794	31475.39
575.155	31420.25
575.516	31461.38
575.877	31652.11
576.238	31739.33
576.599	31797.19
576.96	31811.2
577.32	31793.8
577.681	31973
578.042	31965.54
578.403	32112.88
578.763	32065.2
579.124	32212.54
579.485	32337.29
579.845	32503.16
580.206	32414.8
580.566	32419.77
580.927	32380.67
581.287	32612.76
581.648	32541.12
582.008	32700.44
582.368	32678.52
582.728	32724.62
583.089	32650.27
583.449	32757.84
583.809	32658.18
584.169	32823.6
584.529	32557.39
584.889	33022.01
585.249	32713.09
585.609	32714.68
585.969	32845.97
586.329	32846.2
586.688	32935.69
587.048	32878.51
587.408	32808.46
587.768	32835.8
588.127	32969.81
588.487	32977.04
588.846	33080.32
589.206	32944.73
589.565	32982.47
589.925	33069.7
590.284	33033.99
590.643	33172.97
591.003	33185.17
591.362	33316.02
591.721	33220.43
592.08	33168.22
592.44	33299.75
592.799	33262.91
593.158	33296.58
593.517	33219.52
593.876	33320.99
594.235	33407.31
594.593	33353.3
594.952	33435.56
595.311	33349.91
595.67	33303.59
596.029	33558.5
596.387	33531.38
596.746	33546.75
597.104	33501.32
597.463	33465.84
597.822	33679.4
598.18	33496.35
598.538	33500.42
598.897	33683.46
599.255	33484.37
599.613	34044.81
599.972	33888.66
600.33	33799.39
600.688	33854.08
601.046	33886.62
601.404	34005.72
601.762	33926.17
602.12	34086.39
602.478	34104.47
602.836	34143.11
603.194	33977.47
603.552	34080.97
603.91	34069.22
604.268	34281.87
604.625	34024.92
604.983	34281.87
605.341	34245.94
605.698	34409.32
606.056	34519.83
606.413	34487.51
606.771	34471.47
607.128	34589.66
607.485	34539.49
607.843	34512.14
608.2	34786.03
608.557	34896.31
608.914	34786.71
609.272	34947.61
609.629	35021.28
609.986	35152.58
610.343	35027.16
610.7	35268.28
611.057	35120.04
611.414	35330.65
611.771	35360.26
612.127	35369.75
612.484	35357.32
612.841	35552.34
613.198	35406.81
613.554	35466.47
613.911	35707.37
614.267	35804.09
614.624	35738.1
614.98	35823.07
615.337	35944.87
615.693	35822.39
616.05	35827.14
616.406	36037.75
616.762	35934.25
617.118	35867.36
617.475	35949.62
617.831	36054.48
618.187	36153.68
618.543	36149.39
618.899	36336.73
619.255	36343.73
619.611	36361.36
619.967	36517.74
620.323	36626.89
620.678	36564.52
621.034	36329.5
621.39	36397.07
621.746	36510.28
622.101	36756.15
622.457	36635.03
622.812	36611.98
623.168	36796.15
623.523	36779.43
623.879	36978.97
624.234	36728.81
624.589	36791.18
624.945	36795.47
625.3	36879.09
625.655	36800.44
626.01	36843.16
626.365	36891.74
626.72	36932.64
627.075	36955.69
627.43	36854.23
627.785	36797.96
628.14	36863.04
628.495	36962.47
628.85	36893.32
629.205	36800.22
629.559	37072.08
629.914	36936.03
630.269	36969.71
630.623	36822.14
630.978	36794.8
631.332	36879.31
631.687	37075.69
632.041	36818.98
632.396	36902.14
632.75	36863.27
633.104	36919.54
633.459	36818.3
633.813	36681.35
634.167	36743.5
634.521	36637.96
634.875	36821.69
635.229	36682.48
635.583	36512.99
635.937	36482.26
636.291	36533.11
636.645	36473.22
636.999	36569.49
637.352	36629.83
637.706	36438.19
638.06	36414.92
638.413	36498.08
638.767	36482.49
639.121	36429.83
639.474	36314.58
639.828	36247.46
640.181	36377.18
640.534	36351.64
640.888	36196.84
641.241	36114.59
641.594	36144.42
641.947	36228.03
642.301	36080.01
642.654	36233.45
643.007	36116.62
643.36	36070.75
643.713	36121.14
644.066	36228.93
644.419	35962.05
644.771	35748.27
645.124	35437.77
645.477	35436.19
645.83	35222.18
646.182	34979.7
646.535	34977.67
646.888	35045.91
647.24	34832.13
647.593	34972.24
647.945	34968.85
648.298	34761.18
648.65	34691.57
649.002	34688.41
649.355	34762.31
649.707	34724.57
650.059	34876.65
650.411	35276.87
650.763	35261.28
651.115	35646.8
651.467	35490.42
651.819	35620.14
652.171	35432.12
652.523	35383.08
652.875	35382.4
653.227	35368.39
653.578	35574.71
653.93	35508.95
654.282	35338.11
654.633	35148.51
654.985	35173.59
655.337	35297.66
655.688	35253.14
656.039	35401.61
656.391	34928.4
656.742	35179.47
657.094	35136.53
657.445	35126.36
657.796	35193.48
658.147	35072.35
658.498	35014.05
658.849	35157.1
659.2	35083.2
659.551	35095.63
659.902	35221.28
660.253	35089.98
660.604	35068.96
660.955	34852.47
661.306	35015.63
661.656	34955.97
662.007	35018.8
662.358	34847.5
662.708	34933.38
663.059	34949.42
663.409	34641.63
663.76	35086.82
664.11	34925.24
664.461	35035.52
664.811	34993.26
665.161	34871
665.511	34767.5
665.862	34936.09
666.212	34951.68
666.562	35015.86
666.912	34855.19
667.262	34845.47
667.612	34940.15
667.962	34856.99
668.312	34789.2
668.662	34946.48
669.011	34812.47
669.361	34785.58
669.711	34678.01
670.06	34725.92
670.41	34582.2
670.76	34619.94
671.109	34653.83
671.459	34612.25
671.808	34671.01
672.157	34741.97
672.507	34508.98
672.856	34546.94
673.205	34574.97
673.554	34715.75
673.904	34499.71
674.253	34682.31
674.602	34649.09
674.951	34033.51
675.3	34021.99
675.649	34388.76
675.998	34343.33
676.346	34412.71
676.695	34550.79
677.044	34209.33
677.393	34283.45
677.741	34431.92
678.09	34159.16
678.438	34275.99
678.787	34383.11
679.135	34257.91
679.484	34090.91
679.832	34205.26
680.181	34092.95
680.529	34171.59
680.877	33952.84
681.225	33960.07
681.573	34121.87
681.922	33853.4
682.27	33739.51
682.618	33814.08
682.966	33700.41
683.314	33745.61
683.661	33662.22
684.009	33405.96
684.357	33527.08
684.705	33416.8
685.053	33545.39
685.4	33398.05
685.748	33272.4
686.095	33148.79
686.443	33197.38
686.79	33166.42
687.138	33222.46
687.485	33177.26
687.832	33067.21
688.18	33080.54
688.527	32877.61
688.874	32984.95
689.221	32893.65
689.568	32631.97
689.915	32617.96
690.262	32595.81
690.609	32476.72
690.956	32389.49
691.303	32434.91
691.65	32207.8
691.997	32247.57
692.344	32042.15
692.69	32051.87
693.037	32047.35
693.383	31783.4
693.73	31829.5
694.077	31606.91
694.423	31807.36
694.769	31634.93
695.116	31641.48
695.462	31597.64
695.808	31450.08
696.155	31381.38
696.501	31287.82
696.847	31142.06
697.193	30977.1
697.539	31192
697.885	30986.36
698.231	30684.22
698.577	30907.04
698.923	30750.89
699.269	30596.31
699.614	30513.15
699.96	30470.67
700.306	30411.91
700.651	30200.39
700.997	30165.37
701.342	30252.37
701.688	30110.23
702.033	29962.66
702.379	29905.94
702.724	29928.08
703.069	29943.68
703.415	29644.02
703.76	29673.63
704.105	29638.37
704.45	29460.75
704.795	29336.01
705.14	29279.74
705.485	29307.53
705.83	29252.17
706.175	29168.33
706.52	29152.28
706.865	29128.56
707.209	28972.18
707.554	28936.7
707.899	28982.35
708.243	28792.07
708.588	28742.13
708.932	28467.56
709.277	28541
709.621	28538.74
709.966	28420.78
710.31	28426.88
710.654	28189.15
710.998	28324.96
711.342	28226.66
711.687	28138.3
712.031	28007.68
712.375	28039.09
712.719	27971.52
713.063	27922.49
713.407	28015.37
713.75	27799.78
714.094	27825.54
714.438	27628.03
714.782	27677.52
715.125	27630.97
715.469	27697.18
715.812	27492.89
716.156	27272.33
716.499	27407.7
716.843	27440.01
717.186	27105.33
717.53	27392.56
717.873	27247.93
718.216	27338.32
718.559	27130.64
718.902	27017.65
719.246	26926.58
719.589	27051.55
719.932	26777.66
720.275	26707.15
720.617	26688.39
720.96	26685.23
721.303	26732.46
721.646	26715.06
721.989	26568.4
722.331	26648.17
722.674	26497.21
723.016	26576.08
723.359	26577.66
723.701	26485.46
724.044	26354.84
724.386	26232.59
724.729	26311
725.071	26235.98
725.413	26310.78
725.755	26197.56
726.097	26104.91
726.439	25890.68
726.782	25972.25
727.124	26101.97
727.465	25903.1
727.807	25922.76
728.149	25839.6
728.491	25770
728.833	25760.28
729.175	25653.17
729.516	25640.29
729.858	25458.14
730.199	25698.82
730.541	25518.93
730.882	25487.75
731.224	25568.2
731.565	25454.98
731.906	25434.19
732.248	25447.97
732.589	25405.49
732.93	25190.81
733.271	25203.01
733.612	25246.85
733.953	25300.86
734.294	25229.9
734.635	25154.88
734.976	25196.46
735.317	25011.6
735.658	25040.53
735.999	24989.91
736.339	24814.09
736.68	24997.59
737.021	24836.92
737.361	24689.35
737.702	24916.01
738.042	24697.03
738.383	24723.25
738.723	24699.52
739.063	24562.8
739.404	24695.68
739.744	24653.42
740.084	24555.12
740.424	24548.79
740.764	24474.89
741.104	24577.04
741.444	24318.29
741.784	24344.95
742.124	24456.59
742.464	24311.28
742.804	24245.75
743.143	24271.06
743.483	24249.81
743.823	24118.74
744.162	24115.13
744.502	24200.32
744.841	23960.56
745.181	24052.98
745.52	23962.14
745.86	23915.36
746.199	23948.81
746.538	23858.86
746.877	23928.01
747.216	23899.54
747.556	23838.53
747.895	23886.43
748.234	23678.53
748.573	23646.21
748.911	23686.21
749.25	23663.39
749.589	23496.16
749.928	23611.41
750.267	23455.03
750.605	23515.14
750.944	23368.93
751.283	23339.1
751.621	23401.93
751.96	23263.85
752.298	23295.26
752.636	23295.04
752.975	23153.35
753.313	23089.17
753.651	23192.89
753.989	23001.26
754.327	22944.99
754.666	22949.06
755.004	22953.58
755.342	22897.99
755.679	22854.14
756.017	22757.2
756.355	22766.01
756.693	22593.13
757.031	22615.06
