Data from hue_210_FLMS001491_00079.txt Node
Date: Tue Feb 07 16:41:41 GMT 2017
User: dcchb
Spectrometer: FLMS00149
Trigger mode: 0
Integration Time (sec): 2.000000E-2
Scans to average: 10
Electric dark correction enabled: true
Nonlinearity correction enabled: false
Boxcar width: 0
XAxis mode: Wavelengths
Number of Pixels in Spectrum: 2048
>>>>>Begin Spectral Data<<<<<
341.393	-38.61
341.776	-38.61
342.16	-38.61
342.543	-47.65
342.927	-67.99
343.31	-64.6
343.693	-81.33
344.077	-91.72
344.46	-66.41
344.843	-49.01
345.226	-38.39
345.61	-29.8
345.993	-17.6
346.376	-14.43
346.759	19.46
347.142	41.61
347.525	56.98
347.908	62.63
348.291	77.54
348.674	90.2
349.057	104.88
349.44	119.35
349.823	140.82
350.206	168.84
350.588	204.99
350.971	216.29
351.354	212
351.737	247.71
352.119	272.11
352.502	259.91
352.884	290.42
353.267	285.67
353.65	286.35
354.032	295.84
354.414	309.62
354.797	321.6
355.179	337.42
355.562	328.83
355.944	308.95
356.326	323.18
356.709	338.1
357.091	333.13
357.473	338.55
357.855	349.4
358.238	332.9
358.62	343.07
359.002	346.69
359.384	327.48
359.766	349.85
360.148	351.66
360.53	328.61
360.912	334.26
361.294	341.26
361.676	329.29
362.057	310.53
362.439	329.29
362.821	318.44
363.203	319.79
363.584	327.03
363.966	332.67
364.348	315.27
364.729	320.02
365.111	320.47
365.493	311.43
365.874	292.68
366.256	322.51
366.637	338.55
367.019	329.29
367.4	345.56
367.781	325.22
368.163	336.06
368.544	291.77
368.925	316.4
369.306	319.57
369.688	327.48
370.069	303.75
370.45	284.31
370.831	300.59
371.212	320.7
371.593	323.64
371.974	319.79
372.355	330.87
372.736	328.38
373.117	310.98
373.498	311.21
373.879	323.18
374.26	327.7
374.641	334.93
375.021	322.96
375.402	313.01
375.783	322.51
376.163	324.54
376.544	315.73
376.925	343.3
377.305	325.44
377.686	315.5
378.066	337.42
378.447	326.57
378.827	350.53
379.208	317.31
379.588	337.19
379.968	347.82
380.349	333.58
380.729	322.28
381.109	339.91
381.489	336.74
381.87	328.61
382.25	334.03
382.63	343.3
383.01	343.52
383.39	335.39
383.77	333.13
384.15	357.98
384.53	336.29
384.91	332.45
385.29	356.4
385.67	349.62
386.049	353.01
386.429	360.92
386.809	350.75
387.189	349.4
387.568	364.31
387.948	355.73
388.328	354.14
388.707	375.84
389.087	377.65
389.466	365.67
389.846	364.09
390.225	380.36
390.605	370.87
390.984	359.34
391.363	378.1
391.743	379.91
392.122	375.16
392.501	391.2
392.881	389.4
393.26	381.94
393.639	377.42
394.018	389.62
394.397	403.63
394.776	392.11
395.155	378.32
395.534	397.53
395.913	384.2
396.292	401.15
396.671	386.46
397.05	389.17
397.429	408.15
397.808	414.48
398.186	402.5
398.565	409.73
398.944	410.41
399.323	419
399.701	393.01
400.08	427.81
400.458	409.28
400.837	416.97
401.215	421.94
401.594	422.84
401.972	451.54
402.351	414.03
402.729	427.81
403.107	424.42
403.486	447.7
403.864	433.46
404.242	440.69
404.62	462.39
404.999	450.64
405.377	477.98
405.755	458.32
406.133	475.27
406.511	470.07
406.889	481.82
407.267	484.31
407.645	484.99
408.023	493.35
408.401	481.82
408.779	508.49
409.156	507.36
409.534	511.43
409.912	530.41
410.29	536.51
410.667	532.9
411.045	541.71
411.422	531.31
411.8	553.69
412.178	575.83
412.555	609.96
412.933	602.5
413.31	609.96
413.687	631.42
414.065	619.45
414.442	599.79
414.819	619.22
415.197	624.42
415.574	659.22
415.951	651.54
416.328	665.77
416.705	704.19
417.082	682.72
417.46	687.24
417.837	720.46
418.214	721.37
418.591	709.61
418.967	746.22
419.344	722.5
419.721	762.04
420.098	767.69
420.475	766.56
420.852	758.2
421.228	789.84
421.605	828.03
421.982	811.31
422.358	849.27
422.735	843.4
423.111	860.8
423.488	885.2
423.864	881.81
424.241	924.75
424.617	915.26
424.994	924.75
425.37	924.52
425.746	970.4
426.123	973.34
426.499	963.62
426.875	973.11
427.251	978.76
427.627	1014.24
428.003	1040.23
428.379	1065.31
428.756	1061.7
429.132	1079.77
429.507	1097.17
429.883	1103.05
430.259	1133.11
430.635	1121.81
431.011	1128.81
431.387	1154.8
431.763	1160.68
432.138	1183.05
432.514	1213.56
432.89	1218.08
433.265	1244.52
433.641	1261.92
434.016	1278.86
434.392	1323.38
434.767	1346.89
435.143	1342.14
435.518	1367.45
435.894	1380.56
436.269	1425.08
436.644	1452.19
437.02	1472.31
437.395	1501.01
437.77	1492.87
438.145	1552.98
438.52	1601.57
438.895	1589.14
439.271	1616.03
439.646	1647.22
440.021	1690.15
440.395	1682.92
440.77	1697.38
441.145	1729.93
441.52	1756.59
441.895	1756.59
442.27	1796.14
442.645	1773.99
443.019	1836.14
443.394	1828
443.769	1886.53
444.143	1837.72
444.518	1920.88
444.892	1895.12
445.267	1900.32
445.641	1941.45
446.016	1960.88
446.39	1934.89
446.764	1972.86
447.139	2036.81
447.513	1990.03
447.887	2014.21
448.262	2037.49
448.636	2038.17
449.01	2076.13
449.384	2085.62
449.758	2097.37
450.132	2133.98
450.506	2134.21
450.88	2198.39
451.254	2169.24
451.628	2197.94
452.002	2203.59
452.376	2232.29
452.75	2251.27
453.123	2287.65
453.497	2317.26
453.871	2322.23
454.244	2386.41
454.618	2385.5
454.992	2412.17
455.365	2415.56
455.739	2475.22
456.112	2490.36
456.486	2498.49
456.859	2520.19
457.232	2571.49
457.606	2559.51
457.979	2619.39
458.352	2641.99
458.725	2672.95
459.099	2685.61
459.472	2743.23
459.845	2745.94
460.218	2783.68
460.591	2775.1
460.964	2830.91
461.337	2874.3
461.71	2938.03
462.083	2942.55
462.456	2965.37
462.829	2995.88
463.201	3010.34
463.574	3018.71
463.947	3115.88
464.32	3175.31
464.692	3161.08
465.065	3205.82
465.438	3260.96
465.81	3242.65
466.183	3319.26
466.555	3399.49
466.928	3373.27
467.3	3370.79
467.672	3460.95
468.045	3550.67
468.417	3519.71
468.789	3625.24
469.161	3629.09
469.534	3642.42
469.906	3735.98
470.278	3771
470.65	3743.66
471.022	3838.35
471.394	3885.8
471.766	3895.29
472.138	3985.01
472.51	4015.06
472.882	4107.26
473.253	4124.44
473.625	4221.84
473.997	4295.96
474.369	4331.44
474.74	4309.97
475.112	4441.27
475.484	4468.84
475.855	4519.91
476.227	4562.62
476.598	4695.95
476.97	4721.71
477.341	4816.62
477.713	4901.14
478.084	4911.31
478.455	5011.2
478.827	5062.72
479.198	5172.77
479.569	5196.5
479.94	5330.51
480.311	5332.32
480.682	5450.96
481.053	5578.41
481.424	5635.13
481.795	5673.55
482.166	5734.11
482.537	5768.24
482.908	5931.85
483.279	5938.86
483.65	6020.43
484.021	6149.92
484.391	6238.96
484.762	6273.76
485.133	6272.41
485.503	6384.27
485.874	6530.7
486.244	6576.58
486.615	6624.94
486.985	6728.44
487.356	6859.06
487.726	6915.78
488.097	7048.88
488.467	7006.62
488.837	7086.62
489.207	7179.05
489.578	7253.4
489.948	7364.81
490.318	7428.53
490.688	7484.58
491.058	7537.01
491.428	7631.24
491.798	7713.5
492.168	7805.92
492.538	7838.69
492.908	7870.1
493.278	8027.16
493.648	8023.77
494.017	8125.01
494.387	8091.34
494.757	8285.91
495.126	8247.95
495.496	8268.96
495.866	8299.47
496.235	8406.36
496.605	8399.81
496.974	8465.12
497.344	8553.25
497.713	8518.45
498.082	8633.47
498.452	8637.32
498.821	8676.86
499.19	8748.5
499.559	8795.28
499.928	8852.22
500.298	8840.25
500.667	8967.7
501.036	8870.76
501.405	8994.59
501.774	8962.96
502.143	9018.77
502.512	9068.04
502.88	9061.26
503.249	9102.84
503.618	9110.98
503.987	9147.13
504.356	9171.31
504.724	9152.33
505.093	9180.35
505.462	9206.79
505.83	9287.92
506.199	9390.52
506.567	9318.88
506.936	9426.67
507.304	9460.12
507.672	9470.06
508.041	9497.41
508.409	9584.18
508.777	9545.54
509.145	9590.51
509.514	9572.21
509.882	9574.92
510.25	9657.18
510.618	9683.84
510.986	9602.04
511.354	9705.76
511.722	9712.54
512.09	9812.88
512.458	9712.32
512.826	9834.35
513.193	9844.29
513.561	9824.85
513.929	9823.27
514.297	9941.24
514.664	9880.67
515.032	9888.36
515.4	9931.74
515.767	9915.7
516.135	9966.32
516.502	9858.3
516.869	10029.37
517.237	10055.13
517.604	9948.24
517.972	10040.22
518.339	10035.92
518.706	10009.03
519.073	10003.61
519.44	10103.27
519.808	10116.82
520.175	10029.6
520.542	10099.65
520.909	10207.67
521.276	10090.61
521.643	10124.73
522.009	10129.48
522.376	10170.61
522.743	10146.2
523.11	10222.81
523.477	10330.38
523.843	10285.86
524.21	10339.19
524.577	10348.23
524.943	10365.86
525.31	10309.36
525.676	10375.12
526.043	10489.92
526.409	10397.95
526.776	10479.3
527.142	10411.73
527.508	10412.18
527.874	10439.98
528.241	10417.83
528.607	10384.61
528.973	10410.83
529.339	10421.68
529.705	10435.01
530.071	10456.48
530.437	10418.06
530.803	10403.37
531.169	10401.56
531.535	10375.35
531.901	10319.53
532.267	10337.38
532.632	10353.65
532.998	10362.02
533.364	10383.71
533.73	10335.12
534.095	10344.62
534.461	10352.98
534.826	10331.51
535.192	10324.5
535.557	10312.53
535.923	10286.09
536.288	10237.05
536.653	10246.76
537.019	10146.65
537.384	10195.92
537.749	10137.16
538.114	10144.62
538.479	10089.03
538.845	10038.41
539.21	10036.83
539.575	9978.07
539.94	10053.1
540.305	9975.13
540.67	9948.92
541.034	9951.18
541.399	9935.13
541.764	9921.8
542.129	9944.17
542.494	9810.62
542.858	9851.75
543.223	9764.74
543.587	9772.88
543.952	9779.66
544.316	9753.9
544.681	9701.92
545.045	9657.63
545.41	9703.5
545.774	9668.02
546.138	9658.98
546.503	9645.42
546.867	9535.6
547.231	9566.78
547.595	9515.26
547.959	9527.46
548.324	9457.41
548.688	9371.53
549.052	9393.23
549.416	9412.21
549.779	9402.94
550.143	9260.35
550.507	9388.26
550.871	9298.09
551.235	9257.41
551.599	9210.63
551.962	9183.52
552.326	9152.1
552.689	9227.13
553.053	9126.79
553.417	9037.53
553.78	9185.55
554.143	9073.91
554.507	9044.31
554.87	9046.8
555.234	9063.97
555.597	8996.18
555.96	8955.5
556.323	8963.63
556.686	8925.22
557.05	8933.35
557.413	8988.04
557.776	8961.15
558.139	8969.96
558.502	8884.09
558.865	8834.37
559.228	8956.18
559.59	8859.68
559.953	8892.45
560.316	8979.45
560.679	8878.44
561.041	8946.69
561.404	8896.07
561.767	8950.98
562.129	8896.29
562.492	8942.84
562.854	8894.03
563.217	8885.44
563.579	8855.39
563.941	8944.65
564.304	8892.68
564.666	9047.25
565.028	8991.2
565.39	9007.48
565.753	8995.95
566.115	8969.06
566.477	9008.38
566.839	8992.79
567.201	8995.95
567.563	8970.87
567.925	9038.43
568.287	9084.54
568.648	8971.09
569.01	9041.82
569.372	9106.23
569.734	9029.4
570.095	9097.64
570.457	9111.65
570.819	9033.69
571.18	9128.15
571.542	9085.44
571.903	9163.4
572.265	9118.66
572.626	9155.95
572.987	9183.29
573.349	9144.87
573.71	9199.79
574.071	9254.25
574.432	9308.48
574.794	9298.99
575.155	9283.85
575.516	9217.19
575.877	9218.99
576.238	9276.85
576.599	9281.59
576.96	9285.21
577.32	9306.68
577.681	9351.87
578.042	9348.93
578.403	9353.23
578.763	9295.15
579.124	9293.8
579.485	9391.19
579.845	9368.6
580.206	9361.82
580.566	9445.43
580.927	9382.61
581.287	9527.69
581.648	9438.65
582.008	9463.51
582.368	9426.9
582.728	9499.44
583.089	9447.46
583.449	9463.96
583.809	9570.17
584.169	9500.8
584.529	9479.55
584.889	9555.48
585.249	9475.26
585.609	9445.66
585.969	9535.82
586.329	9435.49
586.688	9536.5
587.048	9488.37
587.408	9468.03
587.768	9513.45
588.127	9482.26
588.487	9484.75
588.846	9590.51
589.206	9542.15
589.565	9527.24
589.925	9618.08
590.284	9538.53
590.643	9579.89
591.003	9599.32
591.362	9628.48
591.721	9569.49
592.08	9641.58
592.44	9625.99
592.799	9583.51
593.158	9584.86
593.517	9631.19
593.876	9606.1
594.235	9595.03
594.593	9591.87
594.952	9598.65
595.311	9560.23
595.67	9617.18
596.029	9611.07
596.387	9663.28
596.746	9663.95
597.104	9648.59
597.463	9599.55
597.822	9618.08
598.18	9586.44
598.538	9663.05
598.897	9703.28
599.255	9613.11
599.613	9764.52
599.972	9647.68
600.33	9735.37
600.688	9670.06
601.046	9639.55
601.404	9727.23
601.762	9702.6
602.12	9656.72
602.478	9700.79
602.836	9773.78
603.194	9675.03
603.552	9659.21
603.91	9610.62
604.268	9659.21
604.625	9636.84
604.983	9652.43
605.341	9588.25
605.698	9766.1
606.056	9746.66
606.413	9657.63
606.771	9721.81
607.128	9731.52
607.485	9706.44
607.843	9663.73
608.2	9701.02
608.557	9832.31
608.914	9712.09
609.272	9804.29
609.629	9765.42
609.986	9815.14
610.343	9765.2
610.7	9811.75
611.057	9796.83
611.414	9713.45
611.771	9786.21
612.127	9780.34
612.484	9859.66
612.841	9856.49
613.198	9821.46
613.554	9797.96
613.911	9889.94
614.267	9907.56
614.624	9899.2
614.98	9923.38
615.337	9905.53
615.693	9919.32
616.05	9898.98
616.406	9849.71
616.762	9938.98
617.118	9856.94
617.475	9863.5
617.831	9932.65
618.187	9927.45
618.543	9952.76
618.899	10028.24
619.255	9994.34
619.611	9959.09
619.967	10029.14
620.323	10032.31
620.678	9949.6
621.034	9972.42
621.39	9969.03
621.746	9939.88
622.101	10075.7
622.457	9929.03
622.812	10021.23
623.168	9987.56
623.523	9968.58
623.879	10043.83
624.234	9960.44
624.589	10018.3
624.945	10006.77
625.3	9996.15
625.655	9963.38
626.01	9994.12
626.365	10037.28
626.72	9971.74
627.075	9956.6
627.43	9986.88
627.785	9912.76
628.14	9983.72
628.495	10022.14
628.85	9982.14
629.205	9917.73
629.559	9928.81
629.914	9893.55
630.269	9920.67
630.623	9872.99
630.978	9882.48
631.332	9905.76
631.687	9905.98
632.041	9860.79
632.396	9903.27
632.75	9838.19
633.104	9866.21
633.459	9823.5
633.813	9799.32
634.167	9854.46
634.521	9793.22
634.875	9821.92
635.229	9764.74
635.583	9791.86
635.937	9784.4
636.291	9732.88
636.645	9726.78
636.999	9684.07
637.352	9684.75
637.706	9647.91
638.06	9668.93
638.413	9658.98
638.767	9634.13
639.121	9670.06
639.474	9615.37
639.828	9656.05
640.181	9630.51
640.534	9614.01
640.888	9607.69
641.241	9533.79
641.594	9640.23
641.947	9584.63
642.301	9547.57
642.654	9512.77
643.007	9573.56
643.36	9595.93
643.713	9522.72
644.066	9560.91
644.419	9537.63
644.771	9465.32
645.124	9308.26
645.477	9371.99
645.83	9306
646.182	9228.49
646.535	9199.33
646.888	9270.74
647.24	9192.55
647.593	9249.5
647.945	9212.44
648.298	9173.35
648.65	9111.88
649.002	9164.76
649.355	9257.86
649.707	9161.6
650.059	9242.27
650.411	9411.98
650.763	9369.27
651.115	9462.6
651.467	9436.84
651.819	9447.69
652.171	9411.53
652.523	9384.41
652.875	9420.57
653.227	9336.73
653.578	9418.99
653.93	9411.31
654.282	9382.61
654.633	9344.64
654.985	9318.65
655.337	9343.74
655.688	9351.42
656.039	9413.57
656.391	9396.84
656.742	9391.87
657.094	9312.55
657.445	9399.78
657.796	9337.18
658.147	9331.08
658.498	9370.18
658.849	9372.89
659.2	9374.47
659.551	9342.61
659.902	9396.62
660.253	9414.24
660.604	9416.96
660.955	9429.84
661.306	9395.49
661.656	9395.04
662.007	9434.36
662.358	9449.72
662.708	9413.34
663.059	9435.49
663.409	9333.34
663.76	9501.93
664.11	9476.84
664.461	9430.74
664.811	9481.36
665.161	9527.46
665.511	9429.61
665.862	9477.52
666.212	9529.72
666.562	9449.5
666.912	9449.05
667.262	9424.19
667.612	9439.78
667.962	9539.44
668.312	9428.48
668.662	9469.61
669.011	9423.51
669.361	9483.17
669.711	9457.18
670.06	9438.2
670.41	9318.65
670.76	9398.2
671.109	9423.06
671.459	9408.82
671.808	9465.54
672.157	9441.14
672.507	9384.19
672.856	9343.29
673.205	9394.13
673.554	9407.69
673.904	9428.25
674.253	9458.99
674.602	9384.87
674.951	9236.85
675.3	9175.38
675.649	9233.01
675.998	9306.9
676.346	9287.24
676.695	9302.38
677.044	9225.32
677.393	9281.59
677.741	9331.76
678.09	9318.88
678.438	9219.22
678.787	9312.33
679.135	9275.26
679.484	9192.33
679.832	9211.76
680.181	9130.18
680.529	9124.76
680.877	9135.38
681.225	9138.09
681.573	9124.08
681.922	9114.36
682.27	9086.34
682.618	9051.99
682.966	9043.41
683.314	8968.61
683.661	9015.61
684.009	9008.15
684.357	8910.53
684.705	8910.98
685.053	8981.94
685.4	8962.73
685.748	8873.69
686.095	8841.15
686.443	8878.66
686.79	8859.91
687.138	8814.71
687.485	8836.86
687.832	8786.46
688.18	8807.03
688.527	8788.27
688.874	8764.54
689.221	8736.07
689.568	8713.92
689.915	8694.04
690.262	8621.27
690.609	8634.6
690.956	8565.68
691.303	8599.58
691.65	8515.74
691.997	8555.28
692.344	8458.11
692.69	8407.26
693.037	8431.44
693.383	8373.14
693.73	8388.06
694.077	8309.64
694.423	8343.76
694.769	8310.77
695.116	8267.38
695.462	8256.99
695.808	8205.69
696.155	8242.07
696.501	8099.25
696.847	8158.23
697.193	8036.43
697.539	8122.53
697.885	8035.3
698.231	7982.64
698.577	7963.43
698.923	8013.15
699.269	7969.76
699.614	7884.79
699.96	7818.35
700.306	7879.37
700.651	7772.71
700.997	7764.57
701.342	7784.68
701.688	7736.32
702.033	7694.97
702.379	7728.41
702.724	7673.05
703.069	7655.65
703.415	7564.12
703.76	7588.76
704.105	7596.44
704.45	7553.95
704.795	7503.33
705.14	7479.61
705.485	7469.89
705.83	7401.64
706.175	7420.17
706.52	7321.64
706.865	7355.32
707.209	7355.99
707.554	7314.41
707.899	7280.06
708.243	7290.91
708.588	7260.18
708.932	7199.39
709.277	7233.28
709.621	7222.21
709.966	7158.71
710.31	7233.06
710.654	7126.39
710.998	7118.49
711.342	7104.93
711.687	7017.02
712.031	7024.93
712.375	6994.42
712.719	7045.72
713.063	7033.74
713.407	7042.78
713.75	6984.7
714.094	6949.22
714.438	6968.88
714.782	7003.91
715.125	6943.8
715.469	6939.96
715.812	6871.49
716.156	6866.51
716.499	6860.41
716.843	6913.74
717.186	6840.3
717.53	6886.85
717.873	6828.78
718.216	6878.27
718.559	6825.39
718.902	6739.74
719.246	6835.33
719.589	6735.9
719.932	6794.88
720.275	6756.01
720.617	6761.43
720.96	6712.85
721.303	6730.92
721.646	6737.25
721.989	6676.46
722.331	6709.91
722.674	6724.15
723.016	6695.67
723.359	6698.38
723.701	6683.47
724.044	6655.9
724.386	6642.57
724.729	6660.87
725.071	6675.11
725.413	6633.3
725.755	6662.68
726.097	6652.73
726.439	6588.1
726.782	6609.35
727.124	6622
727.465	6644.6
727.807	6608.22
728.149	6569.35
728.491	6654.32
728.833	6607.31
729.175	6556.69
729.516	6574.77
729.858	6593.75
730.199	6648.67
730.541	6594.21
730.882	6558.05
731.224	6609.35
731.565	6575.9
731.906	6584.71
732.248	6627.88
732.589	6542.23
732.93	6549.91
733.271	6526.64
733.612	6610.48
733.953	6567.77
734.294	6539.74
734.635	6600.31
734.976	6610.7
735.317	6549.46
735.658	6582.91
735.999	6647.09
736.339	6563.7
736.68	6590.36
737.021	6604.83
737.361	6615.22
737.702	6667.88
738.042	6603.92
738.383	6600.76
738.723	6596.69
739.063	6604.15
739.404	6647.76
739.744	6661.32
740.084	6666.07
740.424	6663.58
740.764	6610.25
741.104	6635.11
741.444	6709.46
741.784	6716.46
742.124	6718.95
742.464	6800.08
742.804	6712.17
743.143	6725.28
743.483	6777.7
743.823	6778.61
744.162	6779.96
744.502	6869.45
744.841	6808.66
745.181	6924.14
745.52	6863.35
745.86	6927.98
746.199	7008.21
746.538	7010.47
746.877	6999.84
747.216	7087.98
747.556	7144.93
747.895	7192.38
748.234	7252.94
748.573	7202.55
748.911	7285.71
749.25	7409.32
749.589	7424.92
749.928	7477.8
750.267	7544.69
750.605	7593.73
750.944	7683.89
751.283	7722.09
751.621	7847.28
751.96	7912.36
752.298	7993.94
752.636	8126.14
752.975	8213.15
753.313	8295.18
753.651	8377.89
753.989	8409.3
754.327	8555.96
754.666	8613.59
755.004	8783.53
755.342	8945.56
755.679	8958.21
756.017	9099.9
756.355	9273
756.693	9407.92
757.031	9534.01
757.368	9714.8
757.706	9798.64
758.044	9964.51
758.381	10160.44
758.719	10316.14
759.056	10451.96
759.394	10656.92
759.731	10648.79
760.068	10876.8
760.405	11088.1
760.743	11290.58
761.08	11386.17
761.417	11524.92
761.754	11745.48
762.091	11946.38
762.428	12133.72
762.765	12232.7
763.102	12490.55
763.438	12513.37
763.775	12698
764.112	12934.6
764.449	13196.97
764.785	13289.62
765.122	13404.42
765.458	13530.97
765.795	13836.27
766.131	13884.18
766.467	14084.63
766.804	14226.09
767.14	14359.2
