Data from hue_28_FLMS001491_00088.txt Node
Date: Tue Feb 07 17:17:56 GMT 2017
User: dcchb
Spectrometer: FLMS00149
Trigger mode: 0
Integration Time (sec): 2.000000E-2
Scans to average: 10
Electric dark correction enabled: true
Nonlinearity correction enabled: false
Boxcar width: 0
XAxis mode: Wavelengths
Number of Pixels in Spectrum: 2048
>>>>>Begin Spectral Data<<<<<
341.393	-23.39
341.776	-23.39
342.16	-23.39
342.543	-84.63
342.927	-63.84
343.31	-57.51
343.693	-64.74
344.077	-59.09
344.46	-89.6
344.843	-46.67
345.226	-40.34
345.61	-39.21
345.993	-15.03
346.376	-8.93
346.759	8.93
347.142	25.42
347.525	41.69
347.908	65.2
348.291	70.62
348.674	88.25
349.057	121.01
349.44	135.25
349.823	115.36
350.206	145.42
350.588	176.83
350.971	195.36
351.354	224.74
351.737	256.38
352.119	242.14
352.502	246.89
352.884	284.17
353.267	276.04
353.65	290.73
354.032	296.6
354.414	296.38
354.797	309.71
355.179	311.97
355.562	314.68
355.944	313.55
356.326	326.43
356.709	326.66
357.091	338.86
357.473	349.48
357.855	327.56
358.238	335.25
358.62	328.01
359.002	352.42
359.384	347
359.766	343.61
360.148	330.73
360.53	350.84
360.912	315.81
361.294	336.83
361.676	328.01
362.057	341.57
362.439	338.64
362.821	319.43
363.203	330.73
363.584	341.12
363.966	318.75
364.348	316.04
364.729	311.29
365.111	322.82
365.493	332.99
365.874	311.74
366.256	331.18
366.637	305.87
367.019	330.95
367.4	318.07
367.781	328.47
368.163	316.94
368.544	304.51
368.925	313.33
369.306	329.6
369.688	314.68
370.069	288.02
370.45	316.71
370.831	318.52
371.212	317.17
371.593	307.22
371.974	306.55
372.355	325.98
372.736	293.44
373.117	324.4
373.498	318.52
373.879	317.39
374.26	315.36
374.641	306.55
375.021	299.99
375.402	324.17
375.783	332.99
376.163	323.95
376.544	315.36
376.925	314.91
377.305	318.3
377.686	313.55
378.066	332.31
378.447	318.52
378.827	322.82
379.208	323.72
379.588	309.71
379.968	347
380.349	324.62
380.729	332.76
381.109	329.14
381.489	311.97
381.87	317.39
382.25	332.08
382.63	336.6
383.01	332.76
383.39	357.62
383.77	351.74
384.15	358.97
384.53	328.92
384.91	336.83
385.29	344.74
385.67	348.58
386.049	357.39
386.429	344.06
386.809	362.14
387.189	357.62
387.568	332.08
387.948	342.7
388.328	339.99
388.707	346.09
389.087	369.59
389.466	355.81
389.846	366.88
390.225	366.88
390.605	364.4
390.984	351.29
391.363	350.16
391.743	361.69
392.122	385.64
392.501	366.88
392.881	379.31
393.26	360.1
393.639	379.76
394.018	363.95
394.397	372.53
394.776	391.52
395.155	375.47
395.534	382.93
395.913	395.13
396.292	391.74
396.671	401.23
397.05	375.92
397.429	387.45
397.808	382.7
398.186	377.28
398.565	421.12
398.944	398.97
399.323	382.93
399.701	396.26
400.08	394.9
400.458	412.53
400.837	400.33
401.215	409.82
401.594	398.29
401.972	386.54
402.351	391.29
402.729	406.43
403.107	388.13
403.486	405.53
403.864	394.9
404.242	399.88
404.62	427.45
404.999	429.93
405.377	424.96
405.755	418.63
406.133	427.45
406.511	426.09
406.889	437.62
407.267	435.13
407.645	428.12
408.023	426.09
408.401	408.92
408.779	441.68
409.156	445.98
409.534	460.89
409.912	454.34
410.29	464.73
410.667	474.45
411.045	478.07
411.422	446.2
411.8	456.15
412.178	444.85
412.555	469.48
412.933	475.58
413.31	451.63
413.687	482.36
414.065	473.32
414.442	473.77
414.819	478.29
415.197	470.84
415.574	485.3
415.951	496.37
416.328	476.48
416.705	495.69
417.082	508.8
417.46	502.02
417.837	506.54
418.214	514.22
418.591	526.65
418.967	510.16
419.344	490.04
419.721	516.94
420.098	496.37
420.475	506.77
420.852	504.96
421.228	519.2
421.605	545.41
421.982	527.56
422.358	537.73
422.735	568.46
423.111	565.75
423.488	553.77
423.864	550.16
424.241	533.66
424.617	547.44
424.994	544.51
425.37	556.48
425.746	557.39
426.123	548.57
426.499	569.36
426.875	536.14
427.251	570.27
427.627	594.9
428.003	578.18
428.379	604.39
428.756	584.28
429.132	591.74
429.507	596.71
429.883	611.17
430.259	614.11
430.635	613.2
431.011	632.64
431.387	625.63
431.763	626.54
432.138	631.06
432.514	644.39
432.89	670.15
433.265	653.2
433.641	651.4
434.016	671.51
434.392	686.87
434.767	697.5
435.143	684.16
435.518	661.56
435.894	691.62
436.269	689.59
436.644	696.14
437.02	681.68
437.395	703.6
437.77	735.69
438.145	707.44
438.52	726.42
438.895	744.05
439.271	735.46
439.646	749.02
440.021	747.21
440.395	752.64
440.77	748.57
441.145	756.25
441.52	747.89
441.895	740.43
442.27	772.3
442.645	768.91
443.019	793.09
443.394	778.17
443.769	788.11
444.143	802.58
444.518	815.23
444.892	800.09
445.267	794.89
445.641	830.15
446.016	805.97
446.39	821.56
446.764	817.72
447.139	814.55
447.513	830.6
447.887	844.16
448.262	815.23
448.636	853.65
449.01	855.91
449.384	872.63
449.758	861.11
450.132	868.56
450.506	880.54
450.88	872.41
451.254	866.53
451.628	871.73
452.002	879.19
452.376	876.25
452.75	894.33
453.123	916.25
453.497	915.57
453.871	906.98
454.244	949.47
454.618	924.61
454.992	974.1
455.365	958.05
455.739	982.46
456.112	975.91
456.486	998.96
456.859	1000.09
457.232	984.27
457.606	1001.89
457.979	1030.14
458.352	1018.17
458.725	1022.46
459.099	1047.54
459.472	1083.93
459.845	1078.95
460.218	1069.24
460.591	1092.06
460.964	1130.7
461.337	1108.56
461.71	1112.17
462.083	1161.89
462.456	1158.5
462.829	1197.6
463.201	1170.7
463.574	1175.9
463.947	1188.56
464.32	1199.4
464.692	1235.33
465.065	1216.58
465.438	1252.96
465.81	1268.33
466.183	1298.61
466.555	1301.55
466.928	1304.49
467.3	1304.03
467.672	1328.44
468.045	1324.6
468.417	1361.21
468.789	1399.17
469.161	1376.35
469.534	1414.54
469.906	1455.89
470.278	1468.32
470.65	1433.75
471.022	1524.82
471.394	1503.8
471.766	1537.7
472.138	1562.78
472.51	1587.87
472.882	1602.33
473.253	1629.22
473.625	1670.13
473.997	1678.49
474.369	1686.85
474.74	1710.8
475.112	1771.59
475.484	1795.55
475.855	1811.59
476.227	1808.88
476.598	1881.19
476.97	1897.92
477.341	1947.18
477.713	1990.34
478.084	2001.87
478.455	2071.02
478.827	2066.95
479.198	2131.13
479.569	2136.1
479.94	2187.85
480.311	2249.77
480.682	2299.49
481.053	2354.63
481.424	2378.58
481.795	2383.55
482.166	2491.35
482.537	2476.43
482.908	2542.19
483.279	2588.29
483.65	2673.04
484.021	2711.68
484.391	2737.22
484.762	2777.89
485.133	2831.9
485.503	2901.05
485.874	2926.14
486.244	2977.44
486.615	3055.17
486.985	3063.08
487.356	3133.36
487.726	3198
488.097	3269.63
488.467	3265.56
488.837	3353.25
489.207	3428.05
489.578	3467.37
489.948	3556.4
490.318	3541.26
490.688	3611.77
491.058	3662.62
491.428	3736.06
491.798	3742.16
492.168	3879.56
492.538	3897.86
492.908	3911.65
493.278	4003.85
493.648	4006.34
494.017	4083.85
494.387	4180.57
494.757	4162.49
495.126	4240.23
495.496	4261.92
495.866	4308.47
496.235	4308.47
496.605	4400.9
496.974	4491.75
497.344	4492.2
497.713	4518.41
498.082	4571.29
498.452	4583.04
498.821	4672.98
499.19	4694
499.559	4741.01
499.928	4778.29
500.298	4783.04
500.667	4842.7
501.036	4863.04
501.405	4887.44
501.774	4948.01
502.143	4962.02
502.512	4981.45
502.88	5044.5
503.249	5028.46
503.618	5084.05
503.987	5131.5
504.356	5127.89
504.724	5152.52
505.093	5169.24
505.462	5245.62
505.83	5270.71
506.199	5284.27
506.567	5365.17
506.936	5412.17
507.304	5421.44
507.672	5450.82
508.041	5432.96
508.409	5505.73
508.777	5519.74
509.145	5519.97
509.514	5559.97
509.882	5616.46
510.25	5649.46
510.618	5687.87
510.986	5691.26
511.354	5727.19
511.722	5786.4
512.09	5759.51
512.458	5837.02
512.826	5849.9
513.193	5871.15
513.561	5925.83
513.929	5970.58
514.297	6030.24
514.664	6020.75
515.032	6019.62
515.4	6041.54
515.767	6072.72
516.135	6106.39
516.502	6103.91
516.869	6220.06
517.237	6214.19
517.604	6194.53
517.972	6254.19
518.339	6280.17
518.706	6270
519.073	6297.35
519.44	6328.31
519.808	6389.32
520.175	6366.27
520.542	6474.75
520.909	6484.46
521.276	6469.32
521.643	6524.69
522.009	6567.85
522.376	6577.79
522.743	6626.61
523.11	6673.38
523.477	6722.87
523.843	6721.07
524.21	6798.35
524.577	6820.05
524.943	6846.71
525.31	6898.46
525.676	6949.53
526.043	6927.39
526.409	7004.9
526.776	7049.19
527.142	7059.36
527.508	7068.4
527.874	7187.49
528.241	7197.66
528.607	7256.65
528.973	7286.25
529.339	7300.94
529.705	7327.38
530.071	7432.23
530.437	7539.12
530.803	7523.53
531.169	7569.18
531.535	7456.41
531.901	7590.65
532.267	7555.17
532.632	7601.5
532.998	7681.94
533.364	7721.04
533.73	7744.99
534.095	7792.45
534.461	7826.8
534.826	7824.09
535.192	7850.08
535.557	7927.14
535.923	7928.72
536.288	7954.93
536.653	8045.55
537.019	7995.83
537.384	8023.86
537.749	8072.67
538.114	8110.86
538.479	8177.3
538.845	8156.96
539.21	8208.94
539.575	8256.39
539.94	8284.19
540.305	8348.14
540.67	8325.09
541.034	8382.04
541.399	8392.43
541.764	8431.53
542.129	8407.58
542.494	8486.9
542.858	8552.88
543.223	8588.36
543.587	8610.28
543.952	8621.81
544.316	8646.89
544.681	8623.84
545.045	8707.68
545.41	8729.37
545.774	8845.76
546.138	8827.45
546.503	8782.25
546.867	8844.63
547.231	8931.18
547.595	8904.06
547.959	9010.5
548.324	8949.26
548.688	8977.73
549.052	9076.48
549.416	9053.21
549.779	9034.9
550.143	9169.59
550.507	9188.8
550.871	9256.82
551.235	9242.58
551.599	9284.61
551.962	9402.35
552.326	9359.41
552.689	9364.16
553.053	9393.99
553.417	9424.95
553.78	9548.56
554.143	9433.31
554.507	9500.65
554.87	9575.91
555.234	9657.71
555.597	9589.01
555.96	9656.13
556.323	9629.46
556.686	9665.62
557.05	9721.67
557.413	9717.15
557.776	9784.71
558.139	9815.22
558.502	9922.34
558.865	9871.27
559.228	9954.65
559.59	9974.77
559.953	9981.09
560.316	10119.62
560.679	10096.8
561.041	10099.73
561.404	10128.43
561.767	10253.63
562.129	10236.45
562.492	10276.45
562.854	10331.14
563.217	10296.79
563.579	10380.41
563.941	10435.09
564.304	10509.22
564.666	10521.87
565.028	10449.33
565.39	10529.78
565.753	10628.08
566.115	10656.78
566.477	10691.58
566.839	10640.74
567.201	10724.35
567.563	10714.18
567.925	10831.69
568.287	10877.79
568.648	10875.08
569.01	10961.63
569.372	10991.01
569.734	11049.09
570.095	11145.13
570.457	11201.63
570.819	11080.95
571.18	11172.7
571.542	11292.25
571.903	11237.11
572.265	11375.41
572.626	11460.38
572.987	11464.67
573.349	11529.75
573.71	11527.27
574.071	11600.49
574.432	11675.96
574.794	11845.45
575.155	11861.5
575.516	11825.11
575.877	11925.68
576.238	11995.28
576.599	12099
576.96	12101.04
577.32	12218.1
577.681	12358.43
578.042	12493.57
578.403	12453.8
578.763	12631.65
579.124	12756.16
579.485	12782.6
579.845	12910.51
580.206	13029.37
580.566	13197.73
580.927	13331.29
581.287	13423.49
581.648	13501
582.008	13770.15
582.368	13833.87
582.728	14017.15
583.089	14188.67
583.449	14270.7
583.809	14491.03
584.169	14663
584.529	14794.98
584.889	15066.16
585.249	15219.83
585.609	15341.4
585.969	15591.57
586.329	15827.95
586.688	16086.47
587.048	16281.94
587.408	16393.35
587.768	16636.74
588.127	16999.44
588.487	17165.76
588.846	17464.29
589.206	17548.8
589.565	17989.92
589.925	18251.16
590.284	18453.19
590.643	18772.27
591.003	19099.95
591.362	19301.3
591.721	19555.31
592.08	19838.24
592.44	20213.14
592.799	20413.14
593.158	20799.79
593.517	20969.73
593.876	21278.65
594.235	21535.37
594.593	21813.78
594.952	22277.95
595.311	22365.85
595.67	22813.07
596.029	23195.89
596.387	23512.04
596.746	23734.4
597.104	23975.98
597.463	24213.71
597.822	24688.96
598.18	24875.17
598.538	25017.99
598.897	25517.86
599.255	25513.57
599.613	26170.27
599.972	26386.31
600.33	26655.23
600.688	26896.81
601.046	27254.54
601.404	27704.02
601.762	27811.59
602.12	28101.52
602.478	28518.23
602.836	28776.53
603.194	28769.53
603.552	29220.81
603.91	29311.21
604.268	29805.66
604.625	29964.07
604.983	30325.87
605.341	30474.34
605.698	30860.54
606.056	31089.01
606.413	31207.43
606.771	31609
607.128	31818.94
607.485	31996.11
607.843	32125.37
608.2	32586.6
608.557	32855.29
608.914	32889.87
609.272	33314.49
609.629	33436.3
609.986	33851.65
610.343	33879.9
610.7	34287.35
611.057	34441.92
611.414	34625.19
611.771	34804.85
612.127	35069.47
612.484	35187.44
612.841	35466.07
613.198	35478.95
613.554	35626.75
613.911	35953.07
614.267	36201.42
614.624	36248.43
614.98	36547.17
615.337	36834.62
615.693	36863.78
616.05	37176.08
616.406	37387.38
616.762	37283.65
617.118	37528.62
617.475	37702.62
617.831	37884.54
618.187	38068.94
618.543	38221.25
618.899	38516.84
619.255	38530.4
619.611	38455.37
619.967	38795.03
620.323	38896.04
620.678	38865.76
621.034	38931.29
621.39	39089.93
621.746	39028.24
622.101	39662.35
622.457	39407.89
622.812	39625.29
623.168	39818.5
623.523	39826.41
623.879	39981.43
624.234	39625.96
624.589	40158.83
624.945	40050.81
625.3	40353.4
625.655	40268.43
626.01	40404.93
626.365	40463.68
626.72	40389.33
627.075	40461.65
627.43	40516.79
627.785	40555.43
628.14	40812.37
628.495	40891.02
628.85	40810.34
629.205	40723.34
629.559	41101.86
629.914	40980.73
630.269	40927.85
630.623	41000.39
630.978	40980.73
631.332	41224.11
631.687	41290.1
632.041	41077.68
632.396	41209.42
632.75	41120.84
633.104	41261.4
633.459	41010.11
633.813	41203.1
634.167	41046.49
634.521	41189.09
634.875	41298.01
635.229	41102.31
635.583	41086.49
635.937	41168.07
636.291	41102.08
636.645	41293.72
636.999	41208.3
637.352	41297.56
637.706	41027.51
638.06	41294.85
638.413	41197.22
638.767	41153.16
639.121	41295.3
639.474	41006.27
639.828	41082.87
640.181	41189.09
640.534	41204
640.888	41056.21
641.241	40864.8
641.594	41011.24
641.947	41029.09
642.301	41060.5
642.654	41113.38
643.007	41026.83
643.36	41097.11
643.713	40959.04
644.066	41164.68
644.419	40944.12
644.771	40721.08
645.124	40441.99
645.477	40331.03
645.83	40073.64
646.182	39883.13
646.535	39948.67
646.888	39928.33
647.24	39771.27
647.593	40061.43
647.945	39888.56
648.298	39780.76
648.65	39763.36
649.002	39714.32
649.355	39792.06
649.707	39737.6
650.059	40041.77
650.411	40471.59
650.763	40500.97
651.115	40757.69
651.467	40751.13
651.819	40834.97
652.171	40545.04
652.523	40601.53
652.875	40590.46
653.227	40392.72
653.578	40760.62
653.93	40613.73
654.282	40441.31
654.633	40265.72
654.985	40381.88
655.337	40431.14
655.688	40426.39
656.039	40576
656.391	40365.61
656.742	40374.64
657.094	40430.91
657.445	40528.99
657.796	40305.49
658.147	40259.85
658.498	40249.68
658.849	40424.59
659.2	40324.02
659.551	40188.66
659.902	40452.38
660.253	40307.08
660.604	40378.49
660.955	40195.89
661.306	40474.75
661.656	40234.08
662.007	40350.24
662.358	40458.03
662.708	40284.03
663.059	40376
663.409	40079.96
663.76	40412.61
664.11	40426.85
664.461	40399.95
664.811	40404.7
665.161	40310.92
665.511	40263.24
665.862	40177.14
666.212	40265.04
666.562	40248.09
666.912	40246.06
667.262	40138.04
667.612	40183.46
667.962	40444.25
668.312	40214.87
668.662	40259.85
669.011	40186.85
669.361	40180.75
669.711	40093.97
670.06	40212.16
670.41	39933.53
670.76	39947.76
671.109	40229.56
671.459	40032.51
671.808	39967.88
672.157	39983.47
672.507	39748.67
672.856	39870.7
673.205	39925.84
673.554	39939.85
673.904	39968.33
674.253	40164.48
674.602	39916.35
674.951	39332.19
675.3	39249.48
675.649	39943.92
675.998	39730.37
676.346	39819.4
676.695	39877.48
677.044	39700.31
677.393	39809.01
677.741	39804.49
678.09	39647.66
678.438	39573.76
678.787	39623.93
679.135	39615.12
679.484	39440.88
679.832	39666.41
680.181	39330.38
680.529	39472.75
680.877	39354.56
681.225	39311.4
681.573	39579.41
681.922	39321.79
682.27	39192.98
682.618	39096.94
682.966	39052.19
683.314	39117.05
683.661	39202.92
684.009	38872.09
684.357	38875.7
684.705	38763.39
685.053	38988.24
685.4	38821.24
685.748	38512.55
686.095	38544.18
686.443	38377.86
686.79	38311.2
687.138	38406.56
687.485	38480.23
687.832	38255.15
688.18	38286.56
688.527	38224.42
688.874	38188.26
689.221	38003.41
689.568	37823.3
689.915	37812.68
690.262	37824.2
690.609	37765
690.956	37670.31
691.303	37537.66
691.65	37443.2
691.997	37486.36
692.344	37153.49
692.69	37094.05
693.037	37183.77
693.383	36933.61
693.73	37066.26
694.077	36821.97
694.423	36875.53
694.769	36758.47
695.116	36701.97
695.462	36655.19
695.808	36452.04
696.155	36581.07
696.501	36318.93
696.847	36297.92
697.193	35993.74
697.539	36060.86
697.885	35791.26
698.231	35783.8
698.577	35933.41
698.923	35771.15
699.269	35573.19
699.614	35491.38
699.96	35373.87
700.306	35437.37
700.651	35235.34
700.997	35077.16
701.342	35117.83
701.688	35078.51
702.033	34863.38
702.379	34789.48
702.724	34814.56
703.069	34881.46
703.415	34546.78
703.76	34645.08
704.105	34502.93
704.45	34456.83
704.795	34241.02
705.14	34036.05
705.485	34122.38
705.83	33954.93
706.175	33985.43
706.52	33969.39
706.865	33793.35
707.209	33791.54
707.554	33659.57
707.899	33659.79
708.243	33545.9
708.588	33458.67
708.932	33309.75
709.277	33345
709.621	33295.28
709.966	33084.44
710.31	33040.37
710.654	32781.85
710.998	32926.93
711.342	32876.31
711.687	32871.57
712.031	32633.15
712.375	32454.17
712.719	32619.14
713.063	32601.52
713.407	32539.14
713.75	32426.61
714.094	32373.95
714.438	32274.52
714.782	32275.2
715.125	32132.15
715.469	32190.45
715.812	31994.3
716.156	31725.83
716.499	31893.06
716.843	31958.59
717.186	31700.52
717.53	31851.03
717.873	31764.02
718.216	31819.16
718.559	31608.32
718.902	31392.06
719.246	31608.32
719.589	31368.1
719.932	31280.42
720.275	31208.33
720.617	31212.63
720.96	31169.24
721.303	31209.01
721.646	31075.45
721.989	30949.81
722.331	31000.2
722.674	30894.44
723.016	30976.7
723.359	30874.33
723.701	30978.51
724.044	30672.53
724.386	30501.68
724.729	30712.3
725.071	30610.61
725.413	30570.16
725.755	30599.99
726.097	30564.51
726.439	30294.23
726.782	30390.73
727.124	30444.96
727.465	30286.55
727.807	30197.96
728.149	30239.54
728.491	30110.73
728.833	30242.93
729.175	30089.72
729.516	29988.03
729.858	29969.27
730.199	30049.04
730.541	29958.2
730.882	29885.88
731.224	29920.91
731.565	29785.32
731.906	29701.48
732.248	29750.52
732.589	29652.44
732.93	29602.05
733.271	29606.11
733.612	29602.72
733.953	29589.39
734.294	29442.28
734.635	29524.31
734.976	29491.99
735.317	29282.05
735.658	29353.92
735.999	29319.34
736.339	29271.21
736.68	29180.36
737.021	29144.21
737.361	29056.07
737.702	29146.69
738.042	29104.66
738.383	29050.2
738.723	28979.24
739.063	28869.41
739.404	28908.96
739.744	28983.98
740.084	28769.3
740.424	28819.47
740.764	28772.69
741.104	28842.07
741.444	28649.98
741.784	28631.22
742.124	28587.84
742.464	28539.48
742.804	28492.92
743.143	28522.07
743.483	28484.56
743.823	28325.02
744.162	28352.14
744.502	28274.17
744.841	28377.45
745.181	28409.31
745.52	28132.71
745.86	28288.86
746.199	28169.77
746.538	28258.35
746.877	28145.36
747.216	28165.7
747.556	28003.9
747.895	28069.66
748.234	28052.26
748.573	27959.38
748.911	27854.97
749.25	27926.84
749.589	27710.12
749.928	27882.32
750.267	27744.24
750.605	27771.59
750.944	27709.21
751.283	27479.16
751.621	27716.67
751.96	27414.99
752.298	27478.49
752.636	27662.21
752.975	27409.34
753.313	27343.35
753.651	27453.63
753.989	27311.71
754.327	27199.4
754.666	27056.8
755.004	27135.44
755.342	27143.35
755.679	27216.35
756.017	27028.1
756.355	27120.53
756.693	26957.14
757.031	26978.39
757.368	26838.73
757.706	26893.64
758.044	26683.03
758.381	26667.66
758.719	26615.01
759.056	26612.75
759.394	26503.6
759.731	26232.64
