Data from hue_340_FLMS001491_9.txt Node
Date: Mon Feb 06 15:42:13 GMT 2017
User: dcchb
Spectrometer: FLMS00149
Trigger mode: 0
Integration Time (sec): 2.000000E-2
Scans to average: 10
Electric dark correction enabled: true
Nonlinearity correction enabled: false
Boxcar width: 0
XAxis mode: Wavelengths
Number of Pixels in Spectrum: 2048
>>>>>Begin Spectral Data<<<<<
341.393	-13.83
341.776	-13.83
342.16	-13.83
342.543	-61.28
342.927	-37.1
343.31	-67.39
343.693	-92.47
344.077	-66.93
344.46	-73.94
344.843	-56.09
345.226	-47.72
345.61	-32.58
345.993	-9.99
346.376	-0.49
346.759	20.52
347.142	33.18
347.525	36.11
347.908	64.81
348.291	81.09
348.674	119.5
349.057	92.38
349.44	141.87
349.823	149.33
350.206	160.18
350.588	193.4
350.971	211.7
351.354	220.74
351.737	241.31
352.119	249.67
352.502	260.97
352.884	284.24
353.267	303.68
353.65	298.71
354.032	305.94
354.414	307.07
354.797	313.62
355.179	313.17
355.562	309.55
355.944	325.6
356.326	330.57
356.709	319.27
357.091	329.44
357.473	352.26
357.855	328.99
358.238	338.71
358.62	336.9
359.002	333.73
359.384	338.25
359.766	345.03
360.148	341.42
360.53	341.42
360.912	337.35
361.294	320.63
361.676	327.18
362.057	340.29
362.439	302.1
362.821	336.67
363.203	314.3
363.584	321.53
363.966	301.42
364.348	299.61
364.729	332.6
365.111	311.36
365.493	308.2
365.874	310.23
366.256	324.47
366.637	317.24
367.019	312.94
367.4	309.1
367.781	296.67
368.163	304.81
368.544	317.01
368.925	314.3
369.306	300.74
369.688	304.81
370.069	314.53
370.45	308.65
370.831	293.51
371.212	298.93
371.593	300.06
371.974	310.68
372.355	307.07
372.736	310.46
373.117	314.07
373.498	309.33
373.879	310.23
374.26	300.06
374.641	318.37
375.021	296.67
375.402	308.88
375.783	316.56
376.163	313.62
376.544	302.55
376.925	317.69
377.305	321.98
377.686	307.52
378.066	329.67
378.447	330.8
378.827	347.52
379.208	323.79
379.588	329.44
379.968	322.89
380.349	318.82
380.729	328.76
381.109	325.6
381.489	324.47
381.87	325.6
382.25	329.89
382.63	349.1
383.01	358.14
383.39	341.42
383.77	341.64
384.15	330.12
384.53	338.48
384.91	357.24
385.29	336.67
385.67	348.88
386.049	338.25
386.429	346.62
386.809	347.07
387.189	360.17
387.568	349.1
387.948	317.92
388.328	364.24
388.707	361.76
389.087	358.82
389.466	357.24
389.846	348.42
390.225	373.06
390.605	365.6
390.984	365.15
391.363	352.72
391.743	354.75
392.122	352.04
392.501	383
392.881	380.51
393.26	359.72
393.639	387.29
394.018	376.22
394.397	356.78
394.776	367.63
395.155	378.48
395.534	378.25
395.913	368.31
396.292	375.99
396.671	384.35
397.05	354.07
397.429	387.74
397.808	411.7
398.186	390.46
398.565	372.83
398.944	400.85
399.323	407.4
399.701	399.72
400.08	381.64
400.458	387.07
400.837	412.38
401.215	402.88
401.594	400.17
401.972	400.85
402.351	400.85
402.729	376.9
403.107	410.79
403.486	423.68
403.864	413.96
404.242	401.3
404.62	414.86
404.999	422.55
405.377	410.34
405.755	403.79
406.133	428.42
406.511	429.78
406.889	430.91
407.267	423.68
407.645	440.17
408.023	423
408.401	425.26
408.779	439.49
409.156	430.91
409.534	449.44
409.912	476.56
410.29	451.92
410.667	451.47
411.045	441.08
411.422	468.42
411.8	471.36
412.178	481.07
412.555	485.59
412.933	487.18
413.31	500.96
413.687	482.88
414.065	501.19
414.442	510.9
414.819	516.78
415.197	494.18
415.574	512.94
415.951	531.24
416.328	540.51
416.705	546.38
417.082	529.21
417.46	531.47
417.837	551.81
418.214	544.8
418.591	561.75
418.967	561.75
419.344	566.27
419.721	582.09
420.098	524.46
420.475	570.79
420.852	574.18
421.228	601.3
421.605	577.8
421.982	594.07
422.358	581.86
422.735	603.56
423.111	597.68
423.488	621.86
423.864	611.47
424.241	613.95
424.617	612.37
424.994	617.12
425.37	619.6
425.746	620.28
426.123	618.92
426.499	633.61
426.875	656.44
427.251	655.08
427.627	645.36
428.003	657.34
428.379	680.62
428.756	656.89
429.132	678.36
429.507	705.7
429.883	685.59
430.259	692.14
430.635	709.32
431.011	698.92
431.387	726.49
431.763	734.85
432.138	723.55
432.514	721.52
432.89	738.7
433.265	746.6
433.641	800.39
434.016	786.38
434.392	762.65
434.767	797.45
435.143	776.66
435.518	790.67
435.894	806.04
436.269	803.78
436.644	799.03
437.02	832.03
437.395	834.29
437.77	843.33
438.145	850.1
438.52	845.13
438.895	860.27
439.271	862.76
439.646	872.03
440.021	860.95
440.395	866.38
440.77	855.3
441.145	878.58
441.52	908.18
441.895	890.78
442.27	901.18
442.645	903.89
443.019	889.43
443.394	933.72
443.769	930.78
444.143	923.55
444.518	912.7
444.892	921.06
445.267	941.85
445.641	948.18
446.016	953.38
446.39	954.28
446.764	922.19
447.139	949.09
447.513	956.09
447.887	980.72
448.262	957.22
448.636	988.18
449.01	990.89
449.384	997.22
449.758	993.38
450.132	968.97
450.506	1027.95
450.88	1017.78
451.254	1002.64
451.628	1034.73
452.002	1008.74
452.376	1054.85
452.75	1043.09
453.123	1055.75
453.497	1061.17
453.871	1081.06
454.244	1076.09
454.618	1094.17
454.992	1099.59
455.365	1095.52
455.739	1091.23
456.112	1119.02
456.486	1102.53
456.859	1143.2
457.232	1151.11
457.606	1133.49
457.979	1147.05
458.352	1201.73
458.725	1160.83
459.099	1198.8
459.472	1201.73
459.845	1218.23
460.218	1222.75
460.591	1228.4
460.964	1226.14
461.337	1272.47
461.71	1244.44
462.083	1291.9
462.456	1291.45
462.829	1279.25
463.201	1324.89
463.574	1300.04
463.947	1316.08
464.32	1361.05
464.692	1358.57
465.065	1366.93
465.438	1394.95
465.81	1403.31
466.183	1393.82
466.555	1437.43
466.928	1442.18
467.3	1432.69
467.672	1450.99
468.045	1482.63
468.417	1505.23
468.789	1526.02
469.161	1520.82
469.534	1533.25
469.906	1596.75
470.278	1571.44
470.65	1582.06
471.022	1625
471.394	1621.38
471.766	1623.64
472.138	1662.74
472.51	1693.7
472.882	1694.38
473.253	1733.25
473.625	1751.1
473.997	1790.42
474.369	1781.15
474.74	1819.34
475.112	1819.8
475.484	1840.59
475.855	1912.45
476.227	1896.4
476.598	1952
476.97	1958.55
477.341	2003.52
477.713	2032.67
478.084	2048.27
478.455	2118.55
478.827	2134.82
479.198	2174.36
479.569	2158.54
479.94	2216.62
480.311	2227.24
480.682	2272.67
481.053	2313.57
481.424	2373.45
481.795	2374.36
482.166	2395.83
482.537	2458.42
482.908	2472.89
483.279	2512.66
483.65	2554.47
484.021	2573.68
484.391	2607.8
484.762	2667.91
485.133	2645.54
485.503	2678.98
485.874	2761.01
486.244	2734.8
486.615	2835.14
486.985	2863.84
487.356	2903.61
487.726	2918.3
488.097	2972.76
488.467	2979.54
488.837	3056.6
489.207	3074.23
489.578	3088.24
489.948	3163.04
490.318	3185.18
490.688	3194.68
491.058	3272.87
491.428	3311.06
491.798	3279.87
492.168	3386.31
492.538	3434.44
492.908	3445.52
493.278	3473.99
493.648	3481.9
494.017	3552.18
494.387	3498.17
494.757	3555.57
495.126	3610.26
495.496	3622.91
495.866	3646.64
496.235	3658.84
496.605	3690.93
496.974	3730.26
497.344	3776.58
497.713	3793.76
498.082	3805.51
498.452	3857.03
498.821	3864.26
499.19	3866.3
499.559	3877.82
499.928	3937.03
500.298	3923.24
500.667	3983.81
501.036	4000.76
501.405	3998.27
501.774	4006.41
502.143	4052.96
502.512	4069
502.88	4096.8
503.249	4107.42
503.618	4158.72
503.987	4098.38
504.356	4162.11
504.724	4174.76
505.093	4167.31
505.462	4226.29
505.83	4250.69
506.199	4249.79
506.567	4328.66
506.936	4281.65
507.304	4366.85
507.672	4343.12
508.041	4344.48
508.409	4355.32
508.777	4422.44
509.145	4428.09
509.514	4429.45
509.882	4485.94
510.25	4502.44
510.618	4538.6
510.986	4516.22
511.354	4572.94
511.722	4552.15
512.09	4616.79
512.458	4590.8
512.826	4603.68
513.193	4657.01
513.561	4666.73
513.929	4664.92
514.297	4731.58
514.664	4678.7
515.032	4735.2
515.4	4725.48
515.767	4774.3
516.135	4739.49
516.502	4743.34
516.869	4827.4
517.237	4829.89
517.604	4784.69
517.972	4865.82
518.339	4831.92
518.706	4842.77
519.073	4900.39
519.44	4904.46
519.808	4931.58
520.175	4912.82
520.542	5025.81
520.909	5055.87
521.276	5044.57
521.643	5043.21
522.009	5052.03
522.376	5066.72
522.743	5067.85
523.11	5117.56
523.477	5168.64
523.843	5210.67
524.21	5219.71
524.577	5259.03
524.943	5316.43
525.31	5259.71
525.676	5352.59
526.043	5356.43
526.409	5376.99
526.776	5434.84
527.142	5418.12
527.508	5493.6
527.874	5488.63
528.241	5490.43
528.607	5541.05
528.973	5587.38
529.339	5541.51
529.705	5586.25
530.071	5607.49
530.437	5675.51
530.803	5672.58
531.169	5727.04
531.535	5767.49
531.901	5750.54
532.267	5771.78
532.632	5774.04
532.998	5849.52
533.364	5908.05
533.73	5857.66
534.095	5929.75
534.461	5934.72
534.826	5968.39
535.192	5978.56
535.557	6030.31
535.923	6025.34
536.288	6047.03
536.653	6016.75
537.019	6054.04
537.384	6136.07
537.749	6172.68
538.114	6138.1
538.479	6209.06
538.845	6174.03
539.21	6238.44
539.575	6236.63
539.94	6243.41
540.305	6244.09
540.67	6270.08
541.034	6363.86
541.399	6327.47
541.764	6429.85
542.129	6427.81
542.494	6441.6
542.858	6419.45
543.223	6491.31
543.587	6552.1
543.952	6488.6
544.316	6582.84
544.681	6554.14
545.045	6656.05
545.41	6703.74
545.774	6644.53
546.138	6652.66
546.503	6752.77
546.867	6684.75
547.231	6777.41
547.595	6842.04
547.959	6860.34
548.324	6832.77
548.688	6898.08
549.052	6867.12
549.416	6926.78
549.779	6928.14
550.143	6939.89
550.507	7042.03
550.871	7016.04
551.235	6983.28
551.599	7042.03
551.962	7084.74
552.326	7069.6
552.689	7156.38
553.053	7167.23
553.417	7117.06
553.78	7259.2
554.143	7172.2
554.507	7165.87
554.87	7208.58
555.234	7331.52
555.597	7254
555.96	7236.83
556.323	7358.86
556.686	7313.44
557.05	7440.44
557.413	7451.74
557.776	7407.22
558.139	7483.83
558.502	7517.27
558.865	7474.11
559.228	7582.81
559.59	7614.9
559.953	7526.77
560.316	7647.44
560.679	7632.98
561.041	7733.09
561.404	7693.09
561.767	7769.24
562.129	7723.37
562.492	7782.58
562.854	7868.45
563.217	7823.93
563.579	7861.67
563.941	7864.16
564.304	7939.18
564.666	7979.86
565.028	7963.59
565.39	8007.88
565.753	8011.5
566.115	7997.26
566.477	8140.08
566.839	8083.59
567.201	8183.02
567.563	8133.3
567.925	8223.92
568.287	8179.86
568.648	8187.09
569.01	8243.36
569.372	8337.14
569.734	8252.4
570.095	8382.56
570.457	8409
570.819	8467.98
571.18	8458.94
571.542	8554.99
571.903	8527.64
572.265	8602.9
572.626	8667.3
572.987	8772.38
573.349	8749.33
573.71	8745.72
574.071	8842.21
574.432	8867.52
574.794	8981.42
575.155	9113.62
575.516	9031.81
575.877	9064.13
576.238	9161.98
576.599	9227.96
576.96	9335.08
577.32	9346.83
577.681	9482.65
578.042	9536.2
578.403	9563.32
578.763	9673.15
579.124	9778.91
579.485	9874.27
579.845	9997.21
580.206	10069.3
580.566	10193.59
580.927	10271.33
581.287	10402.62
581.648	10529.85
582.008	10697.53
582.368	10829.5
582.728	10962.38
583.089	11107.01
583.449	11246.67
583.809	11416.38
584.169	11551.07
584.529	11684.4
584.889	11933.66
585.249	12130.03
585.609	12206.19
585.969	12500.65
586.329	12679.17
586.688	12927.08
587.048	13113.06
587.408	13273.05
587.768	13541.97
588.127	13734.29
588.487	13890.67
588.846	14375.62
589.206	14413.14
589.565	14656.07
589.925	15047.02
590.284	15157.98
590.643	15439.33
591.003	15835.25
591.362	16043.15
591.721	16361.11
592.08	16550.93
592.44	16919.74
592.799	17152.05
593.158	17551.36
593.517	17624.35
593.876	18066.83
594.235	18238.35
594.593	18605.34
594.952	18870.2
595.311	19068.16
595.67	19477.41
596.029	19898.19
596.387	20109.71
596.746	20507.44
597.104	20567.33
597.463	20836.47
597.822	21313.75
598.18	21501.99
598.538	21788.99
598.897	22252.71
599.255	22286.83
599.613	22842.29
599.972	23077.32
600.33	23377.42
600.688	23502.39
601.046	23913
601.404	24227.8
601.762	24535.13
602.12	24781.45
602.478	25033.42
602.836	25371.04
603.194	25549.34
603.552	25756.12
603.91	26011.03
604.268	26251.92
604.625	26460.05
604.983	26780.72
605.341	26958.12
605.698	27267.72
606.056	27684.43
606.413	27810.75
606.771	28119.9
607.128	28448.48
607.485	28396.5
607.843	28730.95
608.2	29116.25
608.557	29265.18
608.914	29543.36
609.272	29794.43
609.629	29973.63
609.986	30317.35
610.343	30424.92
610.7	30786.04
611.057	30848.19
611.414	31124.79
611.771	31355.74
612.127	31588.73
612.484	31705.79
612.841	32020.13
613.198	32091.77
613.554	32367.24
613.911	32568.59
614.267	32701.47
614.624	32894.91
614.98	33145.3
615.337	33272.53
615.693	33444.73
616.05	33427.33
616.406	33785.96
616.762	33834.55
617.118	33911.38
617.475	34107.08
617.831	34292.39
618.187	34467.53
618.543	34529.22
618.899	34786.84
619.255	34943.67
619.611	34999.72
619.967	35102.31
620.323	35411.46
620.678	35310.44
621.034	35427.95
621.39	35561.96
621.746	35642.86
622.101	36041.72
622.457	35807.83
622.812	36196.29
623.168	36147.71
623.523	36252.56
623.879	36428.6
624.234	36274.03
624.589	36620.46
624.945	36722.38
625.3	36759.67
625.655	36932.09
626.01	36916.05
626.365	36971.87
626.72	37003.05
627.075	37000.11
627.43	37077.63
627.785	37045.99
628.14	37145.42
628.495	37205.76
628.85	37382.93
629.205	37266.1
629.559	37712.41
629.914	37444.17
630.269	37403.95
630.623	37516.71
630.978	37353.1
631.332	37785.4
631.687	37771.39
632.041	37579.08
632.396	37755.58
632.75	37635.35
633.104	37688.91
633.459	37636.93
633.813	37625.18
634.167	37697.05
634.521	37582.02
634.875	37738.4
635.229	37755.58
635.583	37511.97
635.937	37737.72
636.291	37739.08
636.645	37813.65
636.999	37630.38
637.352	37752.41
637.706	37575.01
638.06	37650.27
638.413	37607.33
638.767	37518.52
639.121	37736.14
639.474	37490.5
639.828	37605.52
640.181	37779.98
640.534	37800.77
640.888	37623.6
641.241	37509.48
641.594	37605.75
641.947	37631.28
642.301	37649.59
642.654	37581.34
643.007	37716.03
643.36	37563.94
643.713	37605.3
644.066	37681.23
644.419	37443.04
644.771	37248.24
645.124	36926.44
645.477	36962.83
645.83	36566
646.182	36672.67
646.535	36403.75
646.888	36556.06
647.24	36327.14
647.593	36531.43
647.945	36558.77
648.298	36368.72
648.65	36361.71
649.002	36096.64
649.355	36310.87
649.707	36336.86
650.059	36497.3
650.411	36908.14
650.763	36907.01
651.115	37350.84
651.467	37255.25
651.819	37158.98
652.171	37135.7
652.523	37319.88
652.875	37096.16
653.227	37078.3
653.578	37230.62
653.93	37174.12
654.282	37087.12
654.633	36923.05
654.985	36922.38
655.337	36968.48
655.688	36945.65
656.039	37183.39
656.391	36724.42
656.742	36918.76
657.094	36923.05
657.445	36980
657.796	36935.48
658.147	36958.53
658.498	36842.83
658.849	36894.81
659.2	36763.96
659.551	36815.26
659.902	36868.37
660.253	36747.69
660.604	36823.17
660.955	36746.34
661.306	36820.23
661.656	36883.06
662.007	36748.37
662.358	36741.59
662.708	36787.01
663.059	36709.05
663.409	36558.77
663.76	36728.48
664.11	36689.39
664.461	36749.27
664.811	36848.93
665.161	36675.6
665.511	36773
665.862	36730.74
666.212	36821.14
666.562	36759.9
666.912	36674.7
667.262	36646
667.612	36598.32
667.962	36619.79
668.312	36628.15
668.662	36860.23
669.011	36585.21
669.361	36434.71
669.711	36644.87
670.06	36640.12
670.41	36408.49
670.76	36536.62
671.109	36645.77
671.459	36487.13
671.808	36445.1
672.157	36591.09
672.507	36425.67
672.856	36409.85
673.205	36451.88
673.554	36609.62
673.904	36542.95
674.253	36563.74
674.602	36361.71
674.951	35904.1
675.3	35810.09
675.649	36367.36
675.998	36267.93
676.346	36368.27
676.695	36439.23
677.044	36218.89
677.393	36243.98
677.741	36271.55
678.09	36187.25
678.438	36044.66
678.787	36126.01
679.135	36179.57
679.484	36118.33
679.832	36009.63
680.181	35939.58
680.529	35973.48
680.877	35864.55
681.225	35930.09
681.573	36130.53
681.922	35823.65
682.27	35691.67
682.618	35707.95
682.966	35470.21
683.314	35657.78
683.661	35520.61
684.009	35373.72
684.357	35244
684.705	35421.85
685.053	35296.88
685.4	35354.73
685.748	35088.07
686.095	35162.2
686.443	34994.97
686.79	35088.07
687.138	34978.25
687.485	34948.64
687.832	34895.99
688.18	34968.98
688.527	34756.33
688.874	34759.04
689.221	34647.63
689.568	34539.61
689.915	34379.62
690.262	34500.52
690.609	34338.26
690.956	34213.52
691.303	34099.85
691.65	34107.54
691.997	34148.66
692.344	33881.55
692.69	33988.89
693.037	33854.21
693.383	33589.58
693.73	33640.43
694.077	33533.77
694.423	33553.65
694.769	33535.12
695.116	33402.02
695.462	33401.79
695.808	33214.9
696.155	33355.92
696.501	33031.63
696.847	33030.28
697.193	32815.37
697.539	32903.05
697.885	32670.74
698.231	32562.27
698.577	32635.48
698.923	32562.72
699.269	32370.18
699.614	32315.94
699.96	32220.81
700.306	32216.06
700.651	32047.93
700.997	31913.92
701.342	31998.44
701.688	31893.58
702.033	31807.93
702.379	31648.17
702.724	31596.41
703.069	31726.81
703.415	31374.95
703.76	31295.63
704.105	31368.4
704.45	31235.29
704.795	31037.56
705.14	31038.69
705.485	31064
705.83	30828.3
706.175	30977
706.52	30773.61
706.865	30707.62
707.209	30709.88
707.554	30489.1
707.899	30592.37
708.243	30389.44
708.588	30410.23
708.932	30289.33
709.277	30241.42
709.621	30163.68
709.966	29956.01
710.31	30145.15
710.654	29886.63
710.998	29956.23
711.342	30017.25
711.687	29755.79
712.031	29743.13
712.375	29678.95
712.719	29640.76
713.063	29579.07
713.407	29668.56
713.75	29558.5
714.094	29520.09
714.438	29405.06
714.782	29390.6
715.125	29252.07
715.469	29269.92
715.812	29100.89
716.156	29083.03
716.499	29031.96
716.843	28918.07
717.186	28848.92
717.53	28928.46
717.873	28917.84
718.216	28937.28
718.559	28747.22
718.902	28587.45
719.246	28630.62
719.589	28565.53
719.932	28468.36
720.275	28335.03
720.617	28439.66
720.96	28354.69
721.303	28392.66
721.646	28210.29
721.989	28177.97
722.331	28198.09
722.674	28164.87
723.016	28152.21
723.359	28038.77
723.701	28039.67
724.044	27981.14
724.386	27796.74
724.729	27878.77
725.071	27801.03
725.413	27813.92
725.755	27698.66
726.097	27635.62
726.439	27546.58
726.782	27511.1
727.124	27636.07
727.465	27432.46
727.807	27559.23
728.149	27413.47
728.491	27485.79
728.833	27474.49
729.175	27282.4
729.516	27246.02
729.858	27166.25
730.199	27260.26
730.541	27141.62
730.882	27173.03
731.224	27247.83
731.565	27036.08
731.906	26978.23
732.248	26963.09
732.589	26867.95
732.93	26793.15
733.271	26861.17
733.612	26892.58
733.953	26750.89
734.294	26763.32
734.635	26536.89
734.976	26819.59
735.317	26382.99
735.658	26545.25
735.999	26479.94
736.339	26362.65
736.68	26548.19
737.021	26422.77
737.361	26406.72
737.702	26460.96
738.042	26310.9
738.383	26241.3
738.723	26382.54
739.063	26178.7
739.404	26260.74
739.744	26229.1
740.084	26053.74
740.424	26099.16
740.764	26095.99
741.104	26217.12
741.444	25867.75
741.784	25794.99
742.124	25922.21
742.464	25801.99
742.804	25916.11
743.143	25636.35
743.483	25773.74
743.823	25569.68
744.162	25651.71
744.502	25528.78
744.841	25432.06
745.181	25585.5
745.52	25485.39
745.86	25417.37
746.199	25418.95
746.538	25383.25
746.877	25407.88
747.216	25423.92
747.556	25254.89
747.895	25350.7
748.234	25302.34
748.573	25194.78
748.911	25208.56
749.25	25179.18
749.589	24993.65
749.928	25061.9
750.267	25025.51
750.605	24769.02
750.944	24973.31
751.283	24764.5
751.621	24731.28
751.96	24676.14
752.298	24679.53
752.636	24748.23
752.975	24652.64
753.313	24594.11
753.651	24587.33
753.989	24503.95
754.327	24446.55
754.666	24265.76
755.004	24391.41
755.342	24249.26
755.679	24208.36
756.017	24209.26
756.355	24292.2
756.693	24141.7
757.031	24149.15
757.368	23937.86
757.706	24006.33
758.044	23851.31
758.381	23868.48
758.719	23753.46
759.056	23753.46
759.394	23682.5
759.731	23538.1
760.068	23524.76
760.405	23455.84
760.743	23391.66
