Data from hue_80_FLMS001491_64.txt Node
Date: Mon Feb 06 15:23:23 GMT 2017
User: dcchb
Spectrometer: FLMS00149
Trigger mode: 0
Integration Time (sec): 2.000000E-2
Scans to average: 10
Electric dark correction enabled: true
Nonlinearity correction enabled: false
Boxcar width: 0
XAxis mode: Wavelengths
Number of Pixels in Spectrum: 2048
>>>>>Begin Spectral Data<<<<<
341.393	-15.59
341.776	-15.59
342.16	-15.59
342.543	-44.29
342.927	-28.25
343.31	-56.27
343.693	-59.89
344.077	-73.22
344.46	-56.95
344.843	-69.83
345.226	-39.1
345.61	-29.83
345.993	-30.73
346.376	-27.8
346.759	-6.78
347.142	19.89
347.525	52.2
347.908	82.71
348.291	70.73
348.674	114.57
349.057	110.28
349.44	138.3
349.823	137.4
350.206	146.21
350.588	205.42
350.971	203.38
351.354	221.69
351.737	218.98
352.119	249.48
352.502	272.08
352.884	269.37
353.267	311.63
353.65	303.27
354.032	308.47
354.414	296.94
354.797	312.53
355.179	309.37
355.562	309.82
355.944	332.87
356.326	318.86
356.709	326.77
357.091	336.49
357.473	355.92
357.855	343.95
358.238	361.57
358.62	354.79
359.002	347.56
359.384	350.5
359.766	331.52
360.148	338.3
360.53	336.04
360.912	334.45
361.294	319.09
361.676	334
362.057	338.3
362.439	332.65
362.821	333.1
363.203	326.32
363.584	338.75
363.966	325.42
364.348	328.8
364.729	310.73
365.111	308.69
365.493	316.15
365.874	331.52
366.256	312.08
366.637	326.77
367.019	316.38
367.4	329.26
367.781	311.4
368.163	310.5
368.544	304.62
368.925	317.51
369.306	315.47
369.688	306.88
370.069	301.01
370.45	318.18
370.831	319.77
371.212	317.96
371.593	295.13
371.974	303.72
372.355	294.91
372.736	319.09
373.117	312.99
373.498	338.75
373.879	322.03
374.26	316.6
374.641	299.2
375.021	301.01
375.402	306.43
375.783	312.53
376.163	323.38
376.544	323.83
376.925	336.26
377.305	305.53
377.686	339.65
378.066	331.06
378.447	343.95
378.827	320.22
379.208	337.62
379.588	325.87
379.968	342.36
380.349	340.78
380.729	326.09
381.109	349.14
381.489	350.27
381.87	329.71
382.25	331.29
382.63	326.55
383.01	328.13
383.39	331.74
383.77	342.59
384.15	352.99
384.53	336.26
384.91	335.81
385.29	355.7
385.67	359.31
386.049	345.08
386.429	368.8
386.809	343.72
387.189	374.45
387.568	357.96
387.948	345.53
388.328	357.73
388.707	342.36
389.087	332.65
389.466	335.58
389.846	358.18
390.225	372.65
390.605	367
390.984	352.99
391.363	363.83
391.743	358.18
392.122	389.14
392.501	371.74
392.881	373.1
393.26	364.06
393.639	362.25
394.018	361.8
394.397	368.8
394.776	362.25
395.155	380.1
395.534	384.4
395.913	366.32
396.292	382.14
396.671	394.34
397.05	375.58
397.429	379.2
397.808	366.32
398.186	358.18
398.565	391.4
398.944	390.95
399.323	382.81
399.701	390.05
400.08	387.33
400.458	392.08
400.837	398.18
401.215	397.96
401.594	367.45
401.972	388.46
402.351	379.88
402.729	423.94
403.107	393.89
403.486	413.55
403.864	414
404.242	422.81
404.62	414
404.999	371.74
405.377	411.29
405.755	429.82
406.133	380.33
406.511	423.49
406.889	402.93
407.267	409.93
407.645	443.38
408.023	438.63
408.401	442.7
408.779	418.52
409.156	414.23
409.534	413.55
409.912	438.41
410.29	442.47
410.667	451.29
411.045	430.05
411.422	446.77
411.8	437.05
412.178	444.06
412.555	454
412.933	463.49
413.31	457.84
413.687	446.54
414.065	463.94
414.442	451.74
414.819	455.81
415.197	463.72
415.574	471.85
415.951	467.11
416.328	450.38
416.705	466.43
417.082	490.61
417.46	474.79
417.837	492.64
418.214	502.36
418.591	491.74
418.967	507.11
419.344	492.64
419.721	523.38
420.098	511.62
420.475	506.88
420.852	513.66
421.228	512.98
421.605	502.13
421.982	498.97
422.358	528.12
422.735	506.2
423.111	516.6
423.488	539.19
423.864	552.75
424.241	543.49
424.617	526.54
424.994	552.08
425.37	521.79
425.746	542.13
426.123	541.68
426.499	547.56
426.875	537.84
427.251	560.21
427.627	575.35
428.003	571.06
428.379	575.13
428.756	567.22
429.132	586.2
429.507	580.1
429.883	567.22
430.259	604.73
430.635	607.44
431.011	605.86
431.387	617.16
431.763	623.26
432.138	624.39
432.514	595.24
432.89	641.11
433.265	624.62
433.641	629.36
434.016	628.68
434.392	659.64
434.767	633.43
435.143	646.76
435.518	665.52
435.894	671.62
436.269	683.82
436.644	664.16
437.02	653.32
437.395	672.07
437.77	690.38
438.145	684.95
438.52	686.76
438.895	698.29
439.271	702.35
439.646	702.81
440.021	715.69
440.395	727.89
440.77	688.8
441.145	743.94
441.52	743.48
441.895	729.02
442.27	741.68
442.645	735.35
443.019	731.05
443.394	732.86
443.769	731.05
444.143	756.14
444.518	764.05
444.892	764.05
445.267	772.41
445.641	769.92
446.016	770.83
446.39	773.54
446.764	764.27
447.139	784.16
447.513	802.69
447.887	801.33
448.262	820.32
448.636	823.03
449.01	782.13
449.384	802.69
449.758	840.66
450.132	851.73
450.506	836.81
450.88	844.05
451.254	860.99
451.628	840.66
452.002	856.47
452.376	864.16
452.75	889.24
453.123	855.8
453.497	899.19
453.871	937.15
454.244	907.77
454.618	885.85
454.992	931.05
455.365	936.02
455.739	931.05
456.112	972.4
456.486	937.6
456.859	934.89
457.232	979.86
457.606	936.7
457.979	1011.72
458.352	999.52
458.725	1008.79
459.099	1008.79
459.472	1031.39
459.845	1044.49
460.218	1059.41
460.591	1065.06
460.964	1058.96
461.337	1083.36
461.71	1120.42
462.083	1143.7
462.456	1121.55
462.829	1149.35
463.201	1177.37
463.574	1155.68
463.947	1144.15
464.32	1197.26
464.692	1229.35
465.065	1218.05
465.438	1224.83
465.81	1230.02
466.183	1262.57
466.555	1290.81
466.928	1321.1
467.3	1319.29
467.672	1339.63
468.045	1387.31
468.417	1362.45
468.789	1384.37
469.161	1388.21
469.534	1446.97
469.906	1444.03
470.278	1543.01
470.65	1558.83
471.022	1536.91
471.394	1595.89
471.766	1635.66
472.138	1639.28
472.51	1668.88
472.882	1695.55
473.253	1724.25
473.625	1760.18
473.997	1818.71
474.369	1851.25
474.74	1889.44
475.112	1935.77
475.484	1994.52
475.855	2034.52
476.227	2074.97
476.598	2119.72
476.97	2154.29
477.341	2243.33
477.713	2281.3
478.084	2328.75
478.455	2408.98
478.827	2429.31
479.198	2537.79
479.569	2577.33
479.94	2671.79
480.311	2761.06
480.682	2851.9
481.053	2923.31
481.424	3014.84
481.795	3064.55
482.166	3169.18
482.537	3250.76
482.908	3346.58
483.279	3451.89
483.65	3535.95
484.021	3636.29
484.391	3714.03
484.762	3809.84
485.133	3910.18
485.503	4020.69
485.874	4127.8
486.244	4230.62
486.615	4353.78
486.985	4502.48
487.356	4614.57
487.726	4681.91
488.097	4887.1
488.467	4981.79
488.837	5144.72
489.207	5216.13
489.578	5409.58
489.948	5472.4
490.318	5627.2
490.688	5731.15
491.058	5894.31
491.428	6035.55
491.798	6150.12
492.168	6395.99
492.538	6453.84
492.908	6598.47
493.278	6714.63
493.648	6864.9
494.017	7044.33
494.387	7190.55
494.757	7273.26
495.126	7465.34
495.496	7549.63
495.866	7691.78
496.235	7810.19
496.605	7971.77
496.974	8087.7
497.344	8204.3
497.713	8366.33
498.082	8445.65
498.452	8613.56
498.821	8670.51
499.19	8830.95
499.559	8916.38
499.928	9096.03
500.298	9200.44
500.667	9352.52
501.036	9395.69
501.405	9611.27
501.774	9711.38
502.143	9821.66
502.512	9928.55
502.88	10023.24
503.249	10157.02
503.618	10244.7
503.987	10329.45
504.356	10427.52
504.724	10550.46
505.093	10610.57
505.462	10667.06
505.83	10871.35
506.199	10969.43
506.567	11113.38
506.936	11138.01
507.304	11352.02
507.672	11315.18
508.041	11441.06
508.409	11519.7
508.777	11710.65
509.145	11819.58
509.514	11872
509.882	11933.92
510.25	11982.96
510.618	12089.4
510.986	12266.57
511.354	12277.87
511.722	12410.97
512.09	12553.79
512.458	12473.34
512.826	12690.74
513.193	12657.52
513.561	12732.09
513.929	12827.46
514.297	12985.2
514.664	13097.51
515.032	13161.46
515.4	13201.01
515.767	13325.3
516.135	13325.3
516.502	13288.92
516.869	13519.87
517.237	13578.85
517.604	13549.02
517.972	13657.72
518.339	13667.89
518.706	13731.84
519.073	13827.66
519.44	13944.04
519.808	14017.26
520.175	14038.5
520.542	14232.85
520.909	14348.78
521.276	14272.62
521.643	14367.08
522.009	14469.22
522.376	14386.74
522.743	14582.67
523.11	14654.76
523.477	14793.28
523.843	14824.69
524.21	14869.67
524.577	14945.6
524.943	15070.34
525.31	15095.87
525.676	15251.12
526.043	15327.73
526.409	15371.12
526.776	15552.59
527.142	15387.39
527.508	15498.58
527.874	15547.61
528.241	15576.99
528.607	15641.4
528.973	15677.78
529.339	15646.37
529.705	15790.55
530.071	15892.92
530.437	15842.75
530.803	16005.23
531.169	16011.33
531.535	15931.78
531.901	16042.52
532.267	16048.39
532.632	16096.98
532.998	16069.63
533.364	16204.77
533.73	16118.22
534.095	16212.46
534.461	16150.76
534.826	16260.59
535.192	16321.15
535.557	16391.21
535.923	16340.59
536.288	16381.94
536.653	16390.3
537.019	16221.72
537.384	16365.22
537.749	16355.95
538.114	16333.81
538.479	16409.51
538.845	16413.81
539.21	16350.53
539.575	16414.26
539.94	16445.67
540.305	16457.65
540.67	16403.18
541.034	16440.92
541.399	16382.62
541.764	16344.2
542.129	16381.72
542.494	16413.58
542.858	16411.09
543.223	16386.01
543.587	16444.99
543.952	16324.77
544.316	16387.37
544.681	16296.29
545.045	16388.95
545.41	16393.92
545.774	16364.09
546.138	16360.93
546.503	16303.53
546.867	16399.79
547.231	16403.41
547.595	16398.21
547.959	16430.75
548.324	16321.6
548.688	16401.38
549.052	16343.07
549.416	16416.52
549.779	16314.15
550.143	16375.84
550.507	16445.22
550.871	16396.18
551.235	16327.71
551.599	16407.25
551.962	16379.91
552.326	16415.61
552.689	16393.47
553.053	16318.89
553.417	16349.85
553.78	16438.66
554.143	16416.07
554.507	16412.9
554.87	16383.52
555.234	16581.48
555.597	16423.52
555.96	16400.92
556.323	16445.9
556.686	16376.29
557.05	16496.97
557.413	16473.47
557.776	16444.99
558.139	16520.7
558.502	16526.57
558.865	16507.14
559.228	16649.05
559.59	16679.11
559.953	16662.39
560.316	16699.67
560.679	16607.02
561.041	16804.3
561.404	16756.17
561.767	16856.73
562.129	16725.66
562.492	16923.85
562.854	16838.2
563.217	16873
563.579	16904.41
563.941	16888.14
564.304	17000
564.666	17025.54
565.028	17065.31
565.39	17007.24
565.753	17099.44
566.115	17068.03
566.477	17162.03
566.839	17184.63
567.201	17220.11
567.563	17180.57
567.925	17266.89
568.287	17349.37
568.648	17316.15
569.01	17422.14
569.372	17428.92
569.734	17369.94
570.095	17433.44
570.457	17472.76
570.819	17620.1
571.18	17483.61
571.542	17611.51
571.903	17615.81
572.265	17694.22
572.626	17687.9
572.987	17776.93
573.349	17724.96
573.71	17763.15
574.071	17743.49
574.432	17790.72
574.794	17860.77
575.155	17837.72
575.516	17790.49
575.877	17889.93
576.238	17875.91
576.599	17921.56
576.96	17873.88
577.32	17929.25
577.681	17925.63
578.042	17932.86
578.403	18023.25
578.763	18058.73
579.124	17892.18
579.485	18090.15
579.845	18058.73
580.206	18108.22
580.566	18076.59
580.927	17997.27
581.287	18015.12
581.648	18062.35
582.008	18170.14
582.368	18093.08
582.728	18157.49
583.089	18065.06
583.449	18051.05
583.809	18065.06
584.169	18092.63
584.529	17976.25
584.889	18131.95
585.249	17963.6
585.609	17919.3
585.969	18010.83
586.329	18021
586.688	18031.16
587.048	17980.32
587.408	17962.69
587.768	17965.4
588.127	18030.49
588.487	18049.02
588.846	18132.63
589.206	17900.32
589.565	17937.61
589.925	18046.98
590.284	17941.68
590.643	17999.07
591.003	18052.86
591.362	17971.28
591.721	17968.79
592.08	18030.03
592.44	17993.65
592.799	18016.48
593.158	17966.99
593.517	17903.03
593.876	18002.46
594.235	17917.95
594.593	17932.64
594.952	17968.79
595.311	17871.85
595.67	17960.21
596.029	18047.66
596.387	18023.71
596.746	17994.78
597.104	17850.6
597.463	17894.22
597.822	17952.97
598.18	17812.86
598.538	17956.36
598.897	17937.83
599.255	17777.61
599.613	17988.91
599.972	17931.73
600.33	17928.57
600.688	17909.13
601.046	17995.91
601.404	18018.51
601.762	17917.49
602.12	17962.01
602.478	17984.61
602.836	18006.31
603.194	17940.09
603.552	17955.91
603.91	17942.13
604.268	17952.3
604.625	17917.72
604.983	18039.98
605.341	17909.59
605.698	17984.61
606.056	18020.77
606.413	18079.07
606.771	18216.47
607.128	18113.2
607.485	17936.93
607.843	18063.25
608.2	18133.08
608.557	18133.31
608.914	18020.09
609.272	18150.71
609.629	18207.43
609.986	18298.05
610.343	18127.21
610.7	18203.36
611.057	18199.3
611.414	18259.41
611.771	18292.17
612.127	18252.85
612.484	18303.7
612.841	18414.43
613.198	18376.47
613.554	18373.98
613.911	18477.71
614.267	18420.98
614.624	18429.12
614.98	18417.59
615.337	18555.44
615.693	18525.84
616.05	18405.17
616.406	18650.36
616.762	18549.57
617.118	18472.96
617.475	18478.84
617.831	18514.09
618.187	18612.17
618.543	18499.17
618.899	18788.21
619.255	18680.19
619.611	18639.06
619.967	18663.01
620.323	18719.28
620.678	18676.57
621.034	18565.39
621.39	18744.82
621.746	18607.65
622.101	18819.39
622.457	18680.86
622.812	18653.29
623.168	18787.75
623.523	18796.57
623.879	18745.27
624.234	18701.2
624.589	18695.1
624.945	18821.43
625.3	18880.86
625.655	18766.06
626.01	18799.28
626.365	18836.79
626.72	18704.59
627.075	18702.79
627.43	18836.11
627.785	18685.38
628.14	18845.61
628.495	18726.97
628.85	18762.22
629.205	18694.65
629.559	18794.08
629.914	18693.07
630.269	18616.01
630.623	18717.02
630.978	18565.16
631.332	18662.33
631.687	18730.81
632.041	18602.45
632.396	18651.26
632.75	18564.48
633.104	18616.46
633.459	18553.86
633.813	18537.59
634.167	18471.83
634.521	18459.4
634.875	18431.15
635.229	18481.77
635.583	18390.48
635.937	18327.43
636.291	18347.54
636.645	18367.2
636.999	18336.02
637.352	18407.65
637.706	18260.08
638.06	18322
638.413	18440.19
638.767	18293.53
639.121	18277.94
639.474	18223.25
639.828	18277.94
640.181	18183.93
640.534	18257.83
640.888	18149.81
641.241	18134.21
641.594	18125.17
641.947	18156.58
642.301	18150.26
642.654	18182.12
643.007	18071.62
643.36	18100.32
643.713	18037.94
644.066	18106.87
644.419	18004.5
644.771	17960.43
645.124	17828.46
645.477	17763.37
645.83	17544.17
646.182	17482.25
646.535	17437.06
646.888	17446.32
647.24	17428.92
647.593	17571.52
647.945	17525.64
648.298	17417.85
648.65	17450.39
649.002	17330.84
649.355	17384.85
649.707	17419.43
650.059	17498.3
650.411	17730.83
650.763	17682.47
651.115	17905.52
651.467	17814.9
651.819	17783.71
652.171	17766.09
652.523	17715.69
652.875	17799.53
653.227	17726.09
653.578	17803.15
653.93	17786.42
654.282	17775.58
654.633	17764.05
654.985	17811.74
655.337	17777.61
655.688	17759.99
656.039	17870.26
656.391	17738.52
656.742	17672.98
657.094	17869.13
657.445	17837.72
657.796	17764.05
658.147	17756.82
658.498	17782.81
658.849	17849.25
659.2	17804.5
659.551	17824.84
659.902	17875.69
660.253	17767.22
660.604	17858.29
660.955	17766.76
661.306	17846.76
661.656	17743.49
662.007	17814.67
662.358	17835.46
662.708	17830.27
663.059	17827.78
663.409	17683.83
663.76	17845.86
664.11	17878.4
664.461	17877.04
664.811	17934.44
665.161	17893.77
665.511	17722.47
665.862	17851.73
666.212	17821.9
666.562	17847.67
666.912	17801.57
667.262	17802.24
667.612	17816.93
667.962	17792.53
668.312	17819.87
668.662	17889.47
669.011	17756.14
669.361	17816.71
669.711	17879.08
670.06	17790.04
670.41	17762.92
670.76	17737.61
671.109	17767.67
671.459	17720.66
671.808	17777.84
672.157	17840.43
672.507	17741.68
672.856	17753.43
673.205	17729.03
673.554	17772.41
673.904	17722.25
674.253	17839.3
674.602	17793.66
674.951	17531.29
675.3	17373.33
675.649	17666.2
675.998	17601.12
676.346	17715.69
676.695	17715.24
677.044	17494.46
677.393	17568.13
677.741	17582.59
678.09	17563.61
678.438	17512.08
678.787	17551.18
679.135	17571.06
679.484	17495.81
679.832	17488.58
680.181	17351.41
680.529	17383.72
680.877	17353.67
681.225	17295.59
681.573	17441.12
681.922	17230.06
682.27	17232.77
682.618	17206.33
682.966	17184.41
683.314	17162.26
683.661	17139.44
684.009	17058.53
684.357	16984.86
684.705	17015.37
685.053	16973.11
685.4	16982.15
685.748	16902.83
686.095	16942.15
686.443	16795.04
686.79	16818.09
687.138	16826.9
687.485	16885.88
687.832	16724.31
688.18	16722.5
688.527	16665.32
688.874	16600.24
689.221	16584.2
689.568	16423.07
689.915	16373.58
690.262	16398.21
690.609	16400.25
690.956	16314.37
691.303	16256.52
691.65	16225.11
691.997	16092.68
692.344	16064.21
692.69	16098.33
693.037	16077.09
693.383	16054.95
693.73	16012.69
694.077	15906.25
694.423	15865.35
694.769	15830.32
695.116	15680.72
695.462	15699.02
695.808	15692.47
696.155	15595.75
696.501	15581.96
696.847	15492.7
697.193	15436.66
697.539	15480.27
697.885	15364.57
698.231	15318.47
698.577	15274.4
698.923	15196.44
699.269	15237.57
699.614	15056.33
699.96	14986.27
700.306	15079.38
700.651	14920.74
700.997	14887.74
701.342	14839.38
701.688	14839.16
702.033	14730.46
702.379	14739.05
702.724	14652.04
703.069	14731.14
703.415	14537.7
703.76	14556.68
704.105	14509.67
704.45	14458.6
704.795	14289.57
705.14	14337.02
705.485	14352.62
705.83	14278.95
706.175	14330.92
706.52	14159.85
706.865	14171.15
707.209	14203.92
707.554	14083.92
707.899	14106.07
708.243	13913.08
708.588	14055.45
708.932	13903.59
709.277	13828.34
709.621	13898.17
709.966	13722.35
710.31	13766.64
710.654	13648.45
710.998	13689.58
711.342	13696.14
711.687	13644.61
712.031	13498.18
712.375	13466.99
712.719	13539.76
713.063	13489.81
713.407	13496.59
713.75	13419.76
714.094	13446.88
714.438	13352.42
714.782	13438.52
715.125	13329.59
715.469	13350.38
715.812	13265.19
716.156	13176.38
716.499	13267.67
716.843	13168.47
717.186	13073.33
717.53	13216.6
717.873	13142.71
718.216	13116.49
718.559	13048.24
718.902	13042.59
719.246	13070.84
719.589	12982.71
719.932	12991.07
720.275	12963.5
720.617	12854.8
720.96	12918.53
721.303	12926.21
721.646	12904.75
721.989	12853.22
722.331	12919.43
722.674	12875.14
723.016	12848.93
723.359	12750.85
723.701	12813.9
724.044	12699.1
724.386	12600.12
724.729	12735.26
725.071	12703.17
725.413	12701.36
725.755	12658.65
726.097	12654.58
726.439	12526.68
726.782	12544.98
727.124	12699.1
727.465	12582.49
727.807	12555.15
728.149	12615.94
728.491	12552.44
728.833	12627.46
729.175	12518.99
729.516	12543.85
729.858	12641.7
730.199	12523.06
730.541	12506.34
730.882	12516.96
731.224	12484.64
731.565	12495.94
731.906	12451.2
732.248	12518.77
732.589	12394.02
732.93	12463.18
733.271	12487.36
733.612	12441.25
733.953	12521.7
734.294	12497.75
734.635	12488.71
734.976	12587.24
735.317	12453.91
735.658	12464.08
735.999	12446.68
736.339	12464.53
736.68	12490.07
737.021	12436.06
737.361	12473.34
737.702	12509.28
738.042	12485.77
738.383	12411.65
738.723	12431.99
739.063	12509.28
739.404	12506.79
739.744	12528.03
740.084	12431.76
740.424	12475.6
740.764	12524.87
741.104	12553.79
741.444	12551.53
741.784	12567.13
742.124	12563.51
742.464	12624.98
742.804	12520.57
743.143	12553.79
743.483	12634.02
743.823	12561.48
744.162	12685.32
744.502	12632.89
744.841	12693
745.181	12688.93
745.52	12657.07
745.86	12782.49
746.199	12762.83
746.538	12713.11
746.877	12933.9
747.216	12899.1
747.556	12939.32
747.895	12945.87
748.234	12869.04
748.573	13059.77
748.911	13118.53
749.25	13199.2
749.589	13169.82
749.928	13254.34
750.267	13356.26
750.605	13356.03
750.944	13492.75
751.283	13481.23
751.621	13668.12
751.96	13598.29
752.298	13795.57
752.636	13861.56
752.975	13881.22
753.313	13877.38
753.651	14113.53
753.989	14222.68
754.327	14237.14
754.666	14306.97
755.004	14448.89
755.342	14499.51
755.679	14677.13
756.017	14743.12
756.355	14923.22
756.693	14912.6
