Data from hue_220_FLMS001491_00099.txt Node
Date: Tue Feb 07 16:40:12 GMT 2017
User: dcchb
Spectrometer: FLMS00149
Trigger mode: 0
Integration Time (sec): 2.000000E-2
Scans to average: 10
Electric dark correction enabled: true
Nonlinearity correction enabled: false
Boxcar width: 0
XAxis mode: Wavelengths
Number of Pixels in Spectrum: 2048
>>>>>Begin Spectral Data<<<<<
341.393	-4.8
341.776	-4.8
342.16	-4.8
342.543	-77.79
342.927	-68.3
343.31	-79.38
343.693	-64.46
344.077	-59.49
344.46	-53.39
344.843	-55.65
345.226	-38.47
345.61	-24.46
345.993	-16.1
346.376	-19.27
346.759	-4.58
347.142	8.76
347.525	50.34
347.908	60.96
348.291	88.08
348.674	106.38
349.057	100.73
349.44	123.33
349.823	126.95
350.206	157.91
350.588	197.68
350.971	197
351.354	211.01
351.737	233.38
352.119	253.04
352.502	264.34
352.884	245.36
353.267	285.59
353.65	297.34
354.032	305.25
354.414	295.08
354.797	300.05
355.179	307.51
355.562	323.32
355.944	307.96
356.326	320.16
356.709	301.86
357.091	330.56
357.473	326.49
357.855	318.35
358.238	345.7
358.62	327.62
359.002	349.31
359.384	328.75
359.766	336.66
360.148	330.56
360.53	337.34
360.912	339.14
361.294	333.95
361.676	335.53
362.057	309.77
362.439	325.81
362.821	323.78
363.203	320.16
363.584	311.57
363.966	318.13
364.348	303.66
364.729	318.81
365.111	305.47
365.493	312.48
365.874	321.52
366.256	291.91
366.637	309.54
367.019	307.73
367.4	308.64
367.781	315.42
368.163	309.77
368.544	294.63
368.925	311.12
369.306	310.9
369.688	304.12
370.069	315.64
370.45	291.69
370.831	297.56
371.212	326.94
371.593	298.01
371.974	308.64
372.355	305.92
372.736	302.31
373.117	302.08
373.498	312.03
373.879	307.28
374.26	320.61
374.641	299.37
375.021	305.92
375.402	318.13
375.783	302.53
376.163	287.62
376.544	324.91
376.925	318.35
377.305	323.55
377.686	314.51
378.066	321.97
378.447	328.75
378.827	316.77
379.208	319.48
379.588	339.14
379.968	322.42
380.349	337.56
380.729	339.37
381.109	315.42
381.489	327.17
381.87	337.56
382.25	316.09
382.63	340.5
383.01	334.17
383.39	359.93
383.77	332.59
384.15	337.34
384.53	334.85
384.91	332.36
385.29	331.01
385.67	321.29
386.049	353.15
386.429	354.96
386.809	343.44
387.189	333.27
387.568	336.21
387.948	351.35
388.328	357.45
388.707	347.28
389.087	350.67
389.466	341.18
389.846	354.51
390.225	340.5
390.605	367.39
390.984	363.32
391.363	366.94
391.743	359.48
392.122	361.06
392.501	384.34
392.881	366.49
393.26	365.13
393.639	381.18
394.018	364.45
394.397	364.91
394.776	384.79
395.155	378.01
395.534	372.14
395.913	391.8
396.292	393.61
396.671	388.63
397.05	389.54
397.429	376.43
397.808	392.48
398.186	390.67
398.565	399.93
398.944	408.75
399.323	387.73
399.701	390.44
400.08	399.48
400.458	406.03
400.837	413.04
401.215	400.38
401.594	394.28
401.972	383.44
402.351	388.18
402.729	416.2
403.107	396.54
403.486	411.91
403.864	408.29
404.242	446.03
404.62	429.31
404.999	442.42
405.377	451.23
405.755	448.97
406.133	446.49
406.511	450.55
406.889	458.46
407.267	455.3
407.645	480.38
408.023	464.79
408.401	467.73
408.779	490.33
409.156	472.93
409.534	494.17
409.912	504.56
410.29	511.57
410.667	506.82
411.045	520.61
411.422	527.61
411.8	543.66
412.178	507.05
412.555	547.27
412.933	532.36
413.31	563.54
413.687	561.74
414.065	575.75
414.442	566.03
414.819	568.52
415.197	601.74
415.574	636.31
415.951	626.14
416.328	625.69
416.705	620.04
417.082	635.63
417.46	646.48
417.837	649.87
418.214	671.11
418.591	655.29
418.967	669.98
419.344	677.89
419.721	680.6
420.098	701.39
420.475	713.82
420.852	719.92
421.228	731
421.605	752.69
421.982	744.56
422.358	746.36
422.735	787.72
423.111	789.75
423.488	813.48
423.864	805.8
424.241	818.91
424.617	806.48
424.994	843.09
425.37	853.03
425.746	879.24
426.123	881.05
426.499	901.61
426.875	905.68
427.251	919.69
427.627	931.22
428.003	951.56
428.379	953.59
428.756	963.99
429.132	980.48
429.507	985.68
429.883	1008.96
430.259	996.53
430.635	1028.39
431.011	1037.66
431.387	1066.81
431.763	1071.55
432.138	1074.49
432.514	1100.48
432.89	1123.53
433.265	1132.12
433.641	1152
434.016	1185.68
434.392	1192.91
434.767	1215.28
435.143	1222.51
435.518	1240.59
435.894	1235.62
436.269	1274.03
436.644	1290.98
437.02	1330.08
437.395	1323.98
437.77	1374.6
438.145	1393.81
438.52	1431.77
438.895	1416.86
439.271	1435.84
439.646	1449.4
440.021	1480.13
440.395	1504.08
440.77	1526.68
441.145	1540.02
441.52	1545.67
441.895	1566.23
442.27	1595.38
442.645	1576.4
443.019	1642.61
443.394	1615.72
443.769	1658.66
444.143	1643.97
444.518	1676.06
444.892	1680.8
445.267	1702.72
445.641	1738.65
446.016	1718.99
446.39	1705.44
446.764	1744.08
447.139	1794.7
447.513	1768.26
447.887	1801.25
448.262	1782.72
448.636	1819.78
449.01	1820.23
449.384	1851.65
449.758	1843.74
450.132	1891.42
450.506	1873.34
450.88	1908.37
451.254	1879.44
451.628	1914.24
452.002	1954.02
452.376	1965.77
452.75	1973.68
453.123	2005.09
453.497	2040.34
453.871	2013
454.244	2096.16
454.618	2092.32
454.992	2096.39
455.365	2128.7
455.739	2174.58
456.112	2173.9
456.486	2178.42
456.859	2221.13
457.232	2290.28
457.606	2236.27
457.979	2241.92
458.352	2332.99
458.725	2345.42
459.099	2375.25
459.472	2428.35
459.845	2411.63
460.218	2413.21
460.591	2439.88
460.964	2432.42
461.337	2515.36
461.71	2579.99
462.083	2582.7
462.456	2557.16
462.829	2597.62
463.201	2588.35
463.574	2629.7
463.947	2674
464.32	2722.58
464.692	2760.32
465.065	2727.78
465.438	2782.24
465.81	2835.35
466.183	2838.96
466.555	2926.42
466.928	2922.35
467.3	2938.4
467.672	2971.84
468.045	3011.39
468.417	3043.25
468.789	3085.96
469.161	3066.76
469.534	3149.92
469.906	3203.7
470.278	3230.59
470.65	3225.62
471.022	3282.34
471.394	3362.57
471.766	3386.07
472.138	3409.35
472.51	3436.92
472.882	3511.49
473.253	3553.52
473.625	3586.52
473.997	3707.19
474.369	3685.5
474.74	3699.96
475.112	3798.26
475.484	3784.48
475.855	3863.34
476.227	3916.9
476.598	4009.56
476.97	4009.78
477.341	4093.4
477.713	4090.91
478.084	4157.12
478.455	4252.49
478.827	4277.35
479.198	4368.87
479.569	4376.55
479.94	4460.17
480.311	4528.41
480.682	4622.65
481.053	4704
481.424	4719.14
481.795	4780.16
482.166	4848.4
482.537	4903.54
482.908	4951
483.279	5042.97
483.65	5099.7
484.021	5228.28
484.391	5207.49
484.762	5296.3
485.133	5303.53
485.503	5355.73
485.874	5435.51
486.244	5519.12
486.615	5581.04
486.985	5616.97
487.356	5683.86
487.726	5727.25
488.097	5806.34
488.467	5823.75
488.837	5966.34
489.207	6007.02
489.578	6089.95
489.948	6113.23
490.318	6203.17
490.688	6223.28
491.058	6278.87
491.428	6367.69
491.798	6417.63
492.168	6487
492.538	6576.27
492.908	6630.05
493.278	6643.84
493.648	6698.3
494.017	6765.19
494.387	6806.32
494.757	6844.51
495.126	6887.45
495.496	6873.89
495.866	6963.83
496.235	7017.84
496.605	7043.37
496.974	7031.85
497.344	7087.89
497.713	7144.84
498.082	7200.43
498.452	7239.3
498.821	7267.32
499.19	7229.58
499.559	7300.77
499.928	7329.24
500.298	7369.24
500.667	7460.54
501.036	7429.13
501.405	7518.16
501.774	7434.55
502.143	7463.93
502.512	7523.36
502.88	7596.58
503.249	7590.7
503.618	7575.79
503.987	7615.34
504.356	7613.75
504.724	7671.38
505.093	7644.04
505.462	7637.48
505.83	7722.68
506.199	7760.42
506.567	7837.25
506.936	7780.76
507.304	7870.47
507.672	7900.98
508.041	7897.81
508.409	7941.66
508.777	7996.57
509.145	8036.12
509.514	8047.64
509.882	8015.1
510.25	8029.79
510.618	8072.05
510.986	8049
511.354	8099.62
511.722	8121.09
512.09	8170.58
512.458	8102.56
512.826	8145.27
513.193	8172.84
513.561	8227.98
513.929	8196.34
514.297	8238.82
514.664	8276.11
515.032	8242.44
515.4	8271.82
515.767	8226.85
516.135	8271.59
516.502	8232.95
516.869	8347.75
517.237	8331.7
517.604	8272.72
517.972	8380.97
518.339	8352.94
518.706	8375.54
519.073	8347.97
519.44	8372.6
519.808	8423.68
520.175	8370.12
520.542	8408.31
520.909	8404.69
521.276	8372.83
521.643	8460.74
522.009	8489.44
522.376	8509.32
522.743	8503.22
523.11	8537.35
523.477	8569.44
523.843	8569.44
524.21	8613.05
524.577	8643.56
524.943	8600.85
525.31	8607.85
525.676	8660.73
526.043	8644.69
526.409	8658.47
526.776	8668.19
527.142	8679.72
527.508	8693.5
527.874	8753.16
528.241	8625.03
528.607	8712.71
528.973	8757.45
529.339	8654.41
529.705	8766.49
530.071	8714.29
530.437	8731.69
530.803	8739.83
531.169	8763.33
531.535	8630.9
531.901	8724.23
532.267	8729.21
532.632	8763.33
532.998	8681.75
533.364	8741.86
533.73	8671.13
534.095	8711.8
534.461	8639.04
534.826	8642.88
535.192	8689.43
535.557	8754.52
535.923	8669.32
536.288	8708.19
536.653	8657.34
537.019	8585.48
537.384	8647.17
537.749	8567.63
538.114	8595.42
538.479	8542.32
538.845	8555.88
539.21	8482.43
539.575	8509.78
539.94	8520.4
540.305	8536.22
540.67	8500.28
541.034	8455.99
541.399	8454.64
541.764	8419.84
542.129	8402.43
542.494	8430.91
542.858	8437.24
543.223	8389.33
543.587	8422.32
543.952	8342.77
544.316	8323.79
544.681	8362.44
545.045	8320.18
545.41	8370.12
545.774	8326.96
546.138	8270.69
546.503	8299.16
546.867	8250.35
547.231	8284.7
547.595	8181.65
547.959	8222.55
548.324	8189.33
548.688	8136
549.052	8082.44
549.416	8075.21
549.779	8130.58
550.143	8098.71
550.507	8157.47
550.871	8085.15
551.235	8028.88
551.599	8072.27
551.962	8041.54
552.326	8071.37
552.689	8004.7
553.053	8011.71
553.417	7949.11
553.78	7990.69
554.143	7961.77
554.507	7939.85
554.87	8012.84
555.234	8003.57
555.597	7946.63
555.96	7997.93
556.323	7967.87
556.686	7919.96
557.05	7938.94
557.413	7909.34
557.776	7875.67
558.139	7943.46
558.502	7945.72
558.865	7940.53
559.228	7868.21
559.59	7927.42
559.953	7963.12
560.316	7947.53
560.679	7923.8
561.041	7903.24
561.404	7966.74
561.767	7954.31
562.129	7950.47
562.492	8033.18
562.854	7945.72
563.217	7993.41
563.579	7943.46
563.941	8030.24
564.304	8004.48
564.666	8061.88
565.028	7992.5
565.39	7997.93
565.753	8088.09
566.115	8037.47
566.477	8094.65
566.839	8058.94
567.201	8097.36
567.563	8102.33
567.925	8136.9
568.287	8104.14
568.648	8150.92
569.01	8147.98
569.372	8169.22
569.734	8147.07
570.095	8148.88
570.457	8214.64
570.819	8217.35
571.18	8210.12
571.542	8246.96
571.903	8288.77
572.265	8258.26
572.626	8319.5
572.987	8307.97
573.349	8322.89
573.71	8347.97
574.071	8320.18
574.432	8328.54
574.794	8394.75
575.155	8390.68
575.516	8363.79
575.877	8427.74
576.238	8413.06
576.599	8564.69
576.96	8522.66
577.32	8401.76
577.681	8486.5
578.042	8498.03
578.403	8484.69
578.763	8558.36
579.124	8552.94
579.485	8580.51
579.845	8652.15
580.206	8572.37
580.566	8634.74
580.927	8587.29
581.287	8584.8
581.648	8662.99
582.008	8631.81
582.368	8692.14
582.728	8763.55
583.089	8738.02
583.449	8758.36
583.809	8720.84
584.169	8768.07
584.529	8722.43
584.889	8833.84
585.249	8746.61
585.609	8747.96
585.969	8766.72
586.329	8794.29
586.688	8790.45
587.048	8888.75
587.408	8823.44
587.768	8798.36
588.127	8874.51
588.487	8826.15
588.846	8933.49
589.206	8904.57
589.565	8865.25
589.925	8872.48
590.284	8889.2
590.643	8887.85
591.003	8951.8
591.362	8975.53
591.721	8940.27
592.08	8973.72
592.44	9021.18
592.799	9011.46
593.158	9012.14
593.517	8976.88
593.876	9041.51
594.235	9020.27
594.593	9005.13
594.952	9023.66
595.311	9004.9
595.67	9056.43
596.029	9132.81
596.387	9097.78
596.746	9183.66
597.104	9121.51
597.463	9111.12
597.822	9128.52
598.18	9096.43
598.538	9080.61
598.897	9147.27
599.255	9089.65
599.613	9218.46
599.972	9171.23
600.33	9154.28
600.688	9119.25
601.046	9196.31
601.404	9164.67
601.762	9196.54
602.12	9192.7
602.478	9221.85
602.836	9257.55
603.194	9171.45
603.552	9169.87
603.91	9102.53
604.268	9174.39
604.625	9223.66
604.983	9273.6
605.341	9201.96
605.698	9229.31
606.056	9263.88
606.413	9221.85
606.771	9339.36
607.128	9290.32
607.485	9266.37
607.843	9278.57
608.2	9266.37
608.557	9341.17
608.914	9299.13
609.272	9320.15
609.629	9358.12
609.986	9379.36
610.343	9380.04
610.7	9401.96
611.057	9338.68
611.414	9406.93
611.771	9446.25
612.127	9366.93
612.484	9417.77
612.841	9467.72
613.198	9432.24
613.554	9456.42
613.911	9503.42
614.267	9474.72
614.624	9464.55
614.98	9472.69
615.337	9505.68
615.693	9535.51
616.05	9443.54
616.406	9506.13
616.762	9490.77
617.118	9496.87
617.475	9481.73
617.831	9474.04
618.187	9576.19
618.543	9501.84
618.899	9614.83
619.255	9575.28
619.611	9608.96
619.967	9571.67
620.323	9654.6
620.678	9575.74
621.034	9551.78
621.39	9585.68
621.746	9585.45
622.101	9636.53
622.457	9524.89
622.812	9557.43
623.168	9615.51
623.523	9604.44
623.879	9638.56
624.234	9568.73
624.589	9618.45
624.945	9637.43
625.3	9658.67
625.655	9586.81
626.01	9600.14
626.365	9527.38
626.72	9556.3
627.075	9539.35
627.43	9577.32
627.785	9510.2
628.14	9567.6
628.495	9625.45
628.85	9547.49
629.205	9498
629.559	9603.76
629.914	9540.48
630.269	9513.37
630.623	9593.14
630.978	9481.73
631.332	9511.78
631.687	9546.81
632.041	9462.29
632.396	9479.24
632.75	9441.05
633.104	9438.57
633.459	9391.56
633.813	9458.23
634.167	9394.05
634.521	9440.6
634.875	9359.7
635.229	9309.53
635.583	9320.15
635.937	9310.43
636.291	9357.44
636.645	9332.13
636.999	9236.54
637.352	9341.39
637.706	9363.77
638.06	9348.17
638.413	9342.97
638.767	9266.82
639.121	9319.92
639.474	9253.49
639.828	9246.93
640.181	9264.56
640.534	9201.28
640.888	9155.86
641.241	9121.29
641.594	9144.34
641.947	9199.25
642.301	9155.86
642.654	9166.48
643.007	9243.77
643.36	9197.44
643.713	9095.98
644.066	9118.12
644.419	9110.66
644.771	9088.97
645.124	8974.17
645.477	8996.09
645.83	8952.25
646.182	8855.3
646.535	8798.36
646.888	8856.21
647.24	8811.69
647.593	8890.78
647.945	8871.57
648.298	8848.52
648.65	8818.69
649.002	8815.3
649.355	8808.53
649.707	8876.32
650.059	8910.9
650.411	9011.01
650.763	9024.34
651.115	9124.9
651.467	9015.98
651.819	9025.47
652.171	9069.31
652.523	9026.6
652.875	9017.11
653.227	8999.03
653.578	9004
653.93	9029.08
654.282	8990.44
654.633	9022.08
654.985	9006.26
655.337	9028.86
655.688	9020.5
656.039	9051.46
656.391	8933.04
656.742	9022.98
657.094	8966.04
657.445	9068.18
657.796	9007.16
658.147	8992.93
658.498	9008.97
658.849	9011.68
659.2	9040.38
659.551	9032.93
659.902	9053.94
660.253	9004.45
660.604	9046.49
660.955	9033.38
661.306	9068.41
661.656	9007.16
662.007	9042.64
662.358	9017.79
662.708	9037.45
663.059	9072.47
663.409	8999.93
663.76	9093.26
664.11	9102.3
664.461	9065.47
664.811	9077.9
665.161	9103.21
665.511	9021.4
665.862	9085.35
666.212	9101.4
666.562	9110.44
666.912	9083.32
667.262	9105.01
667.612	9009.42
667.962	9105.24
668.312	9036.77
668.662	9099.37
669.011	9059.14
669.361	9066.15
669.711	9094.85
670.06	9026.37
670.41	9086.48
670.76	9035.86
671.109	9076.77
671.459	9064.11
671.808	9006.94
672.157	9007.39
672.507	8978.46
672.856	8908.86
673.205	8924.91
673.554	9088.97
673.904	8959.48
674.253	9034.51
674.602	8937.11
674.951	8898.47
675.3	8846.72
675.649	9022.98
675.998	8911.12
676.346	8900.27
676.695	8970.78
677.044	8881.74
677.393	8927.84
677.741	8956.54
678.09	8869.99
678.438	8906.83
678.787	8869.77
679.135	8881.52
679.484	8768.3
679.832	8861.63
680.181	8757.68
680.529	8793.61
680.877	8764.01
681.225	8755.42
681.573	8812.59
681.922	8742.76
682.27	8740.28
682.618	8686.49
682.966	8740.96
683.314	8719.49
683.661	8633.16
684.009	8631.58
684.357	8542.54
684.705	8621.86
685.053	8617.34
685.4	8559.72
685.748	8524.24
686.095	8493.73
686.443	8423.45
686.79	8488.76
687.138	8528.08
687.485	8526.95
687.832	8434.75
688.18	8456.44
688.527	8434.3
688.874	8328.09
689.221	8405.37
689.568	8295.54
689.915	8297.13
690.262	8343.45
690.609	8271.14
690.956	8183.91
691.303	8224.59
691.65	8158.6
691.997	8162.89
692.344	8093.97
692.69	8064.36
693.037	8112.5
693.383	7986.4
693.73	8069.34
694.077	7992.5
694.423	7986.63
694.769	8002.22
695.116	7886.06
695.462	7883.13
695.808	7887.19
696.155	7929.9
696.501	7805.16
696.847	7783.47
697.193	7837.25
697.539	7824.82
697.885	7695.33
698.231	7677.26
698.577	7657.6
698.923	7570.14
699.269	7592.74
699.614	7533.3
699.96	7540.31
700.306	7514.32
700.651	7526.07
700.997	7430.93
701.342	7425.51
701.688	7363.82
702.033	7399.07
702.379	7340.77
702.724	7386.87
703.069	7357.72
703.415	7276.14
703.76	7244.27
704.105	7258.51
704.45	7206.08
704.795	7181
705.14	7190.71
705.485	7112.75
705.83	7100.55
706.175	7093.77
706.52	7074.79
706.865	7052.19
707.209	7028.69
707.554	7019.19
707.899	7030.72
708.243	6998.4
708.588	6935.58
708.932	6931.29
709.277	6956.82
709.621	6937.61
709.966	6863.94
710.31	6910.27
710.654	6894.68
710.998	6854.23
711.342	6820.56
711.687	6815.13
712.031	6747.11
712.375	6728.13
712.719	6719.99
713.063	6752.76
713.407	6726.32
713.75	6759.54
714.094	6726.77
714.438	6609.26
714.782	6707.34
715.125	6662.59
715.469	6650.62
715.812	6637.74
716.156	6605.65
716.499	6611.97
716.843	6512.99
717.186	6586.89
717.53	6635.93
717.873	6649.03
718.216	6622.82
718.559	6583.27
718.902	6484.29
719.246	6552.31
719.589	6580.79
719.932	6471.64
720.275	6480.68
720.617	6481.58
720.96	6487.23
721.303	6522.71
721.646	6488.81
721.989	6429.83
722.331	6409.27
722.674	6484.97
723.016	6482.94
723.359	6437.06
723.701	6450.17
724.044	6434.58
724.386	6406.78
724.729	6424.63
725.071	6313.68
725.413	6435.25
725.755	6378.08
726.097	6360
726.439	6354.13
726.782	6322.26
727.124	6368.59
727.465	6315.48
727.807	6417.4
728.149	6318.87
728.491	6329.27
728.833	6353.45
729.175	6304.64
729.516	6332.21
729.858	6323.17
730.199	6325.65
730.541	6292.66
730.882	6279.55
731.224	6305.09
731.565	6254.92
731.906	6334.47
732.248	6322.49
732.589	6320.23
732.93	6265.77
733.271	6262.15
733.612	6319.33
733.953	6308.93
734.294	6327.46
734.635	6304.18
734.976	6355.93
735.317	6317.97
735.658	6297.86
735.999	6300.34
736.339	6272.77
736.68	6347.8
737.021	6347.35
737.361	6321.81
737.702	6381.24
738.042	6362.26
738.383	6312.09
738.723	6382.6
739.063	6297.63
739.404	6407.46
739.744	6336.95
740.084	6311.19
740.424	6390.96
740.764	6363.62
741.104	6442.94
741.444	6450.4
741.784	6420.11
742.124	6401.13
742.464	6442.49
742.804	6469.15
743.143	6437.51
743.483	6479.55
743.823	6508.02
744.162	6492.88
744.502	6557.74
744.841	6598.64
745.181	6633.22
745.52	6579.43
745.86	6647
746.199	6643.61
746.538	6765.19
746.877	6749.82
747.216	6793.21
747.556	6770.61
747.895	6883.38
748.234	6890.38
748.573	6962.92
748.911	6940.78
749.25	6988.46
749.589	7095.35
749.928	7181.68
750.267	7184.84
750.605	7255.35
750.944	7341.45
751.283	7331.05
751.621	7489.01
751.96	7480.65
752.298	7601.55
752.636	7695.56
752.975	7787.99
753.313	7836.35
753.651	7956.57
753.989	8057.36
754.327	8157.47
754.666	8206.51
755.004	8341.65
755.342	8491.47
755.679	8606.04
756.017	8685.36
756.355	8845.13
756.693	8953.15
757.031	9094.17
757.368	9195.86
757.706	9294.61
758.044	9389.3
758.381	9601.5
758.719	9775.05
759.056	9926.69
759.394	9974.14
759.731	10151.54
760.068	10294.59
760.405	10429.73
760.743	10612.09
761.08	10751.3
761.417	10927.34
761.754	11043.27
762.091	11239.2
762.428	11413.2
762.765	11548.34
763.102	11713.31
763.438	11901.1
763.775	12082.79
764.112	12216.8
764.449	12459.73
764.785	12581.53
765.122	12696.11
765.458	12891.58
765.795	13075.31
766.131	13156.43
766.467	13259.93
766.804	13412.47
767.14	13560.49
767.476	13743.54
767.812	13783.76
768.148	14015.17
768.485	14023.53
768.821	14173.81
