Data from hue_50_FLMS001491_5.txt Node
Date: Mon Feb 06 15:09:30 GMT 2017
User: dcchb
Spectrometer: FLMS00149
Trigger mode: 0
Integration Time (sec): 2.000000E-2
Scans to average: 10
Electric dark correction enabled: true
Nonlinearity correction enabled: false
Boxcar width: 0
XAxis mode: Wavelengths
Number of Pixels in Spectrum: 2048
>>>>>Begin Spectral Data<<<<<
341.393	-7.49
341.776	-7.49
342.16	-7.49
342.543	-54.94
342.927	-56.75
343.31	-56.07
343.693	-59.01
344.077	-44.55
344.46	-67.82
344.843	-54.72
345.226	-43.42
345.61	-42.51
345.993	-35.06
346.376	-10.88
346.759	4.72
347.142	32.97
347.525	44.94
347.908	55.34
348.291	93.3
348.674	85.39
349.057	97.37
349.44	129.91
349.823	126.75
350.206	160.65
350.588	177.14
350.971	204.26
351.354	221.66
351.737	255.11
352.119	259.85
352.502	269.8
352.884	284.26
353.267	286.74
353.65	282.68
354.032	294.2
354.414	306.63
354.797	327.19
355.179	313.86
355.562	324.71
355.944	318.83
356.326	348.44
356.709	323.81
357.091	343.24
357.473	338.95
357.855	341.66
358.238	349.12
358.62	333.07
359.002	322.9
359.384	325.16
359.766	343.47
360.148	313.86
360.53	354.76
360.912	321.09
361.294	334.2
361.676	340.98
362.057	342.79
362.439	349.79
362.821	327.19
363.203	308.89
363.584	322
363.966	307.76
364.348	332.84
364.729	319.29
365.111	303.69
365.493	325.39
365.874	324.03
366.256	316.57
366.637	316.35
367.019	308.66
367.4	324.26
367.781	326.29
368.163	319.06
368.544	321.32
368.925	319.29
369.306	321.09
369.688	302.79
370.069	294.43
370.45	313.64
370.831	300.75
371.212	312.96
371.593	299.17
371.974	323.35
372.355	296.01
372.736	319.06
373.117	312.28
373.498	311.38
373.879	322.9
374.26	319.29
374.641	338.72
375.021	301.43
375.402	329.91
375.783	333.97
376.163	335.33
376.544	321.77
376.925	330.13
377.305	325.16
377.686	317.93
378.066	310.92
378.447	326.29
378.827	321.09
379.208	329.23
379.588	318.16
379.968	332.17
380.349	341.66
380.729	321.55
381.109	333.07
381.489	345.05
381.87	315.9
382.25	333.3
382.63	347.31
383.01	335.1
383.39	333.3
383.77	335.1
384.15	331.04
384.53	344.37
384.91	332.62
385.29	345.05
385.67	359.06
386.049	352.73
386.429	338.27
386.809	331.49
387.189	356.57
387.568	334.65
387.948	333.07
388.328	350.47
388.707	367.65
389.087	349.57
389.466	353.41
389.846	334.65
390.225	350.92
390.605	347.76
390.984	361.09
391.363	365.39
391.743	343.01
392.122	342.11
392.501	363.35
392.881	358.15
393.26	364.93
393.639	362.45
394.018	366.74
394.397	373.52
394.776	355.67
395.155	364.71
395.534	362.22
395.913	383.24
396.292	349.57
396.671	356.35
397.05	363.8
397.429	348.66
397.808	373.97
398.186	387.31
398.565	394.09
398.944	385.72
399.323	368.55
399.701	379.17
400.08	369.45
400.458	402.22
400.837	376.69
401.215	375.78
401.594	373.97
401.972	396.35
402.351	376.01
402.729	384.14
403.107	381.88
403.486	389.34
403.864	397.25
404.242	392.28
404.62	406.51
404.999	412.16
405.377	402.67
405.755	406.29
406.133	409
406.511	398.61
406.889	402.45
407.267	415.33
407.645	416.46
408.023	404.93
408.401	405.84
408.779	426.4
409.156	403.8
409.534	423.92
409.912	412.39
410.29	429.56
410.667	428.66
411.045	417.36
411.422	431.6
411.8	439.96
412.178	461.43
412.555	414.88
412.933	445.61
413.31	446.97
413.687	446.51
414.065	465.72
414.442	432.95
414.819	439.28
415.197	448.1
415.574	463.24
415.951	459.39
416.328	472.5
416.705	447.87
417.082	444.71
417.46	457.13
417.837	476.8
418.214	469.56
418.591	468.21
418.967	484.25
419.344	478.6
419.721	478.83
420.098	460.52
420.475	500.52
420.852	474.99
421.228	459.39
421.605	501.65
421.982	503.01
422.358	491.03
422.735	494.87
423.111	504.82
423.488	493.97
423.864	512.05
424.241	521.77
424.617	529.68
424.994	497.13
425.37	492.39
425.746	504.37
426.123	530.13
426.499	520.64
426.875	531.71
427.251	533.52
427.627	540.07
428.003	547.53
428.379	540.3
428.756	551.14
429.132	530.81
429.507	557.02
429.883	579.17
430.259	553.18
430.635	564.93
431.011	571.71
431.387	570.8
431.763	593.18
432.138	580.3
432.514	591.37
432.89	589.79
433.265	583.91
433.641	573.06
434.016	587.98
434.392	607.87
434.767	618.94
435.143	623.01
435.518	623.91
435.894	608.32
436.269	620.07
436.644	628.2
437.02	636.57
437.395	640.41
437.77	643.12
438.145	651.25
438.52	657.81
438.895	656
439.271	658.26
439.646	678.82
440.021	673.63
440.395	705.94
440.77	669.56
441.145	682.67
441.52	682.89
441.895	681.76
442.27	694.19
442.645	676.11
443.019	696.22
443.394	696.22
443.769	668.2
444.143	710.24
444.518	714.3
444.892	706.62
445.267	699.39
445.641	720.4
446.016	725.38
446.39	726.51
446.764	743.68
447.139	741.87
447.513	747.3
447.887	720.63
448.262	745.71
448.636	760.86
449.01	760.4
449.384	758.37
449.758	774.64
450.132	775.09
450.506	787.97
450.88	775.09
451.254	766.96
451.628	775.77
452.002	783.45
452.376	782.32
452.75	790.91
453.123	796.79
453.497	839.27
453.871	831.81
454.244	822.77
454.618	842.89
454.992	847.63
455.365	833.17
455.739	863.23
456.112	851.02
456.486	907.29
456.859	882.66
457.232	889.89
457.606	891.7
457.979	904.58
458.352	910
458.725	929.44
459.099	950.46
459.472	950.91
459.845	959.04
460.218	959.72
460.591	965.82
460.964	969.66
461.337	993.17
461.71	1003.79
462.083	1013.5
462.456	1033.39
462.829	1018.25
463.201	1037.68
463.574	1050.79
463.947	1083.79
464.32	1084.46
464.692	1116.78
465.065	1124.46
465.438	1119.94
465.81	1124.69
466.183	1176.66
466.555	1184.35
466.928	1184.8
467.3	1190.22
467.672	1234.52
468.045	1243.55
468.417	1249.88
468.789	1263.67
469.161	1293.27
469.534	1312.03
469.906	1343.67
470.278	1351.35
470.65	1368.07
471.022	1385.7
471.394	1421.18
471.766	1444.68
472.138	1441.29
472.51	1498.46
472.882	1510.44
473.253	1540.72
473.625	1632.25
473.997	1653.94
474.369	1662.07
474.74	1707.72
475.112	1728.74
475.484	1761.28
475.855	1826.82
476.227	1838.57
476.598	1928.96
476.97	1952.24
477.341	2019.81
477.713	2035.85
478.084	2097.54
478.455	2175.51
478.827	2178.9
479.198	2295.96
479.569	2274.94
479.94	2371.21
480.311	2430.64
480.682	2530.98
481.053	2610.3
481.424	2678.77
481.795	2723.52
482.166	2797.41
482.537	2871.99
482.908	2936.39
483.279	3019.78
483.65	3129.61
484.021	3204.18
484.391	3291.64
484.762	3354.91
485.133	3432.88
485.503	3559.2
485.874	3670.16
486.244	3765.97
486.615	3878.97
486.985	3995.57
487.356	4118.28
487.726	4149.92
488.097	4316.92
488.467	4376.81
488.837	4513.98
489.207	4649.34
489.578	4804.82
489.948	4864.02
490.318	5007.3
490.688	5094.3
491.058	5247.74
491.428	5330.45
491.798	5427.63
492.168	5631.69
492.538	5732.48
492.908	5885.24
493.278	5989.42
493.648	6122.3
494.017	6202.52
494.387	6328.84
494.757	6498.56
495.126	6579.69
495.496	6712.79
495.866	6857.87
496.235	6928.6
496.605	7061.48
496.974	7138.99
497.344	7335.6
497.713	7456.95
498.082	7634.35
498.452	7713.22
498.821	7796.15
499.19	7909.82
499.559	8040.89
499.928	8185.29
500.298	8286.99
500.667	8311.84
501.036	8468.22
501.405	8608.33
501.774	8673.87
502.143	8850.36
502.512	8913.64
502.88	9039.51
503.249	9129
503.618	9288.99
503.987	9330.8
504.356	9514.75
504.724	9561.08
505.093	9705.93
505.462	9778.02
505.83	9846.04
506.199	10004.23
506.567	10117.45
506.936	10203.32
507.304	10425.69
507.672	10471.11
508.041	10560.15
508.409	10763.76
508.777	10812.12
509.145	10808.73
509.514	10970.98
509.882	11105.22
510.25	11157.42
510.618	11298.88
510.986	11317.64
511.354	11502.27
511.722	11594.02
512.09	11695.26
512.458	11807.34
512.826	11930.96
513.193	12007.79
513.561	12063.61
513.929	12236.71
514.297	12350.83
514.664	12424.05
515.032	12446.42
515.4	12622.69
515.767	12737.49
516.135	12826.08
516.502	12745.85
516.869	13081.89
517.237	13083.02
517.604	13074.2
517.972	13222.45
518.339	13370.24
518.706	13348.1
519.073	13515.1
519.44	13676.9
519.808	13803.45
520.175	13679.39
520.542	14016.33
520.909	14112.82
521.276	14102.88
521.643	14173.61
522.009	14320.27
522.376	14433.94
522.743	14576.54
523.11	14635.97
523.477	14863.99
523.843	14924.1
524.21	15102.4
524.577	15188.95
524.943	15244.32
525.31	15427.14
525.676	15456.06
526.043	15693.57
526.409	15715.49
526.776	15874.81
527.142	15894.02
527.508	16059.89
527.874	16191.86
528.241	16181.02
528.607	16274.35
528.973	16472.98
529.339	16448.8
529.705	16685.18
530.071	16759.31
530.437	16872.07
530.803	17007.21
531.169	17072.29
531.535	17056.02
531.901	17096.47
532.267	17155.68
532.632	17391.15
532.998	17331.72
533.364	17558.15
533.73	17572.84
534.095	17860.75
534.461	17830.46
534.826	17916.56
535.192	17937.81
535.557	18037.46
535.923	18086.5
536.288	18137.35
536.653	18160.62
537.019	18223.67
537.384	18416.44
537.749	18480.39
538.114	18453.95
538.479	18532.14
538.845	18627.5
539.21	18668.63
539.575	18669.31
539.94	18846.26
540.305	18897.33
540.67	18967.38
541.034	19035.18
541.399	19104.78
541.764	19185
542.129	19212.8
542.494	19295.51
542.858	19386.81
543.223	19352.01
543.587	19458.9
543.952	19545.22
544.316	19677.87
544.681	19713.58
545.045	19804.42
545.41	19930.52
545.774	19832.9
546.138	19959.45
546.503	20022.04
546.867	20000.12
547.231	20199.67
547.595	20217.97
547.959	20278.31
548.324	20379.55
548.688	20406.89
549.052	20484.86
549.416	20544.06
549.779	20628.36
550.143	20548.13
550.507	20742.03
550.871	20743.61
551.235	20890.72
551.599	20957.84
551.962	21073.54
552.326	21109.02
552.689	21136.82
553.053	21129.59
553.417	21193.09
553.78	21504.04
554.143	21316.02
554.507	21550.37
554.87	21705.16
555.234	21786.74
555.597	21715.78
555.96	21882.11
556.323	21891.37
556.686	21884.59
557.05	22093.4
557.413	22185.6
557.776	22219.95
558.139	22397.12
558.502	22433.28
558.865	22422.43
559.228	22563.9
559.59	22622.43
559.953	22786.72
560.316	22957.11
560.679	22999.59
561.041	23161.4
561.404	23203.88
561.767	23357.78
562.129	23325.69
562.492	23511.9
562.854	23425.34
563.217	23554.38
563.579	23608.39
563.941	23831.89
564.304	23901.94
564.666	23904.65
565.028	24003.18
565.39	24073.01
565.753	24223.52
566.115	24336.51
566.477	24414.7
566.839	24477.97
567.201	24699.89
567.563	24640.91
567.925	24811.07
568.287	24863.95
568.648	24932.42
569.01	25062.82
569.372	25256.71
569.734	25238.86
570.095	25345.07
570.457	25512.3
570.819	25452.18
571.18	25613.31
571.542	25642.01
571.903	25805.62
572.265	25894.43
572.626	26020.76
572.987	26158.83
573.349	26247.64
573.71	26298.72
574.071	26298.26
574.432	26413.74
574.794	26562.44
575.155	26610.35
575.516	26615.09
575.877	26733.73
576.238	26659.16
576.599	26907.29
576.96	26966.95
577.32	27028.87
577.681	27169.88
578.042	27307.95
578.403	27369.87
578.763	27425.69
579.124	27506.82
579.485	27708.17
579.845	27709.53
580.206	27746.13
580.566	27873.14
580.927	27985.9
581.287	28249.4
581.648	28088.72
582.008	28284.65
582.368	28278.32
582.728	28443.29
583.089	28459.11
583.449	28691.42
583.809	28840.34
584.169	28905.88
584.529	28788.14
584.889	29272.87
585.249	28920.79
585.609	29175.7
585.969	29378.41
586.329	29411.85
586.688	29477.61
587.048	29522.81
587.408	29683.03
587.768	29692.3
588.127	29751.73
588.487	29857.27
588.846	30171.61
589.206	29947.88
589.565	30210.25
589.925	30382
590.284	30378.83
590.643	30557.13
591.003	30665.38
591.362	30819.5
591.721	30807.52
592.08	31038.03
592.44	31146.27
592.799	31201.86
593.158	31261.07
593.517	31381.52
593.876	31444.79
594.235	31450.67
594.593	31618.58
594.952	31788.29
595.311	31711.68
595.67	31811.56
596.029	32133.14
596.387	32218.56
596.746	32352.79
597.104	32227.82
597.463	32169.07
597.822	32418.33
598.18	32326.13
598.538	32656.97
598.897	32775.61
599.255	32503.98
599.613	33113.23
599.972	32882.05
600.33	33094.69
600.688	33027.58
601.046	33197.97
601.404	33244.97
601.762	33354.8
602.12	33546.43
602.478	33609.26
602.836	33702.59
603.194	33549.15
603.552	33648.35
603.91	33604.51
604.268	33879.08
604.625	33928.35
604.983	34003.82
605.341	33990.72
605.698	34137.83
606.056	34207.21
606.413	34296.7
606.771	34482.91
607.128	34414.66
607.485	34356.36
607.843	34515.45
608.2	34693.75
608.557	34955.21
608.914	34849.22
609.272	35047.41
609.629	35045.83
609.986	35291.25
610.343	35149.33
610.7	35441.07
611.057	35446.72
611.414	35400.4
611.771	35488.76
612.127	35689.43
612.484	35662.08
612.841	35801.74
613.198	35858.46
613.554	35839.26
613.911	36148.17
614.267	36021.17
614.624	36143.43
614.98	36094.84
615.337	36403.99
615.693	36352.01
616.05	36163.77
616.406	36474.49
616.762	36412.8
617.118	36526.69
617.475	36500.03
617.831	36700.48
618.187	36622.51
618.543	36794.26
618.899	36922.84
619.255	36910.41
619.611	36996.74
619.967	37075.61
620.323	37161.93
620.678	37166.68
621.034	37082.39
621.39	37161.48
621.746	37181.14
622.101	37636.04
622.457	37175.49
622.812	37447.57
623.168	37555.14
623.523	37478.53
623.879	37555.37
624.234	37324.19
624.589	37498.42
624.945	37603.05
625.3	37654.35
625.655	37602.82
626.01	37721.01
626.365	37709.71
626.72	37772.09
627.075	37844.4
627.43	37622.94
627.785	37634.69
628.14	37712.2
628.495	37792.88
628.85	37684.4
629.205	37589.94
629.559	37797.85
629.914	37689.38
630.269	37827.68
630.623	37781.35
630.978	37588.59
631.332	37692.77
631.687	37944.51
632.041	37622.03
632.396	37773.44
632.75	37632.2
633.104	37662.48
633.459	37547.46
633.813	37637.4
634.167	37595.59
634.521	37473.56
634.875	37631.98
635.229	37639.66
635.583	37473.34
635.937	37416.62
636.291	37365.32
636.645	37465.65
636.999	37411.64
637.352	37591.3
637.706	37336.39
638.06	37445.77
638.413	37419.78
638.767	37357.63
639.121	37420.68
639.474	37074.25
639.828	37267.24
640.181	37426.11
640.534	37330.06
640.888	37163.51
641.241	37059.79
641.594	37079.9
641.947	37314.24
642.301	37135.04
642.654	37180.92
643.007	37064.53
643.36	37131.42
643.713	36973.24
644.066	37132.1
644.419	36985.21
644.771	36651.21
645.124	36412.57
645.477	36230.88
645.83	36180.04
646.182	35935.52
646.535	35929.87
646.888	35869.09
647.24	35700.5
647.593	36036.09
647.945	35898.69
648.298	35668.64
648.65	35633.16
649.002	35543.22
649.355	35764.68
649.707	35775.53
650.059	35849.65
650.411	36180.49
650.763	36309.75
651.115	36591.1
651.467	36520.82
651.819	36490.54
652.171	36363.54
652.523	36328.73
652.875	36334.38
653.227	36182.52
653.578	36461.61
653.93	36442.63
654.282	36216.42
654.633	36135.07
654.985	36267.04
655.337	36349.75
655.688	36340.49
656.039	36339.58
656.391	36147.5
656.742	36233.37
657.094	36126.71
657.445	36202.86
657.796	36176.65
658.147	36050.55
658.498	36029.76
658.849	36091.9
659.2	36128.29
659.551	35996.77
659.902	36086.93
660.253	36086.71
660.604	36274.95
660.955	35956.31
661.306	36065.01
661.656	35999.25
662.007	35898.24
662.358	35964.45
662.708	36024.11
663.059	35874.28
663.409	35695.53
663.76	36112.69
664.11	36041.74
664.461	36040.15
664.811	35907.73
665.161	35854.62
665.511	35915.19
665.862	35900.72
666.212	36018.01
666.562	35973.94
666.912	35902.76
667.262	35832.7
667.612	35738.24
667.962	35937.56
668.312	35887.62
668.662	35949.31
669.011	35734.63
669.361	35820.95
669.711	35789.99
670.06	35790.9
670.41	35624.35
670.76	35677.23
671.109	35726.49
671.459	35715.19
671.808	35535.08
672.157	35599.26
672.507	35500.73
672.856	35575.99
673.205	35492.15
673.554	35715.42
673.904	35409.89
674.253	35734.17
674.602	35572.6
674.951	35091.03
675.3	34956.11
675.649	35495.99
675.998	35476.78
676.346	35472.03
676.695	35575.99
677.044	35246.73
677.393	35346.16
677.741	35408.08
678.09	35311.13
678.438	35093.51
678.787	35466.84
679.135	35301.64
679.484	35052.84
679.832	35246.28
680.181	35016.68
680.529	35231.81
680.877	35063.91
681.225	34960.86
681.573	35267.07
681.922	34980.07
682.27	34860.52
682.618	34745.05
682.966	34776.23
683.314	34836.8
683.661	34759.06
684.009	34604.03
684.357	34599.74
684.705	34471.38
685.053	34491.49
685.4	34566.52
685.748	34279.52
686.095	34260.31
686.443	34085.86
686.79	34199.75
687.138	34259.86
687.485	34183.93
687.832	34041.79
688.18	34042.01
688.527	33840.66
688.874	33964.95
689.221	33843.6
689.568	33665.75
689.915	33804.73
690.262	33640.67
690.609	33635.7
690.956	33445.19
691.303	33369.04
691.65	33284.97
691.997	33269.83
692.344	32950.74
692.69	33025.09
693.037	33078.65
693.383	32829.17
693.73	32995.94
694.077	32705.33
694.423	32679.56
694.769	32653.12
695.116	32568.15
695.462	32556.18
695.808	32405.9
696.155	32509.63
696.501	32263.08
696.847	32283.42
697.193	32000.03
697.539	32073.03
697.885	31992.35
698.231	31711.91
698.577	31900.38
698.923	31769.98
699.269	31647.05
699.614	31454.51
699.96	31455.19
700.306	31353.72
700.651	31235.31
700.997	31174.75
701.342	31129.77
701.688	31031.02
702.033	30980.4
702.379	30987.41
702.724	30819.27
703.069	30895.43
703.415	30633.29
703.76	30670.58
704.105	30640.3
704.45	30565.04
704.795	30434.2
705.14	30244.37
705.485	30344.94
705.83	30167.99
706.175	30288.44
706.52	30129.8
706.865	30014.78
707.209	29857.04
707.554	29843.03
707.899	29934.55
708.243	29727.1
708.588	29796.48
708.932	29517.61
709.277	29377.28
709.621	29580.21
709.966	29297.28
710.31	29354.91
710.654	29266.09
710.998	29197.62
711.342	29123.73
711.687	29119.88
712.031	28977.29
712.375	28901.81
712.719	28931.64
713.063	28872.43
713.407	28922.6
713.75	28679.67
714.094	28818.2
714.438	28676.73
714.782	28617.75
715.125	28668.37
715.469	28519.22
715.812	28403.52
716.156	28175.05
716.499	28205.11
716.843	28385.21
717.186	28067.26
717.53	28329.85
717.873	28150.87
718.216	28072
718.559	27966.02
718.902	27776.19
719.246	27928.5
719.589	27745
719.932	27728.51
720.275	27745.46
720.617	27800.37
720.96	27561.73
721.303	27601.73
721.646	27627.27
721.989	27512.92
722.331	27479.02
722.674	27387.05
723.016	27543.88
723.359	27358.35
723.701	27436.76
724.044	27230.44
724.386	27109.54
724.729	27228.41
725.071	27018.92
725.413	27047.17
725.755	27088.75
726.097	26921.75
726.439	26710.68
726.782	26827.97
727.124	26997.23
727.465	26650.34
727.807	26679.5
728.149	26680.17
728.491	26720.17
728.833	26671.81
729.175	26593.17
729.516	26500.52
729.858	26473.17
730.199	26513.85
730.541	26454.64
730.882	26406.96
731.224	26426.85
731.565	26259.39
731.906	26345.72
732.248	26232.05
732.589	26184.59
732.93	26111.38
733.271	26181.43
733.612	26038.16
733.953	26127.87
734.294	26041.77
734.635	26004.26
734.976	26019.85
735.317	25889.69
735.658	25830.48
735.999	25816.92
736.339	25764.72
736.68	25767.66
737.021	25716.81
737.361	25616.25
737.702	25797.49
738.042	25660.54
738.383	25570.6
738.723	25592.29
739.063	25496.7
739.404	25542.58
739.744	25412.18
740.084	25375.35
740.424	25353.66
740.764	25296.48
741.104	25350.72
741.444	25170.16
741.784	25045.64
742.124	25278.4
742.464	25108.46
742.804	25082.02
743.143	25091.52
743.483	25202.02
743.823	25004.29
744.162	24962.03
744.502	24983.04
744.841	24857.4
745.181	24958.41
745.52	24896.27
745.86	24833.67
746.199	24787.12
746.538	24725.88
746.877	24787.12
747.216	24701.47
747.556	24710.51
747.895	24671.87
748.234	24553.45
748.573	24483.17
748.911	24463.51
749.25	24555.71
749.589	24346
749.928	24322.72
750.267	24446.56
750.605	24261.25
750.944	24256.96
751.283	24237.98
751.621	24294.25
751.96	24139.68
752.298	23992.11
752.636	24172.44
752.975	24003.86
753.313	23843.19
753.651	23979
753.989	23879.12
754.327	23864.65
754.666	23772.23
755.004	23660.82
755.342	23701.95
755.679	23732
756.017	23448.85
756.355	23620.14
756.693	23493.14
757.031	23496.08
757.368	23306.7
