Data from hue_34_FLMS001491_00064.txt Node
Date: Tue Feb 07 17:25:58 GMT 2017
User: dcchb
Spectrometer: FLMS00149
Trigger mode: 0
Integration Time (sec): 2.000000E-2
Scans to average: 10
Electric dark correction enabled: true
Nonlinearity correction enabled: false
Boxcar width: 0
XAxis mode: Wavelengths
Number of Pixels in Spectrum: 2048
>>>>>Begin Spectral Data<<<<<
341.393	8.83
341.776	8.83
342.16	8.83
342.543	-76.37
342.927	-59.65
343.31	-75.46
343.693	-42.47
344.077	-68.91
344.46	-49.7
344.843	-56.93
345.226	-25.52
345.61	-29.36
345.993	-21.68
346.376	-21
346.759	28.26
347.142	13.12
347.525	37.3
347.908	51.54
348.291	87.02
348.674	68.49
349.057	105.32
349.44	123.85
349.823	129.5
350.206	176.05
350.588	195.49
350.971	221.03
351.354	214.7
351.737	243.62
352.119	237.97
352.502	254.47
352.884	265.09
353.267	274.13
353.65	290.4
354.032	306.22
354.414	318.42
354.797	298.99
355.179	327.24
355.562	316.16
355.944	335.6
356.326	315.94
356.709	346.22
357.091	331.08
357.473	346.9
357.855	346.67
358.238	338.31
358.62	345.32
359.002	339.44
359.384	349.38
359.766	351.64
360.148	340.8
360.53	356.61
360.912	329.27
361.294	329.95
361.676	344.64
362.057	329.5
362.439	331.98
362.821	343.28
363.203	332.89
363.584	332.21
363.966	327.46
364.348	317.07
364.729	326.56
365.111	329.5
365.493	336.5
365.874	312.77
366.256	327.01
366.637	317.52
367.019	319.1
367.4	325.66
367.781	313.23
368.163	317.97
368.544	329.27
368.925	323.85
369.306	313.23
369.688	318.42
370.069	320.91
370.45	305.54
370.831	316.39
371.212	310.29
371.593	307.35
371.974	303.28
372.355	319.33
372.736	330.17
373.117	311.42
373.498	320.91
373.879	299.89
374.26	305.99
374.641	335.82
375.021	315.71
375.402	317.07
375.783	329.27
376.163	331.3
376.544	329.95
376.925	331.98
377.305	330.85
377.686	318.65
378.066	318.88
378.447	317.75
378.827	313.45
379.208	340.8
379.588	323.17
379.968	327.46
380.349	331.98
380.729	348.25
381.109	340.34
381.489	338.31
381.87	331.3
382.25	346.45
382.63	336.95
383.01	339.67
383.39	332.89
383.77	352.55
384.15	362.49
384.53	349.38
384.91	352.1
385.29	356.39
385.67	369.95
386.049	348.71
386.429	355.94
386.809	355.03
387.189	353.9
387.568	356.61
387.948	339.21
388.328	335.15
388.707	367.46
389.087	368.37
389.466	373.34
389.846	355.03
390.225	352.1
390.605	368.37
390.984	365.88
391.363	372.89
391.743	382.6
392.122	373.79
392.501	392.77
392.881	382.83
393.26	362.72
393.639	372.89
394.018	397.74
394.397	389.16
394.776	376.73
395.155	381.25
395.534	376.5
395.913	380.57
396.292	389.83
396.671	374.69
397.05	406.11
397.429	378.76
397.808	391.42
398.186	400.91
398.565	400.68
398.944	365.88
399.323	380.8
399.701	388.93
400.08	395.03
400.458	412.66
400.837	422.38
401.215	404.52
401.594	397.74
401.972	406.11
402.351	404.75
402.729	422.15
403.107	414.01
403.486	413.11
403.864	416.5
404.242	415.37
404.62	401.59
404.999	404.75
405.377	428.03
405.755	423.51
406.133	410.62
406.511	448.82
406.889	404.52
407.267	439.78
407.645	439.32
408.023	436.39
408.401	422.6
408.779	440.68
409.156	449.95
409.534	450.85
409.912	450.4
410.29	465.31
410.667	460.12
411.045	468.48
411.422	462.83
411.8	458.76
412.178	464.18
412.555	470.74
412.933	460.12
413.31	488.36
413.687	496.5
414.065	478.19
414.442	495.14
414.819	477.06
415.197	486.1
415.574	492.66
415.951	465.31
416.328	504.41
416.705	491.98
417.082	505.54
417.46	504.63
417.837	503.05
418.214	524.75
418.591	489.27
418.967	501.7
419.344	528.14
419.721	528.36
420.098	507.8
420.475	515.71
420.852	521.13
421.228	529.49
421.605	555.48
421.982	535.37
422.358	539.43
422.735	531.3
423.111	548.47
423.488	555.93
423.864	568.13
424.241	579.21
424.617	582.15
424.994	585.31
425.37	574.69
425.746	594.8
426.123	588.02
426.499	566.78
426.875	597.29
427.251	590.51
427.627	597.96
428.003	599.77
428.379	612.88
428.756	594.8
429.132	603.16
429.507	625.76
429.883	620.34
430.259	615.59
430.635	638.42
431.011	664.86
431.387	628.47
431.763	630.05
432.138	638.64
432.514	651.97
432.89	651.07
433.265	683.16
433.641	680
434.016	684.97
434.392	695.82
434.767	697.4
435.143	670.28
435.518	696.04
435.894	683.61
436.269	714.12
436.644	711.86
437.02	703.5
437.395	748.02
437.77	715.48
438.145	745.76
438.52	764.29
438.895	751.41
439.271	732.2
439.646	771.07
440.021	753.89
440.395	773.1
440.77	746.44
441.145	762.93
441.52	793.67
441.895	769.94
442.27	788.02
442.645	792.08
443.019	775.59
443.394	815.81
443.769	796.83
444.143	822.14
444.518	804.74
444.892	799.77
445.267	801.57
445.641	804.74
446.016	854.45
446.39	839.77
446.764	839.09
447.139	841.12
447.513	838.64
447.887	822.82
448.262	827.56
448.636	842.48
449.01	845.19
449.384	879.31
449.758	874.57
450.132	869.37
450.506	880.89
450.88	891.74
451.254	865.08
451.628	896.26
452.002	894
452.376	918.63
452.75	918.41
453.123	932.87
453.497	907.11
453.871	940.33
454.244	976.94
454.618	968.58
454.992	971.97
455.365	978.52
455.739	978.52
456.112	1008.12
456.486	1011.29
456.859	1021.91
457.232	1016.03
457.606	1032.76
457.979	1032.98
458.352	1063.49
458.725	1066.2
459.099	1085.41
459.472	1090.15
459.845	1085.41
460.218	1108.91
460.591	1106.43
460.964	1134.22
461.337	1146.88
461.71	1148.46
462.083	1156.14
462.456	1160.66
462.829	1184.39
463.201	1198.4
463.574	1224.84
463.947	1216.48
464.32	1244.05
464.692	1258.74
465.065	1269.81
465.438	1286.76
465.81	1320.21
466.183	1338.28
466.555	1310.04
466.928	1343.03
467.3	1373.76
467.672	1405.4
468.045	1410.6
468.417	1406.76
468.789	1439.3
469.161	1432.07
469.534	1479.07
469.906	1497.15
470.278	1518.62
470.65	1527.66
471.022	1581.44
471.394	1618.05
471.766	1623.25
472.138	1619.63
472.51	1684.26
472.882	1731.27
473.253	1698.73
473.625	1781.21
473.997	1794.09
474.369	1821.44
474.74	1842.68
475.112	1875.22
475.484	1940.75
475.855	1959.51
476.227	2009.45
476.598	2053.07
476.97	2082.9
477.341	2147.3
477.713	2165.61
478.084	2207.64
478.455	2287.41
478.827	2334.87
479.198	2394.98
479.569	2452.15
479.94	2471.81
480.311	2489.89
480.682	2611.47
481.053	2692.15
481.424	2736.89
481.795	2798.13
482.166	2865.7
482.537	2888.07
482.908	2995.42
483.279	3046.26
483.65	3117.45
484.021	3203.09
484.391	3253.04
484.762	3361.73
485.133	3399.92
485.503	3460.94
485.874	3540.94
486.244	3625.46
486.615	3721.72
486.985	3793.81
487.356	3897.31
487.726	3950.19
488.097	4058.44
488.467	4106.35
488.837	4259.34
489.207	4329.39
489.578	4442.84
489.948	4491.42
490.318	4598.99
490.688	4598.31
491.058	4773.22
491.428	4841.02
491.798	4897.96
492.168	5034.91
492.538	5107.22
492.908	5118.98
493.278	5265.41
493.648	5343.83
494.017	5427.22
494.387	5545.86
494.757	5601
495.126	5722.8
495.496	5726.42
495.866	5840.76
496.235	5946.98
496.605	5993.98
496.974	6119.85
497.344	6151.26
497.713	6146.75
498.082	6340.64
498.452	6446.4
498.821	6405.04
499.19	6478.94
499.559	6576.11
499.928	6661.31
500.298	6737.69
500.667	6833.96
501.036	6837.57
501.405	6968.19
501.774	6942.2
502.143	7046.38
502.512	7079.15
502.88	7179.26
503.249	7234.4
503.618	7273.5
503.987	7292.93
504.356	7391.68
504.724	7434.62
505.093	7513.49
505.462	7605.92
505.83	7617.67
506.199	7713.26
506.567	7816.08
506.936	7857.89
507.304	7927.26
507.672	7975.62
508.041	8032.57
508.409	8092
508.777	8120.93
509.145	8180.36
509.514	8274.37
509.882	8332.9
510.25	8310.08
510.618	8369.06
510.986	8446.35
511.354	8583.52
511.722	8568.6
512.09	8698.09
512.458	8712.78
512.826	8776.73
513.193	8754.81
513.561	8866.9
513.929	8898.99
514.297	8931.08
514.664	9002.94
515.032	9113.45
515.4	9112.99
515.767	9109.61
516.135	9232.77
516.502	9161.36
516.869	9353.44
517.237	9340.11
517.604	9322.71
517.972	9517.73
518.339	9511.4
518.706	9519.31
519.073	9545.75
519.44	9617.61
519.808	9705.97
520.175	9717.95
520.542	9832.3
520.909	9891.73
521.276	9941.45
521.643	9923.6
522.009	10063.48
522.376	10069.13
522.743	10165.4
523.11	10219.86
523.477	10345.5
523.843	10338.5
524.21	10514.77
524.577	10481.77
524.943	10563.35
525.31	10629.79
525.676	10730.35
526.043	10808.77
526.409	10789.56
526.776	10864.59
527.142	10924.25
527.508	11007.86
527.874	11106.39
528.241	11107.29
528.607	11210.34
528.973	11255.09
529.339	11228.19
529.705	11275.42
530.071	11463.89
530.437	11438.81
530.803	11574.63
531.169	11639.26
531.535	11615.98
531.901	11672.7
532.267	11720.38
532.632	11821.62
532.998	11852.81
533.364	11931.9
533.73	11973.26
534.095	12127.83
534.461	12107.27
534.826	12203.76
535.192	12197.21
535.557	12255.29
535.923	12285.57
536.288	12314.94
536.653	12367.37
537.019	12416.18
537.384	12454.83
537.749	12482.62
538.114	12582.51
538.479	12620.93
538.845	12614.15
539.21	12728.04
539.575	12758.77
539.94	12794.93
540.305	12829.51
540.67	12918.32
541.034	12984.53
541.399	12923.29
541.764	13123.28
542.129	13146.34
542.494	13221.14
542.858	13214.81
543.223	13230.85
543.587	13286.44
543.952	13321.92
544.316	13361.02
544.681	13367.57
545.045	13474.24
545.41	13507.91
545.774	13554.23
546.138	13554.69
546.503	13610.96
546.867	13636.04
547.231	13746.32
547.595	13834.9
547.959	13849.82
548.324	13968.01
548.688	13846.2
549.052	13990.15
549.416	14062.47
549.779	14138.4
550.143	14090.72
550.507	14221.79
550.871	14240.09
551.235	14244.84
551.599	14408.22
551.962	14392.63
552.326	14426.98
552.689	14535.68
553.053	14519.18
553.417	14450.03
553.78	14726.63
554.143	14649.8
554.507	14653.41
554.87	14760.98
555.234	14859.96
555.597	14804.14
555.96	14860.41
556.323	14993.52
556.686	14940.86
557.05	15094.31
557.413	15154.19
557.776	15101.54
558.139	15213.17
558.502	15308.99
558.865	15293.85
559.228	15455.65
559.59	15361.42
559.953	15423.79
560.316	15720.96
560.679	15584.01
561.041	15676.21
561.404	15771.12
561.767	15839.15
562.129	15837.11
562.492	15921.18
562.854	15974.06
563.217	15969.99
563.579	16122.98
563.941	16138.57
564.304	16148.74
564.666	16353.48
565.028	16339.02
565.39	16352.58
565.753	16453.82
566.115	16543.08
566.477	16451.11
566.839	16577.21
567.201	16739.46
567.563	16685.45
567.925	16843.87
568.287	16839.57
568.648	16909.4
569.01	16941.49
569.372	17142.39
569.734	17016.97
570.095	17134.25
570.457	17292.89
570.819	17238.43
571.18	17390.07
571.542	17481.14
571.903	17516.16
572.265	17550.29
572.626	17603.85
572.987	17766.33
573.349	17848.36
573.71	17936.04
574.071	17938.07
574.432	18019.65
574.794	18237.05
575.155	18269.36
575.516	18257.16
575.877	18404.73
576.238	18520.66
576.599	18733.98
576.96	18814.66
577.32	18877.94
577.681	19034.32
578.042	19129
578.403	19170.81
578.763	19388.2
579.124	19422.55
579.485	19601.31
579.845	19809.66
580.206	19895.08
580.566	19918.59
580.927	20130.11
581.287	20381.85
581.648	20378.46
582.008	20700.71
582.368	20834.04
582.728	21005.79
583.089	21108.84
583.449	21209.85
583.809	21479.9
584.169	21674.25
584.529	21794.92
584.889	22271.29
585.249	22259.32
585.609	22402.14
585.969	22817.49
586.329	22898.62
586.688	23152.17
587.048	23325.5
587.408	23446.18
587.768	23724.14
588.127	23824.47
588.487	24126.16
588.846	24431.24
589.206	24643.21
589.565	24904.67
589.925	25126.13
590.284	25263.53
590.643	25660.58
591.003	25794.82
591.362	26208.14
591.721	26357.06
592.08	26579.88
592.44	26906.88
592.799	27105.06
593.158	27257.6
593.517	27503.02
593.876	27842.45
594.235	27985.72
594.593	28246.5
594.952	28561.3
595.311	28646.49
595.67	28922.64
596.029	29454.38
596.387	29543.64
596.746	29855.5
597.104	29952.22
597.463	30147.92
597.822	30508.14
598.18	30659.55
598.538	30861.58
598.897	31292.3
599.255	31366.2
599.613	31896.8
599.972	31883.24
600.33	32104.71
600.688	32255.21
601.046	32548.31
601.404	32854.52
601.762	32881.86
602.12	33356.2
602.478	33376.09
602.836	33550.77
603.194	33727.26
603.552	33980.82
603.91	33960.93
604.268	34339.22
604.625	34474.36
604.983	34730.4
605.341	34722.04
605.698	35110.28
606.056	35465.52
606.413	35462.36
606.771	35698.28
607.128	35901.89
607.485	35932.63
607.843	36087.65
608.2	36525.38
608.557	36548.88
608.914	36637.69
609.272	36946.61
609.629	37106.84
609.986	37232.48
610.343	37287.85
610.7	37691
611.057	37785.46
611.414	37856.87
611.771	38022.07
612.127	38282.62
612.484	38260.03
612.841	38602.39
613.198	38553.8
613.554	38634.25
613.911	38931.87
614.267	38977.75
614.624	39115.6
614.98	39132.09
615.337	39495.02
615.693	39559.65
616.05	39474.68
616.406	39833.99
616.762	39761.45
617.118	39809.81
617.475	39928.46
617.831	40047.1
618.187	40134.78
618.543	40277.83
618.899	40570.25
619.255	40537.03
619.611	40672.84
619.967	40947.86
620.323	41047.75
620.678	40912.16
621.034	40919.84
621.39	40985.83
621.746	41050.46
622.101	41673.72
622.457	41366.84
622.812	41456.78
623.168	41530.67
623.523	41644.57
623.879	41818.35
624.234	41504.69
624.589	41669.43
624.945	41866.48
625.3	41930.89
625.655	41919.59
626.01	42086.82
626.365	41996.88
626.72	42073.03
627.075	41972.47
627.43	42096.76
627.785	42151.67
628.14	42133.82
628.495	42171.11
628.85	42110.32
629.205	42016.76
629.559	42320.48
629.914	42001.4
630.269	42383.76
630.623	42283.87
630.978	42098.79
631.332	42273.7
631.687	42519.35
632.041	42302.18
632.396	42450.65
632.75	42177.44
633.104	42294.72
633.459	42197.77
633.813	42328.84
634.167	42320.48
634.521	42303.08
634.875	42289.75
635.229	42295.17
635.583	42170.43
635.937	42335.85
636.291	42099.25
636.645	42200.03
636.999	41994.16
637.352	42133.14
637.706	41957.55
638.06	42290.2
638.413	42046.14
638.767	42026.93
639.121	42181.96
639.474	41820.61
639.828	42064.22
640.181	42012.92
640.534	42049.98
640.888	41942.41
641.241	41844.79
641.594	41868.07
641.947	42048.85
642.301	41813.83
642.654	42011.11
643.007	41838.69
643.36	41935.18
643.713	41965.69
644.066	42031.9
644.419	41643.66
644.771	41427.4
645.124	41156.67
645.477	41067.41
645.83	40750.81
646.182	40679.62
646.535	40580.19
646.888	40749.23
647.24	40594.88
647.593	40695.89
647.945	40570.47
648.298	40469.46
648.65	40444.15
649.002	40289.8
649.355	40453.64
649.707	40479.85
650.059	40619.06
650.411	40997.81
650.763	41109.22
651.115	41399.15
651.467	41361.64
651.819	41396.44
652.171	41291.36
652.523	41256.56
652.875	41162.77
653.227	40973.17
653.578	41151.25
653.93	41268.08
654.282	40938.37
654.633	40906.06
654.985	41017.69
655.337	41033.29
655.688	41061.08
656.039	41239.61
656.391	40938.37
656.742	40837.13
657.094	41055.43
657.445	41115.09
657.796	40991.03
658.147	40993.51
658.498	40932.72
658.849	40936.56
659.2	40950.58
659.551	40934.53
659.902	40999.61
660.253	40928.2
660.604	40999.84
660.955	40802.78
661.306	40913.97
661.656	40815.89
662.007	40757.13
662.358	40847.3
662.708	40756.68
663.059	40660.41
663.409	40676.23
663.76	40854.76
664.11	40799.17
664.461	40916.45
664.811	40981.99
665.161	40732.28
665.511	40601.43
665.862	40677.14
666.212	40756.91
666.562	40858.15
666.912	40817.7
667.262	40499.51
667.612	40710.36
667.962	40714.88
668.312	40591.49
668.662	40926.4
669.011	40670.58
669.361	40596.69
669.711	40617.03
670.06	40539.51
670.41	40529.34
670.76	40474.2
671.109	40503.81
671.459	40479.18
671.808	40536.12
672.157	40531.38
672.507	40232.18
672.856	40399.63
673.205	40320.99
673.554	40426.07
673.904	40286.86
674.253	40620.64
674.602	40292.06
674.951	39903.6
675.3	39617.28
675.649	40353.3
675.998	40296.36
676.346	40339.07
676.695	40372.06
677.044	40051.84
677.393	40196.47
677.741	40197.6
678.09	40065.18
678.438	40078.28
678.787	40215.23
679.135	40104.95
679.484	39980.66
679.832	40009.58
680.181	39811.85
680.529	39973.43
680.877	39875.58
681.225	39816.14
681.573	39884.16
681.922	39629.03
682.27	39728.69
682.618	39774.11
682.966	39425.64
683.314	39635.13
683.661	39588.35
684.009	39447.34
684.357	39240.56
684.705	39126.89
685.053	39213.9
685.4	39116.95
685.748	38915.15
686.095	38976.16
686.443	38920.35
686.79	38906.34
687.138	38857.07
687.485	38895.49
687.832	38785.43
688.18	38744.08
688.527	38507.02
688.874	38618.66
689.221	38574.37
689.568	38352.45
689.915	38282.85
690.262	38327.59
690.609	38083.76
690.956	38014.61
691.303	37970.77
691.65	37853.71
691.997	37883.54
692.344	37601.51
692.69	37598.57
693.037	37652.36
693.383	37310.22
693.73	37510.21
694.077	37266.6
694.423	37401.06
694.769	37158.36
695.116	36958.82
695.462	36960.85
695.808	36799.72
696.155	36898.48
696.501	36633.85
696.847	36672.04
697.193	36475.67
697.539	36598.15
697.885	36391.15
698.231	36239.51
698.577	36266.63
698.923	36197.93
699.269	35940.09
699.614	35831.16
699.96	35801.78
700.306	35908.67
700.651	35674.56
700.997	35509.59
701.342	35486.09
701.688	35247.9
702.033	35226.43
702.379	35305.75
702.724	35193.89
703.069	35267.11
703.415	34826.22
703.76	34758.87
704.105	34889.94
704.45	34753.45
704.795	34637.75
705.14	34492.89
705.485	34507.13
705.83	34336.74
706.175	34470.97
706.52	34273.01
706.865	34216.97
707.209	34137.87
707.554	34067.82
707.899	34028.05
708.243	33896.98
708.588	33878.9
708.932	33537.44
709.277	33655.85
709.621	33611.33
709.966	33512.13
710.31	33494.73
710.654	33091.8
710.998	33179.48
711.342	33312.13
711.687	33161.63
712.031	33070.56
712.375	33038.47
712.719	32943.78
713.063	32894.74
713.407	33024.46
713.75	32717.35
714.094	32761.86
714.438	32655.65
714.782	32790.34
715.125	32575.2
715.469	32624.92
715.812	32434.19
716.156	32323.46
716.499	32146.51
716.843	32355.77
717.186	32026.06
717.53	32209.56
717.873	32120.3
718.216	32036.69
718.559	32024.26
718.902	31747.65
719.246	31664.27
719.589	31706.07
719.932	31557.6
720.275	31703.81
720.617	31476.93
720.96	31563.7
721.303	31525.29
721.646	31470.6
721.989	31342.24
722.331	31363.71
722.674	31307.89
723.016	31323.71
723.359	31263.15
723.701	31310.6
724.044	31124.17
724.386	30924.85
724.729	31137.5
725.071	31049.14
725.413	31032.19
725.755	30834.46
726.097	30795.36
726.439	30596.27
726.782	30603.73
727.124	30643.95
727.465	30551.08
727.807	30683.05
728.149	30556.72
728.491	30345.43
728.833	30522.83
729.175	30379.55
729.516	30292.32
729.858	30196.28
730.199	30234.93
730.541	30173.91
730.882	30098.21
731.224	30205.1
731.565	29976.63
731.906	30150.63
732.248	30014.37
732.589	29902.28
732.93	29849.17
733.271	29812.11
733.612	29809.85
733.953	29943.18
734.294	29762.85
734.635	29686.24
734.976	29883.75
735.317	29563.98
735.658	29479.69
735.999	29578.22
736.339	29472.69
736.68	29468.39
737.021	29443.76
737.361	29202.86
737.702	29442.18
738.042	29322.86
738.383	29221.17
738.723	29284.89
739.063	29116.99
739.404	29227.04
739.744	29085.13
740.084	28909.08
740.424	29043.54
740.764	29013.49
741.104	29172.13
741.444	28893.04
741.784	28832.93
742.124	28987.73
742.464	28863.44
742.804	28795.87
743.143	28717.23
743.483	28748.41
743.823	28590.67
744.162	28618.7
744.502	28650.11
744.841	28432.03
745.181	28651.24
745.52	28458.93
745.86	28504.58
746.199	28434.29
746.538	28344.58
746.877	28464.58
747.216	28288.31
747.556	28233.17
747.895	28306.39
748.234	28096
748.573	28150.91
748.911	27944.36
749.25	27986.62
749.589	27946.17
749.928	27954.99
750.267	28009.9
750.605	27867.3
750.944	27804.48
751.283	27690.36
751.621	27820.07
751.96	27644.03
752.298	27605.39
752.636	27599.51
752.975	27451.27
753.313	27408.11
753.651	27566.07
753.989	27430.48
754.327	27371.95
754.666	27184.16
755.004	27225.51
755.342	27262.8
755.679	27049.7
756.017	26941
756.355	26960.44
756.693	26934.22
757.031	26959.53
757.368	26900.1
757.706	26642.93
