Data from hue_10_FLMS001491_100.txt Node
Date: Mon Feb 06 15:32:51 GMT 2017
User: dcchb
Spectrometer: FLMS00149
Trigger mode: 0
Integration Time (sec): 2.000000E-2
Scans to average: 10
Electric dark correction enabled: true
Nonlinearity correction enabled: false
Boxcar width: 0
XAxis mode: Wavelengths
Number of Pixels in Spectrum: 2048
>>>>>Begin Spectral Data<<<<<
341.393	-22.58
341.776	-22.58
342.16	-22.58
342.543	-73.66
342.927	-51.74
343.31	-61.23
343.693	-64.62
344.077	-70.94
344.46	-68.23
344.843	-44.5
345.226	-31.85
345.61	-32.75
345.993	-27.56
346.376	-9.25
346.759	9.28
347.142	19.9
347.525	31.43
347.908	46.79
348.291	80.24
348.674	107.13
349.057	116.17
349.44	135.38
349.823	143.51
350.206	160.24
350.588	193.68
350.971	181.03
351.354	214.92
351.737	242.04
352.119	231.65
352.502	238.65
352.884	263.06
353.267	279.33
353.65	285.66
354.032	291.08
354.414	295.6
354.797	298.99
355.179	307.12
355.562	308.48
355.944	308.03
356.326	312.55
356.709	329.05
357.091	322.27
357.473	339.44
357.855	343.73
358.238	332.21
358.62	325.88
359.002	356.84
359.384	341.93
359.766	323.4
360.148	330.17
360.53	322.04
360.912	320.91
361.294	314.58
361.676	325.43
362.057	323.85
362.439	320.68
362.821	328.82
363.203	307.8
363.584	318.2
363.966	325.43
364.348	335.15
364.729	336.05
365.111	298.31
365.493	316.84
365.874	301.48
366.256	312.77
366.637	295.83
367.019	312.55
367.4	318.42
367.781	310.97
368.163	299.67
368.544	313.45
368.925	303.51
369.306	305.99
369.688	321.81
370.069	299.67
370.45	324.53
370.831	296.05
371.212	310.97
371.593	308.25
371.974	325.43
372.355	314.58
372.736	332.21
373.117	301.48
373.498	301.25
373.879	298.31
374.26	301.48
374.641	311.19
375.021	323.62
375.402	318.2
375.783	312.32
376.163	322.72
376.544	311.87
376.925	317.07
377.305	329.5
377.686	327.92
378.066	331.3
378.447	316.84
378.827	312.1
379.208	317.07
379.588	324.75
379.968	329.27
380.349	340.12
380.729	329.27
381.109	333.79
381.489	331.98
381.87	341.7
382.25	317.52
382.63	327.01
383.01	328.82
383.39	343.28
383.77	326.56
384.15	316.39
384.53	319.78
384.91	341.02
385.29	334.47
385.67	338.31
386.049	330.85
386.429	324.07
386.809	333.34
387.189	317.07
387.568	327.69
387.948	334.02
388.328	342.83
388.707	363.62
389.087	327.92
389.466	335.15
389.846	355.03
390.225	331.76
390.605	336.95
390.984	344.19
391.363	360.68
391.743	374.92
392.122	340.12
392.501	354.36
392.881	360.46
393.26	366.33
393.639	359.55
394.018	355.94
394.397	367.91
394.776	369.04
395.155	387.57
395.534	371.53
395.913	386.67
396.292	368.37
396.671	366.78
397.05	376.05
397.429	369.72
397.808	361.36
398.186	378.08
398.565	389.61
398.944	365.43
399.323	381.7
399.701	393.45
400.08	391.19
400.458	387.57
400.837	382.15
401.215	390.29
401.594	407.46
401.972	396.84
402.351	408.82
402.729	410.85
403.107	408.36
403.486	405.2
403.864	402.04
404.242	381.7
404.62	390.96
404.999	421.25
405.377	400.91
405.755	396.61
406.133	391.19
406.511	414.01
406.889	396.61
407.267	403.85
407.645	426.44
408.023	441.58
408.401	401.13
408.779	418.31
409.156	421.47
409.534	418.76
409.912	405.65
410.29	416.27
410.667	442.26
411.045	458.76
411.422	444.75
411.8	439.55
412.178	428.93
412.555	447.23
412.933	433.45
413.31	456.05
413.687	469.61
414.065	464.18
414.442	441.13
414.819	451.3
415.197	446.78
415.574	451.75
415.951	470.96
416.328	474.13
416.705	457.63
417.082	495.14
417.46	485.88
417.837	489.72
418.214	483.39
418.591	479.1
418.967	536.27
419.344	499.89
419.721	512.77
420.098	491.53
420.475	500.11
420.852	518.42
421.228	502.15
421.605	487.01
421.982	502.15
422.358	491.98
422.735	480.68
423.111	517.51
423.488	520.68
423.864	517.51
424.241	549.15
424.617	508.48
424.994	515.93
425.37	517.97
425.746	545.31
426.123	534.01
426.499	534.92
426.875	559.77
427.251	559.32
427.627	525.2
428.003	555.93
428.379	543.95
428.756	554.58
429.132	566.78
429.507	584.41
429.883	573.33
430.259	590.06
430.635	562.26
431.011	597.74
431.387	576.04
431.763	583.95
432.138	605.65
432.514	606.78
432.89	590.96
433.265	616.5
433.641	622.14
434.016	621.01
434.392	638.42
434.767	624.18
435.143	631.64
435.518	639.77
435.894	664.4
436.269	649.94
436.644	629.83
437.02	636.61
437.395	637.06
437.77	659.88
438.145	673.44
438.52	667.57
438.895	684.06
439.271	673.22
439.646	699.43
440.021	708.02
440.395	723.16
440.77	674.57
441.145	702.37
441.52	714.35
441.895	727.9
442.27	729.03
442.645	718.19
443.019	711.86
443.394	709.6
443.769	725.64
444.143	739.2
444.518	736.27
444.892	751.41
445.267	728.58
445.641	743.05
446.016	743.05
446.39	767
446.764	766.1
447.139	759.77
447.513	741.69
447.887	766.55
448.262	761.8
448.636	774.23
449.01	801.12
449.384	780.56
449.758	801.35
450.132	796.6
450.506	798.86
450.88	792.31
451.254	807.68
451.628	822.82
452.002	817.62
452.376	819.88
452.75	849.03
453.123	835.02
453.497	846.55
453.871	830.05
454.244	865.98
454.618	849.94
454.992	878.86
455.365	865.3
455.739	871.18
456.112	892.87
456.486	908.92
456.859	903.72
457.232	928.35
457.606	930.16
457.979	933.55
458.352	947.56
458.725	927
459.099	942.14
459.472	956.83
459.845	955.7
460.218	972.42
460.591	996.37
460.964	999.99
461.337	991.63
461.71	1036.15
462.083	1023.49
462.456	1049.03
462.829	1051.29
463.201	1061.91
463.574	1058.52
463.947	1110.72
464.32	1096.71
464.692	1074.34
465.065	1108.91
465.438	1109.59
465.81	1152.3
466.183	1146.42
466.555	1171.51
466.928	1183.03
467.3	1165.86
467.672	1185.07
468.045	1197.72
468.417	1225.97
468.789	1217.16
469.161	1224.61
469.534	1243.82
469.906	1275.23
470.278	1284.27
470.65	1298.29
471.022	1322.01
471.394	1379.64
471.766	1361.11
472.138	1366.76
472.51	1409.47
472.882	1409.02
473.253	1433.87
473.625	1436.36
473.997	1470.26
474.369	1489.47
474.74	1503.03
475.112	1534.66
475.484	1557.26
475.855	1606.98
476.227	1581.89
476.598	1617.82
476.97	1650.82
477.341	1700.76
477.713	1729.23
478.084	1718.39
478.455	1764.71
478.827	1789.8
479.198	1845.39
479.569	1875.9
479.94	1884.94
480.311	1935.1
480.682	1956.8
481.053	2021.43
481.424	2049.23
481.795	2054.2
482.166	2121.09
482.537	2106.85
482.908	2189.34
483.279	2187.08
483.65	2212.16
484.021	2270.01
484.391	2329.9
484.762	2336.45
485.133	2351.36
485.503	2378.93
485.874	2458.71
486.244	2486.73
486.615	2526.05
486.985	2593.62
487.356	2638.36
487.726	2648.31
488.097	2676.1
488.467	2694.63
488.837	2801.52
489.207	2819.15
489.578	2828.41
489.948	2860.96
490.318	2901.63
490.688	2917.9
491.058	2991.8
491.428	3039.71
491.798	3064.11
492.168	3120.84
492.538	3123.32
492.908	3166.71
493.278	3216.43
493.648	3255.07
494.017	3302.07
494.387	3295.29
494.757	3338.68
495.126	3365.35
495.496	3401.96
495.866	3434.5
496.235	3460.26
496.605	3489.64
496.974	3515.63
497.344	3543.42
497.713	3548.62
498.082	3635.17
498.452	3643.31
498.821	3689.18
499.19	3678.56
499.559	3730.54
499.928	3745.45
500.298	3776.19
500.667	3789.97
501.036	3794.94
501.405	3857.09
501.774	3844.88
502.143	3883.3
502.512	3913.58
502.88	3962.62
503.249	3959.91
503.618	3980.7
503.987	3965.33
504.356	4042.62
504.724	3988.84
505.093	4070.42
505.462	4056.63
505.83	4088.95
506.199	4148.15
506.567	4132.56
506.936	4189.06
507.304	4184.54
507.672	4199.9
508.041	4216.85
508.409	4299.34
508.777	4279.68
509.145	4309.05
509.514	4271.77
509.882	4378.66
510.25	4309.05
510.618	4393.34
510.986	4373.23
511.354	4450.97
511.722	4440.12
512.09	4478.31
512.458	4474.25
512.826	4503.62
513.193	4526
513.561	4523.51
513.929	4570.29
514.297	4540.69
514.664	4613.9
515.032	4640.34
515.4	4670.17
515.767	4645.54
516.135	4657.52
516.502	4682.15
516.869	4741.58
517.237	4695.71
517.604	4707.01
517.972	4738.19
518.339	4746.33
518.706	4761.7
519.073	4860.68
519.44	4872.43
519.808	4871.3
520.175	4835.14
520.542	4880.79
520.909	4936.38
521.276	4934.12
521.643	4952.88
522.009	5005.53
522.376	4958.53
522.743	5054.12
523.11	5051.41
523.477	5104.96
523.843	5070.39
524.21	5215.02
524.577	5144.74
524.943	5199.88
525.31	5235.58
525.676	5291.85
526.043	5281.23
526.409	5315.81
526.776	5346.09
527.142	5398.97
527.508	5391.28
527.874	5449.36
528.241	5463.83
528.607	5489.14
528.973	5494.33
529.339	5520.09
529.705	5605.74
530.071	5633.54
530.437	5618.62
530.803	5665.63
531.169	5699.3
531.535	5641.67
531.901	5737.04
532.267	5718.06
532.632	5725.29
532.998	5796.47
533.364	5828.11
533.73	5792.86
534.095	5848.67
534.461	5853.87
534.826	5931.84
535.192	5985.85
535.557	5995.11
535.923	5980.87
536.288	6012.06
536.653	6044.6
537.019	6050.93
537.384	6083.02
537.749	6086.86
538.114	6071.49
538.479	6104.49
538.845	6118.27
539.21	6177.03
539.575	6210.7
539.94	6219.74
540.305	6258.83
540.67	6299.74
541.034	6341.54
541.399	6346.06
541.764	6368.21
542.129	6411.6
542.494	6415.44
542.858	6426.96
543.223	6423.8
543.587	6464.48
543.952	6487.08
544.316	6530.69
544.681	6526.4
545.045	6578.6
545.41	6641.42
545.774	6617.24
546.138	6656.56
546.503	6653.85
546.867	6703.57
547.231	6739.27
547.595	6719.61
547.959	6764.58
548.324	6826.28
548.688	6821.76
549.052	6814.3
549.416	6812.72
549.779	6860.85
550.143	6871.92
550.507	6944.01
550.871	6957.35
551.235	6976.33
551.599	7024.01
551.962	7072.14
552.326	7059.26
552.689	7100.17
553.053	7090
553.417	7075.76
553.78	7140.84
554.143	7126.61
554.507	7147.85
554.87	7210.45
555.234	7219.94
555.597	7219.71
555.96	7253.83
556.323	7314.17
556.686	7274.63
557.05	7322.99
557.413	7330.22
557.776	7381.97
558.139	7428.07
558.502	7424
558.865	7444.34
559.228	7549.87
559.59	7593.71
559.953	7526.37
560.316	7608.85
560.679	7584
561.041	7641.4
561.404	7618.8
561.767	7689.08
562.129	7709.42
562.492	7792.35
562.854	7765.91
563.217	7715.07
563.579	7793.48
563.941	7859.47
564.304	7901.73
564.666	7915.29
565.028	7914.61
565.39	7968.17
565.753	8062.63
566.115	8030.99
566.477	8074.38
566.839	8096.75
567.201	8226.69
567.563	8109.18
567.925	8186.92
568.287	8199.12
568.648	8225.79
569.01	8308.95
569.372	8294.71
569.734	8258.33
570.095	8374.94
570.457	8392.79
570.819	8390.08
571.18	8478.44
571.542	8461.71
571.903	8541.03
572.265	8566.79
572.626	8592.78
572.987	8608.38
573.349	8737.64
573.71	8728.6
574.071	8791.65
574.432	8860.57
574.794	8932.66
575.155	8963.62
575.516	9008.82
575.877	9022.6
576.238	9042.71
576.599	9191.86
576.96	9152.99
577.32	9231.86
577.681	9426.43
578.042	9457.62
578.403	9562.47
578.763	9628.69
579.124	9609.48
579.485	9766.99
579.845	9882.92
580.206	9887.21
580.566	10051.5
580.927	10109.35
581.287	10337.6
581.648	10366.75
582.008	10577.36
582.368	10564.48
582.728	10715.66
583.089	10842.67
583.449	10922.89
583.809	11076.56
584.169	11288.98
584.529	11342.31
584.889	11611.91
585.249	11720.38
585.609	11912.24
585.969	12065.01
586.329	12202.18
586.688	12436.75
587.048	12641.26
587.408	12822.73
587.768	13051.87
588.127	13244.86
588.487	13419.77
588.846	13758.52
589.206	13873.55
589.565	14037.16
589.925	14325.97
590.284	14583.81
590.643	14793.52
591.003	15111.26
591.362	15292.95
591.721	15570.68
592.08	15848.18
592.44	16083.43
592.799	16381.96
593.158	16574.04
593.517	16763.64
593.876	17207.7
594.235	17394.13
594.593	17635.26
594.952	17980.78
595.311	18172.42
595.67	18500.54
596.029	18857.37
596.387	19164.03
596.746	19395.66
597.104	19672.94
597.463	19946.38
597.822	20299.14
598.18	20432.02
598.538	20752.46
598.897	21171.89
599.255	21173.47
599.613	21909.95
599.972	21978.19
600.33	22208.47
600.688	22423.61
601.046	22782.47
601.404	23176.13
601.762	23426.97
602.12	23738.15
602.478	23903.57
602.836	24331.58
603.194	24323.67
603.552	24675.07
603.91	24762.75
604.268	25193.7
604.625	25432.57
604.983	25817.19
605.341	25728.38
605.698	26250.4
606.056	26482.03
606.413	26706.66
606.771	27047.66
607.128	27284.27
607.485	27303.48
607.843	27629.8
608.2	27947.53
608.557	28175.09
608.914	28239.72
609.272	28715.87
609.629	28810.78
609.986	29276.08
610.343	29327.15
610.7	29682.4
611.057	29801.72
611.414	29906.8
611.771	30121.93
612.127	30460.91
612.484	30590.62
612.841	30744.74
613.198	30931.4
613.554	31013.89
613.911	31328.68
614.267	31596.02
614.624	31638.73
614.98	31914.43
615.337	32170.47
615.693	32276
616.05	32310.13
616.406	32663.11
616.762	32625.14
617.118	32897.91
617.475	32890
617.831	33351.68
618.187	33310.32
618.543	33411.11
618.899	33891.33
619.255	33814.72
619.611	33939.01
619.967	34080.93
620.323	34219
620.678	34161.6
621.034	34240.7
621.39	34502.61
621.746	34573.79
622.101	34922.94
622.457	34829.38
622.812	34959.77
623.168	35143.72
623.523	35249.93
623.879	35392.53
624.234	35124.29
624.589	35576.93
624.945	35618.51
625.3	35783.71
625.655	35768.11
626.01	35928.11
626.365	35975.79
626.72	36020.54
627.075	36050.82
627.43	36110.03
627.785	36083.59
628.14	36181.66
628.495	36289.23
628.85	36245.39
629.205	36210.59
629.559	36407.87
629.914	36342.11
630.269	36472.95
630.623	36336.46
630.978	36346.18
631.332	36597.47
631.687	36649.9
632.041	36657.36
632.396	36640.86
632.75	36612.61
633.104	36669.11
633.459	36474.31
633.813	36610.35
634.167	36638.82
634.521	36483.57
634.875	36637.69
635.229	36660.52
635.583	36658.49
635.937	36565.83
636.291	36557.7
636.645	36709.78
636.999	36708.88
637.352	36769.22
637.706	36465.27
638.06	36715.43
638.413	36643.34
638.767	36635.21
639.121	36686.06
639.474	36456.46
639.828	36616
640.181	36698.03
640.534	36809.89
640.888	36477.93
641.241	36511.6
641.594	36496
641.947	36580.52
642.301	36589.79
642.654	36681.99
643.007	36644.7
643.36	36550.69
643.713	36630.69
644.066	36722.66
644.419	36429.34
644.771	36217.37
645.124	35843.37
645.477	35839.3
645.83	35566.99
646.182	35596.82
646.535	35509.81
646.888	35604.28
647.24	35284.51
647.593	35548.46
647.945	35574.67
648.298	35410.38
648.65	35312.08
649.002	35232.08
649.355	35348.69
649.707	35332.64
650.059	35367.45
650.411	35980.99
650.763	35954.55
651.115	36333.07
651.467	36180.76
651.819	36220.98
652.171	36084.49
652.523	36095.34
652.875	36006.3
653.227	35922.69
653.578	36198.16
653.93	36083.13
654.282	35994.32
654.633	35882.01
654.985	35926.08
655.337	35903.25
655.688	35973.31
656.039	36126.07
656.391	35715.01
656.742	35921.1
657.094	35904.61
657.445	35935.79
657.796	35955.68
658.147	35810.37
658.498	35899.86
658.849	35919.07
659.2	35887.66
659.551	35634.33
659.902	35956.36
660.253	35701
660.604	35773.31
660.955	35635.46
661.306	35733.31
661.656	35786.87
662.007	35894.66
662.358	35665.52
662.708	35713.43
663.059	35731.96
663.409	35538.74
663.76	35756.81
664.11	35909.58
664.461	35865.29
664.811	35694.22
665.161	35793.42
665.511	35629.81
665.862	35723.82
666.212	35877.04
666.562	35913.87
666.912	35826.19
667.262	35690.38
667.612	35669.13
667.962	35708.23
668.312	35650.15
668.662	35886.75
669.011	35750.94
669.361	35600.66
669.711	35601.79
670.06	35692.41
670.41	35557.05
670.76	35505.3
671.109	35617.61
671.459	35592.07
671.808	35517.05
672.157	35620.32
672.507	35418.74
672.856	35379.65
673.205	35310.05
673.554	35569.7
673.904	35414.9
674.253	35505.52
674.602	35427.33
674.951	34978.76
675.3	34735.37
675.649	35325.86
675.998	35311.4
676.346	35295.81
676.695	35345.98
677.044	35070.28
677.393	35298.07
677.741	35298.97
678.09	35192.76
678.438	35094.23
678.787	35113.22
679.135	35224.85
679.484	34890.62
679.832	35162.25
680.181	35014.23
680.529	35036.16
680.877	35011.52
681.225	34896.5
681.573	35170.39
681.922	34902.6
682.27	34661.93
682.618	34763.62
682.966	34635.71
683.314	34734.47
683.661	34693.57
684.009	34416.51
684.357	34376.06
684.705	34345.33
685.053	34356.4
685.4	34196.4
685.748	34184.2
686.095	34180.58
686.443	33927.03
686.79	33951.44
687.138	33944.88
687.485	34096.29
687.832	33814.49
688.18	34020.59
688.527	33815.17
688.874	33850.88
689.221	33670.77
689.568	33595.29
689.915	33514.84
690.262	33497.21
690.609	33432.81
690.956	33323.43
691.303	33348.06
691.65	33092.25
691.997	33071.01
692.344	32972.71
692.69	32950.79
693.037	33012.48
693.383	32682.54
693.73	32818.36
694.077	32552.6
694.423	32648.42
694.769	32581.76
695.116	32475.54
695.462	32398.03
695.808	32205.27
696.155	32316.68
696.501	32161.43
696.847	32114.2
697.193	31870.81
697.539	31988.33
697.885	31711.04
698.231	31748.33
698.577	31626.3
698.923	31662.23
699.269	31450.94
699.614	31285.07
699.96	31238.51
700.306	31317.83
700.651	31159.42
700.997	31051.63
701.342	30987.45
701.688	30986.32
702.033	30996.26
702.379	30819.54
702.724	30801.46
703.069	30770.5
703.415	30413.9
703.76	30446.22
704.105	30542.04
704.45	30293.45
704.795	30217.07
705.14	30070.41
705.485	30134.14
705.83	30041.94
706.175	30068.6
706.52	29913.58
706.865	29799.23
707.209	29627.48
707.554	29599.69
707.899	29727.14
708.243	29624.32
708.588	29641.72
708.932	29260.94
709.277	29353.14
709.621	29300.94
709.966	29136.88
710.31	29223.43
710.654	29036.54
710.998	29127.84
711.342	29123.09
711.687	28968.29
712.031	28921.74
712.375	28777.79
712.719	28763.1
713.063	28719.26
713.407	28853.49
713.75	28557.23
714.094	28705.02
714.438	28489.89
714.782	28508.42
715.125	28388.87
715.469	28424.13
715.812	28275.2
716.156	28161.76
716.499	28114.98
716.843	28197.46
717.186	27923.12
717.53	28143.45
717.873	28118.82
718.216	28041.99
718.559	27979.17
718.902	27695.33
719.246	27858.04
719.589	27618.05
719.932	27532.62
720.275	27688.55
720.617	27708.44
720.96	27502.57
721.303	27488.56
721.646	27401.33
721.989	27380.09
722.331	27389.35
722.674	27328.11
723.016	27348.45
723.359	27220.77
723.701	27272.97
724.044	26988.91
724.386	26942.36
724.729	27041.34
725.071	26941
725.413	27043.14
725.755	26983.94
726.097	26831.4
726.439	26683.83
726.782	26767.9
727.124	26897.61
727.465	26649.48
727.807	26682.48
728.149	26643.61
728.491	26453.56
728.833	26582.82
729.175	26397.96
729.516	26454.69
729.858	26315.71
730.199	26447
730.541	26362.94
730.882	26332.66
731.224	26388.25
731.565	26077.97
731.906	26225.99
732.248	26311.19
732.589	26152.77
732.93	25976.51
733.271	26021.7
733.612	26007.47
733.953	26037.97
734.294	25830.52
734.635	25834.36
734.976	25907.36
735.317	25651.09
735.658	25725.67
735.999	25851.54
736.339	25563.64
736.68	25610.64
737.021	25771.09
737.361	25488.38
737.702	25679.79
738.042	25630.3
738.383	25557.31
738.723	25558.89
739.063	25445.67
739.404	25501.04
739.744	25413.58
740.084	25299.69
740.424	25464.43
740.764	25347.14
741.104	25337.2
741.444	25247.49
741.784	25089.75
742.124	25191.44
742.464	25125.46
742.804	25138.11
743.143	25030.77
743.483	25030.32
743.823	24966.14
744.162	24983.76
744.502	24954.61
744.841	24894.27
745.181	24774.28
745.52	24692.7
745.86	24798.91
746.199	24758.69
746.538	24742.87
746.877	24769.08
747.216	24826.48
747.556	24621.06
747.895	24693.83
748.234	24527.5
748.573	24554.62
748.911	24644.56
749.25	24495.19
749.589	24382.2
749.928	24331.8
750.267	24413.16
750.605	24327.06
750.944	24304.91
751.283	24242.99
751.621	24350.79
751.96	24061.75
752.298	24089.55
752.636	24197.8
752.975	24013.39
753.313	23950.8
753.651	24073.51
753.989	23853.62
754.327	24007.74
754.666	23797.58
755.004	23807.3
755.342	23942.89
755.679	23751.25
756.017	23649.34
756.355	23658.83
756.693	23588.09
757.031	23640.52
757.368	23472.17
757.706	23434.43
758.044	23285.96
758.381	23406.4
758.719	23318.27
759.056	23225.17
759.394	23157.6
759.731	22949.02
760.068	23044.38
760.405	22991.27
760.743	22995.34
761.08	22987.21
