Data from hue_30_FLMS001491_84.txt Node
Date: Mon Feb 06 15:06:12 GMT 2017
User: dcchb
Spectrometer: FLMS00149
Trigger mode: 0
Integration Time (sec): 2.000000E-2
Scans to average: 10
Electric dark correction enabled: true
Nonlinearity correction enabled: false
Boxcar width: 0
XAxis mode: Wavelengths
Number of Pixels in Spectrum: 2048
>>>>>Begin Spectral Data<<<<<
341.393	-3.3
341.776	-3.3
342.16	-3.3
342.543	-57.99
342.927	-49.86
343.31	-58.9
343.693	-82.17
344.077	-64.09
344.46	-60.48
344.843	-49.18
345.226	-46.47
345.61	-36.52
345.993	-24.77
346.376	-16.41
346.759	-5.34
347.142	20.65
347.525	43.7
347.908	71.5
348.291	95.22
348.674	97.03
349.057	116.24
349.44	134.54
349.823	154.66
350.206	188.55
350.588	211.83
350.971	212.96
351.354	215.22
351.737	256.35
352.119	250.7
352.502	264.71
352.884	275.56
353.267	282.56
353.65	284.82
354.032	313.75
354.414	308.33
354.797	300.87
355.179	330.47
355.562	353.75
355.944	324.14
356.326	334.99
356.709	338.15
357.091	339.96
357.473	347.65
357.855	337.7
358.238	342.9
358.62	345.84
359.002	350.81
359.384	369.34
359.766	349.45
360.148	340.19
360.53	346.97
360.912	359.17
361.294	338.38
361.676	343.8
362.057	354.2
362.439	328.44
362.821	331.38
363.203	325.73
363.584	325.5
363.966	350.58
364.348	327.08
364.729	345.84
365.111	311.71
365.493	311.04
365.874	323.24
366.256	321.88
366.637	320.75
367.019	305.16
367.4	298.38
367.781	305.39
368.163	323.69
368.544	337.93
368.925	287.31
369.306	342.9
369.688	334.09
370.069	327.76
370.45	329.57
370.831	300.64
371.212	316.23
371.593	323.69
371.974	306.29
372.355	328.89
372.736	320.08
373.117	326.86
373.498	317.36
373.879	320.3
374.26	311.94
374.641	331.15
375.021	318.95
375.402	350.81
375.783	345.84
376.163	331.83
376.544	334.99
376.925	343.8
377.305	325.05
377.686	349.23
378.066	345.16
378.447	332.51
378.827	349.68
379.208	349
379.588	347.42
379.968	335.9
380.349	343.35
380.729	324.14
381.109	339.06
381.489	355.1
381.87	348.78
382.25	356.01
382.63	361.66
383.01	345.61
383.39	363.01
383.77	361.21
384.15	336.57
384.53	368.21
384.91	384.71
385.29	362.79
385.67	358.04
386.049	359.62
386.429	356.23
386.809	357.36
387.189	368.44
387.568	369.57
387.948	375.22
388.328	363.69
388.707	355.1
389.087	369.57
389.466	380.19
389.846	377.93
390.225	390.36
390.605	370.47
390.984	365.5
391.363	400.53
391.743	370.47
392.122	374.31
392.501	380.19
392.881	380.41
393.26	391.03
393.639	386.06
394.018	415.22
394.397	392.62
394.776	412.05
395.155	399.85
395.534	389.91
395.913	415.22
396.292	403.46
396.671	377.7
397.05	414.09
397.429	401.2
397.808	409.79
398.186	418.83
398.565	419.96
398.944	398.04
399.323	406.18
399.701	417.47
400.08	414.09
400.458	416.57
400.837	400.53
401.215	395.1
401.594	425.84
401.972	424.48
402.351	432.62
402.729	452.28
403.107	436.01
403.486	448.89
403.864	407.31
404.242	433.52
404.62	450.24
404.999	420.41
405.377	445.5
405.755	445.27
406.133	442.11
406.511	460.41
406.889	473.52
407.267	442.56
407.645	464.71
408.023	499.28
408.401	464.48
408.779	476.91
409.156	454.54
409.534	481.88
409.912	480.75
410.29	506.29
410.667	492.28
411.045	494.31
411.422	486.17
411.8	462.9
412.178	495.21
412.555	494.31
412.933	499.96
413.31	530.24
413.687	530.01
414.065	508.09
414.442	530.24
414.819	517.59
415.197	530.47
415.574	508.09
415.951	521.88
416.328	519.39
416.705	538.15
417.082	535.21
417.46	537.92
417.837	541.77
418.214	545.38
418.591	554.42
418.967	537.47
419.344	560.07
419.721	569.79
420.098	566.4
420.475	552.39
420.852	579.5
421.228	584.02
421.605	581.99
421.982	577.7
422.358	595.32
422.735	607.98
423.111	594.65
423.488	597.36
423.864	612.95
424.241	605.49
424.617	618.15
424.994	623.12
425.37	605.94
425.746	617.02
426.123	622.44
426.499	640.75
426.875	649.33
427.251	654.3
427.627	637.58
428.003	683.46
428.379	667.19
428.756	672.16
429.132	664.7
429.507	661.31
429.883	694.53
430.259	679.84
430.635	682.55
431.011	707.64
431.387	700.41
431.763	702.21
432.138	716.9
432.514	723.68
432.89	725.94
433.265	724.81
433.641	755.77
434.016	754.64
434.392	756.45
434.767	772.95
435.143	783.12
435.518	779.95
435.894	775.21
436.269	808.88
436.644	784.47
437.02	817.92
437.395	805.26
437.77	812.72
438.145	820.63
438.52	797.58
438.895	829.44
439.271	845.26
439.646	842.32
440.021	841.42
440.395	867.63
440.77	870.8
441.145	850.91
441.52	881.64
441.895	861.53
442.27	876.67
442.645	875.54
443.019	898.59
443.394	896.78
443.769	895.88
444.143	902.21
444.518	925.26
444.892	916.22
445.267	939.5
445.641	933.85
446.016	917.8
446.39	944.69
446.764	914.86
447.139	928.87
447.513	944.47
447.887	954.64
448.262	933.17
448.636	966.61
449.01	976.33
449.384	984.01
449.758	988.53
450.132	980.62
450.506	1015.2
450.88	1012.26
451.254	1008.42
451.628	1029.44
452.002	1011.58
452.376	1009.78
452.75	1048.19
453.123	1061.3
453.497	1062.43
453.871	1069.89
454.244	1083.67
454.618	1118.02
454.992	1121.41
455.365	1103.11
455.739	1130.68
456.112	1143.11
456.486	1163.22
456.859	1149.89
457.232	1164.35
457.606	1162.77
457.979	1189.88
458.352	1233.27
458.725	1235.76
459.099	1215.19
459.472	1257.23
459.845	1274.4
460.218	1279.83
460.591	1267.4
460.964	1298.81
461.337	1321.18
461.71	1366.15
462.083	1361.86
462.456	1347.62
462.829	1364.57
463.201	1380.84
463.574	1355.98
463.947	1429.2
464.32	1447.73
464.692	1462.19
465.065	1448.86
465.438	1461.74
465.81	1516.43
466.183	1507.16
466.555	1527.5
466.928	1569.54
467.3	1544.9
467.672	1596.88
468.045	1619.7
468.417	1644.79
468.789	1638.69
469.161	1653.83
469.534	1678.01
469.906	1734.5
470.278	1747.16
470.65	1749.87
471.022	1804.11
471.394	1847.72
471.766	1851.11
472.138	1862.18
472.51	1889.75
472.882	1953.03
473.253	1959.13
473.625	1995.51
473.997	2016.3
474.369	2075.51
474.74	2049.07
475.112	2124.1
475.484	2149.86
475.855	2136.3
476.227	2235.05
476.598	2268.95
476.97	2329.74
477.341	2360.02
477.713	2387.14
478.084	2435.27
478.455	2510.08
478.827	2540.13
479.198	2593.01
479.569	2635.27
479.94	2743.97
480.311	2769.5
480.682	2818.99
481.053	2868.48
481.424	2931.76
481.795	2969.05
482.166	3047.69
482.537	3086.33
482.908	3127.91
483.279	3210.17
483.65	3299.66
484.021	3388.47
484.391	3428.47
484.762	3474.12
485.133	3491.97
485.503	3568.58
485.874	3645.86
486.244	3704.62
486.615	3825.52
486.985	3836.14
487.356	3945.74
487.726	3983.26
488.097	4099.86
488.467	4137.6
488.837	4198.17
489.207	4264.15
489.578	4393.64
489.948	4470.02
490.318	4535.78
490.688	4525.16
491.058	4642.45
491.428	4681.32
491.798	4776.91
492.168	4898.26
492.538	4893.52
492.908	5026.39
493.278	5073.4
493.648	5138.03
494.017	5238.37
494.387	5239.5
494.757	5292.37
495.126	5411.02
495.496	5385.48
495.866	5440.39
496.235	5569.88
496.605	5663.89
496.974	5705.47
497.344	5718.13
497.713	5842.42
498.082	5833.38
498.452	5888.29
498.821	5996.31
499.19	6040.83
499.559	6077.21
499.928	6130.09
500.298	6181.17
500.667	6280.82
501.036	6285.12
501.405	6359.47
501.774	6344.32
502.143	6483.53
502.512	6465.68
502.88	6524.43
503.249	6575.28
503.618	6598.78
503.987	6632.9
504.356	6684.43
504.724	6817.08
505.093	6744.09
505.462	6820.7
505.83	6906.12
506.199	6884.42
506.567	6980.92
506.936	6956.96
507.304	7105.89
507.672	7153.34
508.041	7177.75
508.409	7239.44
508.777	7287.35
509.145	7321.02
509.514	7358.31
509.882	7380.91
510.25	7425.43
510.618	7471.07
510.986	7509.27
511.354	7548.36
511.722	7649.83
512.09	7674.91
512.458	7687.34
512.826	7794.23
513.193	7806.43
513.561	7820.67
513.929	7888.24
514.297	7944.51
514.664	8006.88
515.032	8063.38
515.4	8061.34
515.767	8095.47
516.135	8163.26
516.502	8108.57
516.869	8263.14
517.237	8262.47
517.604	8253.43
517.972	8280.54
518.339	8364.61
518.706	8378.4
519.073	8394.89
519.44	8488.9
519.808	8536.13
520.175	8552.4
520.542	8641.44
520.909	8720.53
521.276	8721.21
521.643	8785.39
522.009	8811.6
522.376	8872.39
522.743	8876.69
523.11	9053.63
523.477	9025.16
523.843	9064.71
524.21	9158.26
524.577	9209.11
524.943	9247.3
525.31	9233.97
525.676	9415.2
526.043	9491.13
526.409	9429.44
526.776	9565.26
527.142	9659.04
527.508	9633.28
527.874	9746.72
528.241	9765.48
528.607	9835.08
528.973	9919.37
529.339	9858.58
529.705	9971.12
530.071	10044.34
530.437	10127.5
530.803	10094.73
531.169	10169.99
531.535	10209.99
531.901	10259.7
532.267	10262.64
532.632	10324.79
532.998	10424.22
533.364	10480.94
533.73	10491.56
534.095	10581.73
534.461	10554.16
534.826	10606.81
535.192	10691.1
535.557	10739.69
535.923	10784.21
536.288	10836.18
536.653	10878.22
537.019	10875.28
537.384	10984.65
537.749	10967.48
538.114	10903.07
538.479	11023.52
538.845	11156.18
539.21	11023.07
539.575	11170.64
539.94	11173.12
540.305	11240.92
540.67	11294.25
541.034	11339.9
541.399	11375.15
541.764	11404.53
542.129	11519.1
542.494	11504.42
542.858	11550.06
543.223	11602.94
543.587	11585.54
543.952	11644.3
544.316	11695.14
544.681	11703.51
545.045	11814.69
545.41	11870.73
545.774	11940.79
546.138	11936.72
546.503	12002.48
546.867	12042.48
547.231	12077.73
547.595	12142.36
547.959	12150.5
548.324	12165.64
548.688	12154.12
549.052	12350.49
549.416	12357.73
549.779	12371.74
550.143	12466.42
550.507	12472.07
550.871	12599.53
551.235	12576.25
551.599	12734.89
551.962	12674.78
552.326	12682.24
552.689	12813.31
553.053	12711.16
553.417	12724.04
553.78	12992.74
554.143	12864.38
554.507	12925.17
554.87	13024.83
555.234	13137.37
555.597	13049.91
555.96	13063.7
556.323	13171.04
556.686	13121.55
557.05	13297.14
557.413	13288.32
557.776	13393.4
558.139	13354.99
558.502	13409.45
558.865	13410.81
559.228	13506.17
559.59	13576
559.953	13643.79
560.316	13736.45
560.679	13694.41
561.041	13771.25
561.404	13853.51
561.767	13942.77
562.129	13889.44
562.492	14055.31
562.854	14017.34
563.217	13993.84
563.579	14055.76
563.941	14159.71
564.304	14280.61
564.666	14267.96
565.028	14367.84
565.39	14441.51
565.753	14522.87
566.115	14513.15
566.477	14587.72
566.839	14543.21
567.201	14688.74
567.563	14688.74
567.925	14736.65
568.287	14772.35
568.648	14813.71
569.01	14947.94
569.372	15065.45
569.734	15027.71
570.095	15070.2
570.457	15170.08
570.819	15246.69
571.18	15321.72
571.542	15276.07
571.903	15370.98
572.265	15476.51
572.626	15593.12
572.987	15542.5
573.349	15673.8
573.71	15717.19
574.071	15784.75
574.432	15946.56
574.794	16074.69
575.155	16055.03
575.516	16055.48
575.877	16185.87
576.238	16209.38
576.599	16464.06
576.96	16502.48
577.32	16562.59
577.681	16706.76
578.042	16779.08
578.403	16959.41
578.763	17098.62
579.124	17247.31
579.485	17415.45
579.845	17430.13
580.206	17516.23
580.566	17643.69
580.927	17890.46
581.287	18053.62
581.648	18172.49
582.008	18374.74
582.368	18402.99
582.728	18794.17
583.089	18748.07
583.449	19007.04
583.809	19299.01
584.169	19428.95
584.529	19556.63
584.889	19870.97
585.249	19972.21
585.609	20141.93
585.969	20503.5
586.329	20691.52
586.688	20907.56
587.048	21190.04
587.408	21277.27
587.768	21610.14
588.127	21817.82
588.487	21976.91
588.846	22378.93
589.206	22590.23
589.565	22831.57
589.925	23204.67
590.284	23387.04
590.643	23654.83
591.003	23988.15
591.362	24264.53
591.721	24568.48
592.08	24855.25
592.44	25064.74
592.799	25421.11
593.158	25637.38
593.517	26001.66
593.876	26296.12
594.235	26537.47
594.593	26699.5
594.952	27240.95
595.311	27289.76
595.67	27677.32
596.029	28195.05
596.387	28441.37
596.746	28717.52
597.104	28909.16
597.463	29173.1
597.822	29565.41
598.18	29815.8
598.538	29912.74
598.897	30578.49
599.255	30512.5
599.613	31339.15
599.972	31226.16
600.33	31533.04
600.688	31692.13
601.046	32050.54
601.404	32393.81
601.762	32528.95
602.12	33021.82
602.478	33244.41
602.836	33366.67
603.194	33565.98
603.552	33994.45
603.91	33996.48
604.268	34372.51
604.625	34530.48
604.983	34780.64
605.341	34934.31
605.698	35379.95
606.056	35518.7
606.413	35766.6
606.771	36087.05
607.128	36361.39
607.485	36401.84
607.843	36462.4
608.2	36978.55
608.557	37366.33
608.914	37311.19
609.272	37757.96
609.629	38048.58
609.986	38238.63
610.343	38198.85
610.7	38677.26
611.057	38700.99
611.414	38902.34
611.771	39074.99
612.127	39299.16
612.484	39495.54
612.841	39672.26
613.198	39818.25
613.554	39884.91
613.911	40281.06
614.267	40358.12
614.624	40400.15
614.98	40451.22
615.337	41009.4
615.693	40968.27
616.05	41093.47
616.406	41471.99
616.762	41313.8
617.118	41516.51
617.475	41635.37
617.831	41834.01
618.187	41985.2
618.543	42175.25
618.899	42411.62
619.255	42586.31
619.611	42450.04
619.967	42717.83
620.323	42920.76
620.678	42731.39
621.034	42845.74
621.39	42889.58
621.746	42980.65
622.101	43515.55
622.457	43251.83
622.812	43326.63
623.168	43486.4
623.523	43572.72
623.879	43771.59
624.234	43530.47
624.589	43838.25
624.945	43937.91
625.3	44005.48
625.655	43923.9
626.01	43960.96
626.365	44163.67
626.72	44120.05
627.075	44079.83
627.43	44195.53
627.785	44128.42
628.14	44340.61
628.495	44462.42
628.85	44373.16
629.205	44406.15
629.559	44730.43
629.914	44465.36
630.269	44620.61
630.623	44485.02
630.978	44453.83
631.332	44507.39
631.687	44751.22
632.041	44574.51
632.396	44616.54
632.75	44523.66
633.104	44640.27
633.459	44480.95
633.813	44589.19
634.167	44494.73
634.521	44626.26
634.875	44722.98
635.229	44742.64
635.583	44455.64
635.937	44542.19
636.291	44496.77
636.645	44513.49
636.999	44407.05
637.352	44693.15
637.706	44507.84
638.06	44680.27
638.413	44667.84
638.767	44461.97
639.121	44432.14
639.474	44378.58
639.828	44435.98
640.181	44396.43
640.534	44450.67
640.888	44449.76
641.241	44267.4
641.594	44343.33
641.947	44455.41
642.301	44333.16
642.654	44398.92
643.007	44283.89
643.36	44405.02
643.713	44127.74
644.066	44412.02
644.419	44008.87
644.771	43868.31
645.124	43536.79
645.477	43509.22
645.83	43129.12
646.182	43076.92
646.535	43049.12
646.888	42967.99
647.24	42902.91
647.593	43115.56
647.945	42930.03
648.298	42822.24
648.65	42770.71
649.002	42743.59
649.355	42984.04
649.707	42787.43
650.059	43052.74
650.411	43410.92
650.763	43567.07
651.115	43993.05
651.467	43905.37
651.819	43857.24
652.171	43662.44
652.523	43606.62
652.875	43627.64
653.227	43608.66
653.578	43728.88
653.93	43758.26
654.282	43525.27
654.633	43408.43
654.985	43613.85
655.337	43550.13
655.688	43459.28
656.039	43609.11
656.391	43374.76
656.742	43362.79
657.094	43326.86
657.445	43535.21
657.796	43462.44
658.147	43315.78
658.498	43308.78
658.849	43381.32
659.2	43307.42
659.551	43306.97
659.902	43335.67
660.253	43184.03
660.604	43288.44
660.955	43074.21
661.306	43327.08
661.656	43287.99
662.007	43239.85
662.358	43387.87
662.708	43177.93
663.059	43261.77
663.409	42998.05
663.76	43226.29
664.11	43323.69
664.461	43240.76
664.811	43376.35
665.161	43021.78
665.511	43114.21
665.862	43120.53
666.212	43216.58
666.562	43196.92
666.912	43190.14
667.262	43146.52
667.612	43134.77
667.962	43178.61
668.312	43183.58
668.662	43257.93
669.011	43131.83
669.361	42986.98
669.711	42991.72
670.06	42985.4
670.41	42840.31
670.76	42800.99
671.109	43166.18
671.459	42910.14
671.808	42857.71
672.157	42958.05
672.507	42696.82
672.856	42803.03
673.205	42773.65
673.554	42868.11
673.904	42822.91
674.253	42940.42
674.602	42833.31
674.951	42248.92
675.3	42044.85
675.649	42735.46
675.998	42673.76
676.346	42671.28
676.695	42848.9
677.044	42502.02
677.393	42696.36
677.741	42749.7
678.09	42654.1
678.438	42478.52
678.787	42591.06
679.135	42580.89
679.484	42200.78
679.832	42459.31
680.181	42291.85
680.529	42477.16
680.877	42134.12
681.225	42086.66
681.573	42350.61
681.922	42096.6
682.27	41882.37
682.618	41935.25
682.966	41864.07
683.314	42097.73
683.661	41853
684.009	41605.32
684.357	41691.64
684.705	41501.82
685.053	41592.44
685.4	41497.07
685.748	41299.11
686.095	41330.07
686.443	41206.23
686.79	41114.03
687.138	41237.64
687.485	41325.33
687.832	41089.4
688.18	41066.35
688.527	40763.53
688.874	40849.18
689.221	40867.71
689.568	40669.75
689.915	40681.95
690.262	40582.07
690.609	40451.22
690.956	40475.63
691.303	40341.17
691.65	40113.61
691.997	40210.78
692.344	39910.9
692.69	39900.73
693.037	40006.49
693.383	39512.94
693.73	39785.48
694.077	39443.79
694.423	39410.8
694.769	39428.88
695.116	39259.84
695.462	39265.27
695.808	39105.5
696.155	39237.92
696.501	38937.14
696.847	38816.92
697.193	38582.35
697.539	38697.37
697.885	38547.77
698.231	38397.95
698.577	38546.64
698.923	38286.99
699.269	38198.4
699.614	38091.29
699.96	38045.19
700.306	37969.71
700.651	37711.64
700.997	37620.11
701.342	37636.16
701.688	37621.69
702.033	37509.15
702.379	37360.91
702.724	37314.81
703.069	37331.53
703.415	36986.91
703.76	36989.62
704.105	37046.34
704.45	36788.5
704.795	36716.18
705.14	36620.82
705.485	36545.79
705.83	36487.71
706.175	36553.02
706.52	36383.31
706.865	36170.66
707.209	36310.77
707.554	36172.69
707.899	36179.47
708.243	35900.61
708.588	35936.09
708.932	35699.03
709.277	35677.34
709.621	35729.09
709.966	35512.82
710.31	35594.18
710.654	35289.1
710.998	35387.85
711.342	35344.01
711.687	35204.58
712.031	35107.41
712.375	34935.66
712.719	34937.25
713.063	34884.14
713.407	35012.27
713.75	34790.58
714.094	34802.11
714.438	34645.73
714.782	34674.88
715.125	34427.65
715.469	34543.58
715.812	34458.16
716.156	34278.73
716.499	34084.61
716.843	34235.12
717.186	34008.68
717.53	34127.1
717.873	34177.72
718.216	34084.39
718.559	33936.14
718.902	33531.63
719.246	33746.54
719.589	33676.26
719.932	33470.62
720.275	33569.15
720.617	33564.85
720.96	33477.4
721.303	33414.57
721.646	33406.89
721.989	33291.86
722.331	33333.45
722.674	33136.61
723.016	33243.05
723.359	33233.79
723.701	33164.18
724.044	33012.32
724.386	32611.43
724.729	32917.86
725.071	32716.06
725.413	32815.49
725.755	32751.54
726.097	32647.14
726.439	32461.83
726.782	32493.02
727.124	32546.12
727.465	32388.84
727.807	32376.86
728.149	32305
728.491	32373.92
728.833	32232.46
729.175	32298.67
729.516	32163.98
729.858	32069.52
730.199	32170.09
730.541	32055.29
730.882	32051.45
731.224	32085.12
731.565	31834.95
731.906	31853.71
732.248	31815.29
732.589	31754.5
732.93	31627.05
733.271	31644
733.612	31608.52
733.953	31702.08
734.294	31418.92
734.635	31428.64
734.976	31523.55
735.317	31394.51
735.658	31278.13
735.999	31354.29
736.339	31284.46
736.68	31265.7
737.021	31184.58
737.361	31037.23
737.702	31171.92
738.042	31136.67
738.383	31040.17
738.723	31090.79
739.063	30867.75
739.404	30908.42
739.744	30915.43
740.084	30789.33
740.424	30804.02
740.764	30700.75
741.104	30957.01
741.444	30598.6
741.784	30507.31
742.124	30456.23
742.464	30514.99
742.804	30432.28
743.143	30437.7
743.483	30408.55
743.823	30208.78
744.162	30202.91
744.502	30221.89
744.841	30161.55
745.181	30238.16
745.52	30076.58
745.86	30079.07
746.199	30006.75
746.538	29986.64
746.877	30032.06
747.216	30016.92
747.556	29805.18
747.895	29908.9
748.234	29759.3
748.573	29802.69
748.911	29693.54
749.25	29688.34
749.589	29527.44
749.928	29597.05
750.267	29540.55
750.605	29430.27
750.944	29506.88
751.283	29368.13
751.621	29519.08
751.96	29258.52
752.298	29313.44
752.636	29273.89
752.975	29056.72
753.313	29032.32
753.651	29216.49
753.989	28929.04
754.327	28960.23
754.666	28744.41
755.004	28809.04
755.342	28826.22
755.679	28677.3
756.017	28517.08
756.355	28499.45
756.693	28495.15
757.031	28596.39
757.368	28425.33
