Data from hue_130_FLMS001491_00041.txt Node
Date: Tue Feb 07 16:57:39 GMT 2017
User: dcchb
Spectrometer: FLMS00149
Trigger mode: 0
Integration Time (sec): 2.000000E-2
Scans to average: 10
Electric dark correction enabled: true
Nonlinearity correction enabled: false
Boxcar width: 0
XAxis mode: Wavelengths
Number of Pixels in Spectrum: 2048
>>>>>Begin Spectral Data<<<<<
341.393	-1
341.776	-1
342.16	-1
342.543	-53.43
342.927	-51.62
343.31	-45.52
343.693	-87.78
344.077	-69.93
344.46	-55.01
344.843	-37.84
345.226	-47.56
345.61	-35.13
345.993	-17.95
346.376	4.87
346.759	26.57
347.142	10.97
347.525	29.28
347.908	75.15
348.291	71.54
348.674	88.94
349.057	89.39
349.44	118.99
349.823	169.39
350.206	165.32
350.588	191.53
350.971	231.53
351.354	225.66
351.737	230.86
352.119	263.17
352.502	257.97
352.884	279.89
353.267	290.51
353.65	304.07
354.032	320.57
354.414	320.57
354.797	329.16
355.179	307.24
355.562	356.73
355.944	330.06
356.326	351.08
356.709	344.07
357.091	341.36
357.473	358.31
357.855	352.66
358.238	344.98
358.62	356.73
359.002	358.31
359.384	359.67
359.766	341.59
360.148	346.78
360.53	340.91
360.912	336.62
361.294	344.75
361.676	356.5
362.057	334.58
362.439	331.42
362.821	325.77
363.203	330.74
363.584	343.39
363.966	338.2
364.348	352.21
364.729	325.99
365.111	340.01
365.493	329.61
365.874	321.02
366.256	337.29
366.637	321.93
367.019	333.45
367.4	336.62
367.781	309.95
368.163	329.84
368.544	328.03
368.925	319.89
369.306	314.24
369.688	337.07
370.069	339.33
370.45	336.62
370.831	337.97
371.212	327.35
371.593	322.6
371.974	326.67
372.355	317.63
372.736	324.41
373.117	314.02
373.498	312.89
373.879	313.79
374.26	327.35
374.641	321.93
375.021	300.23
375.402	333.45
375.783	318.99
376.163	326.67
376.544	349.5
376.925	335.49
377.305	334.58
377.686	317.18
378.066	330.51
378.447	351.3
378.827	323.51
379.208	355.37
379.588	348.37
379.968	340.91
380.349	342.27
380.729	342.49
381.109	343.17
381.489	346.33
381.87	355.6
382.25	356.95
382.63	338.88
383.01	340.91
383.39	338.2
383.77	340.68
384.15	347.91
384.53	358.31
384.91	356.05
385.29	331.64
385.67	350.17
386.049	384.07
386.429	359.89
386.809	368.93
387.189	378.42
387.568	368.93
387.948	351.08
388.328	358.31
388.707	387.46
389.087	360.34
389.466	387.46
389.846	354.92
390.225	382.49
390.605	365.99
390.984	363.28
391.363	378.65
391.743	368.25
392.122	367.58
392.501	382.72
392.881	375.03
393.26	374.81
393.639	394.69
394.018	373
394.397	406.44
394.776	396.73
395.155	397.63
395.534	406.67
395.913	392.89
396.292	395.37
396.671	412.55
397.05	397.4
397.429	411.64
397.808	397.18
398.186	410.51
398.565	396.05
398.944	397.63
399.323	417.97
399.701	416.61
400.08	422.71
400.458	413.9
400.837	410.51
401.215	420.91
401.594	389.72
401.972	399.44
402.351	410.29
402.729	429.49
403.107	405.77
403.486	428.36
403.864	427.01
404.242	418.87
404.62	447.57
404.999	412.77
405.377	418.2
405.755	432.21
406.133	439.89
406.511	431.75
406.889	440.12
407.267	438.08
407.645	441.92
408.023	435.14
408.401	456.39
408.779	458.42
409.156	441.92
409.534	456.61
409.912	475.82
410.29	461.81
410.667	496.61
411.045	479.66
411.422	463.84
411.8	479.66
412.178	488.02
412.555	482.83
412.933	488.93
413.31	495.71
413.687	500.23
414.065	492.77
414.442	518.53
414.819	499.55
415.197	498.87
415.574	507.68
415.951	523.28
416.328	497.29
416.705	507.46
417.082	510.17
417.46	513.11
417.837	527.8
418.214	521.02
418.591	513.56
418.967	553.56
419.344	543.62
419.721	527.8
420.098	552.2
420.475	552.65
420.852	559.66
421.228	548.59
421.605	560.56
421.982	548.14
422.358	570.73
422.735	553.11
423.111	586.1
423.488	598.3
423.864	583.61
424.241	589.26
424.617	580.22
424.994	581.13
425.37	574.12
425.746	598.08
426.123	587.68
426.499	588.59
426.875	621.13
427.251	600.79
427.627	625.65
428.003	617.74
428.379	636.04
428.756	636.49
429.132	645.76
429.507	659.54
429.883	645.31
430.259	650.73
430.635	655.03
431.011	652.54
431.387	661.35
431.763	675.36
432.138	672.88
432.514	685.31
432.89	689.37
433.265	713.55
433.641	714.01
434.016	712.65
434.392	681.92
434.767	746.32
435.143	717.4
435.518	754.01
435.894	744.51
436.269	749.71
436.644	748.58
437.02	777.06
437.395	768.92
437.77	769.37
438.145	787.23
438.52	774.34
438.895	779.77
439.271	764.4
439.646	831.07
440.021	786.55
440.395	793.33
440.77	803.72
441.145	787
441.52	795.59
441.895	821.12
442.27	828.35
442.645	824.51
443.019	859.09
443.394	837.85
443.769	839.65
444.143	854.79
444.518	859.09
444.892	869.26
445.267	869.71
445.641	872.19
446.016	871.97
446.39	881.23
446.764	868.35
447.139	885.98
447.513	905.19
447.887	921.46
448.262	900.89
448.636	921.23
449.01	933.21
449.384	923.04
449.758	926.2
450.132	955.81
450.506	956.71
450.88	942.48
451.254	925.75
451.628	984.96
452.002	983.83
452.376	995.58
452.75	984.51
453.123	1015.47
453.497	1017.05
453.871	1005.75
454.244	998.97
454.618	1041.68
454.992	1069.7
455.365	1068.57
455.739	1068.57
456.112	1113.09
456.486	1097.05
456.859	1117.61
457.232	1141.34
457.606	1142.7
457.979	1149.02
458.352	1155.8
458.725	1181.34
459.099	1170.27
459.472	1204.84
459.845	1198.97
460.218	1222.47
460.591	1234.22
460.964	1215.01
461.337	1255.24
461.71	1275.8
462.083	1286.87
462.456	1305.18
462.829	1300.21
463.201	1353.09
463.574	1349.24
463.947	1357.15
464.32	1427.89
464.692	1408.9
465.065	1408.23
465.438	1444.38
465.81	1469.02
466.183	1498.62
466.555	1511.95
466.928	1537.94
467.3	1539.52
467.672	1582.23
468.045	1605.06
468.417	1601.21
468.789	1600.54
469.161	1665.39
469.534	1694.32
469.906	1734.77
470.278	1785.39
470.65	1757.14
471.022	1824.71
471.394	1838.04
471.766	1933.86
472.138	1927.76
472.51	1955.1
472.882	2005.5
473.253	2037.14
473.625	2039.62
473.997	2141.09
474.369	2139.28
474.74	2191.03
475.112	2252.95
475.484	2309.9
475.855	2348.77
476.227	2379.05
476.598	2466.73
476.97	2533.62
477.341	2574.3
477.713	2635.09
478.084	2676.67
478.455	2783.56
478.827	2851.58
479.198	2969.09
479.569	3014.96
479.94	3082.98
480.311	3096.54
480.682	3258.8
481.053	3387.38
481.424	3418.79
481.795	3523.65
482.166	3632.57
482.537	3670.09
482.908	3796.19
483.279	3933.36
483.65	4012.45
484.021	4138.78
484.391	4261.71
484.762	4258.09
485.133	4436.62
485.503	4541.93
485.874	4687.24
486.244	4790.74
486.615	4871.86
486.985	5012.88
487.356	5187.34
487.726	5289.48
488.097	5436.37
488.467	5510.49
488.837	5685.63
489.207	5816.7
489.578	5942.57
489.948	6078.16
490.318	6227.08
490.688	6340.75
491.058	6487.19
491.428	6635.66
491.798	6751.36
492.168	6913.39
492.538	7074.52
492.908	7185.25
493.278	7429.99
493.648	7434.06
494.017	7625.01
494.387	7741.62
494.757	7906.36
495.126	8010.09
495.496	8142.51
495.866	8243.98
496.235	8391.77
496.605	8569.39
496.974	8664.53
497.344	8783.85
497.713	8863.17
498.082	8957.41
498.452	9156.04
498.821	9262.71
499.19	9349.49
499.559	9499.09
499.928	9577.05
500.298	9622.47
500.667	9815.01
501.036	9873.31
501.405	10077.15
501.774	10091.84
502.143	10238.05
502.512	10286.64
502.88	10385.39
503.249	10440.53
503.618	10549
503.987	10663.35
504.356	10705.61
504.724	10792.39
505.093	10813.63
505.462	10884.59
505.83	10993.28
506.199	11185.37
506.567	11376.78
506.936	11346.72
507.304	11456.32
507.672	11564.57
508.041	11553.5
508.409	11628.3
508.777	11742.64
509.145	11820.61
509.514	11864.22
509.882	11936.31
510.25	11840.27
510.618	12030.32
510.986	12038
511.354	12178.79
511.722	12297.43
512.09	12387.15
512.458	12309.63
512.826	12423.08
513.193	12466.92
513.561	12538.1
513.929	12640.92
514.297	12691.54
514.664	12730.19
515.032	12744.2
515.4	12868.72
515.767	12849.73
516.135	12932.89
516.502	12818.1
516.869	13023.97
517.237	13000.46
517.604	12989.16
517.972	13160.23
518.339	13129.05
518.706	13127.69
519.073	13188.03
519.44	13188.03
519.808	13307.8
520.175	13240.68
520.542	13416.5
520.909	13457.85
521.276	13468.93
521.643	13474.8
522.009	13525.2
522.376	13534.23
522.743	13663.5
523.11	13696.26
523.477	13763.83
523.843	13760.44
524.21	13882.02
524.577	13965.41
524.943	13971.06
525.31	13921.34
525.676	14048.8
526.043	14034.79
526.409	13995.47
526.776	14117.5
527.142	14103.94
527.508	14145.07
527.874	14161.34
528.241	14220.54
528.607	14163.6
528.973	14270.03
529.339	14170.6
529.705	14284.05
530.071	14311.16
530.437	14341.22
530.803	14404.95
531.169	14329.47
531.535	14219.41
531.901	14358.85
532.267	14290.37
532.632	14359.07
532.998	14378.05
533.364	14446.3
533.73	14268.9
534.095	14437.71
534.461	14361.78
534.826	14457.15
535.192	14354.55
535.557	14394.78
535.923	14242.92
536.288	14293.54
536.653	14219.87
537.019	14148.68
537.384	14171.28
537.749	14247.21
538.114	14166.99
538.479	14197.95
538.845	14108.46
539.21	14029.81
539.575	14089.93
539.94	14061.68
540.305	14117.95
540.67	13994.34
541.034	14010.83
541.399	13932.87
541.764	13948.01
542.129	13937.84
542.494	13846.54
542.858	13921.79
543.223	13892.19
543.587	13790.5
543.952	13736.26
544.316	13825.75
544.681	13748.47
545.045	13788.01
545.41	13826.88
545.774	13712.53
546.138	13625.31
546.503	13633.21
546.867	13583.5
547.231	13683.61
547.595	13550.05
547.959	13568.36
548.324	13486.78
548.688	13506.89
549.052	13427.8
549.416	13447.23
549.779	13341.47
550.143	13344.18
550.507	13417.18
550.871	13311.87
551.235	13284.3
551.599	13297.4
551.962	13334.24
552.326	13245.88
552.689	13281.13
553.053	13218.54
553.417	13146.67
553.78	13270.96
554.143	13157.3
554.507	13194.58
554.87	13142.61
555.234	13119.78
555.597	13105.77
555.96	13058.99
556.323	13049.05
556.686	13053.57
557.05	13131.08
557.413	13072.55
557.776	13108.93
558.139	13103.96
558.502	13110.52
558.865	13035.94
559.228	13157.52
559.59	13070.52
559.953	13007.02
560.316	13145.09
560.679	13098.54
561.041	13070.97
561.404	13089.73
561.767	13149.84
562.129	13116.84
562.492	13233.68
562.854	13258.08
563.217	13114.36
563.579	13145.77
563.941	13094.92
564.304	13192.77
564.666	13251.98
565.028	13161.14
565.39	13204.75
565.753	13288.59
566.115	13242.26
566.477	13347.57
566.839	13261.47
567.201	13305.31
567.563	13362.71
567.925	13381.47
568.287	13331.53
568.648	13390.06
569.01	13407.01
569.372	13441.36
569.734	13379.44
570.095	13428.7
570.457	13468.93
570.819	13528.58
571.18	13406.55
571.542	13426.44
571.903	13432.99
572.265	13493.33
572.626	13504.86
572.987	13422.83
573.349	13524.97
573.71	13489.04
574.071	13655.14
574.432	13551.86
574.794	13636.83
575.155	13628.47
575.516	13597.74
575.877	13543.05
576.238	13594.8
576.599	13648.81
576.96	13635.7
577.32	13666.66
577.681	13764.96
578.042	13705.98
578.403	13620.56
578.763	13725.42
579.124	13632.76
579.485	13725.42
579.845	13754.12
580.206	13783.72
580.566	13643.84
580.927	13619.88
581.287	13733.55
581.648	13665.3
582.008	13739.88
582.368	13707.11
582.728	13757.96
583.089	13682.48
583.449	13750.5
583.809	13694.46
584.169	13710.73
584.529	13641.8
584.889	13726.32
585.249	13697.85
585.609	13534.69
585.969	13665.98
586.329	13650.39
586.688	13595.93
587.048	13569.49
587.408	13608.81
587.768	13586.44
588.127	13548.25
588.487	13525.42
588.846	13647.23
589.206	13564.52
589.565	13457.63
589.925	13557.96
590.284	13526.33
590.643	13560.9
591.003	13515.7
591.362	13617.4
591.721	13495.14
592.08	13529.04
592.44	13584.18
592.799	13572.43
593.158	13544.4
593.517	13481.35
593.876	13508.7
594.235	13507.12
594.593	13449.94
594.952	13480.22
595.311	13397.29
595.67	13510.28
596.029	13453.78
596.387	13449.49
596.746	13463.05
597.104	13486.78
597.463	13442.03
597.822	13504.63
598.18	13346.89
598.538	13445.42
598.897	13449.49
599.255	13262.38
599.613	13437.29
599.972	13422.83
600.33	13437.74
600.688	13418.08
601.046	13452.43
601.404	13497.4
601.762	13480.9
602.12	13496.5
602.478	13457.17
602.836	13500.34
603.194	13443.84
603.552	13369.95
603.91	13377.63
604.268	13454.91
604.625	13426.89
604.983	13472.77
605.341	13403.84
605.698	13485.42
606.056	13445.42
606.413	13557.06
606.771	13488.13
607.128	13529.26
607.485	13404.52
607.843	13505.76
608.2	13606.1
608.557	13585.08
608.914	13520
609.272	13556.83
609.629	13574.46
609.986	13651.97
610.343	13569.04
610.7	13705.98
611.057	13604.52
611.414	13668.92
611.771	13600.9
612.127	13715.25
612.484	13603.84
612.841	13724.74
613.198	13660.33
613.554	13595.93
613.911	13722.48
614.267	13716.38
614.624	13683.38
614.98	13767.67
615.337	13707.11
615.693	13798.63
616.05	13652.65
616.406	13769.93
616.762	13733.78
617.118	13654.91
617.475	13721.12
617.831	13820.78
618.187	13782.36
618.543	13792.31
618.899	13863.27
619.255	13830.27
619.611	13861.23
619.967	13858.75
620.323	13860.1
620.678	13817.16
621.034	13822.36
621.39	13811.06
621.746	13743.49
622.101	13965.41
622.457	13819.65
622.812	13832.98
623.168	13957.5
623.523	13880.89
623.879	13864.85
624.234	13775.58
624.589	13831.4
624.945	13898.52
625.3	13862.36
625.655	13906.88
626.01	13861.91
626.365	13876.6
626.72	13848.35
627.075	13865.98
627.43	13862.59
627.785	13799.54
628.14	13787.79
628.495	13798.86
628.85	13796.6
629.205	13763.16
629.559	13818.97
629.914	13741.01
630.269	13731.29
630.623	13761.12
630.978	13736.94
631.332	13838.63
631.687	13821.46
632.041	13734.23
632.396	13759.99
632.75	13776.71
633.104	13677.96
633.459	13651.75
633.813	13638.19
634.167	13612.65
634.521	13568.81
634.875	13657.62
635.229	13608.36
635.583	13529.71
635.937	13561.35
636.291	13540.56
636.645	13526.33
636.999	13513.67
637.352	13585.53
637.706	13449.27
638.06	13441.36
638.413	13550.96
638.767	13410.4
639.121	13471.64
639.474	13450.85
639.828	13410.85
640.181	13458.3
640.534	13353.45
640.888	13364.97
641.241	13309.83
641.594	13306.22
641.947	13409.72
642.301	13311.64
642.654	13345.76
643.007	13369.49
643.36	13321.13
643.713	13256.28
644.066	13270.29
644.419	13205.43
644.771	13184.64
645.124	13006.56
645.477	13050.41
645.83	12949.84
646.182	12880.01
646.535	12940.35
646.888	12899.22
647.24	12826.68
647.593	12943.06
647.945	12888.15
648.298	12835.72
648.65	12790.98
649.002	12695.61
649.355	12804.54
649.707	12815.61
650.059	12812.45
650.411	13077.52
650.763	12986
651.115	13126.56
651.467	13094.47
651.819	13165.2
652.171	13114.81
652.523	13106
652.875	13076.62
653.227	13059.22
653.578	13150.29
653.93	13111.19
654.282	13130.86
654.633	13147.35
654.985	13098.99
655.337	13081.37
655.688	13128.14
656.039	13164.98
656.391	12941.03
656.742	13059.67
657.094	13053.8
657.445	13024.64
657.796	13110.52
658.147	13051.99
658.498	13131.53
658.849	13098.54
659.2	13129.95
659.551	13110.97
659.902	13112.55
660.253	13124.53
660.604	13137.41
660.955	13016.73
661.306	13165.88
661.656	13096.96
662.007	13137.63
662.358	13116.84
662.708	13130.63
663.059	13188.25
663.409	12994.81
663.76	13177.18
664.11	13153.91
664.461	13157.52
664.811	13175.83
665.161	13086.34
665.511	13136.28
665.862	13087.69
666.212	13255.15
666.562	13128.6
666.912	13185.09
667.262	13132.66
667.612	13101.7
667.962	13169.05
668.312	13190.97
668.662	13165.43
669.011	13128.6
669.361	13150.74
669.711	13120.46
670.06	13049.95
670.41	13115.94
670.76	13014.47
671.109	13123.4
671.459	13110.74
671.808	12982.84
672.157	13059.22
672.507	13077.75
672.856	12973.12
673.205	12992.33
673.554	13079.56
673.904	13050.86
674.253	13108.03
674.602	13078.43
674.951	12792.56
675.3	12739
675.649	12970.41
675.998	12973.8
676.346	12994.59
676.695	13024.19
677.044	12846.34
677.393	12908.49
677.741	12920.92
678.09	12834.59
678.438	12831.65
678.787	12889.96
679.135	12869.62
679.484	12744.65
679.832	12835.5
680.181	12704.88
680.529	12804.08
680.877	12740.13
681.225	12669.17
681.573	12776.29
681.922	12632.11
682.27	12597.54
682.618	12622.85
682.966	12577.2
683.314	12721.6
683.661	12607.71
684.009	12465.56
684.357	12501.04
684.705	12496.07
685.053	12561.83
685.4	12492.68
685.748	12417.88
686.095	12433.25
686.443	12383.3
686.79	12332.68
687.138	12355.73
687.485	12341.27
687.832	12328.62
688.18	12404.55
688.527	12187.83
688.874	12146.7
689.221	12132.46
689.568	12066.7
689.915	12103.99
690.262	12141.95
690.609	11988.29
690.956	11971.56
691.303	12027.61
691.65	11940.15
691.997	11909.87
692.344	11873.26
692.69	11809.53
693.037	11853.15
693.383	11700.16
693.73	11723.89
694.077	11649.54
694.423	11684.57
694.769	11577.9
695.116	11457.9
695.462	11489.54
695.808	11460.16
696.155	11469.43
696.501	11356.89
696.847	11322.32
697.193	11301.52
697.539	11344.24
697.885	11197.57
698.231	11150.79
698.577	11203.45
698.923	11125.71
699.269	11158.48
699.614	11038.25
699.96	10988.99
700.306	10948.54
700.651	10916.22
700.997	10841.42
701.342	10865.15
701.688	10847.53
702.033	10745.38
702.379	10820.63
702.724	10675.55
703.069	10791.93
703.415	10629.68
703.76	10674.87
704.105	10623.8
704.45	10576.57
704.795	10506.74
705.14	10508.78
705.485	10434.2
705.83	10465.61
706.175	10350.82
706.52	10321.66
706.865	10323.92
707.209	10342.23
707.554	10212.97
707.899	10311.95
708.243	10249.35
708.588	10255
708.932	10165.51
709.277	10127.77
709.621	10111.73
709.966	10001.9
710.31	10051.61
710.654	9936.59
710.998	10019.98
711.342	10061.11
711.687	9948.34
712.031	9892.97
712.375	9805.97
712.719	9951.28
713.063	9862.01
713.407	9834.9
713.75	9821.11
714.094	9797.38
714.438	9819.3
714.782	9798.74
715.125	9764.16
715.469	9823.37
715.812	9763.26
716.156	9636.03
716.499	9636.48
716.843	9699.31
717.186	9606.65
717.53	9706.54
717.873	9717.16
718.216	9664.28
718.559	9528.46
718.902	9536.15
719.246	9605.3
719.589	9496.83
719.932	9511.97
720.275	9568.01
720.617	9506.54
720.96	9453.89
721.303	9481.46
721.646	9470.61
721.989	9500.67
722.331	9467.22
722.674	9394.46
723.016	9364.85
723.359	9405.76
723.701	9433.33
724.044	9354.68
724.386	9336.15
724.729	9329.6
725.071	9318.3
725.413	9317.17
725.755	9339.77
726.097	9286.21
726.439	9279.66
726.782	9219.09
727.124	9303.84
727.465	9217.74
727.807	9231.75
728.149	9265.19
728.491	9200.11
728.833	9235.36
729.175	9224.07
729.516	9204.63
729.858	9175.71
730.199	9251.18
730.541	9234.91
730.882	9246.44
731.224	9299.77
731.565	9230.84
731.906	9189.94
732.248	9135.93
732.589	9179.77
732.93	9125.31
733.271	9150.85
733.612	9197.63
733.953	9114.01
734.294	9157.4
734.635	9167.8
734.976	9142.03
735.317	9085.54
735.658	9138.19
735.999	9175.03
736.339	9174.12
736.68	9185.87
737.021	9195.82
737.361	9123.96
737.702	9240.56
738.042	9186.33
738.383	9173.9
738.723	9207.79
739.063	9175.48
739.404	9288.47
739.744	9253.44
740.084	9262.26
740.424	9255.48
740.764	9147.46
741.104	9263.84
741.444	9306.1
741.784	9220.45
742.124	9247.79
742.464	9255.03
742.804	9353.55
743.143	9295.02
743.483	9431.74
743.823	9315.59
744.162	9303.16
744.502	9385.19
744.841	9438.52
745.181	9405.08
745.52	9414.57
745.86	9573.43
746.199	9553.1
746.538	9669.48
746.877	9641.23
747.216	9747.67
747.556	9681.23
747.895	9737.27
748.234	9775.92
748.573	9853.2
748.911	9933.88
749.25	9986.53
749.589	10007.77
749.928	10085.74
750.267	10205.73
750.605	10258.16
750.944	10278.27
751.283	10367.31
751.621	10426.07
751.96	10522.79
752.298	10626.29
752.636	10666.74
752.975	10783.12
753.313	10883.68
753.651	10955.55
753.989	11088.65
754.327	11135.2
754.666	11223.56
755.004	11459.71
755.342	11591.91
755.679	11658.8
756.017	11685.02
756.355	11918.46
756.693	11947.84
757.031	12216.76
757.368	12246.13
757.706	12327.03
758.044	12433.7
758.381	12684.54
758.719	12801.37
