Data from hue_20_FLMS001491_26.txt Node
Date: Mon Feb 06 15:33:49 GMT 2017
User: dcchb
Spectrometer: FLMS00149
Trigger mode: 0
Integration Time (sec): 2.000000E-2
Scans to average: 10
Electric dark correction enabled: true
Nonlinearity correction enabled: false
Boxcar width: 0
XAxis mode: Wavelengths
Number of Pixels in Spectrum: 2048
>>>>>Begin Spectral Data<<<<<
341.393	-9.8
341.776	-9.8
342.16	-9.8
342.543	-83.25
342.927	-73.76
343.31	-50.48
343.693	-69.24
344.077	-48.9
344.46	-70.14
344.843	-65.39
345.226	-48.9
345.61	-30.37
345.993	-14.77
346.376	-5.96
346.759	5.56
347.142	43.53
347.525	41.95
347.908	51.44
348.291	79.69
348.674	79.46
349.057	102.51
349.44	124.43
349.823	115.84
350.206	154.94
350.588	190.64
350.971	199.46
351.354	217.54
351.737	257.76
352.119	250.3
352.502	244.43
352.884	265.44
353.267	275.39
353.65	299.12
354.032	292.34
354.414	297.31
354.797	311.32
355.179	341.83
355.562	337.53
355.944	332.56
356.326	328.72
356.709	331.21
357.091	341.15
357.473	337.53
357.855	328.04
358.238	330.08
358.62	325.33
359.002	344.09
359.384	332.11
359.766	312
360.148	349.06
360.53	336.4
360.912	340.47
361.294	313.13
361.676	317.87
362.057	311.32
362.439	327.82
362.821	346.8
363.203	331.66
363.584	323.3
363.966	315.39
364.348	326.23
364.729	310.42
365.111	326.69
365.493	316.29
365.874	317.42
366.256	317.65
366.637	317.87
367.019	307.7
367.4	307.93
367.781	301.15
368.163	311.09
368.544	304.09
368.925	303.86
369.306	309.51
369.688	297.99
370.069	301.83
370.45	304.77
370.831	311.09
371.212	312.68
371.593	291.88
371.974	305.9
372.355	314.26
372.736	302.73
373.117	328.27
373.498	321.71
373.879	312.22
374.26	317.42
374.641	303.64
375.021	314.71
375.402	312.9
375.783	335.05
376.163	332.11
376.544	320.58
376.925	322.84
377.305	304.09
377.686	302.96
378.066	343.64
378.447	319.23
378.827	339.12
379.208	318.55
379.588	324.88
379.968	336.86
380.349	324.65
380.729	330.53
381.109	343.41
381.489	344.54
381.87	343.64
382.25	332.56
382.63	350.64
383.01	344.31
383.39	343.64
383.77	345.22
384.15	348.61
384.53	327.82
384.91	349.28
385.29	344.76
385.67	338.89
386.049	342.96
386.429	334.37
386.809	335.95
387.189	357.42
387.568	355.39
387.948	344.09
388.328	340.7
388.707	361.71
389.087	358.55
389.466	355.39
389.846	347.02
390.225	366.91
390.605	346.12
390.984	337.76
391.363	363.52
391.743	366.23
392.122	342.05
392.501	377.08
392.881	383.63
393.26	364.2
393.639	363.07
394.018	374.37
394.397	363.3
394.776	363.3
395.155	368.95
395.534	374.59
395.913	359.45
396.292	382.73
396.671	381.83
397.05	370.98
397.429	384.09
397.808	371.2
398.186	383.86
398.565	380.24
398.944	393.8
399.323	389.74
399.701	390.64
400.08	380.24
400.458	380.7
400.837	380.92
401.215	399.23
401.594	403.97
401.972	377.31
402.351	380.24
402.729	393.13
403.107	419.57
403.486	398.1
403.864	394.93
404.242	379.79
404.62	395.61
404.999	399
405.377	387.02
405.755	414.37
406.133	415.05
406.511	419.57
406.889	405.1
407.267	426.57
407.645	418.89
408.023	420.7
408.401	435.61
408.779	419.34
409.156	437.64
409.534	432.45
409.912	426.8
410.29	433.8
410.667	452.33
411.045	435.61
411.422	418.66
411.8	441.26
412.178	455.04
412.555	437.42
412.933	463.41
413.31	437.87
413.687	456.85
414.065	473.8
414.442	457.98
414.819	483.07
415.197	471.99
415.574	498.21
415.951	473.8
416.328	474.71
416.705	465.89
417.082	448.27
417.46	484.65
417.837	479.45
418.214	509.51
418.591	504.99
418.967	483.97
419.344	497.3
419.721	506.79
420.098	481.48
420.475	503.4
420.852	511.31
421.228	508.38
421.605	520.13
421.982	511.09
422.358	520.13
422.735	504.99
423.111	513.35
423.488	490.3
423.864	535.49
424.241	545.21
424.617	535.04
424.994	543.86
425.37	517.19
425.746	546.79
426.123	517.42
426.499	546.57
426.875	545.89
427.251	549.05
427.627	555.38
428.003	555.83
428.379	562.39
428.756	532.56
429.132	580.24
429.507	567.81
429.883	573.01
430.259	607.13
430.635	591.54
431.011	582.72
431.387	591.54
431.763	598.32
432.138	613.91
432.514	603.97
432.89	606.9
433.265	616.62
433.641	591.54
434.016	597.87
434.392	629.73
434.767	624.08
435.143	642.61
435.518	656.17
435.894	636.96
436.269	654.36
436.644	669.05
437.02	657.75
437.395	672.89
437.77	680.58
438.145	678.99
438.52	699.33
438.895	676.28
439.271	685.77
439.646	692.1
440.021	677.41
440.395	696.39
440.77	674.93
441.145	697.75
441.52	729.39
441.895	727.81
442.27	701.37
442.645	695.49
443.019	724.87
443.394	727.13
443.769	730.07
444.143	722.38
444.518	735.26
444.892	727.81
445.267	727.58
445.641	742.49
446.016	750.4
446.39	756.05
446.764	737.75
447.139	777.52
447.513	770.52
447.887	750.18
448.262	768.93
448.636	751.31
449.01	766.9
449.384	782.27
449.758	776.84
450.132	805.77
450.506	794.02
450.88	802.61
451.254	807.8
451.628	811.19
452.002	808.71
452.376	826.33
452.75	824.75
453.123	844.64
453.497	853.9
453.871	861.81
454.244	860.01
454.618	873.56
454.992	875.15
455.365	871.3
455.739	911.08
456.112	906.33
456.486	875.37
456.859	933
457.232	930.96
457.606	895.94
457.979	917.63
458.352	962.15
458.725	956.27
459.099	956.27
459.472	965.99
459.845	973.45
460.218	983.62
460.591	986.56
460.964	1038.08
461.337	1017.52
461.71	1034.46
462.083	1059.32
462.456	1042.15
462.829	1045.99
463.201	1068.14
463.574	1052.54
463.947	1067.46
464.32	1114.46
464.692	1120.34
465.065	1098.42
465.438	1123.28
465.81	1126.89
466.183	1167.34
466.555	1182.26
466.928	1185.19
467.3	1172.09
467.672	1191.07
468.045	1216.15
468.417	1234.01
468.789	1229.49
469.161	1269.03
469.534	1255.02
469.906	1291.63
470.278	1327.79
470.65	1337.06
471.022	1323.95
471.394	1387.22
471.766	1397.84
472.138	1405.3
472.51	1420.67
472.882	1449.37
473.253	1469.03
473.625	1462.7
473.997	1535.92
474.369	1541.8
474.74	1536.82
475.112	1598.97
475.484	1610.95
475.855	1656.59
476.227	1660.66
476.598	1694.79
476.97	1753.09
477.341	1738.63
477.713	1781.34
478.084	1817.95
478.455	1827.21
478.827	1875.8
479.198	1946.76
479.569	1949.47
479.94	1977.94
480.311	2024.27
480.682	2092.06
481.053	2117.83
481.424	2163.47
481.795	2187.88
482.166	2222
482.537	2212.74
482.908	2316.69
483.279	2306.07
483.65	2389.46
484.021	2430.13
484.391	2459.74
484.762	2509.45
485.133	2523.01
485.503	2563.24
485.874	2654.53
486.244	2701.99
486.615	2715.32
486.985	2761.88
487.356	2822.44
487.726	2845.72
488.097	2942.21
488.467	2926.62
488.837	2975.88
489.207	3039.61
489.578	3099.95
489.948	3117.57
490.318	3190.11
490.688	3207.97
491.058	3293.84
491.428	3319.15
491.798	3341.3
492.168	3426.27
492.538	3421.29
492.908	3465.81
493.278	3533.61
493.648	3541.52
494.017	3618.35
494.387	3613.38
494.757	3685.02
495.126	3754.17
495.496	3755.52
495.866	3758.23
496.235	3834.84
496.605	3866.71
496.974	3854.28
497.344	3938.12
497.713	3964.33
498.082	3974.27
498.452	4037.78
498.821	4095.63
499.19	4026.02
499.559	4108.06
499.928	4103.76
500.298	4176.08
500.667	4208.62
501.036	4178.56
501.405	4241.39
501.774	4267.37
502.143	4296.98
502.512	4321.84
502.88	4360.25
503.249	4359.35
503.618	4376.98
503.987	4397.09
504.356	4452.91
504.724	4481.61
505.093	4461.04
505.462	4485
505.83	4519.12
506.199	4565.44
506.567	4607.93
506.936	4597.53
507.304	4670.75
507.672	4652.22
508.041	4721.15
508.409	4669.62
508.777	4678.44
509.145	4793.69
509.514	4750.3
509.882	4817.87
510.25	4824.2
510.618	4843.18
510.986	4829.84
511.354	4857.64
511.722	4912.33
512.09	4957.3
512.458	4892.89
512.826	4946.45
513.193	4940.12
513.561	4966.11
513.929	5008.6
514.297	5033.91
514.664	5069.16
515.032	5060.35
515.4	5091.31
515.767	5108.93
516.135	5113.68
516.502	5078.43
516.869	5154.13
517.237	5153
517.604	5092.89
517.972	5177.41
518.339	5208.14
518.706	5254.24
519.073	5266.44
519.44	5264.86
519.808	5297.86
520.175	5266.22
520.542	5320.91
520.909	5367.68
521.276	5346.67
521.643	5388.7
522.009	5448.59
522.376	5483.39
522.743	5493.56
523.11	5529.04
523.477	5501.24
523.843	5568.13
524.21	5568.58
524.577	5574.68
524.943	5625.53
525.31	5661.24
525.676	5675.7
526.043	5769.03
526.409	5734.45
526.776	5845.64
527.142	5817.16
527.508	5812.87
527.874	5828.24
528.241	5869.82
528.607	5952.3
528.973	5931.74
529.339	5927.89
529.705	5968.57
530.071	6055.8
530.437	6039.3
530.803	6055.8
531.169	6119.98
531.535	6159.98
531.901	6179.64
532.267	6145.97
532.632	6228.23
532.998	6216.25
533.364	6254.21
533.73	6277.94
534.095	6338.96
534.461	6370.37
534.826	6328.34
535.192	6370.6
535.557	6525.17
535.923	6455.11
536.288	6438.84
536.653	6503.93
537.019	6492.4
537.384	6512.06
537.749	6580.53
538.114	6586.63
538.479	6609.68
538.845	6621.21
539.21	6660.08
539.575	6718.38
539.94	6678.16
540.305	6733.07
540.67	6749.12
541.034	6778.04
541.399	6769.23
541.764	6860.3
542.129	6866.85
542.494	6879.73
542.858	6918.38
543.223	6923.12
543.587	6945.5
543.952	6965.38
544.316	7001.31
544.681	7050.58
545.045	7068.43
545.41	7126.51
545.774	7172.38
546.138	7153.4
546.503	7148.2
546.867	7164.02
547.231	7306.62
547.595	7242.44
547.959	7255.32
548.324	7360.4
548.688	7314.07
549.052	7357.91
549.416	7393.17
549.779	7430.23
550.143	7433.62
550.507	7548.42
550.871	7500.06
551.235	7519.94
551.599	7533.95
551.962	7635.87
552.326	7600.17
552.689	7610.79
553.053	7643.56
553.417	7622.77
553.78	7711.58
554.143	7716.77
554.507	7770.11
554.87	7738.69
555.234	7916.54
555.597	7796.55
555.96	7833.83
556.323	7876.77
556.686	7878.35
557.05	7966.71
557.413	7890.1
557.776	7941.85
558.139	7953.83
558.502	7995.86
558.865	8080.38
559.228	8147.5
559.59	8086.93
559.953	8069.08
560.316	8140.04
560.679	8226.59
561.041	8217.55
561.404	8256.42
561.767	8281.28
562.129	8297.1
562.492	8385.23
562.854	8380.26
563.217	8385.23
563.579	8361.05
563.941	8471.33
564.304	8405.12
564.666	8496.87
565.028	8541.61
565.39	8545.91
565.753	8542.29
566.115	8601.95
566.477	8654.6
566.839	8646.69
567.201	8679.69
567.563	8673.81
567.925	8787.48
568.287	8774.15
568.648	8858.44
569.01	8850.08
569.372	8886.24
569.734	8880.13
570.095	8938.44
570.457	8946.57
570.819	9055.95
571.18	9100.24
571.542	9121.26
571.903	9135.72
572.265	9173.91
572.626	9305.66
572.987	9266.79
573.349	9327.35
573.71	9434.02
574.071	9496.39
574.432	9503.62
574.794	9665.65
575.155	9670.62
575.516	9669.04
575.877	9789.26
576.238	9773.67
576.599	9917.62
576.96	9973.21
577.32	10030.84
577.681	10188.57
578.042	10284.16
578.403	10321.68
578.763	10393.31
579.124	10519.41
579.485	10662.46
579.845	10789.01
580.206	10849.35
580.566	10951.04
580.927	11223.12
581.287	11326.85
581.648	11452.27
582.008	11630.34
582.368	11726.61
582.728	11929.77
583.089	12176.09
583.449	12301.06
583.809	12435.07
584.169	12697.43
584.529	12817.21
584.889	13242.96
585.249	13223.07
585.609	13439.34
585.969	13792.09
586.329	13999.32
586.688	14256.72
587.048	14574.67
587.408	14762.92
587.768	15044.72
588.127	15293.98
588.487	15511.15
588.846	15909.78
589.206	16052.15
589.565	16425.25
589.925	16821.62
590.284	17088.05
590.643	17403.07
591.003	17767.81
591.362	18074.47
591.721	18356.49
592.08	18769.37
592.44	19157.83
592.799	19390.82
593.158	19791.49
593.517	20170.01
593.876	20530.45
594.235	20820.84
594.593	21174.73
594.952	21525.9
595.311	21923.18
595.67	22301.93
596.029	22701.47
596.387	23165.63
596.746	23463.71
597.104	23750.48
597.463	24045.16
597.822	24503.9
598.18	24832.26
598.538	25174.17
598.897	25719.69
599.255	25860.7
599.613	26508.37
599.972	26741.36
600.33	27132.76
600.688	27402.81
601.046	27739.07
601.404	28221.32
601.762	28572.5
602.12	28972.49
602.478	29362.76
602.836	29661.28
603.194	29925.46
603.552	30217.88
603.91	30502.62
604.268	30897.18
604.625	31137.85
604.983	31722.47
605.341	31700.78
605.698	32303.47
606.056	32583.24
606.413	32853.74
606.771	33151.59
607.128	33650.33
607.485	33598.58
607.843	34039.92
608.2	34408.73
608.557	34835.16
608.914	34934.82
609.272	35364.18
609.629	35586.32
609.986	36049.59
610.343	36115.35
610.7	36551.27
611.057	36664.94
611.414	37057.92
611.771	37114.19
612.127	37428.54
612.484	37710.34
612.841	37983.55
613.198	37967.28
613.554	38322.98
613.911	38631.44
614.267	38874.83
614.624	39006.57
614.98	39138.77
615.337	39593.9
615.693	39661.92
616.05	39772.43
616.406	40274.56
616.762	40146.2
617.118	40423.71
617.475	40586.42
617.831	40893.98
618.187	41010.36
618.543	41157.25
618.899	41686.28
619.255	41543.46
619.611	41703
619.967	41996.78
620.323	42250.78
620.678	42136.43
621.034	42249.2
621.39	42441.96
621.746	42390.44
622.101	43121.49
622.457	42714.05
622.812	42938.22
623.168	43261.15
623.523	43308.16
623.879	43433.8
624.234	43295.5
624.589	43535.27
624.945	43616.4
625.3	43841.47
625.655	43906.33
626.01	43843.73
626.365	44052.99
626.72	44066.1
627.075	44162.6
627.43	44213.67
627.785	44180.9
628.14	44285.3
628.495	44465.19
628.85	44550.38
629.205	44495.02
629.559	44603.04
629.914	44527.56
630.269	44630.15
630.623	44653.2
630.978	44762.58
631.332	44796.25
631.687	44969.35
632.041	44801.45
632.396	44874.44
632.75	44650.04
633.104	44913.99
633.459	44842.13
633.813	44956.47
634.167	44887.32
634.521	44963.48
634.875	44951.28
635.229	44880.32
635.583	44813.2
635.937	44925.97
636.291	44825.18
636.645	45039.41
636.999	44965.96
637.352	45116.02
637.706	44888.9
638.06	45017.04
638.413	44883.71
638.767	44964.61
639.121	45026.75
639.474	44754.67
639.828	44756.25
640.181	44931.16
640.534	44812.97
640.888	44828.57
641.241	44720.32
641.594	44805.97
641.947	44966.42
642.301	44760.09
642.654	44772.75
643.007	44730.26
643.36	44726.2
643.713	44795.57
644.066	45043.7
644.419	44589.7
644.771	44378.64
645.124	44000.79
645.477	44066.55
645.83	43744.3
646.182	43748.37
646.535	43508.15
646.888	43622.5
647.24	43514.93
647.593	43727.13
647.945	43642.38
648.298	43327.14
648.65	43461.37
649.002	43267.25
649.355	43479.22
649.707	43452.33
650.059	43682.83
650.411	44048.7
650.763	44135.48
651.115	44411.85
651.467	44216.38
651.819	44445.53
652.171	44271.29
652.523	44359.2
652.875	44365.98
653.227	44105.65
653.578	44424.28
653.93	44202.82
654.282	44098.87
654.633	43973.67
654.985	44044.18
655.337	44065.88
655.688	44130.28
656.039	44295.02
656.391	44013.22
656.742	44028.14
657.094	44013
657.445	44260.45
657.796	44092.09
658.147	44014.58
658.498	43977.29
658.849	44004.63
659.2	44017.29
659.551	43912.88
659.902	43945.88
660.253	43964.41
660.604	44063.84
660.955	43759.89
661.306	43982.04
661.656	43876.73
662.007	43915.6
662.358	43974.35
662.708	43797.18
663.059	43843.28
663.409	43674.02
663.76	43879.44
664.11	43822.72
664.461	43898.42
664.811	43955.82
665.161	43774.13
665.511	43714.25
665.862	43788.37
666.212	43841.25
666.562	43905.88
666.912	43801.25
667.262	43800.57
667.612	43740.23
667.962	43860.91
668.312	43724.42
668.662	43843.96
669.011	43831.98
669.361	43678.77
669.711	43685.32
670.06	43597.41
670.41	43668.37
670.76	43612.78
671.109	43796.5
671.459	43672.44
671.808	43551.54
672.157	43658.65
672.507	43416.17
672.856	43499.56
673.205	43504.99
673.554	43639.67
673.904	43417.76
674.253	43658.88
674.602	43506.79
674.951	42982.29
675.3	42780.49
675.649	43443.74
675.998	43348.15
676.346	43369.4
676.695	43559
677.044	43232.22
677.393	43225.9
677.741	43461.82
678.09	43326.69
678.438	43046.69
678.787	43260.92
679.135	43175.73
679.484	43056.18
679.832	43101.61
680.181	42972.8
680.529	43097.09
680.877	42897.32
681.225	42918.33
681.573	43141.83
681.922	42763.31
682.27	42721.5
682.618	42573.49
682.966	42533.26
683.314	42699.13
683.661	42468.18
684.009	42362.64
684.357	42227.96
684.705	42217.34
685.053	42261.63
685.4	42095.08
685.748	42059.83
686.095	41955.2
686.443	41835.43
686.79	41880.4
687.138	41986.16
687.485	41930.34
687.832	41888.08
688.18	41815.09
688.527	41528.31
688.874	41580.06
689.221	41430.69
689.568	41483.8
689.915	41436.34
690.262	41295.33
690.609	41216.91
690.956	41029.57
691.303	41018.05
691.65	40759.75
691.997	40907.54
692.344	40639.75
692.69	40611.5
693.037	40606.31
693.383	40205.64
693.73	40357.27
694.077	40249.48
694.423	40133.1
694.769	40030.28
695.116	39865.53
695.462	39916.61
695.808	39758.19
696.155	39840
696.501	39620.34
696.847	39413.79
697.193	39263.29
697.539	39393.68
697.885	39152.56
698.231	38979.91
698.577	38914.6
698.923	38972.68
699.269	38679.8
699.614	38539.01
699.96	38516.42
700.306	38567.94
700.651	38402.75
700.997	38354.84
701.342	38255.41
701.688	38383.76
702.033	38048.86
702.379	37935.87
702.724	37901.07
703.069	37988.97
703.415	37480.51
703.76	37540.85
704.105	37667.4
704.45	37413.17
704.795	37301.53
705.14	37218.15
705.485	37221.08
705.83	36993.29
706.175	37167.75
706.52	37051.14
706.865	36820.64
707.209	36793.98
707.554	36686.18
707.899	36748.55
708.243	36545.17
708.588	36509.92
708.932	36247.78
709.277	36357.38
709.621	36258.4
709.966	36039.65
710.31	36301.33
710.654	35869.93
710.998	35977.05
711.342	35867.9
711.687	35751.52
712.031	35589.49
712.375	35525.53
712.719	35431.75
713.063	35511.3
713.407	35615.25
713.75	35280.12
714.094	35363.51
714.438	35217.07
714.782	35133.91
715.125	34949.73
715.469	35076.73
715.812	34966.91
716.156	34729.4
716.499	34777.76
716.843	34924.87
717.186	34521.27
717.53	34763.52
717.873	34683.3
718.216	34649.17
718.559	34473.81
718.902	34252.12
719.246	34282.86
719.589	34268.17
719.932	34050.77
720.275	34220.26
720.617	34024.78
720.96	34012.81
721.303	34027.27
721.646	33996.76
721.989	33858.01
722.331	33902.07
722.674	33780.95
723.016	33728.07
723.359	33531.01
723.701	33644.91
724.044	33430.22
724.386	33318.81
724.729	33480.84
725.071	33424.8
725.413	33373.28
725.755	33338.25
726.097	33194.07
726.439	32961.76
726.782	32973.74
727.124	33152.04
727.465	32862.55
727.807	32950.69
728.149	32846.28
728.491	32732.16
728.833	32761.99
729.175	32630.02
729.516	32683.12
729.858	32666.63
730.199	32503.69
730.541	32669.11
730.882	32515.22
731.224	32545.5
731.565	32190.71
731.906	32354.54
732.248	32359.74
732.589	32354.77
732.93	32148.45
733.271	32251.5
733.612	32082.46
733.953	32161.1
734.294	32007.89
734.635	31976.02
734.976	32027.32
735.317	31829.13
735.658	31816.71
735.999	31840.21
736.339	31886.76
736.68	31903.94
737.021	31733.54
737.361	31663.26
737.702	31803.15
738.042	31628.01
738.383	31524.51
738.723	31636.37
739.063	31504.85
739.404	31560.89
739.744	31232.99
740.084	31258.3
740.424	31238.42
740.764	31246.33
741.104	31158.19
741.444	31084.3
741.784	30987.58
742.124	31117.06
742.464	31093.79
742.804	31025.31
743.143	30956.16
743.483	30918.88
743.823	30751.42
744.162	30859.67
744.502	30752.55
744.841	30619.45
745.181	30785.55
745.52	30619.45
745.86	30763.4
746.199	30548.72
746.538	30537.64
746.877	30476.18
747.216	30459
747.556	30464.88
747.895	30457.65
748.234	30310.76
748.573	30273.7
748.911	30151.44
749.25	30163.42
749.589	30225.56
749.928	30237.76
750.267	30193.25
750.605	30089.07
750.944	30038.9
751.283	29905.12
751.621	29965.46
751.96	29720.26
752.298	29852.69
752.636	29835.97
752.975	29583.54
753.313	29603.88
753.651	29727.5
753.989	29488.41
754.327	29439.37
754.666	29413.15
755.004	29480.27
755.342	29509.65
755.679	29361.86
756.017	29192.82
756.355	29180.84
756.693	29202.76
757.031	29250.9
757.368	29121.41
757.706	28937.91
758.044	28826.73
758.381	28875.09
758.719	28814.75
759.056	28817.46
759.394	28739.05
759.731	28419.51
760.068	28337.02
760.405	28302.67
760.743	28210.92
761.08	28296.12
