Data from hue_170_FLMS001491_00077.txt Node
Date: Tue Feb 07 16:49:11 GMT 2017
User: dcchb
Spectrometer: FLMS00149
Trigger mode: 0
Integration Time (sec): 2.000000E-2
Scans to average: 10
Electric dark correction enabled: true
Nonlinearity correction enabled: false
Boxcar width: 0
XAxis mode: Wavelengths
Number of Pixels in Spectrum: 2048
>>>>>Begin Spectral Data<<<<<
341.393	1.77
341.776	1.77
342.16	1.77
342.543	-45.69
342.927	-55.41
343.31	-61.28
343.693	-81.17
344.077	-66.93
344.46	-73.49
344.843	-52.02
345.226	-55.18
345.61	-30.32
345.993	-19.48
346.376	-8.86
346.759	17.36
347.142	19.84
347.525	52.61
347.908	58.49
348.291	88.54
348.674	106.4
349.057	105.49
349.44	124.02
349.823	140.07
350.206	177.35
350.588	191.82
350.971	234.08
351.354	225.94
351.737	238.37
352.119	241.53
352.502	264.58
352.884	267.97
353.267	294.41
353.65	278.82
354.032	292.61
354.414	308.65
354.797	318.37
355.179	316.56
355.562	319.05
355.944	312.27
356.326	345.71
356.709	314.53
357.091	318.59
357.473	356.11
357.855	356.78
358.238	364.47
358.62	335.77
359.002	340.74
359.384	343.9
359.766	348.65
360.148	358.37
360.53	345.94
360.912	348.65
361.294	348.2
361.676	352.04
362.057	335.99
362.439	346.39
362.821	336.45
363.203	334.19
363.584	313.17
363.966	331.25
364.348	336.9
364.729	343.68
365.111	334.41
365.493	325.37
365.874	312.27
366.256	312.94
366.637	303
367.019	308.2
367.4	325.6
367.781	314.3
368.163	311.59
368.544	319.05
368.925	308.42
369.306	320.85
369.688	334.19
370.069	317.46
370.45	297.8
370.831	310.91
371.212	303.45
371.593	308.2
371.974	322.44
372.355	320.63
372.736	332.6
373.117	303.45
373.498	339.38
373.879	326.05
374.26	317.46
374.641	322.44
375.021	293.51
375.402	327.18
375.783	317.69
376.163	329.89
376.544	312.94
376.925	317.46
377.305	337.12
377.686	317.01
378.066	316.56
378.447	312.27
378.827	323.11
379.208	331.02
379.588	347.07
379.968	327.18
380.349	331.02
380.729	339.38
381.109	324.02
381.489	338.48
381.87	345.49
382.25	350.46
382.63	320.85
383.01	337.8
383.39	328.54
383.77	365.37
384.15	351.81
384.53	341.42
384.91	341.42
385.29	350
385.67	360.17
386.049	341.19
386.429	359.27
386.809	351.59
387.189	355.43
387.568	344.36
387.948	355.65
388.328	347.07
388.707	330.8
389.087	374.19
389.466	330.34
389.846	361.3
390.225	359.95
390.605	358.59
390.984	337.58
391.363	348.42
391.743	361.76
392.122	366.73
392.501	361.08
392.881	354.52
393.26	348.88
393.639	378.7
394.018	385.71
394.397	364.02
394.776	383.9
395.155	387.74
395.534	371.7
395.913	381.42
396.292	390.91
396.671	382.09
397.05	397.69
397.429	382.32
397.808	366.05
398.186	395.2
398.565	388.87
398.944	387.97
399.323	388.42
399.701	392.49
400.08	393.62
400.458	385.26
400.837	398.59
401.215	422.09
401.594	406.5
401.972	404.01
402.351	390.46
402.729	418.7
403.107	399.27
403.486	423.68
403.864	422.09
404.242	420.51
404.62	398.59
404.999	430.68
405.377	409.44
405.755	402.66
406.133	404.69
406.511	433.17
406.889	423.22
407.267	437.69
407.645	422.55
408.023	444.24
408.401	454.86
408.779	452.38
409.156	432.26
409.534	440.17
409.912	464.58
410.29	449.21
410.667	470
411.045	471.81
411.422	473.39
411.8	481.53
412.178	481.53
412.555	495.31
412.933	476.56
413.31	504.8
413.687	494.63
414.065	513.84
414.442	514.97
414.819	524.46
415.197	523.56
415.574	517.46
415.951	532.6
416.328	526.72
416.705	543.22
417.082	528.76
417.46	533.05
417.837	561.07
418.214	556.78
418.591	556.1
418.967	573.95
419.344	562.2
419.721	567.85
420.098	585.93
420.475	575.54
420.852	569.21
421.228	569.43
421.605	590
421.982	611.24
422.358	607.63
422.735	620.28
423.111	620.51
423.488	634.74
423.864	594.07
424.241	652.6
424.617	660.73
424.994	635.87
425.37	664.12
425.746	653.95
426.123	679.94
426.499	669.77
426.875	690.56
427.251	697.57
427.627	686.04
428.003	687.85
428.379	697.11
428.756	729.66
429.132	719.94
429.507	731.01
429.883	734.4
430.259	736.66
430.635	762.2
431.011	776.43
431.387	780.73
431.763	773.27
432.138	760.16
432.514	783.21
432.89	803.33
433.265	808.3
433.641	812.82
434.016	844.23
434.392	830.44
434.767	846.72
435.143	851.46
435.518	898.47
435.894	874.06
436.269	905.7
436.644	891.69
437.02	903.21
437.395	930.1
437.77	958.12
438.145	924
438.52	927.84
438.895	954.06
439.271	948.18
439.646	970.1
440.021	975.53
440.395	1020.5
440.77	1017.11
441.145	977.33
441.52	1036.99
441.895	1032.92
442.27	1051
442.645	1039.93
443.019	1048.97
443.394	1068.4
443.769	1094.39
444.143	1104.34
444.518	1115.41
444.892	1095.52
445.267	1121.06
445.641	1096.88
446.016	1134.84
446.39	1127.61
446.764	1141.62
447.139	1146.14
447.513	1149.53
447.887	1149.08
448.262	1174.39
448.636	1175.97
449.01	1181.4
449.384	1197.21
449.758	1223.2
450.132	1222.07
450.506	1230.21
450.88	1234.95
451.254	1255.29
451.628	1236.31
452.002	1255.29
452.376	1267.49
452.75	1292.13
453.123	1323.54
453.497	1311.56
453.871	1331.9
454.244	1366.25
454.618	1388.17
454.992	1401.95
455.365	1364.89
455.739	1403.54
456.112	1455.96
456.486	1463.65
456.859	1442.41
457.232	1490.77
457.606	1467.26
457.979	1497.55
458.352	1517.21
458.725	1557.88
459.099	1567.37
459.472	1572.12
459.845	1590.65
460.218	1592.23
460.591	1636.52
460.964	1672
461.337	1677.65
461.71	1694.15
462.083	1726.92
462.456	1734.38
462.829	1757.88
463.201	1776.63
463.574	1815.05
463.947	1840.81
464.32	1879
464.692	1912
465.065	1908.16
465.438	1960.58
465.81	1966.01
466.183	1984.09
466.555	2042.16
466.928	2060.24
467.3	2062.95
467.672	2109.51
468.045	2147.92
468.417	2176.17
468.789	2195.38
469.161	2266.11
469.534	2242.16
469.906	2291.65
470.278	2322.38
470.65	2386.56
471.022	2397.18
471.394	2448.25
471.766	2477.86
472.138	2565.09
472.51	2623.84
472.882	2653.22
473.253	2690.96
473.625	2734.57
473.997	2816.38
474.369	2814.8
474.74	2885.53
475.112	2960.11
475.484	2984.06
475.855	3107.22
476.227	3142.47
476.598	3260.21
476.97	3275.8
477.341	3374.11
477.713	3467.89
478.084	3472.86
478.455	3602.8
478.827	3688.67
479.198	3776.36
479.569	3793.08
479.94	3960.53
480.311	4014.54
480.682	4157.36
481.053	4251.15
481.424	4327.75
481.795	4389.45
482.166	4508.31
482.537	4563.91
482.908	4659.72
483.279	4823.33
483.65	4956.44
484.021	5048.64
484.391	5126.38
484.762	5225.13
485.133	5315.98
485.503	5426.48
485.874	5567.04
486.244	5644.55
486.615	5818.56
486.985	5912.8
487.356	6045.22
487.726	6143.07
488.097	6330.86
488.467	6372.22
488.837	6545.32
489.207	6589.61
489.578	6746.45
489.948	6911.64
490.318	7015.82
490.688	7062.6
491.058	7206.55
491.428	7327.67
491.798	7480.66
492.168	7629.81
492.538	7736.93
492.908	7864.38
493.278	7965.17
493.648	8051.72
494.017	8140.08
494.387	8289.46
494.757	8386.86
495.126	8509.11
495.496	8565.38
495.866	8628.88
496.235	8763.12
496.605	8832.49
496.974	8977.8
497.344	9021.42
497.713	9055.54
498.082	9204.91
498.452	9396.32
498.821	9402.42
499.19	9451.69
499.559	9511.57
499.928	9618.24
500.298	9683.54
500.667	9826.82
501.036	9827.04
501.405	9917.89
501.774	9880.6
502.143	10092.8
502.512	9983.2
502.88	10147.26
503.249	10159.01
503.618	10277.43
503.987	10355.62
504.356	10405.56
504.724	10519.46
505.093	10480.13
505.462	10579.79
505.83	10635.84
506.199	10640.36
506.567	10792.67
506.936	10748.83
507.304	10910.86
507.672	10853.91
508.041	10953.12
508.409	11015.71
508.777	11044.41
509.145	11176.61
509.514	11061.14
509.882	11196.95
510.25	11233.11
510.618	11300.23
510.986	11188.82
511.354	11290.73
511.722	11408.92
512.09	11557.62
512.458	11537.96
512.826	11583.61
513.193	11548.81
513.561	11600.78
513.929	11621.12
514.297	11681.23
514.664	11649.82
515.032	11681.01
515.4	11826.77
515.767	11875.58
516.135	11819.31
516.502	11725.75
516.869	11897.27
517.237	11906.76
517.604	11848.01
517.972	11928.91
518.339	11986.99
518.706	11976.59
519.073	11982.47
519.44	11987.21
519.808	12093.42
520.175	12005.97
520.542	12087.78
520.909	12094.78
521.276	12168.9
521.643	12171.39
522.009	12227.88
522.376	12206.64
522.743	12287.77
523.11	12279.18
523.477	12348.56
523.843	12339.75
524.21	12428.11
524.577	12462.68
524.943	12428.11
525.31	12522.34
525.676	12561.21
526.043	12469.23
526.409	12527.31
526.776	12576.12
527.142	12528.22
527.508	12483.02
527.874	12619.96
528.241	12494.54
528.607	12440.08
528.973	12567.76
529.339	12507.43
529.705	12634.2
530.071	12617.7
530.437	12647.99
530.803	12584.26
531.169	12629.46
531.535	12499.97
531.901	12556.01
532.267	12516.92
532.632	12545.39
532.998	12534.09
533.364	12492.96
533.73	12504.94
534.095	12483.7
534.461	12445.73
534.826	12519.85
535.192	12433.75
535.557	12462.91
535.923	12375.68
536.288	12317.6
536.653	12323.25
537.019	12270.6
537.384	12202.35
537.749	12291.84
538.114	12156.7
538.479	12198.96
538.845	12120.09
539.21	12062.47
539.575	12064.95
539.94	11980.89
540.305	12078.74
540.67	11887.78
541.034	11943.82
541.399	11824.28
541.764	11883.71
542.129	11878.29
542.494	11730.04
542.858	11734.79
543.223	11711.51
543.587	11679.2
543.952	11690.05
544.316	11597.84
544.681	11505.19
545.045	11552.87
545.41	11593.78
545.774	11500.9
546.138	11441.46
546.503	11452.99
546.867	11344.29
547.231	11406.89
547.595	11283.5
547.959	11264.75
548.324	11218.65
548.688	11218.65
549.052	11183.84
549.416	11140.91
549.779	11117.86
550.143	11022.04
550.507	10994.7
550.871	11024.53
551.235	10942.95
551.599	10954.92
551.962	10868.37
552.326	10880.8
552.689	10886.45
553.053	10792.67
553.417	10793.35
553.78	10811.2
554.143	10718.55
554.507	10682.84
554.87	10745.66
555.234	10749.73
555.597	10541.6
555.96	10630.64
556.323	10589.74
556.686	10601.94
557.05	10558.32
557.413	10607.14
557.776	10488.27
558.139	10521.71
558.502	10533.69
558.865	10517.42
559.228	10474.26
559.59	10467.03
559.953	10496.63
560.316	10528.72
560.679	10472.22
561.041	10454.15
561.404	10369.63
561.767	10433.81
562.129	10403.3
562.492	10469.51
562.854	10359.91
563.217	10408.72
563.579	10402.17
563.941	10434.71
564.304	10377.99
564.666	10465.9
565.028	10419.12
565.39	10431.1
565.753	10462.73
566.115	10417.76
566.477	10486.69
566.839	10403.98
567.201	10458.44
567.563	10470.42
567.925	10541.15
568.287	10427.93
568.648	10419.34
569.01	10511.77
569.372	10454.37
569.734	10439.46
570.095	10497.99
570.457	10491.43
570.819	10500.7
571.18	10436.75
571.542	10499.12
571.903	10493.02
572.265	10509.96
572.626	10506.35
572.987	10581.6
573.349	10510.19
573.71	10489.17
574.071	10580.47
574.432	10560.13
574.794	10537.53
575.155	10617.98
575.516	10555.16
575.877	10502.51
576.238	10612.79
576.599	10614.37
576.96	10547.93
577.32	10535.05
577.681	10610.53
578.042	10602.39
578.403	10606.23
578.763	10622.28
579.124	10598.32
579.485	10600.81
579.845	10618.89
580.206	10654.59
580.566	10591.77
580.927	10566.46
581.287	10562.17
581.648	10582.73
582.008	10580.24
582.368	10614.59
582.728	10617.08
583.089	10570.98
583.449	10553.8
583.809	10510.64
584.169	10496.63
584.529	10420.47
584.889	10470.42
585.249	10453.92
585.609	10444.2
585.969	10556.29
586.329	10437.88
586.688	10450.3
587.048	10418.67
587.408	10404.66
587.768	10468.16
588.127	10366.92
588.487	10396.07
588.846	10475.61
589.206	10399.01
589.565	10373.92
589.925	10384.09
590.284	10316.52
590.643	10448.04
591.003	10399.46
591.362	10414.83
591.721	10376.41
592.08	10349.74
592.44	10358.56
592.799	10324.66
593.158	10324.43
593.517	10359.69
593.876	10319.69
594.235	10338.44
594.593	10258.44
594.952	10311.78
595.311	10292.34
595.67	10265.22
596.029	10319.46
596.387	10307.48
596.746	10312.23
597.104	10266.35
597.463	10278.56
597.822	10268.39
598.18	10204.66
598.538	10203.08
598.897	10271.33
599.255	10174.38
599.613	10217.77
599.972	10193.59
600.33	10230.88
600.688	10189.75
601.046	10226.13
601.404	10308.61
601.762	10277.65
602.12	10232.91
602.478	10189.07
602.836	10290.08
603.194	10195.4
603.552	10207.15
603.91	10204.89
604.268	10182.51
604.625	10144.32
604.983	10220.03
605.341	10182.29
605.698	10283.08
606.056	10261.61
606.413	10141.16
606.771	10184.32
607.128	10263.19
607.485	10183.42
607.843	10170.99
608.2	10261.38
608.557	10291.21
608.914	10217.99
609.272	10255.51
609.629	10277.88
609.986	10278.11
610.343	10300.48
610.7	10289.18
611.057	10284.43
611.414	10298.9
611.771	10310.42
612.127	10321.72
612.484	10302.06
612.841	10381.83
613.198	10306.81
613.554	10275.39
613.911	10413.7
614.267	10364.43
614.624	10280.59
614.98	10364.2
615.337	10399.01
615.693	10361.04
616.05	10386.58
616.406	10387.26
616.762	10354.04
617.118	10369.85
617.475	10347.48
617.831	10456.18
618.187	10446.46
618.543	10446.24
618.899	10501.83
619.255	10486.69
619.611	10458.44
619.967	10436.07
620.323	10459.8
620.678	10424.99
621.034	10441.27
621.39	10386.58
621.746	10430.19
622.101	10474.48
622.457	10450.98
622.812	10489.4
623.168	10450.53
623.523	10494.14
623.879	10569.4
624.234	10420.47
624.589	10505.67
624.945	10411.44
625.3	10507.25
625.655	10452.56
626.01	10428.84
626.365	10415.28
626.72	10438.55
627.075	10416.41
627.43	10403.75
627.785	10417.08
628.14	10439.23
628.495	10454.37
628.85	10437.88
629.205	10304.77
629.559	10427.03
629.914	10401.72
630.269	10376.41
630.623	10345
630.978	10309.74
631.332	10375.5
631.687	10388.84
632.041	10279.24
632.396	10319.01
632.75	10299.57
633.104	10283.98
633.459	10305.9
633.813	10312.68
634.167	10252.12
634.521	10257.32
634.875	10303.64
635.229	10257.99
635.583	10165.34
635.937	10211.44
636.291	10297.54
636.645	10238.78
636.999	10238.11
637.352	10235.85
637.706	10188.16
638.06	10225.9
638.413	10170.76
638.767	10159.92
639.121	10099.13
639.474	10071.56
639.828	10124.21
640.181	10068.39
640.534	10175.74
640.888	10057.77
641.241	10052.57
641.594	10029.98
641.947	10057.32
642.301	10048.73
642.654	10039.47
643.007	10088.28
643.36	9989.07
643.713	10006.47
644.066	10012.12
644.419	9967.38
644.771	9945.01
645.124	9860.26
645.477	9819.36
645.83	9760.15
646.182	9771.45
646.535	9720.15
646.888	9727.84
647.24	9699.36
647.593	9666.6
647.945	9784.11
648.298	9672.25
648.65	9641.74
649.002	9635.41
649.355	9701.62
649.707	9678.8
650.059	9721.96
650.411	9902.52
650.763	9859.36
651.115	9973.48
651.467	9886.7
651.819	9875.18
652.171	9866.82
652.523	9873.14
652.875	9823.88
653.227	9870.21
653.578	9879.47
653.93	9953.37
654.282	9879.25
654.633	9800.15
654.985	9879.25
655.337	9938
655.688	9878.79
656.039	9987.94
656.391	9837.44
656.742	9879.02
657.094	9841.05
657.445	9975.74
657.796	9872.92
658.147	9973.71
658.498	9910.43
658.849	9888.74
659.2	9924.22
659.551	9906.14
659.902	9951.79
660.253	9966.25
660.604	9968.28
660.955	9909.98
661.306	9961.73
661.656	9995.85
662.007	9965.35
662.358	9919.92
662.708	10001.95
663.059	9957.21
663.409	9950.43
663.76	10004.44
664.11	10035.63
664.461	10051.9
664.811	10030.88
665.161	9989.3
665.511	10004.44
665.862	10055.96
666.212	10065.46
666.562	10072.01
666.912	10078.56
667.262	10055.51
667.612	9970.54
667.962	10019.13
668.312	9998.56
668.662	10068.17
669.011	10007.38
669.361	10030.88
669.711	10003.99
670.06	9930.77
670.41	9941.17
670.76	9922.41
671.109	10041.05
671.459	9937.1
671.808	9920.37
672.157	9960.15
672.507	9826.82
672.856	9990.43
673.205	9924.22
673.554	9948.85
673.904	9920.83
674.253	9872.92
674.602	9867.27
674.951	9834.28
675.3	9677.22
675.649	9834.5
675.998	9846.03
676.346	9861.85
676.695	9826.59
677.044	9745.01
677.393	9786.82
677.741	9801.51
678.09	9826.82
678.438	9674.96
678.787	9792.69
679.135	9868.62
679.484	9749.08
679.832	9720.83
680.181	9722.19
680.529	9701.4
680.877	9731.45
681.225	9619.59
681.573	9662.53
681.922	9615.75
682.27	9633.83
682.618	9569.65
682.966	9629.99
683.314	9570.55
683.661	9610.1
684.009	9515.87
684.357	9476.54
684.705	9478.35
685.053	9461.86
685.4	9503.66
685.748	9448.75
686.095	9465.25
686.443	9393.83
686.79	9346.38
687.138	9359.26
687.485	9443.33
687.832	9306.38
688.18	9286.27
688.527	9296.66
688.874	9284.69
689.221	9283.33
689.568	9220.05
689.915	9149.32
690.262	9121.75
690.609	9163.33
690.956	9064.13
691.303	9130.79
691.65	9020.51
691.997	9069.55
692.344	8999.72
692.69	8997.01
693.037	8944.36
693.383	8869.55
693.73	8912.04
694.077	8853.06
694.423	8852.38
694.769	8731.71
695.116	8751.59
695.462	8707.75
695.808	8726.73
696.155	8719.5
696.501	8594.08
696.847	8583.46
697.193	8520.19
697.539	8579.85
697.885	8507.53
698.231	8467.31
698.577	8458.72
698.923	8463.01
699.269	8429.11
699.614	8342.79
699.96	8355.9
700.306	8334.65
700.651	8248.78
700.997	8241.55
701.342	8246.52
701.688	8260.08
702.033	8192.28
702.379	8155.22
702.724	8133.3
703.069	8177.82
703.415	7983.93
703.76	8055.79
704.105	8023.93
704.45	8018.28
704.795	7894.44
705.14	7936.7
705.485	7952.29
705.83	7867.77
706.175	7794.55
706.52	7797.04
706.865	7804.72
707.209	7838.62
707.554	7791.84
707.899	7756.14
708.243	7695.12
708.588	7715.01
708.932	7670.26
709.277	7608.8
709.621	7644.05
709.966	7557.27
710.31	7565.63
710.654	7491.29
710.998	7591.62
711.342	7527.22
711.687	7517.27
712.031	7466.43
712.375	7387.79
712.719	7407.22
713.063	7403.15
713.407	7420.78
713.75	7411.51
714.094	7397.05
714.438	7369.48
714.782	7350.05
715.125	7302.14
715.469	7317.51
715.812	7286.32
716.156	7278.86
716.499	7272.08
716.843	7275.7
717.186	7195.7
717.53	7254
717.873	7271.4
718.216	7227.34
718.559	7221.46
718.902	7141.46
719.246	7176.04
719.589	7145.98
719.932	7176.04
720.275	7174.23
720.617	7116.61
720.96	7160
721.303	7155.7
721.646	7117.28
721.989	7157.96
722.331	7135.14
722.674	7099.88
723.016	7083.61
723.359	7081.35
723.701	7061.69
724.044	7066.66
724.386	7065.31
724.729	7062.37
725.071	7109.83
725.413	7061.69
725.755	7041.58
726.097	7050.17
726.439	6998.42
726.782	6965.88
727.124	6994.12
727.465	7013.78
727.807	7017.63
728.149	7004.07
728.491	6944.63
728.833	6981.02
729.175	6984.41
729.516	7010.17
729.858	7031.41
730.199	7005.2
730.541	6940.11
730.882	6981.92
731.224	6940.57
731.565	6952.32
731.906	6953.22
732.248	6968.14
732.589	6953.22
732.93	6958.87
733.271	6908.25
733.612	6981.47
733.953	6992.32
734.294	6946.89
734.635	6936.72
734.976	6950.74
735.317	6929.27
735.658	6958.42
735.999	6974.69
736.339	6959.32
736.68	7047.68
737.021	6999.1
737.361	7004.75
737.702	7087.23
738.042	7049.72
738.383	7009.26
738.723	7018.53
739.063	7111.18
739.404	7112.31
739.744	7131.07
740.084	7066.44
740.424	7108.25
740.764	7105.53
741.104	7157.96
741.444	7063.27
741.784	7114.12
742.124	7108.92
742.464	7105.31
742.804	7168.13
743.143	7213.33
743.483	7174.91
743.823	7201.8
744.162	7232.99
744.502	7269.82
744.841	7272.31
745.181	7324.74
745.52	7388.69
745.86	7404.96
746.199	7424.85
746.538	7482.7
746.877	7510.72
747.216	7578.97
747.556	7635.92
747.895	7652.19
748.234	7762.24
748.573	7741.9
748.911	7787.1
749.25	7895.8
749.589	7897.38
749.928	8009.69
750.267	8118.84
750.605	8089.24
750.944	8155.68
751.283	8214.2
751.621	8431.15
751.96	8424.59
752.298	8494.2
752.636	8604.48
752.975	8689.45
753.313	8762.44
753.651	8849.67
753.989	8933.96
754.327	9090.34
754.666	9172.15
755.004	9272.48
755.342	9454.62
755.679	9558.35
756.017	9584.11
756.355	9806.48
756.693	9889.19
757.031	10085.12
757.368	10148.17
757.706	10385.45
758.044	10430.64
758.381	10609.4
758.719	10759.9
759.056	10929.61
759.394	11060.91
759.731	11181.81
760.068	11340
760.405	11542.25
760.743	11693.44
761.08	11879.65
761.417	11998.74
761.754	12171.61
