Data from hue_90_FLMS001491_53.txt Node
Date: Mon Feb 06 15:25:19 GMT 2017
User: dcchb
Spectrometer: FLMS00149
Trigger mode: 0
Integration Time (sec): 2.000000E-2
Scans to average: 10
Electric dark correction enabled: true
Nonlinearity correction enabled: false
Boxcar width: 0
XAxis mode: Wavelengths
Number of Pixels in Spectrum: 2048
>>>>>Begin Spectral Data<<<<<
341.393	-12.54
341.776	-12.54
342.16	-12.54
342.543	-74.46
342.927	-82.37
343.31	-74.46
343.693	-70.85
344.077	-70.62
344.46	-65.42
344.843	-42.82
345.226	-48.93
345.61	-29.94
345.993	-28.36
346.376	-13.67
346.759	-3.28
347.142	42.6
347.525	55.7
347.908	61.81
348.291	77.63
348.674	103.84
349.057	106.78
349.44	101.58
349.823	119.66
350.206	150.17
350.588	181.13
350.971	203.05
351.354	206.89
351.737	204.85
352.119	265.87
352.502	261.35
352.884	252.31
353.267	282.14
353.65	278.07
354.032	288.24
354.414	298.86
354.797	313.78
355.179	304.74
355.562	299.77
355.944	318.07
356.326	319.65
356.709	332.99
357.091	332.08
357.473	356.49
357.855	319.65
358.238	319.2
358.62	335.02
359.002	322.82
359.384	324.85
359.766	328.47
360.148	326.21
360.53	321.91
360.912	313.1
361.294	325.08
361.676	312.42
362.057	308.81
362.439	341.57
362.821	320.1
363.203	308.35
363.584	323.04
363.966	319.65
364.348	300.44
364.729	311.97
365.111	309.48
365.493	327.34
365.874	307.68
366.256	316.71
366.637	299.54
367.019	292.31
367.4	294.34
367.781	294.57
368.163	317.17
368.544	296.83
368.925	298.18
369.306	316.49
369.688	308.13
370.069	315.58
370.45	306.32
370.831	297.28
371.212	307.9
371.593	295.7
371.974	311.52
372.355	302.03
372.736	284.17
373.117	302.7
373.498	318.07
373.879	317.62
374.26	285.08
374.641	305.19
375.021	322.14
375.402	315.13
375.783	317.62
376.163	292.99
376.544	324.62
376.925	342.93
377.305	337.73
377.686	314
378.066	332.76
378.447	324.4
378.827	309.03
379.208	330.95
379.588	318.75
379.968	324.4
380.349	314.46
380.729	309.71
381.109	329.37
381.489	311.29
381.87	324.85
382.25	332.76
382.63	339.54
383.01	326.66
383.39	329.14
383.77	327.56
384.15	318.07
384.53	336.15
384.91	324.62
385.29	335.02
385.67	347.22
386.049	328.47
386.429	337.05
386.809	332.53
387.189	335.92
387.568	352.65
387.948	345.19
388.328	353.55
388.707	332.08
389.087	340.89
389.466	345.41
389.846	358.52
390.225	361.01
390.605	334.79
390.984	361.46
391.363	354.91
391.743	368.46
392.122	344.74
392.501	371.18
392.881	355.13
393.26	371.85
393.639	363.27
394.018	377.73
394.397	370.05
394.776	363.27
395.155	378.18
395.534	385.41
395.913	365.08
396.292	361.69
396.671	373.89
397.05	394.45
397.429	348.35
397.808	369.37
398.186	373.66
398.565	361.01
398.944	384.06
399.323	360.1
399.701	384.51
400.08	390.84
400.458	377.96
400.837	382.48
401.215	385.41
401.594	380.67
401.972	378.63
402.351	379.31
402.729	404.17
403.107	403.27
403.486	394.23
403.864	407.79
404.242	417.28
404.62	408.46
404.999	410.72
405.377	394.68
405.755	436.03
406.133	397.39
406.511	412.31
406.889	411.85
407.267	405.3
407.645	425.41
408.023	434.9
408.401	407.33
408.779	436.94
409.156	429.25
409.534	431.29
409.912	435.81
410.29	438.75
410.667	457.28
411.045	437.62
411.422	429.71
411.8	466.99
412.178	452.53
412.555	454.79
412.933	472.19
413.31	461.8
413.687	476.94
414.065	471.96
414.442	433.32
414.819	498.63
415.197	464.51
415.574	454.56
415.951	493.66
416.328	485.98
416.705	500.66
417.082	481.23
417.46	474
417.837	488.24
418.214	480.33
418.591	479.65
418.967	501.57
419.344	504.05
419.721	517.16
420.098	495.24
420.475	485.52
420.852	472.64
421.228	502.02
421.605	498.4
421.982	535.24
422.358	498.86
422.735	526.2
423.111	530.27
423.488	521.46
423.864	538.4
424.241	566.88
424.617	561.68
424.994	561
425.37	551.74
425.746	557.61
426.123	546.77
426.499	558.29
426.875	558.52
427.251	557.61
427.627	553.54
428.003	574.11
428.379	546.54
428.756	571.4
429.132	566.65
429.507	596.71
429.883	572.98
430.259	620.89
430.635	592.64
431.011	623.6
431.387	612.07
431.763	622.47
432.138	610.72
432.514	628.8
432.89	614.33
433.265	651.4
433.641	637.16
434.016	641.9
434.392	658.4
434.767	677.38
435.143	648.68
435.518	640.55
435.894	655.69
436.269	668.34
436.644	685.97
437.02	673.32
437.395	688.68
437.77	702.92
438.145	709.92
438.52	712.86
438.895	716.03
439.271	743.6
439.646	736.59
440.021	747.66
440.395	742.01
440.77	733.65
441.145	709.25
441.52	715.57
441.895	732.52
442.27	775.23
442.645	745.63
443.019	751.73
443.394	776.14
443.769	761
444.143	766.19
444.518	759.19
444.892	778.17
445.267	792.41
445.641	794.67
446.016	805.29
446.39	811.84
446.764	823.82
447.139	786.98
447.513	823.37
447.887	808.45
448.262	835.35
448.636	819.75
449.01	842.8
449.384	835.8
449.758	854.55
450.132	872.63
450.506	858.4
450.88	865.85
451.254	894.33
451.628	878.28
452.002	871.95
452.376	908.56
452.75	902.91
453.123	918.05
453.497	938.85
453.871	949.01
454.244	938.39
454.618	924.83
454.992	967.09
455.365	963.03
455.739	954.44
456.112	976.81
456.486	987.21
456.859	1020.65
457.232	1011.16
457.606	1059.52
457.979	1030.14
458.352	1043.7
458.725	1065.4
459.099	1044.61
459.472	1056.36
459.845	1078.95
460.218	1109.46
460.591	1105.85
460.964	1111.72
461.337	1138.16
461.71	1143.13
462.083	1187.88
462.456	1191.04
462.829	1174.32
463.201	1220.42
463.574	1248.22
463.947	1233.75
464.32	1270.81
464.692	1262.23
465.065	1291.15
465.438	1307.65
465.81	1304.94
466.183	1317.14
466.555	1376.8
466.928	1363.24
467.3	1387.2
467.672	1418.83
468.045	1450.02
468.417	1444.82
468.789	1480.53
469.161	1490.92
469.534	1529.79
469.906	1562.78
470.278	1559.17
470.65	1611.37
471.022	1628.09
471.394	1682.78
471.766	1667.64
472.138	1720.52
472.51	1768.88
472.882	1823.34
473.253	1821.99
473.625	1857.92
473.997	1928.42
474.369	1918.03
474.74	1960.29
475.112	2021.3
475.484	2070.57
475.855	2122.54
476.227	2149.21
476.598	2238.92
476.97	2230.34
477.341	2349.2
477.713	2358.02
478.084	2391.91
478.455	2505.81
478.827	2552.59
479.198	2671.46
479.569	2676.88
479.94	2765.01
480.311	2840.04
480.682	2859.02
481.053	2995.06
481.424	3088.62
481.795	3157.09
482.166	3227.37
482.537	3330.42
482.908	3423.98
483.279	3484.99
483.65	3586.23
484.021	3717.53
484.391	3814.25
484.762	3920.24
485.133	3944.64
485.503	4050.4
485.874	4191.87
486.244	4274.12
486.615	4418.75
486.985	4463.05
487.356	4628.47
487.726	4744.17
488.097	4880.44
488.467	4941.45
488.837	5072.97
489.207	5205.4
489.578	5313.87
489.948	5481.78
490.318	5591.38
490.688	5651.49
491.058	5830.24
491.428	5970.13
491.798	6064.59
492.168	6203.11
492.538	6339.16
492.908	6421.19
493.278	6599.49
493.648	6633.84
494.017	6753.38
494.387	6931
494.757	7046.26
495.126	7182.3
495.496	7229.3
495.866	7322.86
496.235	7470.88
496.605	7557.2
496.974	7741.6
497.344	7871.54
497.713	7989.06
498.082	8102.27
498.452	8147.7
498.821	8229.05
499.19	8297.3
499.559	8463.17
499.928	8591.07
500.298	8606.44
500.667	8764.4
501.036	8825.19
501.405	8964.4
501.774	8961.69
502.143	9072.87
502.512	9181.11
502.88	9318.06
503.249	9387.89
503.618	9439.41
503.987	9511.73
504.356	9590.6
504.724	9669.69
505.093	9709.46
505.462	9814.77
505.83	9877.14
506.199	9994.43
506.567	10059.96
506.936	10088.89
507.304	10142.45
507.672	10261.09
508.041	10356
508.409	10402.1
508.777	10421.76
509.145	10518.71
509.514	10578.37
509.882	10675.31
510.25	10601.87
510.618	10760.73
510.986	10788.76
511.354	10906.49
511.722	10930.22
512.09	11007.51
512.458	11058.58
512.826	11076.66
513.193	11155.75
513.561	11270.33
513.929	11286.6
514.297	11380.83
514.664	11388.06
515.032	11344.22
515.4	11545.8
515.767	11489.98
516.135	11532.47
516.502	11443.2
516.869	11632.12
517.237	11668.96
517.604	11588.96
517.972	11732.69
518.339	11805
518.706	11744.66
519.073	11848.84
519.44	11848.39
519.808	11991.66
520.175	11936.97
520.542	11956.63
520.909	11966.8
521.276	12020.14
521.643	12084.54
522.009	12185.33
522.376	12164.31
522.743	12256.29
523.11	12254.93
523.477	12316.17
523.843	12342.61
524.21	12433.01
524.577	12488.37
524.943	12509.39
525.31	12464.87
525.676	12506.68
526.043	12601.59
526.409	12545.77
526.776	12700.12
527.142	12620.35
527.508	12654.24
527.874	12706.45
528.241	12745.09
528.607	12753.45
528.973	12827.8
529.339	12784.41
529.705	12769.04
530.071	12869.61
530.437	12805.65
530.803	12852.66
531.169	12890.17
531.535	12793.45
531.901	12794.8
532.267	12829.15
532.632	12805.65
532.998	12867.12
533.364	12990.73
533.73	12846.55
534.095	12871.64
534.461	12847.23
534.826	12872.99
535.192	12809.49
535.557	12885.65
535.923	12815.14
536.288	12807.91
536.653	12775.6
537.019	12743.51
537.384	12796.61
537.749	12741.25
538.114	12762.04
538.479	12660.57
538.845	12734.24
539.21	12637.75
539.575	12692.21
539.94	12656.5
540.305	12702.6
540.67	12579.67
541.034	12552.55
541.399	12525.66
541.764	12519.78
542.129	12529.5
542.494	12467.36
542.858	12538.77
543.223	12426.68
543.587	12435.49
543.952	12393.01
544.316	12322.73
544.681	12282.95
545.045	12347.13
545.41	12324.76
545.774	12364.53
546.138	12259.68
546.503	12216.29
546.867	12135.61
547.231	12289.96
547.595	12199.57
547.959	12075.73
548.324	12114.82
548.688	12116.4
549.052	12134.03
549.416	12034.82
549.779	11995.5
550.143	12051.32
550.507	12013.36
550.871	12110.08
551.235	11960.25
551.599	11957.99
551.962	11849.07
552.326	11857.43
552.689	11905.56
553.053	11809.29
553.417	11830.99
553.78	11943.98
554.143	11780.82
554.507	11804.55
554.87	11729.3
555.234	11852.91
555.597	11713.25
555.96	11760.03
556.323	11698.56
556.686	11704.21
557.05	11685.23
557.413	11692.01
557.776	11702.63
558.139	11699.69
558.502	11683.65
558.865	11627.6
559.228	11680.94
559.59	11685
559.953	11641.16
560.316	11676.42
560.679	11758
561.041	11706.47
561.404	11703.53
561.767	11725
562.129	11687.04
562.492	11806.58
562.854	11747.6
563.217	11727.94
563.579	11698.79
563.941	11726.36
564.304	11818.33
564.666	11769.3
565.028	11869.41
565.39	11794.83
565.753	11855.39
566.115	11873.25
566.477	11840.48
566.839	11882.74
567.201	11885.22
567.563	11884.55
567.925	11907.14
568.287	11864.66
568.648	11861.72
569.01	11940.36
569.372	11952.79
569.734	11920.7
570.095	12030.98
570.457	12002.06
570.819	12019.23
571.18	12011.77
571.542	11982.4
571.903	11998.89
572.265	12062.17
572.626	12031.89
572.987	12101.26
573.349	12159.34
573.71	12159.57
574.071	12060.13
574.432	12152.56
574.794	12191.2
575.155	12192.11
575.516	12093.58
575.877	12146.69
576.238	12149.17
576.599	12138.32
576.96	12155.5
577.32	12190.07
577.681	12219.23
578.042	12176.74
578.403	12115.95
578.763	12190.98
579.124	12285.67
579.485	12279.79
579.845	12270.98
580.206	12253.12
580.566	12236.4
580.927	12210.19
581.287	12199.11
581.648	12177.65
582.008	12208.15
582.368	12164.31
582.728	12123.64
583.089	12170.64
583.449	12150.08
583.809	12191.66
584.169	12162.51
584.529	12077.99
584.889	12220.58
585.249	12170.87
585.609	12115.95
585.969	12111.43
586.329	12181.94
586.688	12114.37
587.048	12108.27
587.408	12066.91
587.768	12080.7
588.127	12101.94
588.487	12022.4
588.846	12211.09
589.206	12009.51
589.565	12023.75
589.925	12041.15
590.284	11984.88
590.643	11987.82
591.003	12020.59
591.362	12158.66
591.721	12073.69
592.08	12019.23
592.44	12047.03
592.799	11932.45
593.158	12000.02
593.517	11982.17
593.876	11965.67
594.235	11967.48
594.593	11974.26
594.952	12000.7
595.311	11991.44
595.67	12000.93
596.029	12038.21
596.387	11970.19
596.746	11932.23
597.104	11923.64
597.463	11954.15
597.822	12024.2
598.18	11944.88
598.538	11871.67
598.897	11972.91
599.255	11861.72
599.613	11995.28
599.972	11913.92
600.33	11936.52
600.688	11973.81
601.046	11934.49
601.404	11985.56
601.762	11984.66
602.12	11979.01
602.478	11952.57
602.836	11925.9
603.194	11917.99
603.552	11871.44
603.91	11854.26
604.268	11889.52
604.625	11915.73
604.983	11912.34
605.341	11873.93
605.698	11873.47
606.056	11941.04
606.413	11957.99
606.771	11995.5
607.128	11988.95
607.485	11906.01
607.843	11855.85
608.2	11986.46
608.557	12061.04
608.914	11976.07
609.272	11976.97
609.629	12037.31
609.986	12043.41
610.343	11987.59
610.7	12097.87
611.057	12108.72
611.414	12063.3
611.771	12066.46
612.127	12133.13
612.484	12039.12
612.841	12087.25
613.198	12053.36
613.554	12069.63
613.911	12186.69
614.267	12145.33
614.624	12078.89
614.98	12222.62
615.337	12187.82
615.693	12175.61
616.05	12164.09
616.406	12211.32
616.762	12150.75
617.118	12121.83
617.475	12109.4
617.831	12177.42
618.187	12231.88
618.543	12247.47
618.899	12269.85
619.255	12279.34
619.611	12237.31
619.967	12303.07
620.323	12299.22
620.678	12185.1
621.034	12181.26
621.39	12251.77
621.746	12201.37
622.101	12301.48
622.457	12257.19
622.812	12282.05
623.168	12282.73
623.523	12273.24
623.879	12258.1
624.234	12241.6
624.589	12299.9
624.945	12246.8
625.3	12331.31
625.655	12268.72
626.01	12231.43
626.365	12298.77
626.72	12221.03
627.075	12251.99
627.43	12251.32
627.785	12244.54
628.14	12184.65
628.495	12209.74
628.85	12236.85
629.205	12204.09
629.559	12166.57
629.914	12153.01
630.269	12281.37
630.623	12096.74
630.978	12141.04
631.332	12164.54
631.687	12207.25
632.041	12109.63
632.396	12149.85
632.75	12105.11
633.104	12092.22
633.459	12075.28
633.813	12044.54
634.167	12096.07
634.521	12022.62
634.875	12052
635.229	12066.69
635.583	11972.68
635.937	11934.71
636.291	11956.86
636.645	11950.53
636.999	11910.76
637.352	11965.22
637.706	11831.89
638.06	11915.73
638.413	11889.74
638.767	11852.68
639.121	11876.64
639.474	11810.65
639.828	11815.62
640.181	11816.07
640.534	11793.25
640.888	11728.39
641.241	11762.52
641.594	11690.65
641.947	11755.96
642.301	11697.21
642.654	11780.37
643.007	11809.07
643.36	11805.68
643.713	11736.08
644.066	11809.97
644.419	11638.68
644.771	11686.13
645.124	11500.15
645.477	11495.18
645.83	11455.18
646.182	11416.31
646.535	11323.66
646.888	11361.4
647.24	11296.54
647.593	11319.59
647.945	11359.36
648.298	11227.16
648.65	11319.59
649.002	11221.29
649.355	11288.4
649.707	11269.42
650.059	11299.48
650.411	11476.65
650.763	11470.32
651.115	11571.33
651.467	11546.02
651.819	11538.34
652.171	11457.66
652.523	11533.6
652.875	11520.49
653.227	11471.68
653.578	11562.75
653.93	11589.64
654.282	11506.48
654.633	11480.26
654.985	11534.27
655.337	11542.86
655.688	11520.94
656.039	11542.18
656.391	11503.54
656.742	11579.24
657.094	11523.2
657.445	11577.66
657.796	11551.45
658.147	11555.74
658.498	11478.46
658.849	11505.12
659.2	11529.53
659.551	11558
659.902	11602.29
660.253	11515.06
660.604	11585.12
660.955	11512.58
661.306	11586.93
661.656	11621.95
662.007	11546.48
662.358	11553.48
662.708	11651.11
663.059	11528.17
663.409	11507.16
663.76	11624.89
664.11	11659.47
664.461	11558.23
664.811	11670.77
665.161	11647.26
665.511	11579.7
665.862	11604.78
666.212	11670.99
666.562	11653.37
666.912	11616.98
667.262	11570.43
667.612	11582.63
667.962	11622.86
668.312	11650.43
668.662	11610.43
669.011	11630.09
669.361	11555.74
669.711	11482.3
670.06	11537.44
670.41	11522.3
670.76	11501.96
671.109	11645.68
671.459	11599.81
671.808	11548.96
672.157	11565.01
672.507	11478.46
672.856	11465.57
673.205	11502.86
673.554	11538.79
673.904	11481.62
674.253	11554.61
674.602	11503.54
674.951	11412.47
675.3	11307.61
675.649	11452.02
675.998	11467.38
676.346	11501.96
676.695	11500.83
677.044	11340.61
677.393	11426.48
677.741	11449.3
678.09	11378.34
678.438	11307.16
678.787	11391.23
679.135	11389.42
679.484	11314.17
679.832	11402.07
680.181	11283.66
680.529	11278.23
680.877	11214.51
681.225	11217.67
681.573	11313.94
681.922	11219.93
682.27	11192.14
682.618	11192.59
682.966	11080.73
683.314	11135.64
683.661	11085.7
684.009	11058.35
684.357	11033.04
684.705	10986.72
685.053	11057.9
685.4	10984.68
685.748	11008.86
686.095	10934.97
686.443	10808.64
686.79	10852.93
687.138	10828.08
687.485	10862.65
687.832	10822.88
688.18	10823.11
688.527	10731.13
688.874	10719.83
689.221	10702.66
689.568	10740.62
689.915	10669.89
690.262	10543.34
690.609	10610
690.956	10492.49
691.303	10546.5
691.65	10478.26
691.997	10466.73
692.344	10415.21
692.69	10386.73
693.037	10397.58
693.383	10307.64
693.73	10370.91
694.077	10309.67
694.423	10238.04
694.769	10211.14
695.116	10198.04
695.462	10127.98
695.808	10113.29
696.155	10105.16
696.501	9965.5
696.847	9963.92
697.193	9918.04
697.539	9937.25
697.885	9903.36
698.231	9807.76
698.577	9892.51
698.923	9831.27
699.269	9678.73
699.614	9620.65
699.96	9716.69
700.306	9665.62
700.651	9648.22
700.997	9584.49
701.342	9610.26
701.688	9524.16
702.033	9440.32
702.379	9464.95
702.724	9429.92
703.069	9473.99
703.415	9365.97
703.76	9380.88
704.105	9370.94
704.45	9266.54
704.795	9268.12
705.14	9222.24
705.485	9219.76
705.83	9168.23
706.175	9144.28
706.52	9147.22
706.865	9109.7
707.209	9059.08
707.554	9069.93
707.899	9094.56
708.243	9073.32
708.588	8959.65
708.932	8949.71
709.277	8921.23
709.621	8911.97
709.966	8884.17
710.31	8846.66
710.654	8777.51
710.998	8818.41
711.342	8845.3
711.687	8763.72
712.031	8739.32
712.375	8698.87
712.719	8721.24
713.063	8682.14
713.407	8681.01
713.75	8645.54
714.094	8606.67
714.438	8603.5
714.782	8578.19
715.125	8556.27
715.469	8569.61
715.812	8531.64
716.156	8413.9
716.499	8546.55
716.843	8435.82
717.186	8472.88
717.53	8468.59
717.873	8497.97
718.216	8431.3
718.559	8412.32
718.902	8401.7
719.246	8289.84
719.589	8388.14
719.932	8314.47
720.275	8253
720.617	8394.24
720.96	8349.05
721.303	8272.66
721.646	8280.57
721.989	8348.59
722.331	8285.54
722.674	8236.51
723.016	8286
723.359	8277.86
723.701	8235.38
724.044	8185.21
724.386	8193.34
724.729	8247.35
725.071	8191.76
725.413	8234.25
725.755	8221.82
726.097	8204.42
726.439	8158.99
726.782	8113.8
727.124	8185.43
727.465	8162.16
727.807	8163.29
728.149	8167.81
728.491	8122.16
728.833	8170.07
729.175	8106.34
729.516	8113.8
729.858	8121.71
730.199	8116.28
730.541	8089.17
730.882	8055.95
731.224	8136.17
731.565	8070.86
731.906	8100.69
732.248	8088.26
732.589	8065.21
732.93	8119.45
733.271	8154.25
733.612	8068.6
733.953	8117.64
734.294	8056.4
734.635	8111.09
734.976	8096.62
735.317	8119.45
735.658	8113.8
735.999	8083.74
736.339	8116.06
736.68	8075.38
737.021	8069.28
737.361	8052.78
737.702	8110.63
738.042	8057.53
738.383	8129.39
738.723	8125.1
739.063	8117.19
739.404	8098.43
739.744	8123.74
740.084	8182.72
740.424	8134.81
740.764	8094.82
741.104	8182.72
741.444	8154.93
741.784	8203.06
742.124	8188.82
742.464	8187.24
742.804	8215.72
743.143	8217.3
743.483	8235.15
743.823	8226.56
744.162	8281.03
744.502	8312.66
744.841	8289.16
745.181	8407.12
745.52	8403.06
745.86	8389.27
746.199	8431.53
746.538	8485.77
746.877	8529.83
747.216	8583.39
747.556	8563.5
747.895	8644.63
748.234	8616.84
748.573	8659.32
748.911	8762.59
749.25	8797.4
749.589	8859.32
749.928	8932.08
750.267	8982.93
750.605	9051.63
750.944	9131.62
751.283	9167.33
751.621	9217.95
751.96	9292.3
752.298	9440.99
752.636	9510.37
752.975	9535.68
753.313	9583.36
753.651	9773.87
753.989	9787.88
754.327	9919.85
754.666	9961.88
755.004	10096.57
755.342	10186.51
755.679	10330.24
756.017	10354.64
756.355	10538.14
756.693	10633.28
757.031	10758.93
757.368	10923.22
757.706	10941.52
758.044	11122.31
758.381	11331.11
758.719	11390.1
759.056	11507.16
759.394	11619.02
759.731	11670.54
760.068	11930.65
760.405	11962.96
