Data from hue_250_FLMS001491_00002.txt Node
Date: Tue Feb 07 16:00:27 GMT 2017
User: dcchb
Spectrometer: FLMS00149
Trigger mode: 0
Integration Time (sec): 2.000000E-2
Scans to average: 10
Electric dark correction enabled: true
Nonlinearity correction enabled: false
Boxcar width: 0
XAxis mode: Wavelengths
Number of Pixels in Spectrum: 2048
>>>>>Begin Spectral Data<<<<<
341.393	-7.03
341.776	-7.03
342.16	-7.03
342.543	-73.47
342.927	-70.31
343.31	-67.82
343.693	-80.25
344.077	-62.4
344.46	-54.72
344.843	-44.32
345.226	-41.16
345.61	-36.41
345.993	-18.78
346.376	-2.06
346.759	36.58
347.142	8.11
347.525	26.86
347.908	56.92
348.291	79.29
348.674	98.27
349.057	101.89
349.44	127.2
349.823	140.76
350.206	147.76
350.588	181.21
350.971	199.74
351.354	225.05
351.737	217.14
352.119	246.74
352.502	265.95
352.884	255.33
353.267	283.58
353.65	291.04
354.032	271.83
354.414	274.99
354.797	278.16
355.179	294.88
355.562	304.37
355.944	292.85
356.326	305.95
356.709	333.75
357.091	320.42
357.473	327.87
357.855	339.4
358.238	327.19
358.62	323.35
359.002	316.12
359.384	327.42
359.766	327.19
360.148	328.32
360.53	311.38
360.912	328.78
361.294	340.08
361.676	333.3
362.057	336.91
362.439	317.03
362.821	301.43
363.203	328.78
363.584	335.33
363.966	325.84
364.348	325.61
364.729	321.55
365.111	302.79
365.493	314.09
365.874	312.05
366.256	314.77
366.637	295.11
367.019	295.56
367.4	310.25
367.781	290.36
368.163	297.59
368.544	315.44
368.925	282.68
369.306	301.21
369.688	284.26
370.069	294.88
370.45	298.72
370.831	310.92
371.212	301.66
371.593	302.79
371.974	305.27
372.355	304.6
372.736	295.11
373.117	285.84
373.498	302.34
373.879	318.83
374.26	300.53
374.641	298.49
375.021	286.07
375.402	298.04
375.783	300.98
376.163	304.37
376.544	338.72
376.925	308.44
377.305	314.99
377.686	315.44
378.066	323.58
378.447	323.13
378.827	326.52
379.208	302.79
379.588	310.02
379.968	310.92
380.349	319.29
380.729	324.71
381.109	332.62
381.489	317.25
381.87	337.59
382.25	318.38
382.63	318.38
383.01	307.53
383.39	337.82
383.77	329.68
384.15	326.06
384.53	345.5
384.91	334.88
385.29	348.21
385.67	343.69
386.049	331.49
386.429	325.16
386.809	331.71
387.189	346.86
387.568	346.18
387.948	349.34
388.328	343.24
388.707	351.37
389.087	352.28
389.466	362.45
389.846	343.24
390.225	344.14
390.605	341.43
390.984	350.92
391.363	375.33
391.743	357.93
392.122	372.84
392.501	354.76
392.881	351.15
393.26	351.83
393.639	360.64
394.018	367.87
394.397	373.07
394.776	365.61
395.155	380.75
395.534	375.56
395.913	352.73
396.292	377.36
396.671	380.53
397.05	392.5
397.429	392.96
397.808	358.15
398.186	388.21
398.565	384.14
398.944	380.3
399.323	383.69
399.701	403.12
400.08	382.11
400.458	396.57
400.837	399.74
401.215	400.41
401.594	414.65
401.972	414.42
402.351	405.38
402.729	402.22
403.107	423.01
403.486	423.69
403.864	400.19
404.242	436.8
404.62	417.36
404.999	425.72
405.377	405.84
405.755	451.71
406.133	440.41
406.511	454.88
406.889	421.88
407.267	438.38
407.645	433.86
408.023	454.65
408.401	457.81
408.779	469.79
409.156	457.13
409.534	472.95
409.912	481.77
410.29	484.7
410.667	479.06
411.045	501.88
411.422	498.04
411.8	513.18
412.178	532.16
412.555	521.31
412.933	523.35
413.31	526.29
413.687	527.19
414.065	535.1
414.442	554.31
414.819	524.93
415.197	556.79
415.574	589.11
415.951	581.43
416.328	594.08
416.705	596.11
417.082	588.66
417.46	609.45
417.837	602.22
418.214	598.6
418.591	625.04
418.967	594.08
419.344	614.87
419.721	621.2
420.098	652.38
420.475	642.67
420.852	645.15
421.228	650.58
421.605	663.91
421.982	670.24
422.358	701.42
422.735	686.96
423.111	694.64
423.488	696
423.864	711.82
424.241	751.59
424.617	748.2
424.994	743.68
425.37	744.36
425.746	757.47
426.123	773.51
426.499	760.63
426.875	787.07
427.251	804.92
427.627	826.16
428.003	816.45
428.379	819.39
428.756	847.63
429.132	858.25
429.507	850.12
429.883	861.42
430.259	871.14
430.635	883.79
431.011	929.21
431.387	904.81
431.763	919.27
432.138	933.28
432.514	922.43
432.89	939.83
433.265	968.76
433.641	992.94
434.016	985.93
434.392	1025.93
434.767	1035.42
435.143	1048.76
435.518	1041.07
435.894	1053.05
436.269	1068.42
436.644	1097.8
437.02	1102.54
437.395	1109.32
437.77	1127.63
438.145	1148.19
438.52	1161.75
438.895	1154.07
439.271	1186.38
439.646	1220.05
440.021	1207.4
440.395	1241.97
440.77	1217.57
441.145	1234.52
441.52	1281.97
441.895	1285.36
442.27	1292.59
442.645	1286.49
443.019	1336.43
443.394	1326.04
443.769	1345.7
444.143	1331.91
444.518	1347.05
444.892	1363.78
445.267	1385.02
445.641	1386.38
446.016	1414.17
446.39	1386.6
446.764	1423.66
447.139	1418.01
447.513	1433.38
447.887	1445.36
448.262	1452.14
448.636	1462.98
449.01	1475.87
449.384	1480.16
449.758	1502.08
450.132	1512.25
450.506	1519.25
450.88	1517.67
451.254	1528.52
451.628	1581.85
452.002	1568.29
452.376	1584.11
452.75	1604.22
453.123	1609.42
453.497	1641.74
453.871	1643.32
454.244	1645.8
454.618	1673.83
454.992	1691.45
455.365	1668.85
455.739	1722.19
456.112	1737.78
456.486	1741.17
456.859	1755.18
457.232	1780.94
457.606	1796.08
457.979	1796.76
458.352	1845.12
458.725	1866.36
459.099	1866.82
459.472	1912.24
459.845	1953.59
460.218	1973.25
460.591	1960.6
460.964	1950.43
461.337	1999.02
461.71	2027.26
462.083	2024.1
462.456	2022.74
462.829	2059.13
463.201	2105.45
463.574	2075.4
463.947	2133.7
464.32	2170.54
464.692	2216.86
465.065	2196.52
465.438	2227.03
465.81	2250.08
466.183	2286.01
466.555	2325.33
466.928	2325.56
467.3	2334.37
467.672	2321.04
468.045	2449.62
468.417	2428.61
468.789	2427.93
469.161	2465.9
469.534	2488.04
469.906	2534.37
470.278	2579.79
470.65	2567.81
471.022	2617.08
471.394	2644.87
471.766	2676.29
472.138	2689.17
472.51	2772.78
472.882	2816.17
473.253	2846
473.625	2827.92
473.997	2921.7
474.369	2905.66
474.74	2947.92
475.112	2990.63
475.484	3019.55
475.855	3060.46
476.227	3093.45
476.598	3178.87
476.97	3150.85
477.341	3250.96
477.713	3268.36
478.084	3295.48
478.455	3356.27
478.827	3435.14
479.198	3495.93
479.569	3518.52
479.94	3567.79
480.311	3597.39
480.682	3659.99
481.053	3759.65
481.424	3781.57
481.795	3798.74
482.166	3842.36
482.537	3881.9
482.908	3995.12
483.279	4029.02
483.65	4060.43
484.021	4113.76
484.391	4129.81
484.762	4172.74
485.133	4205.51
485.503	4257.26
485.874	4322.57
486.244	4396.24
486.615	4464.04
486.985	4506.97
487.356	4506.29
487.726	4588.33
488.097	4648.66
488.467	4707.87
488.837	4796.68
489.207	4840.3
489.578	4865.15
489.948	4925.94
490.318	4937.7
490.688	4982.44
491.058	5007.07
491.428	5038.48
491.798	5068.77
492.168	5228.08
492.538	5188.99
492.908	5273.28
493.278	5363.9
493.648	5367.97
494.017	5357.8
494.387	5443.44
494.757	5462.65
495.126	5493.61
495.496	5492.93
495.866	5542.88
496.235	5610.9
496.605	5633.72
496.974	5603.44
497.344	5700.16
497.713	5775.19
498.082	5725.92
498.452	5775.87
498.821	5806.6
499.19	5802.08
499.559	5902.19
499.928	5887.73
500.298	5922.08
500.667	5979.93
501.036	5935.86
501.405	5967.95
501.774	6004.33
502.143	6036.42
502.512	6043.65
502.88	6073.71
503.249	6113.48
503.618	6114.84
503.987	6127.49
504.356	6145.12
504.724	6208.85
505.093	6173.37
505.462	6169.53
505.83	6220.37
506.199	6278.68
506.567	6325.91
506.936	6320.94
507.304	6399.58
507.672	6406.36
508.041	6353.48
508.409	6453.36
508.777	6509.18
509.145	6468.73
509.514	6455.17
509.882	6529.07
510.25	6545.56
510.618	6468.28
510.986	6536.98
511.354	6590.31
511.722	6623.75
512.09	6665.56
512.458	6634.83
512.826	6670.53
513.193	6687.48
513.561	6687.25
513.929	6731.77
514.297	6759.12
514.664	6790.75
515.032	6735.84
515.4	6829.4
515.767	6799.34
516.135	6817.42
516.502	6770.87
516.869	6887.7
517.237	6887.02
517.604	6817.87
517.972	6880.69
518.339	6887.47
518.706	6852.22
519.073	6880.47
519.44	6942.61
519.808	6962.5
520.175	6949.17
520.542	7049.05
520.909	7014.7
521.276	7025.1
521.643	7066.45
522.009	7068.03
522.376	7099.67
522.743	7072.78
523.11	7113.01
523.477	7158.43
523.843	7128.82
524.21	7209.05
524.577	7198.2
524.943	7244.75
525.31	7223.74
525.676	7291.08
526.043	7333.34
526.409	7357.52
526.776	7354.35
527.142	7309.38
527.508	7327.69
527.874	7359.78
528.241	7404.97
528.607	7414.24
528.973	7459.44
529.339	7378.76
529.705	7442.26
530.071	7463.28
530.437	7475.48
530.803	7506.67
531.169	7538.08
531.535	7396.39
531.901	7470.96
532.267	7492.88
532.632	7548.7
532.998	7481.13
533.364	7491.53
533.73	7504.18
534.095	7522.49
534.461	7497.63
534.826	7507.12
535.192	7547.34
535.557	7558.64
535.923	7533.78
536.288	7534.01
536.653	7555.71
537.019	7503.73
537.384	7518.87
537.749	7541.02
538.114	7472.09
538.479	7456.05
538.845	7546.67
539.21	7548.02
539.575	7475.03
539.94	7513.9
540.305	7509.83
540.67	7562.26
541.034	7498.76
541.399	7461.47
541.764	7518.64
542.129	7492.88
542.494	7510.51
542.858	7452.66
543.223	7507.57
543.587	7454.69
543.952	7397.74
544.316	7468.93
544.681	7448.59
545.045	7479.78
545.41	7524.52
545.774	7483.84
546.138	7420.79
546.503	7409.49
546.867	7426.44
547.231	7368.37
547.595	7378.31
547.959	7473
548.324	7393.9
548.688	7442.49
549.052	7468.02
549.416	7427.12
549.779	7399.33
550.143	7389.16
550.507	7377.18
550.871	7387.35
551.235	7379.44
551.599	7416.95
551.962	7407.46
552.326	7386.67
552.689	7454.01
553.053	7302.6
553.417	7350.29
553.78	7359.78
554.143	7403.84
554.507	7319.78
554.87	7384.64
555.234	7439.78
555.597	7341.7
555.96	7338.99
556.323	7480.23
556.686	7362.94
557.05	7415.82
557.413	7404.75
557.776	7373.11
558.139	7441.81
558.502	7445.43
558.865	7380.34
559.228	7437.74
559.59	7448.82
559.953	7480.23
560.316	7517.51
560.679	7497.18
561.041	7559.55
561.404	7587.79
561.767	7586.89
562.129	7472.32
562.492	7609.04
562.854	7573.11
563.217	7522.71
563.579	7642.03
563.941	7676.61
564.304	7660.56
564.666	7649.49
565.028	7632.31
565.39	7660.34
565.753	7702.14
566.115	7764.97
566.477	7710.05
566.839	7708.24
567.201	7781.46
567.563	7777.62
567.925	7865.98
568.287	7840.9
568.648	7838.41
569.01	7877.05
569.372	7926.77
569.734	7875.24
570.095	7914.34
570.457	7969.03
570.819	7979.2
571.18	7981.46
571.542	7982.59
571.903	8047.67
572.265	8046.77
572.626	8079.53
572.987	8100.1
573.349	8047.9
573.71	8097.16
574.071	8150.49
574.432	8158.85
574.794	8144.62
575.155	8118.4
575.516	8109.82
575.877	8188.23
576.238	8181.23
576.599	8248.57
576.96	8243.14
577.32	8298.06
577.681	8293.76
578.042	8293.31
578.403	8316.36
578.763	8340.09
579.124	8364.72
579.485	8373.54
579.845	8396.36
580.206	8354.78
580.566	8404.95
580.927	8426.42
581.287	8442.91
581.648	8423.25
582.008	8486.75
582.368	8537.37
582.728	8538.5
583.089	8525.4
583.449	8542.8
583.809	8572.63
584.169	8548.9
584.529	8504.15
584.889	8592.06
585.249	8526.08
585.609	8570.14
585.969	8611.72
586.329	8604.27
586.688	8701.89
587.048	8599.97
587.408	8625.96
587.768	8624.6
588.127	8672.74
588.487	8661.66
588.846	8643.13
589.206	8651.5
589.565	8700.99
589.925	8771.94
590.284	8769.01
590.643	8790.25
591.003	8715.9
591.362	8740.08
591.721	8767.42
592.08	8778.05
592.44	8817.14
592.799	8807.88
593.158	8793.64
593.517	8816.46
593.876	8851.04
594.235	8797.48
594.593	8790.48
594.952	8807.88
595.311	8802.9
595.67	8904.14
596.029	8909.57
596.387	8929
596.746	8882.45
597.104	8902.34
597.463	8933.97
597.822	8990.92
598.18	8932.62
598.538	8857.82
598.897	8975.55
599.255	8864.37
599.613	8986.63
599.972	8953.63
600.33	8975.33
600.688	8896.24
601.046	8963.58
601.404	9017.81
601.762	8972.17
602.12	9010.58
602.478	9062.11
602.836	9014.2
603.194	8999.96
603.552	9034.54
603.91	8927.65
604.268	9042.45
604.625	9003.12
604.983	8991.37
605.341	9051.49
605.698	9092.61
606.056	9124.7
606.413	9034.08
606.771	9126.51
607.128	9125.16
607.485	9044.71
607.843	9060.3
608.2	9154.76
608.557	9139.17
608.914	9117.92
609.272	9150.92
609.629	9193.85
609.986	9192.95
610.343	9136.91
610.7	9226.4
611.057	9193.18
611.414	9153.63
611.771	9236.11
612.127	9243.12
612.484	9227.98
612.841	9221.88
613.198	9232.27
613.554	9200.63
613.911	9290.12
614.267	9291.25
614.624	9298.26
614.98	9234.08
615.337	9345.04
615.693	9308.43
616.05	9325.15
616.406	9372.83
616.762	9257.36
617.118	9348.65
617.475	9304.13
617.831	9348.88
618.187	9378.71
618.543	9362.44
618.899	9423.68
619.255	9365.15
619.611	9354.08
619.967	9370.35
620.323	9429.1
620.678	9320.63
621.034	9393.17
621.39	9363.12
621.746	9343.91
622.101	9475.65
622.457	9389.56
622.812	9406.28
623.168	9460.51
623.523	9440.85
623.879	9457.12
624.234	9369.89
624.589	9391.82
624.945	9473.62
625.3	9449.67
625.655	9413.28
626.01	9383.91
626.365	9424.81
626.72	9353.17
627.075	9423.9
627.43	9364.47
627.785	9378.26
628.14	9338.26
628.495	9376
628.85	9343.23
629.205	9304.13
629.559	9351.82
629.914	9321.08
630.269	9312.95
630.623	9297.81
630.978	9314.3
631.332	9312.95
631.687	9315.66
632.041	9335.09
632.396	9274.08
632.75	9252.84
633.104	9257.81
633.459	9202.67
633.813	9242.89
634.167	9222.33
634.521	9215.1
634.875	9258.26
635.229	9165.15
635.583	9119.51
635.937	9195.89
636.291	9086.96
636.645	9090.58
636.999	9089.22
637.352	9160.63
637.706	9150.92
638.06	9119.51
638.413	9085.61
638.767	9028.89
639.121	9107.53
639.474	9010.58
639.828	8991.83
640.181	9076.8
640.534	8972.39
640.888	8966.97
641.241	8971.94
641.594	9011.71
641.947	8977.59
642.301	8961.32
642.654	9013.52
643.007	8983.92
643.36	8916.57
643.713	8887.42
644.066	8964.26
644.419	8906.86
644.771	8884.71
645.124	8807.88
645.477	8750.25
645.83	8692.17
646.182	8715.22
646.535	8700.76
646.888	8663.92
647.24	8662.34
647.593	8729.69
647.945	8637.03
648.298	8605.62
648.65	8569.69
649.002	8580.09
649.355	8604.94
649.707	8612.85
650.059	8598.39
650.411	8726.52
650.763	8721.55
651.115	8850.81
651.467	8799.74
651.819	8853.3
652.171	8759.74
652.523	8759.97
652.875	8820.08
653.227	8822.11
653.578	8861.66
653.93	8805.16
654.282	8696.01
654.633	8701.44
654.985	8725.62
655.337	8726.97
655.688	8815.33
656.039	8810.36
656.391	8683.59
656.742	8789.35
657.094	8720.87
657.445	8762.91
657.796	8762
658.147	8743.7
658.498	8717.26
658.849	8697.37
659.2	8761.32
659.551	8763.36
659.902	8718.61
660.253	8722
660.604	8752.51
660.955	8686.3
661.306	8718.39
661.656	8737.82
662.007	8837.25
662.358	8721.78
662.708	8701.21
663.059	8783.7
663.409	8695.79
663.76	8743.02
664.11	8770.36
664.461	8757.03
664.811	8799.29
665.161	8793.64
665.511	8734.43
665.862	8698.27
666.212	8774.43
666.562	8771.72
666.912	8698.95
667.262	8771.72
667.612	8821.89
667.962	8759.97
668.312	8709.8
668.662	8742.57
669.011	8752.74
669.361	8726.3
669.711	8705.73
670.06	8762
670.41	8727.88
670.76	8647.2
671.109	8693.3
671.459	8682
671.808	8628.67
672.157	8677.94
672.507	8636.81
672.856	8630.93
673.205	8684.49
673.554	8699.63
673.904	8621.44
674.253	8693.75
674.602	8616.92
674.951	8557.94
675.3	8445.4
675.649	8592.29
675.998	8606.3
676.346	8608.78
676.695	8636.13
677.044	8564.04
677.393	8550.48
677.741	8550.03
678.09	8550.93
678.438	8558.16
678.787	8596.81
679.135	8545.06
679.484	8532.63
679.832	8509.13
680.181	8498.28
680.529	8498.28
680.877	8486.3
681.225	8462.12
681.573	8500.09
681.922	8427.55
682.27	8485.17
682.618	8444.27
682.966	8354.33
683.314	8389.13
683.661	8413.76
684.009	8385.97
684.357	8324.27
684.705	8316.82
685.053	8299.87
685.4	8232.3
685.748	8255.12
686.095	8278.17
686.443	8225.52
686.79	8203.6
687.138	8156.37
687.485	8230.26
687.832	8167.67
688.18	8143.49
688.527	8095.8
688.874	8169.7
689.221	8119.53
689.568	8058.06
689.915	7994.34
690.262	8005.86
690.609	7960.89
690.956	7965.64
691.303	7951.18
691.65	7875.47
691.997	7918.63
692.344	7807.45
692.69	7839.99
693.037	7793.44
693.383	7736.04
693.73	7798.64
694.077	7769.26
694.423	7764.74
694.769	7676.38
695.116	7724.29
695.462	7666.44
695.808	7668.7
696.155	7672.31
696.501	7647.45
696.847	7596.16
697.193	7526.78
697.539	7511.19
697.885	7534.91
698.231	7458.76
698.577	7495.14
698.923	7424.86
699.269	7461.47
699.614	7340.34
699.96	7310.06
700.306	7338.31
700.651	7247.24
700.997	7257.63
701.342	7308.93
701.688	7249.72
702.033	7234.36
702.379	7154.81
702.724	7193.23
703.069	7137.19
703.415	7130.18
703.76	7084.98
704.105	7083.18
704.45	7063.51
704.795	7025.78
705.14	6963.63
705.485	6992.1
705.83	6912.56
706.175	6968.6
706.52	6935.16
706.865	6935.38
707.209	6894.93
707.554	6887.93
707.899	6899
708.243	6824.2
708.588	6813.35
708.932	6719.34
709.277	6805.44
709.621	6793.24
709.966	6720.7
710.31	6759.12
710.654	6628.05
710.998	6742.62
711.342	6701.49
711.687	6651.77
712.031	6646.35
712.375	6665.56
712.719	6622.85
713.063	6598.22
713.407	6639.57
713.75	6606.8
714.094	6592.34
714.438	6564.09
714.782	6557.99
715.125	6541.04
715.469	6576.75
715.812	6513.92
716.156	6493.81
716.499	6472.34
716.843	6445.23
717.186	6441.61
717.53	6476.19
717.873	6455.62
718.216	6417.66
718.559	6366.13
718.902	6378.34
719.246	6376.08
719.589	6399.8
719.932	6379.69
720.275	6425.57
720.617	6306.47
720.96	6393.25
721.303	6336.3
721.646	6310.31
721.989	6308.96
722.331	6346.47
722.674	6318.22
723.016	6289.07
723.359	6344.89
723.701	6274.84
724.044	6294.04
724.386	6233.03
724.729	6307.83
725.071	6319.58
725.413	6218.11
725.755	6203.65
726.097	6208.4
726.439	6210.88
726.782	6249.3
727.124	6205.23
727.465	6226.7
727.807	6237.32
728.149	6212.46
728.491	6254.27
728.833	6166.82
729.175	6223.31
729.516	6193.48
729.858	6220.15
730.199	6171.33
730.541	6180.6
730.882	6207.94
731.224	6184.67
731.565	6144.44
731.906	6185.8
732.248	6184.22
732.589	6092.24
732.93	6078.46
733.271	6106.25
733.612	6141.73
733.953	6173.82
734.294	6126.82
734.635	6093.82
734.976	6120.04
735.317	6103.54
735.658	6120.49
735.999	6120.49
736.339	6123.2
736.68	6162.07
737.021	6155.06
737.361	6066.25
737.702	6161.62
738.042	6125.69
738.383	6173.37
738.723	6176.31
739.063	6109.19
739.404	6162.97
739.744	6106.48
740.084	6156.42
740.424	6198
740.764	6211.56
741.104	6218.79
741.444	6131.79
741.784	6160.04
742.124	6193.26
742.464	6212.69
742.804	6200.26
743.143	6162.97
743.483	6233.48
743.823	6152.35
744.162	6214.05
744.502	6258.11
744.841	6273.25
745.181	6323.42
745.52	6268.73
745.86	6363.65
746.199	6390.54
746.538	6385.11
746.877	6488.39
747.216	6442.51
747.556	6461.04
747.895	6460.14
748.234	6468.28
748.573	6528.16
748.911	6581.27
749.25	6647.48
749.589	6593.92
749.928	6765.44
750.267	6723.86
750.605	6802.96
750.944	6826.91
751.283	6816.52
751.621	6976.06
751.96	6934.25
752.298	7012.44
752.636	7068.26
752.975	7077.53
753.313	7157.3
753.651	7321.14
753.989	7312.1
754.327	7384.64
754.666	7454.24
755.004	7570.85
755.342	7662.37
755.679	7733.55
756.017	7736.04
756.355	7848.35
756.693	7920.89
757.031	8056.03
757.368	8125.63
757.706	8152.53
758.044	8295.12
758.381	8463.48
758.719	8511.84
759.056	8675.9
759.394	8667.09
759.731	8788.22
760.068	8835.9
760.405	9002.22
760.743	9056.68
761.08	9190.92
761.417	9306.85
761.754	9418.93
762.091	9433.62
762.428	9610.79
762.765	9618.48
763.102	9832.48
763.438	9966.49
763.775	9932.14
764.112	10144.11
764.449	10275.41
764.785	10274.73
765.122	10304.56
765.458	10392.47
765.795	10572.12
766.131	10656.41
766.467	10787.26
766.804	10800.82
767.14	10915.16
767.476	10977.76
767.812	10978.44
768.148	11144.99
768.485	11162.84
768.821	11223.18
769.157	11306.57
