Data from hue_240_FLMS001491_00017.txt Node
Date: Tue Feb 07 16:35:07 GMT 2017
User: dcchb
Spectrometer: FLMS00149
Trigger mode: 0
Integration Time (sec): 2.000000E-2
Scans to average: 10
Electric dark correction enabled: true
Nonlinearity correction enabled: false
Boxcar width: 0
XAxis mode: Wavelengths
Number of Pixels in Spectrum: 2048
>>>>>Begin Spectral Data<<<<<
341.393	-3.12
341.776	-3.12
342.16	-3.12
342.543	-57.58
342.927	-71.37
343.31	-55.78
343.693	-69.11
344.077	-60.75
344.46	-65.94
344.843	-32.05
345.226	-49
345.61	-34.31
345.993	-36.57
346.376	8.4
346.759	-1.77
347.142	18.12
347.525	33.26
347.908	48.85
348.291	74.16
348.674	96.54
349.057	125.91
349.44	125.46
349.823	132.24
350.206	164.78
350.588	197.33
350.971	211.34
351.354	221.51
351.737	216.99
352.119	239.36
352.502	239.36
352.884	259.7
353.267	278.45
353.65	273.93
354.032	270.77
354.414	287.94
354.797	293.37
355.179	318.68
355.562	296.08
355.944	322.75
356.326	324.1
356.709	335.4
357.091	304.67
357.473	330.66
357.855	337.89
358.238	318.68
358.62	318.23
359.002	327.72
359.384	323.65
359.766	317.55
360.148	331.56
360.53	313.71
360.912	313.03
361.294	328.85
361.676	291.79
362.057	313.48
362.439	320.71
362.821	297.89
363.203	313.25
363.584	296.98
363.966	296.98
364.348	319.13
364.729	306.93
365.111	306.02
365.493	326.81
365.874	298.57
366.256	317.1
366.637	293.82
367.019	308.96
367.4	294.5
367.781	304.22
368.163	305.35
368.544	312.12
368.925	306.02
369.306	309.64
369.688	308.28
370.069	310.32
370.45	304.22
370.831	306.02
371.212	285.46
371.593	298.57
371.974	288.17
372.355	278.91
372.736	311.9
373.117	301.96
373.498	287.94
373.879	307.38
374.26	296.76
374.641	318.9
375.021	298.79
375.402	305.12
375.783	317.32
376.163	306.47
376.544	297.89
376.925	315.97
377.305	338.56
377.686	311.67
378.066	296.31
378.447	306.25
378.827	306.02
379.208	314.61
379.588	322.75
379.968	302.63
380.349	302.63
380.729	337.89
381.109	327.94
381.489	322.52
381.87	334.5
382.25	337.66
382.63	321.62
383.01	323.42
383.39	331.33
383.77	337.89
384.15	325.68
384.53	354.84
384.91	322.75
385.29	349.86
385.67	338.56
386.049	352.8
386.429	354.16
386.809	329.75
387.189	350.99
387.568	347.83
387.948	356.42
388.328	354.61
388.707	361.39
389.087	342.41
389.466	358.9
389.846	360.26
390.225	369.07
390.605	349.64
390.984	366.59
391.363	354.61
391.743	346.7
392.122	358.45
392.501	368.39
392.881	342.18
393.26	357.32
393.639	354.16
394.018	357.55
394.397	365
394.776	360.48
395.155	393.48
395.534	372.01
395.913	381.95
396.292	386.47
396.671	407.26
397.05	388.73
397.429	381.05
397.808	374.04
398.186	381.28
398.565	392.35
398.944	398.45
399.323	409.52
399.701	394.61
400.08	424.21
400.458	390.99
400.837	403.87
401.215	409.98
401.594	411.56
401.972	405.68
402.351	399.13
402.729	406.81
403.107	403.2
403.486	398
403.864	435.96
404.242	422.4
404.62	429.18
404.999	414.95
405.377	432.12
405.755	454.27
406.133	422.86
406.511	446.81
406.889	436.64
407.267	435.29
407.645	462.63
408.023	453.82
408.401	433.48
408.779	466.47
409.156	461.27
409.534	485.68
409.912	475.28
410.29	489.97
410.667	489.52
411.045	491.55
411.422	493.36
411.8	523.64
412.178	539.92
412.555	502.4
412.933	540.59
413.31	510.54
413.687	530.88
414.065	548.95
414.442	567.49
414.819	562.51
415.197	558.22
415.574	554.38
415.951	567.71
416.328	586.24
416.705	599.35
417.082	583.3
417.46	590.08
417.837	639.8
418.214	616.75
418.591	610.87
418.967	615.85
419.344	633.25
419.721	649.74
420.098	643.87
420.475	642.29
420.852	659.01
421.228	653.36
421.605	680.7
421.982	686.58
422.358	681.38
422.735	695.17
423.111	685.67
423.488	709.85
423.864	736.75
424.241	733.36
424.617	770.19
424.994	744.66
425.37	753.24
425.746	762.28
426.123	765.45
426.499	766.12
426.875	800.02
427.251	805.44
427.627	814.26
428.003	812.68
428.379	824.88
428.756	833.01
429.132	863.97
429.507	845.22
429.883	856.07
430.259	874.6
430.635	852
431.011	873.69
431.387	887.7
431.763	935.16
432.138	933.8
432.514	934.03
432.89	951.2
433.265	950.75
433.641	979
434.016	970.19
434.392	992.56
434.767	1033.91
435.143	1008.15
435.518	1041.6
435.894	1036.63
436.269	1053.57
436.644	1098.77
437.02	1084.08
437.395	1094.93
437.77	1120.92
438.145	1108.71
438.52	1165.44
438.895	1162.5
439.271	1182.84
439.646	1204.98
440.021	1226.22
440.395	1183.74
440.77	1221.93
441.145	1252.66
441.52	1252.66
441.895	1258.09
442.27	1258.31
442.645	1292.89
443.019	1299.67
443.394	1298.54
443.769	1364.3
444.143	1332.89
444.518	1337.63
444.892	1363.4
445.267	1345.09
445.641	1366.11
446.016	1363.62
446.39	1404.53
446.764	1395.26
447.139	1389.84
447.513	1430.51
447.887	1422.15
448.262	1455.37
448.636	1448.14
449.01	1444.75
449.384	1460.57
449.758	1492.66
450.132	1483.39
450.506	1497.18
450.88	1522.26
451.254	1506.44
451.628	1496.95
452.002	1549.38
452.376	1535.14
452.75	1595.25
453.123	1574.24
453.497	1586.44
453.871	1596.38
454.244	1667.12
454.618	1644.52
454.992	1648.59
455.365	1694.01
455.739	1720.45
456.112	1735.82
456.486	1738.3
456.859	1750.5
457.232	1787.57
457.606	1756.61
457.979	1818.53
458.352	1815.81
458.725	1837.73
459.099	1849.26
459.472	1903.27
459.845	1885.42
460.218	1939.43
460.591	1921.57
460.964	1945.08
461.337	1972.42
461.71	2007.9
462.083	2028.24
462.456	2031.85
462.829	2045.41
463.201	2059.42
463.574	2087.45
463.947	2090.83
464.32	2128.35
464.692	2178.06
465.065	2188.69
465.438	2203.15
465.81	2232.07
466.183	2253.32
466.555	2287.67
466.928	2286.76
467.3	2337.61
467.672	2339.19
468.045	2402.47
468.417	2427.32
468.789	2370.38
469.161	2458.73
469.534	2488.11
469.906	2539.18
470.278	2513.42
470.65	2562.01
471.022	2607.88
471.394	2649.01
471.766	2678.39
472.138	2707.54
472.51	2717.94
472.882	2784.83
473.253	2783.92
473.625	2866.63
473.997	2878.38
474.369	2871.83
474.74	2917.03
475.112	2987.99
475.484	3003.13
475.855	3075.67
476.227	3101.88
476.598	3136.01
476.97	3185.5
477.341	3220.52
477.713	3261.65
478.084	3300.52
478.455	3395.66
478.827	3424.81
479.198	3497.8
479.569	3471.14
479.94	3566.73
480.311	3588.87
480.682	3681.98
481.053	3719.49
481.424	3787.06
481.795	3808.76
482.166	3836.78
482.537	3898.92
482.908	3973.5
483.279	4010.56
483.65	4083.32
484.021	4121.06
484.391	4190.21
484.762	4199.71
485.133	4211.46
485.503	4264.56
485.874	4370.1
486.244	4395.18
486.615	4462.07
486.985	4502.97
487.356	4600.83
487.726	4620.49
488.097	4690.99
488.467	4737.32
488.837	4792.46
489.207	4818.9
489.578	4912.23
489.948	4928.5
490.318	4985.9
490.688	5015.28
491.058	5061.83
491.428	5123.3
491.798	5188.15
492.168	5215.05
492.538	5311.32
492.908	5352.9
493.278	5458.43
493.648	5397.19
494.017	5440.35
494.387	5496.17
494.757	5520.8
495.126	5581.82
495.496	5596.28
495.866	5634.02
496.235	5667.24
496.605	5736.39
496.974	5770.96
497.344	5758.54
497.713	5802.83
498.082	5783.39
498.452	5898.42
498.821	5928.47
499.19	5909.94
499.559	5932.54
499.928	6002.37
500.298	6003.5
500.667	6097.06
501.036	6069.26
501.405	6140.22
501.774	6097.51
502.143	6146.1
502.512	6220.67
502.88	6188.58
503.249	6224.96
503.618	6295.24
503.987	6257.28
504.356	6298.18
504.724	6319.42
505.093	6302.7
505.462	6384.51
505.83	6391.29
506.199	6433.09
506.567	6473.77
506.936	6485.75
507.304	6538.63
507.672	6564.62
508.041	6573.65
508.409	6596.93
508.777	6657.49
509.145	6641.22
509.514	6669.47
509.882	6685.06
510.25	6709.02
510.618	6728.45
510.986	6731.84
511.354	6805.06
511.722	6884.38
512.09	6864.04
512.458	6837.38
512.826	6847.09
513.193	6898.17
513.561	6966.19
513.929	6929.58
514.297	6989.01
514.664	6996.24
515.032	7033.98
515.4	7086.18
515.767	6997.37
516.135	7061.33
516.502	7023.59
516.869	7167.54
517.237	7129.57
517.604	7087.09
517.972	7135.67
518.339	7166.41
518.706	7164.37
519.073	7224.94
519.44	7214.54
519.808	7244.6
520.175	7225.39
520.542	7345.61
520.909	7337.02
521.276	7335.67
521.643	7377.48
522.009	7402.56
522.376	7373.86
522.743	7474.42
523.11	7477.81
523.477	7525.72
523.843	7502.9
524.21	7571.14
524.577	7605.49
524.943	7618.6
525.31	7607.07
525.676	7671.03
526.043	7707.18
526.409	7685.49
526.776	7749.44
527.142	7696.34
527.508	7733.4
527.874	7817.46
528.241	7801.42
528.607	7776.11
528.973	7805.71
529.339	7796.9
529.705	7885.26
530.071	7904.47
530.437	7890.68
530.803	7958.93
531.169	7973.84
531.535	7890
531.901	7925.71
532.267	7974.75
532.632	7971.13
532.998	7946.95
533.364	8004.13
533.73	7980.85
534.095	8058.59
534.461	8074.18
534.826	8028.98
535.192	8002.09
535.557	8043.22
535.923	7973.84
536.288	8036.67
536.653	8071.92
537.019	8030.11
537.384	8017.01
537.749	8000.51
538.114	8044.35
538.479	8048.42
538.845	8033.73
539.21	7986.5
539.575	7994.63
539.94	8048.42
540.305	8050.9
540.67	7996.89
541.034	8039.15
541.399	8023.79
541.764	8095.42
542.129	8023.79
542.494	8005.71
542.858	8021.75
543.223	7989.44
543.587	8055.2
543.952	7969.55
544.316	8010.91
544.681	7993.28
545.045	7996.44
545.41	8020.4
545.774	7972.26
546.138	8031.24
546.503	7957.12
546.867	8005.03
547.231	8011.13
547.595	8047.74
547.959	8047.51
548.324	8033.5
548.688	8030.11
549.052	8023.56
549.416	7979.49
549.779	8000.74
550.143	8004.8
550.507	8026.95
550.871	7977.69
551.235	7998.02
551.599	8035.76
551.962	7969.32
552.326	7979.27
552.689	8120.05
553.053	7995.54
553.417	7952.38
553.78	8041.19
554.143	7977.23
554.507	8017.46
554.87	8012.71
555.234	8073.28
555.597	8004.13
555.96	8014.29
556.323	8010
556.686	8001.64
557.05	8093.39
557.413	8041.64
557.776	8077.12
558.139	8140.17
558.502	8132.26
558.865	8106.95
559.228	8126.38
559.59	8177.68
559.953	8147.85
560.316	8186.72
560.679	8189.88
561.041	8208.19
561.404	8217.91
561.767	8270.79
562.129	8273.95
562.492	8265.59
562.854	8270.56
563.217	8289.32
563.579	8306.94
563.941	8340.39
564.304	8365.47
564.666	8406.83
565.028	8405.25
565.39	8383.1
565.753	8402.08
566.115	8445.7
566.477	8477.33
566.839	8523.66
567.201	8521.63
567.563	8574.05
567.925	8608.4
568.287	8587.61
568.648	8601.85
569.01	8667.61
569.372	8667.84
569.734	8692.24
570.095	8685.24
570.457	8686.14
570.819	8724.56
571.18	8710.77
571.542	8807.27
571.903	8833.03
572.265	8792.81
572.626	8833.71
572.987	8871.45
573.349	8851.34
573.71	8908.96
574.071	8889.98
574.432	8891.33
574.794	8988.73
575.155	8913.71
575.516	8897.44
575.877	8976.76
576.238	9045.68
576.599	8978.11
576.96	9002.74
577.32	9017.88
577.681	9036.19
578.042	9110.76
578.403	9033.7
578.763	9131.78
579.124	9158.45
579.485	9191.67
579.845	9198.44
580.206	9167.94
580.566	9198.22
580.927	9233.25
581.287	9277.31
581.648	9237.99
582.008	9280.7
582.368	9253.81
582.728	9285
583.089	9252
583.449	9243.42
583.809	9317.54
584.169	9351.21
584.529	9336.97
584.889	9430.08
585.249	9304.88
585.609	9326.12
585.969	9384.2
586.329	9379.68
586.688	9377.2
587.048	9414.71
587.408	9380.81
587.768	9420.13
588.127	9386.01
588.487	9379.91
588.846	9490.87
589.206	9397.76
589.565	9437.08
589.925	9465.1
590.284	9426.24
590.643	9441.15
591.003	9429.62
591.362	9542.84
591.721	9496.29
592.08	9485.67
592.44	9526.57
592.799	9564.54
593.158	9523.63
593.517	9569.06
593.876	9522.73
594.235	9501.49
594.593	9511.66
594.952	9629.39
595.311	9542.62
595.67	9547.36
596.029	9595.5
596.387	9730.41
596.746	9624.87
597.104	9618.77
597.463	9632.11
597.822	9595.72
598.18	9579.45
598.538	9572.22
598.897	9610.41
599.255	9594.37
599.613	9711.88
599.972	9667.13
600.33	9719.56
600.688	9662.61
601.046	9635.04
601.404	9670.3
601.762	9693.12
602.12	9766.57
602.478	9771.99
602.836	9749.39
603.194	9706.45
603.552	9760.24
603.91	9686.12
604.268	9738.77
604.625	9691.76
604.983	9727.92
605.341	9651.09
605.698	9727.92
606.056	9837.98
606.413	9823.74
606.771	9829.16
607.128	9845.66
607.485	9726.79
607.843	9817.86
608.2	9822.61
608.557	9841.59
608.914	9786.45
609.272	9896.28
609.629	9941.25
609.986	9943.74
610.343	9847.47
610.7	9955.26
611.057	9973.11
611.414	9880.91
611.771	9920.69
612.127	9976.96
612.484	9967.01
612.841	10018.08
613.198	9926.56
613.554	9890.86
613.911	10053.34
614.267	9895.83
614.624	9922.49
614.98	10001.14
615.337	10063.28
615.693	10043.17
616.05	10021.47
616.406	10107.35
616.762	9982.83
617.118	10057.18
617.475	9988.25
617.831	10044.07
618.187	10075.26
618.543	10115.93
618.899	10117.29
619.255	10066.22
619.611	10080.91
619.967	10075.48
620.323	10173.56
620.678	10051.53
621.034	10102.6
621.39	10085.43
621.746	10026.45
622.101	10069.83
622.457	10037.74
622.812	10115.71
623.168	10080.91
623.523	10067.57
623.879	10163.84
624.234	10111.64
624.589	10098.99
624.945	10120
625.3	10111.64
625.655	10108.93
626.01	10006.11
626.365	10125.2
626.72	10080.68
627.075	10082.94
627.43	10023.51
627.785	10060.57
628.14	10047.01
628.495	10124.07
628.85	10073.45
629.205	10042.72
629.559	10089.95
629.914	10039.33
630.269	10060.57
630.623	9989.16
630.978	10008.14
631.332	9995.71
631.687	9995.49
632.041	9975.83
632.396	10039.78
632.75	9960.01
633.104	9904.41
633.459	9935.15
633.813	9964.07
634.167	9966.79
634.521	9939.89
634.875	9958.65
635.229	9818.09
635.583	9865.77
635.937	9782.61
636.291	9877.07
636.645	9915.94
636.999	9829.16
637.352	9845.89
637.706	9773.12
638.06	9811.08
638.413	9765.66
638.767	9777.41
639.121	9764.53
639.474	9782.84
639.828	9692.22
640.181	9713.01
640.534	9801.14
640.888	9688.83
641.241	9664.65
641.594	9722.27
641.947	9711.43
642.301	9656.96
642.654	9732.22
643.007	9682.5
643.36	9622.84
643.713	9550.3
644.066	9631.2
644.419	9545.1
644.771	9548.72
645.124	9484.99
645.477	9367.48
645.83	9375.62
646.182	9360.02
646.535	9350.53
646.888	9390.98
647.24	9250.87
647.593	9384.43
647.945	9221.95
648.298	9234.83
648.65	9264.21
649.002	9210.2
649.355	9270.99
649.707	9263.98
650.059	9306.46
650.411	9440.7
650.763	9414.03
651.115	9486.57
651.467	9500.58
651.819	9397.08
652.171	9507.59
652.523	9388.5
652.875	9430.08
653.227	9441.6
653.578	9463.75
653.93	9426.91
654.282	9426.46
654.633	9312.34
654.985	9355.95
655.337	9357.54
655.688	9410.42
656.039	9432.34
656.391	9291.55
656.742	9352.56
657.094	9465.1
657.445	9390.3
657.796	9429.85
658.147	9377.2
658.498	9398.21
658.849	9385.78
659.2	9434.14
659.551	9394.37
659.902	9379.46
660.253	9343.53
660.604	9395.05
660.955	9304.2
661.306	9356.86
661.656	9389.17
662.007	9387.59
662.358	9415.84
662.708	9467.36
663.059	9386.24
663.409	9348.95
663.76	9401.83
664.11	9441.6
664.461	9423.52
664.811	9367.71
665.161	9342.85
665.511	9335.39
665.862	9393.92
666.212	9307.14
666.562	9399.34
666.912	9308.27
667.262	9397.99
667.612	9320.48
667.962	9341.49
668.312	9395.28
668.662	9371.77
669.011	9415.61
669.361	9429.85
669.711	9369.97
670.06	9345.11
670.41	9340.36
670.76	9330.42
671.109	9325.9
671.459	9333.13
671.808	9299.46
672.157	9372
672.507	9267.37
672.856	9267.82
673.205	9278.89
673.554	9286.58
673.904	9200.25
674.253	9269.63
674.602	9199.12
674.951	9157.77
675.3	9101.05
675.649	9264.21
675.998	9196.18
676.346	9216.75
676.695	9287.93
677.044	9179.24
677.393	9222.4
677.741	9243.19
678.09	9161.84
678.438	9141.72
678.787	9107.83
679.135	9130.2
679.484	9026.47
679.832	9153.7
680.181	9082.52
680.529	9071.89
680.877	9083.19
681.225	9016.08
681.573	9037.77
681.922	9012.46
682.27	8987.15
682.618	8981.5
682.966	8987.38
683.314	8992.35
683.661	8934.04
684.009	8899.7
684.357	8897.66
684.705	8919.81
685.053	8883.2
685.4	8849.53
685.748	8860.15
686.095	8764.78
686.443	8764.78
686.79	8712.13
687.138	8778.12
687.485	8767.04
687.832	8763.88
688.18	8715.07
688.527	8696.31
688.874	8630.32
689.221	8668.52
689.568	8617.89
689.915	8613.6
690.262	8575.41
690.609	8536.99
690.956	8524.34
691.303	8546.71
691.65	8513.72
691.997	8484.57
692.344	8458.35
692.69	8383.32
693.037	8387.39
693.383	8387.62
693.73	8334.29
694.077	8296.55
694.423	8288.86
694.769	8269.88
695.116	8246.15
695.462	8238.24
695.808	8164.57
696.155	8230.56
696.501	8078.7
696.847	8153.5
697.193	8066.04
697.539	8121.86
697.885	8000.74
698.231	8002.09
698.577	7968.87
698.923	7931.36
699.269	7958.03
699.614	7927.52
699.96	7850.46
700.306	7846.39
700.651	7852.94
700.997	7824.7
701.342	7764.58
701.688	7728.65
702.033	7717.13
702.379	7734.3
702.724	7695.43
703.069	7725.49
703.415	7574.08
703.76	7618.15
704.105	7624.7
704.45	7618.15
704.795	7540.18
705.14	7509.68
705.485	7531.6
705.83	7459.06
706.175	7495.66
706.52	7424.71
706.865	7356.91
707.209	7440.98
707.554	7399.17
707.899	7436.23
708.243	7357.59
708.588	7356.69
708.932	7294.31
709.277	7282.11
709.621	7334.54
709.966	7206.63
710.31	7260.64
710.654	7221.77
710.998	7144.94
711.342	7193.07
711.687	7201.66
712.031	7188.33
712.375	7147.65
712.719	7109.69
713.063	7115.56
713.407	7063.59
713.75	7022.23
714.094	7070.36
714.438	7034.89
714.782	7057.94
715.125	7014.77
715.469	7064.94
715.812	7031.5
716.156	6981.1
716.499	6947.2
716.843	6955.34
717.186	6908.79
717.53	6946.75
717.873	6920.76
718.216	6882.8
718.559	6923.48
718.902	6892.29
719.246	6913.08
719.589	6830.15
719.932	6826.76
720.275	6774.78
720.617	6803.03
720.96	6798.06
721.303	6838.96
721.646	6809.35
721.989	6803.71
722.331	6811.16
722.674	6781.78
723.016	6771.62
723.359	6798.73
723.701	6763.93
724.044	6741.79
724.386	6723.71
724.729	6663.82
725.071	6719.41
725.413	6703.82
725.755	6692.07
726.097	6697.04
726.439	6697.72
726.782	6638.96
727.124	6711.05
727.465	6638.96
727.807	6666.08
728.149	6640.32
728.491	6616.14
728.833	6652.52
729.175	6682.8
729.516	6636.48
729.858	6589.02
730.199	6634.44
730.541	6601.45
730.882	6571.4
731.224	6663.14
731.565	6610.49
731.906	6543.6
732.248	6617.5
732.589	6581.79
732.93	6527.78
733.271	6574.56
733.612	6578.17
733.953	6612.98
734.294	6556.03
734.635	6537.72
734.976	6591.51
735.317	6572.52
735.658	6578.17
735.999	6555.12
736.339	6521
736.68	6577.04
737.021	6564.39
737.361	6552.41
737.702	6610.94
738.042	6604.39
738.383	6620.89
738.723	6552.86
739.063	6600.09
739.404	6623.82
739.744	6563.94
740.084	6566.88
740.424	6571.17
740.764	6619.98
741.104	6606.87
741.444	6621.56
741.784	6591.96
742.124	6605.74
742.464	6575.46
742.804	6642.81
743.143	6628.34
743.483	6629.25
743.823	6647.1
744.162	6609.36
744.502	6717.38
744.841	6711.5
745.181	6739.75
745.52	6648.23
745.86	6736.81
746.199	6697.04
746.538	6813.65
746.877	6786.98
747.216	6755.8
747.556	6865.17
747.895	6867.88
748.234	6865.85
748.573	6889.58
748.911	6884.16
749.25	6957.15
749.589	6956.47
749.928	7042.57
750.267	7074.43
750.605	7056.13
750.944	7093.19
751.283	7178.84
751.621	7209.34
751.96	7255.9
752.298	7337.93
752.636	7368.21
752.975	7409.11
753.313	7446.63
753.651	7576.11
753.989	7618.37
754.327	7639.62
754.666	7688.88
755.004	7795.09
755.342	7928.87
755.679	7929.1
756.017	8003
756.355	8073.05
756.693	8189.21
757.031	8222.2
757.368	8325.02
757.706	8283.89
758.044	8433.49
758.381	8529.08
758.719	8558.01
759.056	8727.04
759.394	8754.61
759.731	8814.27
760.068	8913.48
760.405	8972.01
760.743	9070.31
761.08	9277.54
761.417	9280.25
761.754	9360.25
762.091	9448.61
762.428	9545.1
762.765	9656.29
763.102	9713.46
763.438	9749.84
763.775	9857.86
764.112	9891.99
764.449	10092.88
764.785	10073.22
765.122	10092.21
765.458	10244.97
765.795	10265.31
766.131	10378.75
766.467	10450.62
766.804	10473.44
767.14	10562.48
767.476	10694.22
767.812	10695.81
768.148	10821.68
768.485	10766.09
768.821	10770.83
