Data from hue_190_FLMS001491_00099.txt Node
Date: Tue Feb 07 16:46:03 GMT 2017
User: dcchb
Spectrometer: FLMS00149
Trigger mode: 0
Integration Time (sec): 2.000000E-2
Scans to average: 10
Electric dark correction enabled: true
Nonlinearity correction enabled: false
Boxcar width: 0
XAxis mode: Wavelengths
Number of Pixels in Spectrum: 2048
>>>>>Begin Spectral Data<<<<<
341.393	-16.04
341.776	-16.04
342.16	-16.04
342.543	-58.08
342.927	-72.54
343.31	-61.69
343.693	-67.34
344.077	-63.05
344.46	-36.84
344.843	-56.04
345.226	-47.91
345.61	-47.68
345.993	-19.43
346.376	-0.23
346.759	13.56
347.142	26.89
347.525	38.42
347.908	63.28
348.291	75.7
348.674	82.94
349.057	99.43
349.44	120.22
349.823	129.71
350.206	137.17
350.588	176.94
350.971	199.32
351.354	215.81
351.737	235.02
352.119	261.01
352.502	266.21
352.884	279.77
353.267	273.44
353.65	290.39
354.032	287.9
354.414	282.48
354.797	308.92
355.179	316.15
355.562	317.05
355.944	305.75
356.326	306.43
356.709	322.7
357.091	327
357.473	326.32
357.855	332.42
358.238	329.71
358.62	336.94
359.002	327
359.384	330.39
359.766	314.57
360.148	335.13
360.53	343.72
360.912	334.23
361.294	336.26
361.676	319.77
362.057	312.99
362.439	331.29
362.821	331.29
363.203	319.99
363.584	324.29
363.966	313.89
364.348	339.88
364.729	315.25
365.111	332.87
365.493	324.51
365.874	305.53
366.256	310.27
366.637	312.76
367.019	290.39
367.4	310.5
367.781	306.66
368.163	303.04
368.544	299.2
368.925	304.85
369.306	335.13
369.688	310.27
370.069	295.13
370.45	293.78
370.831	310.95
371.212	313.89
371.593	283.16
371.974	295.36
372.355	319.77
372.736	307.79
373.117	307.34
373.498	300.11
373.879	325.87
374.26	300.78
374.641	315.92
375.021	298.75
375.402	299.88
375.783	307.56
376.163	311.63
376.544	287.9
376.925	336.71
377.305	324.06
377.686	334.45
378.066	316.15
378.447	336.94
378.827	317.51
379.208	306.21
379.588	327.45
379.968	322.03
380.349	315.25
380.729	327.67
381.109	328.35
381.489	321.57
381.87	338.3
382.25	334.91
382.63	350.95
383.01	345.75
383.39	319.09
383.77	331.29
384.15	327.45
384.53	343.27
384.91	332.42
385.29	332.42
385.67	317.96
386.049	321.35
386.429	341.01
386.809	336.04
387.189	357.73
387.568	359.31
387.948	330.84
388.328	356.15
388.707	336.26
389.087	343.27
389.466	330.39
389.846	366.54
390.225	338.3
390.605	350.05
390.984	358.41
391.363	345.53
391.743	360.67
392.122	351.4
392.501	368.13
392.881	372.19
393.26	360.44
393.639	376.94
394.018	355.24
394.397	397.5
394.776	366.54
395.155	362.48
395.534	352.31
395.913	374
396.292	371.29
396.671	382.14
397.05	367.9
397.429	389.82
397.808	376.94
398.186	385.98
398.565	383.27
398.944	387.56
399.323	393.21
399.701	381.01
400.08	406.99
400.458	385.75
400.837	399.54
401.215	391.63
401.594	398.18
401.972	390.72
402.351	407.45
402.729	399.54
403.107	399.99
403.486	415.81
403.864	439.76
404.242	413.77
404.62	434.56
404.999	423.49
405.377	422.81
405.755	433.43
406.133	415.58
406.511	432.98
406.889	423.27
407.267	435.92
407.645	443.83
408.023	454.23
408.401	479.54
408.779	471.63
409.156	478.63
409.534	460.1
409.912	494.68
410.29	492.42
410.667	506.2
411.045	512.98
411.422	516.37
411.8	515.92
412.178	522.47
412.555	525.86
412.933	521.34
413.31	551.85
413.687	560.89
414.065	566.54
414.442	574.67
414.819	587.78
415.197	586.43
415.574	612.41
415.951	610.15
416.328	597.27
416.705	630.72
417.082	609.93
417.46	616.93
417.837	632.75
418.214	671.17
418.591	659.19
418.967	665.29
419.344	660.55
419.721	665.75
420.098	680.89
420.475	687.44
420.852	699.64
421.228	708.23
421.605	726.31
421.982	746.42
422.358	774.67
422.735	804.72
423.111	760.43
423.488	809.02
423.864	818.28
424.241	840.43
424.617	862.35
424.994	834.1
425.37	847.66
425.746	826.87
426.123	877.49
426.499	858.96
426.875	891.5
427.251	917.04
427.627	943.03
428.003	942.12
428.379	962.46
428.756	947.55
429.132	966.3
429.507	990.03
429.883	1011.95
430.259	1009.01
430.635	1023.7
431.011	1025.28
431.387	1035
431.763	1071.16
432.138	1066.19
432.514	1072.06
432.89	1103.7
433.265	1132.63
433.641	1149.8
434.016	1158.61
434.392	1165.17
434.767	1209.91
435.143	1235.22
435.518	1241.32
435.894	1275.9
436.269	1280.42
436.644	1314.99
437.02	1327.87
437.395	1343.92
437.77	1379.4
438.145	1390.02
438.52	1416.69
438.895	1447.87
439.271	1441.09
439.646	1455.1
440.021	1499.62
440.395	1516.57
440.77	1498.72
441.145	1573.74
441.52	1576
441.895	1601.31
442.27	1632.27
442.645	1630.24
443.019	1660.97
443.394	1663.01
443.769	1652.61
444.143	1684.48
444.518	1717.92
444.892	1707.07
445.267	1737.36
445.641	1742.1
446.016	1769.67
446.39	1794.53
446.764	1799.73
447.139	1803.12
447.513	1837.69
447.887	1818.26
448.262	1846.05
448.636	1863
449.01	1882.21
449.384	1904.13
449.758	1938.71
450.132	1946.16
450.506	1956.33
450.88	1991.81
451.254	1982.77
451.628	1999.5
452.002	2031.36
452.376	2066.84
452.75	2043.11
453.123	2069.32
453.497	2119.72
453.871	2147.97
454.244	2178.25
454.618	2173.28
454.992	2188.19
455.365	2200.17
455.739	2309.77
456.112	2319.94
456.486	2334.85
456.859	2336.21
457.232	2367.17
457.606	2380.28
457.979	2409.65
458.352	2453.04
458.725	2499.6
459.099	2520.84
459.472	2535.07
459.845	2556.09
460.218	2562.87
460.591	2644
460.964	2639.25
461.337	2704.11
461.71	2736.2
462.083	2758.35
462.456	2793.6
462.829	2799.25
463.201	2838.34
463.574	2889.64
463.947	2890.77
464.32	2961.05
464.692	3050.77
465.065	3057.77
465.438	3102.07
465.81	3147.26
466.183	3120.14
466.555	3217.09
466.928	3250.54
467.3	3236.98
467.672	3301.38
468.045	3397.88
468.417	3387.03
468.789	3443.98
469.161	3475.61
469.534	3564.43
469.906	3614.37
470.278	3667.47
470.65	3683.07
471.022	3730.75
471.394	3792.44
471.766	3860.46
472.138	3884.42
472.51	3983.4
472.882	3996.96
473.253	4094.13
473.625	4170.74
473.997	4242.83
474.369	4229.04
474.74	4322.82
475.112	4382.94
475.484	4477.85
475.855	4514.46
476.227	4555.81
476.598	4697.73
476.97	4764.85
477.341	4825.64
477.713	4937.95
478.084	5008.68
478.455	5041.9
478.827	5145.85
479.198	5328
479.569	5310.37
479.94	5456.35
480.311	5463.36
480.682	5612.28
481.053	5743.13
481.424	5793.75
481.795	5888.43
482.166	6036.9
482.537	6085.04
482.908	6188.54
483.279	6279.16
483.65	6371.58
484.021	6501.52
484.391	6537.46
484.762	6609.32
485.133	6692.71
485.503	6798.47
485.874	6920.27
486.244	6934.28
486.615	7128.17
486.985	7198.45
487.356	7369.98
487.726	7370.2
488.097	7534.27
488.467	7519.12
488.837	7746.24
489.207	7795.73
489.578	7878.66
489.948	7997.98
490.318	8059.45
490.688	8098.54
491.058	8214.47
491.428	8339.67
491.798	8403.39
492.168	8604.75
492.538	8651.3
492.908	8699.88
493.278	8783.95
493.648	8770.16
494.017	8859.43
494.387	9010.61
494.757	9039.54
495.126	9117.73
495.496	9152.75
495.866	9181.45
496.235	9316.37
496.605	9365.18
496.974	9371.05
497.344	9464.38
497.713	9500.99
498.082	9604.72
498.452	9599.97
498.821	9704.38
499.19	9678.84
499.559	9776.47
499.928	9820.53
500.298	9817.37
500.667	9960.19
501.036	9883.58
501.405	9982.34
501.774	9973.07
502.143	10066.63
502.512	10083.12
502.88	10126.74
503.249	10123.8
503.618	10309.56
503.987	10196.79
504.356	10293.29
504.724	10275.44
505.093	10315.89
505.462	10402.21
505.83	10339.84
506.199	10454.41
506.567	10562.89
506.936	10497.35
507.304	10578.25
507.672	10589.33
508.041	10587.29
508.409	10633.62
508.777	10683.79
509.145	10634.52
509.514	10699.38
509.882	10726.27
510.25	10707.06
510.618	10782.54
510.986	10740.06
511.354	10794.52
511.722	10933.05
512.09	11019.82
512.458	10911.8
512.826	10954.51
513.193	10919.26
513.561	10995.42
513.929	11031.8
514.297	11085.13
514.664	11100.95
515.032	11048.52
515.4	11162.19
515.767	11181.85
516.135	11061.4
516.502	11051.23
516.869	11121.97
517.237	11128.97
517.604	11109.99
517.972	11188.86
518.339	11199.48
518.706	11058.24
519.073	11126.71
519.44	11141.18
519.808	11162.64
520.175	11186.15
520.542	11285.35
520.909	11224.79
521.276	11187.73
521.643	11321.74
522.009	11242.64
522.376	11277.44
522.743	11249.65
523.11	11346.14
523.477	11374.39
523.843	11400.83
524.21	11351.79
524.577	11372.58
524.943	11358.12
525.31	11421.39
525.676	11475.86
526.043	11393.6
526.409	11351.57
526.776	11449.87
527.142	11370.77
527.508	11400.38
527.874	11379.59
528.241	11384.79
528.607	11370.55
528.973	11365.8
529.339	11302.53
529.705	11357.22
530.071	11320.15
530.437	11337.33
530.803	11279.93
531.169	11322.64
531.535	11273.6
531.901	11316.99
532.267	11256.88
532.632	11248.97
532.998	11196.32
533.364	11136.88
533.73	11161.51
534.095	11213.49
534.461	11097.34
534.826	11079.71
535.192	11070.67
535.557	11034.74
535.923	10937.34
536.288	10913.16
536.653	10885.14
537.019	10788.19
537.384	10721.98
537.749	10709.55
538.114	10674.52
538.479	10603.56
538.845	10613.96
539.21	10488.99
539.575	10421.87
539.94	10483.34
540.305	10448.76
540.67	10297.81
541.034	10358.6
541.399	10281.54
541.764	10286.06
542.129	10163.35
542.494	10157.25
542.858	10130.36
543.223	10020.53
543.587	10026.63
543.952	9937.37
544.316	9933.98
544.681	9892.62
545.045	9848.78
545.41	9850.14
545.774	9742.79
546.138	9780.31
546.503	9718.16
546.867	9607.66
547.231	9572.86
547.595	9562.69
547.959	9445.63
548.324	9388.68
548.688	9371.28
549.052	9398.17
549.416	9323.6
549.779	9225.52
550.143	9240.89
550.507	9186.2
550.871	9097.84
551.235	9075.02
551.599	9066.88
551.962	8967
552.326	8894.46
552.689	8956.37
553.053	8863.95
553.417	8755.25
553.78	8842.48
554.143	8729.49
554.507	8728.36
554.87	8656.95
555.234	8734.69
555.597	8648.36
555.96	8570.4
556.323	8633.67
556.686	8547.35
557.05	8510.96
557.413	8518.19
557.776	8465.54
558.139	8470.29
558.502	8435.48
558.865	8380.12
559.228	8405.65
559.59	8382.6
559.953	8289.27
560.316	8357.97
560.679	8291.99
561.041	8364.07
561.404	8326.56
561.767	8204.98
562.129	8215.15
562.492	8214.7
562.854	8226.45
563.217	8108.04
563.579	8200.91
563.941	8163.63
564.304	8137.41
564.666	8157.75
565.028	8124.76
565.39	8120.69
565.753	8181.48
566.115	8180.58
566.477	8164.76
566.839	8107.36
567.201	8116.85
567.563	8126.34
567.925	8134.02
568.287	8132.44
568.648	8150.97
569.01	8134.25
569.372	8097.64
569.734	8076.85
570.095	8082.73
570.457	8093.12
570.819	8044.31
571.18	8020.58
571.542	8091.76
571.903	8093.35
572.265	8139.9
572.626	8074.14
572.987	8037.75
573.349	8091.54
573.71	8061.48
574.071	8075.04
574.432	8097.19
574.794	8126.79
575.155	8059.9
575.516	8073.91
575.877	8073.91
576.238	8029.39
576.599	8100.8
576.96	8056.06
577.32	8010.64
577.681	8054.48
578.042	8103.74
578.403	8049.51
578.763	8082.5
579.124	8059.68
579.485	8049.05
579.845	8084.53
580.206	7991.65
580.566	8024.2
580.927	8094.7
581.287	8061.71
581.648	7947.36
582.008	8036.62
582.368	7955.27
582.728	8025.78
583.089	7915.5
583.449	7935.84
583.809	8039.56
584.169	7971.09
584.529	7942.62
584.889	7997.3
585.249	7920.92
585.609	7924.99
585.969	7925.89
586.329	7937.42
586.688	7930.64
587.048	7846.35
587.408	7842.96
587.768	7840.92
588.127	7842.28
588.487	7790.08
588.846	7899.23
589.206	7815.84
589.565	7862.39
589.925	7862.17
590.284	7852.22
590.643	7803.86
591.003	7807.7
591.362	7752.11
591.721	7778.55
592.08	7831.66
592.44	7765.22
592.799	7783.52
593.158	7812.68
593.517	7718.22
593.876	7748.5
594.235	7704.43
594.593	7704.88
594.952	7695.16
595.311	7700.59
595.67	7704.43
596.029	7685.22
596.387	7748.04
596.746	7712.34
597.104	7631.21
597.463	7674.83
597.822	7696.07
598.18	7659.23
598.538	7687.71
598.897	7659.23
599.255	7626.69
599.613	7715.05
599.972	7630.99
600.33	7632.34
600.688	7648.16
601.046	7651.78
601.404	7657.2
601.762	7596.86
602.12	7647.03
602.478	7621.27
602.836	7625.11
603.194	7578.33
603.552	7591.21
603.91	7583.98
604.268	7603.42
604.625	7589.18
604.983	7619.01
605.341	7525.68
605.698	7573.13
606.056	7545.56
606.413	7534.94
606.771	7595.05
607.128	7597.54
607.485	7564.77
607.843	7593.7
608.2	7612.23
608.557	7641.83
608.914	7594.83
609.272	7619.69
609.629	7597.77
609.986	7677.31
610.343	7556.19
610.7	7694.49
611.057	7626.01
611.414	7627.6
611.771	7633.7
612.127	7634.83
612.484	7682.74
612.841	7685.45
613.198	7637.77
613.554	7677.76
613.911	7635.28
614.267	7689.52
614.624	7678.67
614.98	7573.13
615.337	7667.59
615.693	7695.16
616.05	7636.18
616.406	7777.2
616.762	7688.16
617.118	7707.14
617.475	7680.93
617.831	7708.5
618.187	7702.62
618.543	7707.37
618.899	7802.96
619.255	7704.2
619.611	7709.4
619.967	7724.77
620.323	7702.85
620.678	7742.85
621.034	7741.49
621.39	7762.51
621.746	7719.12
622.101	7806.57
622.457	7779.23
622.812	7724.32
623.168	7757.31
623.523	7768.16
623.879	7722.06
624.234	7711.66
624.589	7716.18
624.945	7701.04
625.3	7693.81
625.655	7770.19
626.01	7807.7
626.365	7740.14
626.72	7673.02
627.075	7733.81
627.43	7636.18
627.785	7710.98
628.14	7695.16
628.495	7710.53
628.85	7677.99
629.205	7648.16
629.559	7699.91
629.914	7649.06
630.269	7629.18
630.623	7619.91
630.978	7617.43
631.332	7666.92
631.687	7678.89
632.041	7625.11
632.396	7604.32
632.75	7626.69
633.104	7590.08
633.459	7574.26
633.813	7530.2
634.167	7531.33
634.521	7584.89
634.875	7506.47
635.229	7529.75
635.583	7468.73
635.937	7502.4
636.291	7482.97
636.645	7524.77
636.999	7474.15
637.352	7501.95
637.706	7426.25
638.06	7476.87
638.413	7441.61
638.767	7405.91
639.121	7417.88
639.474	7390.77
639.828	7390.54
640.181	7365.91
640.534	7338.79
640.888	7329.75
641.241	7399.81
641.594	7349.19
641.947	7405.91
642.301	7329.75
642.654	7356.87
643.007	7343.76
643.36	7376.08
643.713	7374.27
644.066	7302.63
644.419	7293.82
644.771	7266.93
645.124	7227.38
645.477	7223.31
645.83	7126.59
646.182	7150.32
646.535	7118.46
646.888	7115.97
647.24	7057.67
647.593	7135.63
647.945	7113.94
648.298	7027.16
648.65	7054.5
649.002	7048.4
649.355	7131.11
649.707	7105.58
650.059	7131.56
650.411	7137.44
650.763	7174.27
651.115	7281.39
651.467	7174.27
651.819	7237.32
652.171	7259.47
652.523	7258.34
652.875	7266.93
653.227	7218.34
653.578	7242.97
653.93	7231.22
654.282	7191.68
654.633	7186.03
654.985	7233.71
655.337	7236.87
655.688	7231.67
656.039	7289.07
656.391	7288.17
656.742	7267.15
657.094	7225.57
657.445	7308.28
657.796	7283.88
658.147	7286.14
658.498	7232.8
658.849	7282.75
659.2	7301.73
659.551	7236.19
659.902	7327.04
660.253	7307.38
660.604	7365.91
660.955	7245.91
661.306	7303.76
661.656	7321.84
662.007	7301.5
662.358	7339.02
662.708	7318
663.059	7300.15
663.409	7309.19
663.76	7340.15
664.11	7255.18
664.461	7311.67
664.811	7392.57
665.161	7322.52
665.511	7306.47
665.862	7312.35
666.212	7293.37
666.562	7337.89
666.912	7350.54
667.262	7376.3
667.612	7295.63
667.962	7303.08
668.312	7311.9
668.662	7267.38
669.011	7385.57
669.361	7323.88
669.711	7301.05
670.06	7315.51
670.41	7311.22
670.76	7350.77
671.109	7355.74
671.459	7350.77
671.808	7212.69
672.157	7279.58
672.507	7259.02
672.856	7282.07
673.205	7297.21
673.554	7303.54
673.904	7261.96
674.253	7254.72
674.602	7265.12
674.951	7235.29
675.3	7144.9
675.649	7284.33
675.998	7250.66
676.346	7250.66
676.695	7247.04
677.044	7190.09
677.393	7217.66
677.741	7218.79
678.09	7161.39
678.438	7159.59
678.787	7167.27
679.135	7198.68
679.484	7181.51
679.832	7137.21
680.181	7043.43
680.529	7133.6
680.877	7114.84
681.225	7122.75
681.573	7156.2
681.922	7087.27
682.27	6971.12
682.618	7092.69
682.966	6986.93
683.314	7069.87
683.661	6942.64
684.009	6915.98
684.357	6921.17
684.705	6924.56
685.053	6944.45
685.4	6953.72
685.748	6912.13
686.095	6942.87
686.443	6817.9
686.79	6848.86
687.138	6881.4
687.485	6829.88
687.832	6792.82
688.18	6828.75
688.527	6790.56
688.874	6743.1
689.221	6704
689.568	6707.62
689.915	6713.72
690.262	6656.32
690.609	6719.82
690.956	6680.28
691.303	6631.69
691.65	6599.6
691.997	6608.64
692.344	6603.22
692.69	6535.42
693.037	6535.87
693.383	6505.37
693.73	6499.94
694.077	6457.01
694.423	6478.47
694.769	6418.36
695.116	6421.75
695.462	6360.96
695.808	6341.3
696.155	6326.61
696.501	6334.75
696.847	6270.57
697.193	6259.04
697.539	6297.24
697.885	6217.01
698.231	6215.88
698.577	6212.72
698.923	6169.1
699.269	6149.89
699.614	6072.83
699.96	6071.25
700.306	6054.53
700.651	6045.94
700.997	6046.17
701.342	5996.45
701.688	6028.09
702.033	5936.79
702.379	5948.09
702.724	5934.31
703.069	5941.99
703.415	5797.14
703.76	5832.84
704.105	5828.55
704.45	5795.78
704.795	5813.86
705.14	5805.95
705.485	5737.93
705.83	5766.85
706.175	5756.68
706.52	5719.17
706.865	5678.95
707.209	5691.83
707.554	5684.6
707.899	5694.77
708.243	5585.16
708.588	5573.41
708.932	5581.1
709.277	5567.09
709.621	5597.14
709.966	5512.17
710.31	5577.93
710.654	5487.99
710.998	5485.96
711.342	5487.54
711.687	5477.82
712.031	5443.47
712.375	5501.32
712.719	5409.12
713.063	5447.54
713.407	5423.13
713.75	5460.65
714.094	5407.99
714.438	5363.25
714.782	5352.4
715.125	5351.5
715.469	5365.28
715.812	5317.37
716.156	5340.88
716.499	5297.26
716.843	5306.53
717.186	5258.39
717.53	5320.31
717.873	5335.9
718.216	5329.8
718.559	5260.43
718.902	5230.6
719.246	5248.45
719.589	5242.8
719.932	5248.9
720.275	5233.76
720.617	5246.87
720.96	5193.99
721.303	5246.87
721.646	5230.82
721.989	5206.42
722.331	5195.12
722.674	5179.52
723.016	5200.54
723.359	5219.07
723.701	5190.6
724.044	5151.28
724.386	5156.93
724.729	5159.41
725.071	5198.06
725.413	5151.05
725.755	5180.88
726.097	5114.67
726.439	5105.4
726.782	5118.96
727.124	5090.94
727.465	5080.32
727.807	5142.24
728.149	5084.61
728.491	5101.56
728.833	5106.31
729.175	5132.75
729.516	5133.65
729.858	5132.29
730.199	5149.47
730.541	5102.24
730.882	5129.81
731.224	5128.68
731.565	5080.09
731.906	5135.01
732.248	5137.49
732.589	5069.02
732.93	5072.86
733.271	5100.66
733.612	5119.64
733.953	5110.37
734.294	5126.64
734.635	5117.38
734.976	5144.05
735.317	5096.59
735.658	5121.22
735.999	5130.26
736.339	5129.13
736.68	5194.21
737.021	5137.49
737.361	5146.31
737.702	5222.01
738.042	5174.78
738.383	5172.97
738.723	5214.78
739.063	5180.43
739.404	5227.21
739.744	5210.94
740.084	5249.81
740.424	5255.68
740.764	5240.31
741.104	5239.18
741.444	5281.22
741.784	5270.6
742.124	5256.36
742.464	5323.02
742.804	5301.33
743.143	5318.05
743.483	5351.05
743.823	5373.42
744.162	5389.46
744.502	5410.93
744.841	5441.66
745.181	5474.43
745.52	5474.88
745.86	5544.26
746.199	5579.06
746.538	5605.5
746.877	5693.86
747.216	5689.57
747.556	5708.55
747.895	5773.86
748.234	5764.82
748.573	5836.46
748.911	5893.86
749.25	5966.4
749.589	5959.62
749.928	6080.97
750.267	6134.98
750.605	6156.45
750.944	6287.29
751.283	6317.35
751.621	6402.54
751.96	6455.2
752.298	6569.77
752.636	6613.61
752.975	6720.05
753.313	6798.47
753.651	6934.73
753.989	7030.32
754.327	7079.59
754.666	7247.04
755.004	7379.69
755.342	7510.76
755.679	7596.86
756.017	7715.05
756.355	7879.34
756.693	7951.43
757.031	8164.53
757.368	8270.52
757.706	8396.62
758.044	8509.38
758.381	8672.54
758.719	8808.13
759.056	9008.8
759.394	9163.83
759.731	9288.57
760.068	9428.9
760.405	9549.58
760.743	9758.84
761.08	9931.72
761.417	10127.87
761.754	10261.88
762.091	10442.66
762.428	10526.28
762.765	10706.16
763.102	10949.32
763.438	11094.85
763.775	11247.39
764.112	11403.32
764.449	11589.53
764.785	11753.14
765.122	11880.37
765.458	12014.6
765.795	12178.89
766.131	12435.15
766.467	12501.37
766.804	12690.29
