Data from hue_290_FLMS001491_00027.txt Node
Date: Tue Feb 07 15:52:32 GMT 2017
User: dcchb
Spectrometer: FLMS00149
Trigger mode: 0
Integration Time (sec): 2.000000E-2
Scans to average: 10
Electric dark correction enabled: true
Nonlinearity correction enabled: false
Boxcar width: 0
XAxis mode: Wavelengths
Number of Pixels in Spectrum: 2048
>>>>>Begin Spectral Data<<<<<
341.393	-6.23
341.776	-6.23
342.16	-6.23
342.543	-62.05
342.927	-54.59
343.31	-76.96
343.693	-68.15
344.077	-71.54
344.46	-69.05
344.843	-41.03
345.226	-53.46
345.61	-41.71
345.993	-5.55
346.376	4.17
346.759	40.1
347.142	20.21
347.525	39.42
347.908	24.51
348.291	70.15
348.674	93.88
349.057	135.01
349.44	104.28
349.823	116.93
350.206	150.6
350.588	169.36
350.971	205.07
351.354	194.67
351.737	235.8
352.119	233.99
352.502	234.89
352.884	249.81
353.267	274.44
353.65	278.96
354.032	279.64
354.414	302.24
354.797	300.43
355.179	293.88
355.562	308.34
355.944	332.29
356.326	319.41
356.709	332.52
357.091	331.16
357.473	336.59
357.855	336.14
358.238	324.61
358.62	333.42
359.002	339.07
359.384	341.33
359.766	334.78
360.148	332.29
360.53	324.16
360.912	326.87
361.294	331.84
361.676	315.8
362.057	322.58
362.439	324.61
362.821	318.06
363.203	328
363.584	292.75
363.966	316.25
364.348	312.18
364.729	342.01
365.111	308.11
365.493	309.92
365.874	308.79
366.256	302.92
366.637	305.85
367.019	313.76
367.4	329.36
367.781	295.68
368.163	295.23
368.544	311.5
368.925	304.27
369.306	297.27
369.688	316.02
370.069	340.2
370.45	299.98
370.831	331.39
371.212	315.12
371.593	311.96
371.974	309.02
372.355	296.14
372.736	330.03
373.117	297.49
373.498	301.11
373.879	317.38
374.26	314.89
374.641	295.46
375.021	313.76
375.402	314.67
375.783	329.36
376.163	320.77
376.544	326.42
376.925	337.94
377.305	312.41
377.686	320.32
378.066	328.68
378.447	312.18
378.827	324.61
379.208	348.56
379.588	337.49
379.968	316.7
380.349	316.7
380.729	315.57
381.109	317.83
381.489	331.62
381.87	320.99
382.25	348.11
382.63	319.86
383.01	351.05
383.39	336.81
383.77	331.62
384.15	336.81
384.53	350.6
384.91	324.16
385.29	324.16
385.67	326.64
386.049	355.12
386.429	363.71
386.809	334.78
387.189	331.62
387.568	359.86
387.948	378.39
388.328	360.54
388.707	369.58
389.087	349.24
389.466	360.99
389.846	369.81
390.225	362.12
390.605	374.33
390.984	366.19
391.363	370.48
391.743	354.89
392.122	356.25
392.501	367.32
392.881	378.62
393.26	375.46
393.639	360.77
394.018	382.46
394.397	397.15
394.776	399.41
395.155	395.12
395.534	396.92
395.913	390.37
396.292	395.79
396.671	405.96
397.05	389.92
397.429	391.28
397.808	400.54
398.186	378.17
398.565	391.73
398.944	405.29
399.323	405.96
399.701	395.34
400.08	405.06
400.458	413.2
400.837	412.74
401.215	417.94
401.594	417.04
401.972	409.35
402.351	425.62
402.729	426.3
403.107	419.3
403.486	443.93
403.864	446.41
404.242	437.15
404.62	420.2
404.999	445.28
405.377	439.86
405.755	430.37
406.133	480.54
406.511	464.27
406.889	462.01
407.267	462.23
407.645	464.49
408.023	492.74
408.401	497.03
408.779	474.66
409.156	503.81
409.534	514.21
409.912	527.32
410.29	516.47
410.667	527.54
411.045	511.05
411.422	535.68
411.8	519.18
412.178	532.29
412.555	541.78
412.933	569.8
413.31	567.09
413.687	572.29
414.065	560.31
414.442	575
414.819	586.3
415.197	619.74
415.574	610.48
415.951	629.01
416.328	636.92
416.705	613.87
417.082	606.41
417.46	626.3
417.837	647.77
418.214	662
418.591	633.3
418.967	671.04
419.344	696.13
419.721	690.02
420.098	719.85
420.475	698.84
420.852	698.16
421.228	711.94
421.605	707.88
421.982	739.74
422.358	751.72
422.735	752.85
423.111	758.05
423.488	784.03
423.864	799.85
424.241	779.06
424.617	827.2
424.994	809.34
425.37	824.48
425.746	830.59
426.123	850.7
426.499	824.03
426.875	841.88
427.251	854.54
427.627	878.95
428.003	883.47
428.379	891.83
428.756	897.7
429.132	900.87
429.507	939.51
429.883	958.27
430.259	961.43
430.635	944.25
431.011	945.38
431.387	986.51
431.763	1011.37
432.138	999.85
432.514	1002.33
432.89	1041.2
433.265	1006.63
433.641	1040.3
434.016	1085.95
434.392	1084.14
434.767	1120.07
435.143	1078.04
435.518	1131.14
435.894	1141.09
436.269	1147.64
436.644	1167.75
437.02	1171.82
437.395	1174.53
437.77	1204.81
438.145	1218.6
438.52	1219.5
438.895	1244.13
439.271	1233.29
439.646	1266.28
440.021	1284.36
440.395	1281.65
440.77	1318.03
441.145	1272.83
441.52	1294.53
441.895	1320.29
442.27	1294.08
442.645	1328.2
443.019	1332.27
443.394	1349.89
443.769	1367.75
444.143	1355.32
444.518	1369.1
444.892	1366.84
445.267	1385.37
445.641	1379.72
446.016	1417.46
446.39	1394.19
446.764	1413.17
447.139	1416.11
447.513	1423.11
447.887	1386.5
448.262	1430.12
448.636	1450
449.01	1428.08
449.384	1454.3
449.758	1453.39
450.132	1452.72
450.506	1479.38
450.88	1490
451.254	1474.64
451.628	1482.32
452.002	1483.68
452.376	1501.53
452.75	1541.53
453.123	1529.55
453.497	1553.28
453.871	1557.8
454.244	1585.14
454.618	1586.72
454.992	1609.1
455.365	1547.63
455.739	1635.31
456.112	1642.09
456.486	1647.06
456.859	1660.39
457.232	1691.81
457.606	1671.24
457.979	1690.68
458.352	1722.31
458.725	1700.17
459.099	1736.55
459.472	1798.24
459.845	1790.56
460.218	1808.86
460.591	1784.68
460.964	1817.9
461.337	1826.72
461.71	1842.54
462.083	1874.4
462.456	1863.1
462.829	1874.4
463.201	1908.98
463.574	1890.22
463.947	1927.51
464.32	1943.55
464.692	1975.19
465.065	1991.23
465.438	1990.1
465.81	2033.72
466.183	2058.8
466.555	2088.86
466.928	2062.42
467.3	2068.52
467.672	2102.19
468.045	2123.43
468.417	2133.83
468.789	2135.64
469.161	2172.47
469.534	2190.1
469.906	2227.38
470.278	2215.63
470.65	2262.86
471.022	2268.29
471.394	2318
471.766	2334.5
472.138	2353.26
472.51	2361.84
472.882	2422.18
473.253	2441.16
473.625	2466.02
473.997	2500.6
474.369	2481.16
474.74	2494.72
475.112	2584.21
475.484	2542.18
475.855	2599.58
476.227	2626.02
476.598	2690.42
476.97	2702.4
477.341	2758.67
477.713	2760.93
478.084	2783.3
478.455	2833.24
478.827	2828.95
479.198	2909.17
479.569	2926.35
479.94	2974.71
480.311	2980.81
480.682	3026.01
481.053	3095.16
481.424	3093.12
481.795	3157.3
482.166	3208.83
482.537	3240.47
482.908	3271.65
483.279	3308.94
483.65	3327.47
484.021	3366.34
484.391	3387.35
484.762	3417.41
485.133	3450.63
485.503	3480.01
485.874	3565.65
486.244	3561.59
486.615	3628.93
486.985	3640.46
487.356	3671.64
487.726	3714.35
488.097	3727.23
488.467	3779.21
488.837	3816.72
489.207	3867.34
489.578	3908.47
489.948	3881.8
490.318	3949.15
490.688	3934.46
491.058	4029.82
491.428	4118.18
491.798	4092.42
492.168	4153.44
492.538	4142.59
492.908	4191.18
493.278	4226.65
493.648	4239.54
494.017	4318.63
494.387	4312.98
494.757	4318.4
495.126	4317.05
495.496	4374.45
495.866	4376.93
496.235	4390.04
496.605	4464.61
496.974	4489.7
497.344	4498.06
497.713	4485.4
498.082	4550.94
498.452	4628.68
498.821	4621.67
499.19	4571.96
499.559	4704.16
499.928	4675
500.298	4638.85
500.667	4699.18
501.036	4728.79
501.405	4733.08
501.774	4738.28
502.143	4719.52
502.512	4829.8
502.88	4788
503.249	4834.55
503.618	4826.64
503.987	4877.94
504.356	4889.69
504.724	4835
505.093	4888.33
505.462	4904.38
505.83	4949.12
506.199	4949.8
506.567	5044.03
506.936	4994.54
507.304	5065.05
507.672	5118.61
508.041	5068.89
508.409	5089.23
508.777	5116.8
509.145	5171.94
509.514	5172.17
509.882	5191.15
510.25	5132.85
510.618	5187.76
510.986	5248.77
511.354	5180.75
511.722	5243.8
512.09	5320.18
512.458	5273.18
512.826	5320.41
513.193	5349.11
513.561	5264.82
513.929	5338.49
514.297	5388.43
514.664	5411.93
515.032	5451.03
515.4	5452.61
515.767	5449.45
516.135	5429.79
516.502	5450.13
516.869	5504.13
517.237	5552.04
517.604	5478.15
517.972	5561.31
518.339	5544.13
518.706	5552.72
519.073	5564.02
519.44	5632.04
519.808	5665.49
520.175	5652.38
520.542	5683.34
520.909	5708.2
521.276	5659.16
521.643	5749.33
522.009	5743.68
522.376	5743.22
522.743	5772.83
523.11	5907.74
523.477	5895.54
523.843	5911.81
524.21	5986.83
524.577	5967.63
524.943	6029.77
525.31	5959.49
525.676	6028.41
526.043	6088.75
526.409	6080.16
526.776	6122.42
527.142	6121.52
527.508	6175.08
527.874	6182.31
528.241	6216.21
528.607	6201.29
528.973	6285.36
529.339	6264.79
529.705	6309.09
530.071	6342.76
530.437	6326.26
530.803	6351.57
531.169	6427.95
531.535	6346.6
531.901	6438.12
532.267	6434.73
532.632	6518.57
532.998	6554.95
533.364	6536.2
533.73	6536.2
534.095	6627.5
534.461	6589.76
534.826	6624.56
535.192	6673.14
535.557	6706.36
535.923	6679.92
536.288	6695.74
536.653	6696.87
537.019	6771.45
537.384	6728.74
537.749	6736.42
538.114	6799.47
538.479	6813.48
538.845	6870.43
539.21	6821.84
539.575	6870.88
539.94	6835.4
540.305	6964.44
540.67	6865.23
541.034	6952.46
541.399	6934.83
541.764	6988.39
542.129	6940.26
542.494	7031.1
542.858	7052.34
543.223	7050.76
543.587	7072.46
543.952	7063.64
544.316	7144.77
544.681	7120.36
545.045	7162.62
545.41	7121.27
545.774	7160.81
546.138	7208.95
546.503	7233.13
546.867	7234.48
547.231	7318.1
547.595	7282.62
547.959	7243.07
548.324	7321.71
548.688	7352
549.052	7309.29
549.416	7390.41
549.779	7379.11
550.143	7380.24
550.507	7422.28
550.871	7447.36
551.235	7407.14
551.599	7501.14
551.962	7458.89
552.326	7542.95
552.689	7523.52
553.053	7575.94
553.417	7520.81
553.78	7649.84
554.143	7595.61
554.507	7644.42
554.87	7662.27
555.234	7683.74
555.597	7689.61
555.96	7659.56
556.323	7695.72
556.686	7750.18
557.05	7734.81
557.413	7790.63
557.776	7830.85
558.139	7817.29
558.502	7772.78
558.865	7834.47
559.228	7876.73
559.59	7904.75
559.953	7878.08
560.316	7986.1
560.679	7918.76
561.041	7974.13
561.404	8058.64
561.767	8001.92
562.129	8088.25
562.492	8095.03
562.854	8154.69
563.217	8143.16
563.579	8146.33
563.941	8175.25
564.304	8222.48
564.666	8249.37
565.028	8245.53
565.39	8267
565.753	8318.3
566.115	8305.64
566.477	8320.11
566.839	8339.77
567.201	8452.53
567.563	8349.71
567.925	8504.96
568.287	8494.34
568.648	8511.51
569.01	8585.86
569.372	8613.88
569.734	8609.59
570.095	8693.88
570.457	8657.27
570.819	8707.67
571.18	8734.11
571.542	8782.01
571.903	8779.3
572.265	8785.18
572.626	8880.77
572.987	8886.87
573.349	8917.6
573.71	9029.24
574.071	8985.17
574.432	9104.27
574.794	9142.23
575.155	9126.19
575.516	9156.69
575.877	9184.26
576.238	9290.48
576.599	9279.85
576.96	9360.76
577.32	9379.06
577.681	9496.35
578.042	9474.2
578.403	9511.71
578.763	9637.81
579.124	9646.85
579.485	9750.8
579.845	9784.93
580.206	9885.04
580.566	9933.17
580.927	10012.04
581.287	10101.08
581.648	10184.46
582.008	10256.33
582.368	10360.5
582.728	10437.79
583.089	10483.89
583.449	10600.95
583.809	10639.82
584.169	10780.61
584.529	10855.18
584.889	11014.72
585.249	11092.69
585.609	11092.69
585.969	11319.12
586.329	11285.9
586.688	11503.53
587.048	11580.36
587.408	11691.54
587.768	11789.39
588.127	11961.37
588.487	12042.49
588.846	12220.12
589.206	12285.43
589.565	12478.87
589.925	12617.85
590.284	12717.96
590.643	12822.59
591.003	13071.62
591.362	13140.09
591.721	13204.27
592.08	13392.97
592.44	13591.83
592.799	13674.99
593.158	13734.2
593.517	13918.6
593.876	14165.83
594.235	14143.68
594.593	14317.46
594.952	14547.96
595.311	14617.79
595.67	14687.85
596.029	14930.33
596.387	15056.2
596.746	15269.75
597.104	15265.69
597.463	15462.07
597.822	15601.04
598.18	15609.63
598.538	15735.05
598.897	15944.99
599.255	16014.14
599.613	16347.01
599.972	16267.24
600.33	16519.21
600.688	16619.1
601.046	16797.4
601.404	16937.51
601.762	16992.65
602.12	17215.47
602.478	17202.13
602.836	17370.72
603.194	17288.23
603.552	17425.86
603.91	17499.75
604.268	17699.52
604.625	17771.61
604.983	17834.21
605.341	17814.32
605.698	18154.65
606.056	18245.95
606.413	18285.72
606.771	18319.62
607.128	18570.46
607.485	18456.56
607.843	18595.77
608.2	18636.22
608.557	18854.29
608.914	18873.73
609.272	19036.66
609.629	19124.34
609.986	19216.77
610.343	19078.69
610.7	19401.85
611.057	19280.04
611.414	19525.01
611.771	19502.64
612.127	19655.18
612.484	19715.74
612.841	19778.11
613.198	19749.64
613.554	19921.16
613.911	20052.45
614.267	20005.45
614.624	20206.12
614.98	20200.25
615.337	20366.57
615.693	20261.71
616.05	20355.95
616.406	20535.15
616.762	20527.02
617.118	20521.59
617.475	20696.73
617.831	20742.6
618.187	20633.68
618.543	20809.5
618.899	20887.69
619.255	20860.79
619.611	20897.63
619.967	21032.77
620.323	21126.78
620.678	21008.13
621.034	21007
621.39	21142.37
621.746	21105.53
622.101	21371.29
622.457	21188.92
622.812	21320.22
623.168	21290.84
623.523	21405.64
623.879	21420.78
624.234	21351.85
624.589	21415.13
624.945	21424.39
625.3	21514.79
625.655	21440.44
626.01	21542.13
626.365	21553.2
626.72	21623.03
627.075	21536.48
627.43	21586.42
627.785	21463.49
628.14	21639.08
628.495	21622.36
628.85	21624.39
629.205	21531.96
629.559	21656.25
629.914	21556.59
630.269	21623.03
630.623	21529.02
630.978	21518.18
631.332	21646.76
631.687	21695.57
632.041	21524.5
632.396	21584.62
632.75	21622.13
633.104	21653.09
633.459	21543.04
633.813	21532.87
634.167	21519.53
634.521	21507.78
634.875	21527.44
635.229	21538.74
635.583	21503.26
635.937	21482.02
636.291	21429.37
636.645	21605.41
636.999	21461.68
637.352	21610.38
637.706	21351.4
638.06	21463.26
638.413	21339.42
638.767	21459.42
639.121	21506.2
639.474	21243.61
639.828	21285.41
640.181	21480.44
640.534	21315.02
640.888	21335.81
641.241	21237.05
641.594	21240.44
641.947	21345.3
642.301	21287.67
642.654	21263.27
643.007	21302.36
643.36	21237.51
643.713	21189.82
644.066	21289.03
644.419	21185.08
644.771	21035.93
645.124	20839.55
645.477	20814.92
645.83	20795.26
646.182	20667.8
646.535	20573.12
646.888	20729.5
647.24	20441.14
647.593	20719.55
647.945	20635.94
648.298	20587.13
648.65	20518.2
649.002	20473.01
649.355	20542.84
649.707	20627.35
650.059	20720.46
650.411	20989.15
650.763	21008.81
651.115	21117.74
651.467	21214.68
651.819	21058.3
652.171	21006.1
652.523	20999.55
652.875	21065.99
653.227	20979.43
653.578	21338.97
653.93	21091.97
654.282	21118.64
654.633	21021.69
654.985	20986.44
655.337	21102.37
655.688	21102.82
656.039	21170.16
656.391	20924.52
656.742	21008.13
657.094	21093.33
657.445	21114.35
657.796	20981.47
658.147	21047.91
658.498	21066.66
658.849	21133.1
659.2	21070.28
659.551	20920.45
659.902	21101.92
660.253	20965.88
660.604	21088.81
660.955	20917.06
661.306	21043.16
661.656	21057.85
662.007	21051.75
662.358	21090.62
662.708	21131.97
663.059	21145.31
663.409	21000
663.76	21195.25
664.11	21191.63
664.461	21194.34
664.811	21178.3
665.161	21233.89
665.511	21120.45
665.862	21072.77
666.212	21138.3
666.562	21174.46
666.912	21094.46
667.262	21136.94
667.612	21105.53
667.962	21171.52
668.312	21085.87
668.662	21081.58
669.011	21120
669.361	21117.06
669.711	21118.64
670.06	21081.13
670.41	21064.86
670.76	21011.07
671.109	21170.84
671.459	21033.22
671.808	21050.17
672.157	20998.87
672.507	20914.58
672.856	20983.73
673.205	20954.8
673.554	21088.13
673.904	20844.97
674.253	21047.91
674.602	20937.4
674.951	20781.93
675.3	20489.28
675.649	20845.43
675.998	20892.2
676.346	20790.06
676.695	20945.08
677.044	20747.58
677.393	20780.57
677.741	20955.93
678.09	20757.75
678.438	20730.4
678.787	20765.43
679.135	20917.06
679.484	20440.47
679.832	20634.36
680.181	20535.83
680.529	20673
680.877	20553.46
681.225	20510.75
681.573	20568.15
681.922	20526.56
682.27	20393.01
682.618	20401.6
682.966	20408.6
683.314	20485.21
683.661	20415.83
684.009	20199.57
684.357	20210.87
684.705	20185.33
685.053	20199.34
685.4	20146.46
685.748	20025.11
686.095	20045.22
686.443	19987.6
686.79	19849.29
687.138	19971.78
687.485	19972
687.832	19994.83
688.18	19762.52
688.527	19746.92
688.874	19696.98
689.221	19631.67
689.568	19739.92
689.915	19568.62
690.262	19629.64
690.609	19440.49
690.956	19351.45
691.303	19337.22
691.65	19221.06
691.997	19393.94
692.344	19156.66
692.69	18995.53
693.037	19232.81
693.383	18867.17
693.73	19040.05
694.077	18862.65
694.423	18847.06
694.769	18784.92
695.116	18764.13
695.462	18652.26
695.808	18734.07
696.155	18728.65
696.501	18550.12
696.847	18567.97
697.193	18344.25
697.539	18348.09
697.885	18310.35
698.231	18138.15
698.577	18147.64
698.923	18139.28
699.269	17956.01
699.614	17934.99
699.96	17908.1
700.306	17869.91
700.651	17787.43
700.997	17734.1
701.342	17837.6
701.688	17673.31
702.033	17686.19
702.379	17610.26
702.724	17565.74
703.069	17626.3
703.415	17321.45
703.76	17372.07
704.105	17370.94
704.45	17231.96
704.795	17186.31
705.14	17121.46
705.485	17074.45
705.83	17114.23
706.175	17078.75
706.52	16955.81
706.865	16894.57
707.209	16896.6
707.554	16821.13
707.899	16811.18
708.243	16698.19
708.588	16716.5
708.932	16588.36
709.277	16576.16
709.621	16595.37
709.966	16505.88
710.31	16416.84
710.654	16310.86
710.998	16295.72
711.342	16392.21
711.687	16328.26
712.031	16181.37
712.375	16192.67
712.719	16201.25
713.063	16127.36
713.407	16238.54
713.75	16056.4
714.094	16087.59
714.438	15922.39
714.782	16045.33
715.125	15959
715.469	15929.85
715.812	15773.24
716.156	15761.27
716.499	15820.7
716.843	15833.81
717.186	15769.63
717.53	15795.16
717.873	15790.19
718.216	15792
718.559	15659.35
718.902	15608.95
719.246	15568.73
719.589	15558.11
719.932	15515.4
720.275	15452.35
720.617	15572.34
720.96	15515.85
721.303	15617.09
721.646	15572.57
721.989	15384.78
722.331	15481.5
722.674	15423.65
723.016	15469.3
723.359	15380.03
723.701	15364.44
724.044	15289.41
724.386	15233.14
724.729	15393.37
725.071	15308.85
725.413	15302.07
725.755	15207.16
726.097	15213.03
726.439	15178.46
726.782	15188.4
727.124	15167.16
727.465	15066.82
727.807	15161.96
728.149	15093.71
728.491	15055.07
728.833	15090.55
729.175	15025.92
729.516	15058.23
729.858	15010.33
730.199	15034.96
730.541	14963.32
730.882	14971.23
731.224	15098.46
731.565	14992.25
731.906	14941.63
732.248	15003.09
732.589	14984.56
732.93	14937.79
733.271	14957.9
733.612	14920.38
733.953	14992.92
734.294	15007.39
734.635	14811.69
734.976	14956.09
735.317	14922.42
735.658	14837
735.999	15002.19
736.339	14850.78
736.68	14890.55
737.021	14909.99
737.361	14869.99
737.702	14900.05
738.042	14877
738.383	14891.23
738.723	14938.69
739.063	14888.29
739.404	14856.88
739.744	14924.9
740.084	14908.63
740.424	14863.66
740.764	14854.4
741.104	14927.16
741.444	14917.67
741.784	14968.07
742.124	14959.03
742.464	15007.84
742.804	14909.99
743.143	14873.38
743.483	15105.69
743.823	14984.79
744.162	15033.15
744.502	15043.32
744.841	15008.74
745.181	15086.26
745.52	15145.92
745.86	15261.17
746.199	15116.76
746.538	15145.46
746.877	15312.24
747.216	15313.82
747.556	15326.7
747.895	15360.6
748.234	15366.02
748.573	15470.88
748.911	15514.95
749.25	15570.54
749.589	15613.93
749.928	15709.29
750.267	15801.49
750.605	15857.99
750.944	15897.76
751.283	15931.21
751.621	16183.85
751.96	16071.99
752.298	16173.68
752.636	16250.29
752.975	16336.84
753.313	16367.8
753.651	16586.56
753.989	16623.39
754.327	16749.04
754.666	16673.11
755.004	16835.36
755.342	17003.95
755.679	17073.32
756.017	17144.51
756.355	17370.72
756.693	17350.83
757.031	17471.05
757.368	17556.7
757.706	17709.92
758.044	17716.7
758.381	17903.81
758.719	17929.57
759.056	18013.64
759.394	18123.69
759.731	18256.57
760.068	18315.1
