Data from hue_320_FLMS001491_4.txt Node
Date: Mon Feb 06 15:46:36 GMT 2017
User: dcchb
Spectrometer: FLMS00149
Trigger mode: 0
Integration Time (sec): 2.000000E-2
Scans to average: 10
Electric dark correction enabled: true
Nonlinearity correction enabled: false
Boxcar width: 0
XAxis mode: Wavelengths
Number of Pixels in Spectrum: 2048
>>>>>Begin Spectral Data<<<<<
341.393	-29.48
341.776	-29.48
342.16	-29.48
342.543	-40.55
342.927	-62.24
343.31	-66.54
343.693	-72.41
344.077	-58.85
344.46	-47.78
344.843	-48.46
345.226	-49.36
345.61	-39.65
345.993	-25.86
346.376	-22.25
346.759	-6.2
347.142	26.79
347.525	44.19
347.908	62.05
348.291	84.19
348.674	104.98
349.057	115.15
349.44	149.73
349.823	133
350.206	163.51
350.588	203.96
350.971	217.07
351.354	234.47
351.737	233.57
352.119	231.99
352.502	263.62
352.884	270.4
353.267	273.79
353.65	319.44
354.032	301.81
354.414	325.32
354.797	320.34
355.179	336.62
355.562	337.75
355.944	316.73
356.326	332.1
356.709	345.65
357.091	331.87
357.473	340.46
357.855	354.24
358.238	343.39
358.62	348.37
359.002	352.43
359.384	329.84
359.766	338.42
360.148	336.39
360.53	321.25
360.912	344.98
361.294	335.94
361.676	340.46
362.057	324.64
362.439	324.64
362.821	321.25
363.203	343.85
363.584	344.75
363.966	323.73
364.348	324.41
364.729	351.53
365.111	341.36
365.493	316.5
365.874	317.86
366.256	337.52
366.637	319.21
367.019	316.05
367.4	318.54
367.781	314.02
368.163	318.54
368.544	334.58
368.925	323.06
369.306	318.31
369.688	312.21
370.069	305.2
370.45	319.89
370.831	317.18
371.212	324.64
371.593	308.37
371.974	303.4
372.355	320.57
372.736	307.24
373.117	316.28
373.498	300.46
373.879	320.57
374.26	293
374.641	313.79
375.021	312.66
375.402	316.28
375.783	346.56
376.163	335.03
376.544	329.61
376.925	313.34
377.305	331.64
377.686	314.24
378.066	333.68
378.447	314.24
378.827	330.51
379.208	340.23
379.588	322.6
379.968	331.42
380.349	322.38
380.729	351.08
381.109	314.7
381.489	332.32
381.87	331.87
382.25	354.02
382.63	342.27
383.01	335.03
383.39	347.24
383.77	352.21
384.15	340.01
384.53	356.28
384.91	338.2
385.29	370.29
385.67	352.21
386.049	360.12
386.429	345.65
386.809	358.54
387.189	372.77
387.568	362.6
387.948	363.51
388.328	369.61
388.707	361.25
389.087	358.76
389.466	378.2
389.846	361.47
390.225	351.3
390.605	360.12
390.984	348.82
391.363	376.39
391.743	364.64
392.122	385.43
392.501	395.37
392.881	367.35
393.26	369.16
393.639	380.91
394.018	386.78
394.397	384.3
394.776	390.63
395.155	378.65
395.534	395.82
395.913	377.07
396.292	415.26
396.671	398.08
397.05	403.05
397.429	365.77
397.808	385.88
398.186	400.57
398.565	390.17
398.944	410.74
399.323	393.11
399.701	404.18
400.08	417.07
400.458	422.04
400.837	408.93
401.215	398.99
401.594	385.88
401.972	432.88
402.351	436.5
402.729	431.75
403.107	432.21
403.486	451.87
403.864	440.79
404.242	410.29
404.62	417.52
404.999	440.12
405.377	428.14
405.755	462.94
406.133	465.43
406.511	455.26
406.889	450.96
407.267	450.96
407.645	466.1
408.023	473.11
408.401	478.53
408.779	467.23
409.156	475.14
409.534	472.21
409.912	468.14
410.29	509.27
410.667	502.03
411.045	514.01
411.422	509.94
411.8	515.14
412.178	524.63
412.555	542.49
412.933	516.5
413.31	529.38
413.687	555.59
414.065	553.33
414.442	575.71
414.819	551.3
415.197	572.77
415.574	580.68
415.951	589.26
416.328	586.1
416.705	615.03
417.082	614.35
417.46	611.64
417.837	650.28
418.214	618.19
418.591	623.84
418.967	644.4
419.344	642.82
419.721	646.89
420.098	652.54
420.475	672.65
420.852	657.06
421.228	682.82
421.605	684.4
421.982	691.41
422.358	695.25
422.735	690.28
423.111	719.2
423.488	723.05
423.864	714.46
424.241	734.35
424.617	735.02
424.994	748.81
425.37	751.29
425.746	750.39
426.123	747.45
426.499	774.34
426.875	775.47
427.251	800.33
427.627	799.2
428.003	809.82
428.379	797.62
428.756	831.52
429.132	829.48
429.507	849.6
429.883	879.43
430.259	893.89
430.635	858.41
431.011	866.32
431.387	875.58
431.763	895.47
432.138	888.24
432.514	915.81
432.89	938.41
433.265	940.89
433.641	965.07
434.016	968.01
434.392	982.47
434.767	977.5
435.143	971.85
435.518	975.69
435.894	1014.56
436.269	1014.11
436.644	1016.82
437.02	1032.42
437.395	1034.22
437.77	1035.35
438.145	1066.54
438.52	1073.09
438.895	1077.16
439.271	1060.21
439.646	1080.78
440.021	1101.79
440.395	1102.02
440.77	1111.74
441.145	1129.81
441.52	1135.01
441.895	1128.91
442.27	1160.32
442.645	1116.26
443.019	1155.8
443.394	1173.88
443.769	1151.51
444.143	1165.97
444.518	1194.22
444.892	1165.97
445.267	1198.74
445.641	1200.55
446.016	1194.9
446.39	1181.56
446.764	1195.8
447.139	1213.65
447.513	1214.33
447.887	1198.97
448.262	1220.43
448.636	1217.72
449.01	1223.6
449.384	1231.51
449.758	1272.18
450.132	1246.42
450.506	1217.27
450.88	1261.11
451.254	1283.26
451.628	1288
452.002	1296.14
452.376	1266.53
452.75	1285.74
453.123	1302.01
453.497	1328.45
453.871	1325.97
454.244	1335.91
454.618	1343.14
454.992	1349.24
455.365	1361
455.739	1386.31
456.112	1424.04
456.486	1390.6
456.859	1414.78
457.232	1436.47
457.606	1422.91
457.979	1431.05
458.352	1443.7
458.725	1473.08
459.099	1467.21
459.472	1466.76
459.845	1487.09
460.218	1485.74
460.591	1520.31
460.964	1479.18
461.337	1567.32
461.71	1529.8
462.083	1560.09
462.456	1575.45
462.829	1564.83
463.201	1599.18
463.574	1600.99
463.947	1605.06
464.32	1624.49
464.692	1671.04
465.065	1632.4
465.438	1697.26
465.81	1688.22
466.183	1720.08
466.555	1726.86
466.928	1730.03
467.3	1740.42
467.672	1733.64
468.045	1791.04
468.417	1770.25
468.789	1814.77
469.161	1845.5
469.534	1834.2
469.906	1873.75
470.278	1887.76
470.65	1855.22
471.022	1892.51
471.394	1944.93
471.766	1935.9
472.138	1936.12
472.51	2012.05
472.882	1975.44
473.253	2023.12
473.625	2051.82
473.997	2058.15
474.369	2111.03
474.74	2099.05
475.112	2145.61
475.484	2162.1
475.855	2167.98
476.227	2188.32
476.598	2253.4
476.97	2270.35
477.341	2301.54
477.713	2326.85
478.084	2338.14
478.455	2385.6
478.827	2399.16
479.198	2435.32
479.569	2436.22
479.94	2465.15
480.311	2497.69
480.682	2563.68
481.053	2572.26
481.424	2585.82
481.795	2617.23
482.166	2665.59
482.537	2668.53
482.908	2726.38
483.279	2754.86
483.65	2788.53
484.021	2826.27
484.391	2840.28
484.762	2859.03
485.133	2907.62
485.503	2912.59
485.874	2922.08
486.244	2962.54
486.615	3028.97
486.985	3052.02
487.356	3043.89
487.726	3115.75
488.097	3151.91
488.467	3158.24
488.837	3191.23
489.207	3222.42
489.578	3265.8
489.948	3294.96
490.318	3314.39
490.688	3357.55
491.058	3354.62
491.428	3465.35
491.798	3414.27
492.168	3499.47
492.538	3526.59
492.908	3531.11
493.278	3597.55
493.648	3579.92
494.017	3641.61
494.387	3652.46
494.757	3701.27
495.126	3694.49
495.496	3698.33
495.866	3722.74
496.235	3763.42
496.605	3743.53
496.974	3815.39
497.344	3815.39
497.713	3810.87
498.082	3838.67
498.452	3877.54
498.821	3870.53
499.19	3890.87
499.559	3929.74
499.928	3990.53
500.298	3953.92
500.667	3986.46
501.036	4008.16
501.405	4012.9
501.774	4052.22
502.143	4062.39
502.512	4069.62
502.88	4105.78
503.249	4083.86
503.618	4089.06
503.987	4119.34
504.356	4153.69
504.724	4166.57
505.093	4206.34
505.462	4193.24
505.83	4259.22
506.199	4210.19
506.567	4232.33
506.936	4264.65
507.304	4308.71
507.672	4337.19
508.041	4319.56
508.409	4322.73
508.777	4354.81
509.145	4399.33
509.514	4409.95
509.882	4390.97
510.25	4409.28
510.618	4434.36
510.986	4430.75
511.354	4442.5
511.722	4499.67
512.09	4483.4
512.458	4508.94
512.826	4512.1
513.193	4563.62
513.561	4585.32
513.929	4559.33
514.297	4583.96
514.664	4610.18
515.032	4627.58
515.4	4596.84
515.767	4644.75
516.135	4611.08
516.502	4670.51
516.869	4722.94
517.237	4747.12
517.604	4653.34
517.972	4708.03
518.339	4762.71
518.706	4773.11
519.073	4733.79
519.44	4790.96
519.808	4778.76
520.175	4762.94
520.542	4836.84
520.909	4843.84
521.276	4853.78
521.643	4833.67
522.009	4898.08
522.376	4929.04
522.743	4908.25
523.11	4912.77
523.477	5017.85
523.843	4966.78
524.21	5037.73
524.577	5051.97
524.943	5092.2
525.31	5072.76
525.676	5153.66
526.043	5173.1
526.409	5181.91
526.776	5205.64
527.142	5248.12
527.508	5260.1
527.874	5226.66
528.241	5336.48
528.607	5305.75
528.973	5378.29
529.339	5324.96
529.705	5446.99
530.071	5446.09
530.437	5472.53
530.803	5452.87
531.169	5514.11
531.535	5511.85
531.901	5536.25
532.267	5583.26
532.632	5601.34
532.998	5589.13
533.364	5626.65
533.73	5674.78
534.095	5672.07
534.461	5759.98
534.826	5740.77
535.192	5752.52
535.557	5779.64
535.923	5817.83
536.288	5796.58
536.653	5818.51
537.019	5853.98
537.384	5883.81
537.749	5896.92
538.114	5938.28
538.479	5912.29
538.845	5946.41
539.21	5949.35
539.575	5974.43
539.94	6040.19
540.305	6075.22
540.67	6068.89
541.034	6079.29
541.399	6072.96
541.764	6081.78
542.129	6200.64
542.494	6219.85
542.858	6251.94
543.223	6262.79
543.587	6274.31
543.952	6254.88
544.316	6335.78
544.681	6315.67
545.045	6378.94
545.41	6372.61
545.774	6452.39
546.138	6523.35
546.503	6446.29
546.867	6445.16
547.231	6512.05
547.595	6559.5
547.959	6589.78
548.324	6563.12
548.688	6586.85
549.052	6592.5
549.416	6630.69
549.779	6691.48
550.143	6660.29
550.507	6707.52
550.871	6721.31
551.235	6794.07
551.599	6819.38
551.962	6791.36
552.326	6803.11
552.689	6826.61
553.053	6797.24
553.417	6852.83
553.78	6992.49
554.143	6941.87
554.507	6951.58
554.87	6990
555.234	7060.51
555.597	6994.29
555.96	7037.91
556.323	7042.43
556.686	7062.54
557.05	7074.07
557.413	7112.71
557.776	7218.02
558.139	7135.53
558.502	7168.53
558.865	7182.09
559.228	7192.93
559.59	7233.38
559.953	7241.29
560.316	7383.21
560.679	7404.9
561.041	7369.2
561.404	7404.9
561.767	7375.53
562.129	7404.45
562.492	7444.45
562.854	7421.4
563.217	7464.34
563.579	7497.78
563.941	7529.65
564.304	7600.15
564.666	7545.47
565.028	7640.83
565.39	7621.62
565.753	7667.04
566.115	7648.97
566.477	7694.84
566.839	7786.59
567.201	7792.24
567.563	7778.91
567.925	7824.33
568.287	7828.4
568.648	7868.39
569.01	7918.34
569.372	7957.21
569.734	7934.16
570.095	8005.57
570.457	8106.58
570.819	8056.41
571.18	8107.48
571.542	8159.23
571.903	8181.61
572.265	8239.91
572.626	8252.57
572.987	8348.61
573.349	8420.7
573.71	8385.22
574.071	8521.26
574.432	8573.69
574.794	8616.85
575.155	8627.92
575.516	8629.28
575.877	8762.83
576.238	8803.29
576.599	8887.8
576.96	8937.07
577.32	8976.39
577.681	9083.73
578.042	9233.56
578.403	9245.53
578.763	9277.62
579.124	9458.41
579.485	9587.67
579.845	9647.11
580.206	9723.04
580.566	9853.88
580.927	10015.23
581.287	10164.15
581.648	10275.56
582.008	10355.34
582.368	10592.39
582.728	10741.09
583.089	10810.92
583.449	11090.68
583.809	11215.43
584.169	11366.83
584.529	11540.84
584.889	11789.2
585.249	11924.11
585.609	12099.24
585.969	12379.24
586.329	12534.03
586.688	12878.21
587.048	13077.3
587.408	13316.61
587.768	13494.01
588.127	13841.12
588.487	13985.07
588.846	14401.56
589.206	14572.63
589.565	14758.84
589.925	15124.7
590.284	15417.57
590.643	15681.75
591.003	16083.55
591.362	16382.97
591.721	16555.62
592.08	16926.91
592.44	17264.98
592.799	17609.16
593.158	17840.34
593.517	18175.92
593.876	18527.55
594.235	18782.01
594.593	18982.23
594.952	19488.88
595.311	19685.94
595.67	20060.62
596.029	20506.03
596.387	20865.34
596.746	21103.98
597.104	21440.47
597.463	21683.4
597.822	22164.74
598.18	22327.68
598.538	22685.41
598.897	23062.12
599.255	23229.12
599.613	23885.6
599.972	24055.31
600.33	24371.92
600.688	24565.13
601.046	24949.75
601.404	25395.62
601.762	25691.43
602.12	26006.22
602.478	26329.15
602.836	26615.25
603.194	26675.81
603.552	27188.79
603.91	27390.14
604.268	27734.99
604.625	28012.5
604.983	28403.45
605.341	28409.55
605.698	28943.32
606.056	29243.88
606.413	29501.5
606.771	29866.46
607.128	30088.83
607.485	30102.84
607.843	30305.32
608.2	30972.87
608.557	31119.31
608.914	31330.15
609.272	31677.26
609.629	31865.73
609.986	32099.62
610.343	32200.41
610.7	32802.2
611.057	32860.28
611.414	32998.36
611.771	33276.54
612.127	33498
612.484	33684.21
612.841	33931.21
613.198	34002.4
613.554	34197.19
613.911	34706.56
614.267	34757.41
614.624	34830.4
614.98	35116.94
615.337	35379.54
615.693	35520.78
616.05	35653.65
616.406	35988.56
616.762	35916.02
617.118	36151.49
617.475	36373.86
617.831	36554.65
618.187	36675.32
618.543	36755.09
618.899	37204.8
619.255	37235.31
619.611	37332.93
619.967	37546.94
620.323	37736.54
620.678	37647.5
621.034	37689.76
621.39	37848.4
621.746	37960.71
622.101	38532.45
622.457	38250.65
622.812	38484.31
623.168	38676.62
623.523	38644.99
623.879	38985.77
624.234	38745.78
624.589	38860.57
624.945	39110.51
625.3	39270.51
625.655	39279.77
626.01	39372.43
626.365	39449.49
626.72	39444.51
627.075	39522.03
627.43	39614
627.785	39651.74
628.14	39723.15
628.495	39869.14
628.85	39739.42
629.205	39869.81
629.559	40081.56
629.914	40080.88
630.269	40093.31
630.623	39989.13
630.978	40048.57
631.332	40272.51
631.687	40253.53
632.041	40194.1
632.396	40159.75
632.75	40170.6
633.104	40390.7
633.459	40231.84
633.813	40254.89
634.167	40210.37
634.521	40186.19
634.875	40420.08
635.229	40282.23
635.583	40192.06
635.937	40277.71
636.291	40273.42
636.645	40371.27
636.999	40186.64
637.352	40384.83
637.706	40132.41
638.06	40420.31
638.413	40401.32
638.767	40222.35
639.121	40256.24
639.474	40043.59
639.828	40213.08
640.181	40395.45
640.534	40272.97
640.888	40221.67
641.241	40093.08
641.594	40054.22
641.947	40163.82
642.301	40236.13
642.654	40211.5
643.007	40282.23
643.36	40087.89
643.713	40089.69
644.066	40179.86
644.419	40035.68
644.771	39778.06
645.124	39453.55
645.477	39431.41
645.83	39253.11
646.182	39206.78
646.535	38998.65
646.888	38990.97
647.24	38908.03
647.593	39145.76
647.945	38911.87
648.298	38792.33
648.65	38801.59
649.002	38681.82
649.355	38922.27
649.707	38873.46
650.059	39017.86
650.411	39444.29
650.763	39616.49
651.115	39830.72
651.467	39781.68
651.819	39682.25
652.171	39716.6
652.523	39664.62
652.875	39567.22
653.227	39575.36
653.578	39806.54
653.93	39759.31
654.282	39527.68
654.633	39353.44
654.985	39630.05
655.337	39637.95
655.688	39591.18
656.039	39725.86
656.391	39407.9
656.742	39435.25
657.094	39557.51
657.445	39566.32
657.796	39501.91
658.147	39424.85
658.498	39367.45
658.849	39439.99
659.2	39396.15
659.551	39325.65
659.902	39455.81
660.253	39372.43
660.604	39436.83
660.955	39257.85
661.306	39412.2
661.656	39295.59
662.007	39295.37
662.358	39233.9
662.708	39310.51
663.059	39187.12
663.409	39123.39
663.76	39232.77
664.11	39241.36
664.461	39328.13
664.811	39194.58
665.161	39274.57
665.511	39065.77
665.862	39183.73
666.212	39192.54
666.562	39187.12
666.912	39232.09
667.262	39186.44
667.612	39265.31
667.962	39354.12
668.312	39161.81
668.662	39276.16
669.011	39181.7
669.361	39095.6
669.711	39231.41
670.06	39079.33
670.41	39216.5
670.76	39088.82
671.109	39266.44
671.459	39070.51
671.808	39033.45
672.157	39162.26
672.507	38867.35
672.856	38938.76
673.205	39024.64
673.554	39075.03
673.904	38871.87
674.253	39125.43
674.602	38907.8
674.951	38585.33
675.3	38207.26
675.649	38881.14
675.998	38787.36
676.346	38794.36
676.695	38777.86
677.044	38688.83
677.393	38749.16
677.741	38837.98
678.09	38686.12
678.438	38584.42
678.787	38609.06
679.135	38625.78
679.484	38419.91
679.832	38525.22
680.181	38310.08
680.529	38437.99
680.877	38356.18
681.225	38241.38
681.573	38542.16
681.922	38219.91
682.27	38187.37
682.618	38228.05
682.966	38206.13
683.314	38107.37
683.661	38071.67
684.009	37943.31
684.357	37866.25
684.705	37770.21
685.053	37718.68
685.4	37800.94
685.748	37676.65
686.095	37598.23
686.443	37451.35
686.79	37369.99
687.138	37351.69
687.485	37561.17
687.832	37381.74
688.18	37327.28
688.527	37160.51
688.874	37186.72
689.221	36979.04
689.568	37003.9
689.915	36950.12
690.262	36841.42
690.609	36718.26
690.956	36587.41
691.303	36672.84
691.65	36528.43
691.997	36307.42
692.344	36284.6
692.69	36346.06
693.037	36176.8
693.383	35976.81
693.73	36131.61
694.077	35911.95
694.423	35914.66
694.769	35844.61
695.116	35650.49
695.462	35730.49
695.808	35716.02
696.155	35633.99
696.501	35307.22
696.847	35317.16
697.193	35138.64
697.539	35228.58
697.885	35032.43
698.231	34930.06
698.577	35048.25
698.923	34803.96
699.269	34713.11
699.614	34577.3
699.96	34495.27
700.306	34516.73
700.651	34297.3
700.997	34270.19
701.342	34128.95
701.688	34085.78
702.033	33945.9
702.379	33902.74
702.724	33868.16
703.069	33842.4
703.415	33506.14
703.76	33456.87
704.105	33653.48
704.45	33584.33
704.795	33305.24
705.14	33257.33
705.485	33239.25
705.83	32951.13
706.175	33034.96
706.52	33006.26
706.865	32805.82
707.209	32838.81
707.554	32742.99
707.899	32817.34
708.243	32670
708.588	32623.68
708.932	32380.07
709.277	32384.13
709.621	32304.36
709.966	32254.65
710.31	32298.94
710.654	31778.5
710.998	32033.64
711.342	32078.15
711.687	31940.3
712.031	31800.65
712.375	31752.06
712.719	31834.77
713.063	31744.38
713.407	31763.81
713.75	31566.53
714.094	31583.03
714.438	31436.14
714.782	31458.96
715.125	31296.03
715.469	31263.03
715.812	31256.25
716.156	31057.16
716.499	31127.9
716.843	31075.02
717.186	30961.12
717.53	31037.96
717.873	30978.75
718.216	30853.1
718.559	30796.38
718.902	30535.82
719.246	30551.87
719.589	30618.98
719.932	30528.14
720.275	30402.94
720.617	30398.88
720.96	30362.04
721.303	30317.07
721.646	30408.14
721.989	30141.93
722.331	30320.01
722.674	30041.6
723.016	30117.53
723.359	30040.92
723.701	30136.28
724.044	29800.25
724.386	29769.51
724.729	29988.94
725.071	29694.49
725.413	29819.23
725.755	29762.73
726.097	29721.38
726.439	29544.44
726.782	29530.2
727.124	29554.15
727.465	29417.88
727.807	29421.27
728.149	29280.94
728.491	29229.19
728.833	29327.49
729.175	29150.1
729.516	29057.22
729.858	29118.91
730.199	29036.88
730.541	29058.57
730.882	28939.03
731.224	29075.52
731.565	28800.95
731.906	28972.47
732.248	28923.43
732.589	28560.51
732.93	28685.25
733.271	28630.79
733.612	28717.56
733.953	28568.19
734.294	28523.67
734.635	28463.79
734.976	28514.41
735.317	28388.76
735.658	28371.36
735.999	28440.96
736.339	28358.7
736.68	28353.73
737.021	28341.98
737.361	28095.21
737.702	28333.39
738.042	28258.14
738.383	28101.31
738.723	28139.5
739.063	28004.59
739.404	28095.43
739.744	27977.24
740.084	27777.7
740.424	27855.21
740.764	27824.48
741.104	27887.3
741.444	27793.52
741.784	27656.58
742.124	27689.34
742.464	27666.52
742.804	27670.36
743.143	27546.52
743.483	27630.14
743.823	27494.55
744.162	27377.71
744.502	27515.56
744.841	27265.17
745.181	27421.1
745.52	27264.95
745.86	27330.93
746.199	27135.91
746.538	27188.79
746.877	27198.73
747.216	27159.86
747.556	27015.24
747.895	27042.13
748.234	26941.57
748.573	26950.38
748.911	26814.79
749.25	26809.37
749.589	26735.47
749.928	26652.31
750.267	26659.31
750.605	26621.57
750.944	26671.97
751.283	26521.24
751.621	26544.06
751.96	26416.61
752.298	26453.22
752.636	26334.58
752.975	26296.84
753.313	26201.47
753.651	26194.92
753.989	26147.69
754.327	26003.06
754.666	25954.47
755.004	26036.73
755.342	26005.77
755.679	25957.64
756.017	25751.77
756.355	25822.05
756.693	25688.04
757.031	25941.14
757.368	25548.83
757.706	25577.53
758.044	25484.88
758.381	25443.98
758.719	25412.79
759.056	25388.39
759.394	25371.89
