Data from hue_24_FLMS001491_00085.txt Node
Date: Tue Feb 07 17:12:52 GMT 2017
User: dcchb
Spectrometer: FLMS00149
Trigger mode: 0
Integration Time (sec): 2.000000E-2
Scans to average: 10
Electric dark correction enabled: true
Nonlinearity correction enabled: false
Boxcar width: 0
XAxis mode: Wavelengths
Number of Pixels in Spectrum: 2048
>>>>>Begin Spectral Data<<<<<
341.393	10.88
341.776	10.88
342.16	10.88
342.543	-51.95
342.927	-65.51
343.31	-50.59
343.693	-59.18
344.077	-58.28
344.46	-67.09
344.843	-58.95
345.226	-36.35
345.61	-41.1
345.993	-24.15
346.376	9.75
346.759	13.59
347.142	15.17
347.525	44.55
347.908	63.3
348.291	81.38
348.674	73.7
349.057	94.26
349.44	115.96
349.823	150.31
350.206	194.15
350.588	206.12
350.971	236.86
351.354	238.89
351.737	231.21
352.119	252.23
352.502	273.92
352.884	285.44
353.267	289.06
353.65	279.12
354.032	301.72
354.414	330.42
354.797	325.9
355.179	323.64
355.562	329.51
355.944	324.54
356.326	336.74
356.709	333.8
357.091	336.97
357.473	351.43
357.855	350.98
358.238	352.79
358.62	348.04
359.002	351.88
359.384	360.47
359.766	329.96
360.148	321.15
360.53	350.3
360.912	343.3
361.294	330.42
361.676	340.58
362.057	324.31
362.439	343.52
362.821	337.87
363.203	321.15
363.584	322.96
363.966	330.42
364.348	315.5
364.729	313.69
365.111	347.36
365.493	322.51
365.874	313.92
366.256	310.53
366.637	325.9
367.019	303.07
367.4	325.9
367.781	343.52
368.163	317.76
368.544	310.98
368.925	314.37
369.306	304.43
369.688	297.2
370.069	319.34
370.45	314.6
370.831	325.44
371.212	305.56
371.593	315.95
371.974	322.96
372.355	316.18
372.736	337.42
373.117	332.9
373.498	329.29
373.879	335.16
374.26	312.56
374.641	328.38
375.021	331.09
375.402	338.55
375.783	328.61
376.163	322.28
376.544	358.66
376.925	345.78
377.305	358.66
377.686	331.09
378.066	331.09
378.447	325.44
378.827	333.35
379.208	336.52
379.588	323.86
379.968	348.04
380.349	322.96
380.729	335.61
381.109	350.53
381.489	326.35
381.87	329.96
382.25	357.53
382.63	348.49
383.01	350.75
383.39	361.15
383.77	361.37
384.15	350.08
384.53	355.5
384.91	360.92
385.29	348.49
385.67	363.18
386.049	364.76
386.429	352.34
386.809	370.41
387.189	387.36
387.568	372
387.948	366.35
388.328	377.19
388.707	347.14
389.087	364.31
389.466	393.01
389.846	379.45
390.225	374.03
390.605	361.37
390.984	373.8
391.363	370.19
391.743	391.88
392.122	388.49
392.501	368.61
392.881	373.13
393.26	391.88
393.639	385.78
394.018	374.26
394.397	378.1
394.776	388.04
395.155	404.99
395.534	405.89
395.913	391.2
396.292	395.05
396.671	380.36
397.05	378.32
397.429	397.53
397.808	394.59
398.186	392.56
398.565	415.16
398.944	393.69
399.323	420.13
399.701	418.32
400.08	409.28
400.458	398.89
400.837	381.26
401.215	400.24
401.594	397.53
401.972	409.06
402.351	413.8
402.729	419.68
403.107	424.42
403.486	418.55
403.864	420.13
404.242	431.2
404.62	404.99
404.999	432.33
405.377	426.91
405.755	425.55
406.133	422.84
406.511	435.95
406.889	436.63
407.267	429.4
407.645	442.95
408.023	447.47
408.401	463.97
408.779	440.69
409.156	444.76
409.534	460.58
409.912	470.98
410.29	468.04
410.667	481.82
411.045	487.7
411.422	472.33
411.8	458.1
412.178	466.46
412.555	484.54
412.933	490.86
413.31	493.12
413.687	483.41
414.065	520.01
414.442	500.35
414.819	483.63
415.197	502.39
415.574	494.25
415.951	505.55
416.328	514.37
416.705	517.3
417.082	522.95
417.46	521.6
417.837	512.78
418.214	497.64
418.591	525.89
418.967	522.05
419.344	540.13
419.721	528.6
420.098	519.56
420.475	541.03
420.852	562.27
421.228	538.55
421.605	546.45
421.982	544.42
422.358	576.51
422.735	541.48
423.111	555.27
423.488	555.49
423.864	564.31
424.241	590.52
424.617	576.06
424.994	558.66
425.37	571.09
425.746	587.58
426.123	611.99
426.499	563.63
426.875	606.79
427.251	609.05
427.627	597.07
428.003	637.75
428.379	629.39
428.756	613.8
429.132	612.67
429.507	630.97
429.883	620.58
430.259	652.89
430.635	644.53
431.011	668.49
431.387	655.83
431.763	676.85
432.138	667.36
432.514	671.65
432.89	664.19
433.265	686.79
433.641	677.52
434.016	702.16
434.392	690.63
434.767	715.26
435.143	703.51
435.518	724.3
435.894	714.59
436.269	728.37
436.644	729.05
437.02	750.74
437.395	738.31
437.77	742.38
438.145	739.44
438.52	751.19
438.895	768.37
439.271	753.91
439.646	740.57
440.021	784.41
440.395	797.07
440.77	802.72
441.145	784.64
441.52	807.24
441.895	791.42
442.27	828.48
442.645	799.33
443.019	813.34
443.394	809.5
443.769	850.4
444.143	821.48
444.518	844.75
444.892	830.51
445.267	843.4
445.641	832.55
446.016	811.98
446.39	857.86
446.764	849.05
447.139	864.86
447.513	851.53
447.887	868.48
448.262	877.52
448.636	866.67
449.01	880.68
449.384	889.72
449.758	900.57
450.132	905.32
450.506	879.55
450.88	906.45
451.254	903.28
451.628	937.4
452.002	931.08
452.376	949.61
452.75	970.4
453.123	968.14
453.497	959.33
453.871	950.51
454.244	986.22
454.618	1005.2
454.992	1009.95
455.365	986.67
455.739	1019.66
456.112	1033.22
456.486	1037.74
456.859	1067.8
457.232	1057.18
457.606	1039.1
457.979	1077.51
458.352	1098.08
458.725	1120.22
459.099	1107.34
459.472	1130.17
459.845	1148.47
460.218	1145.08
460.591	1166.78
460.964	1178.3
461.337	1181.47
461.71	1182.6
462.083	1221.69
462.456	1222.59
462.829	1233.22
463.201	1235.93
463.574	1237.06
463.947	1255.14
464.32	1279.32
464.692	1278.64
465.065	1276.15
465.438	1341.91
465.81	1355.92
466.183	1358.41
466.555	1383.72
466.928	1411.74
467.3	1391.18
467.672	1397.96
468.045	1417.62
468.417	1457.84
468.789	1456.26
469.161	1481.57
469.534	1494.45
469.906	1505.53
470.278	1524.06
470.65	1586.88
471.022	1595.01
471.394	1603.38
471.766	1624.39
472.138	1653.54
472.51	1673.66
472.882	1675.92
473.253	1741.23
473.625	1751.17
473.997	1794.33
474.369	1799.3
474.74	1842.92
475.112	1891.28
475.484	1883.14
475.855	1942.35
476.227	1905.06
476.598	1964.5
476.97	2009.47
477.341	2075.68
477.713	2118.39
478.084	2104.38
478.455	2181.21
478.827	2215.34
479.198	2263.02
479.569	2246.52
479.94	2349.8
480.311	2393.41
480.682	2422.79
481.053	2484.03
481.424	2526.52
481.795	2565.61
482.166	2601.54
482.537	2636.12
482.908	2678.38
483.279	2731.48
483.65	2797.92
484.021	2849.22
484.391	2917.24
484.762	2908.88
485.133	2978.26
485.503	2994.07
485.874	3058.7
486.244	3086.5
486.615	3141.41
486.985	3234.97
487.356	3277.68
487.726	3320.84
488.097	3432.03
488.467	3438.81
488.837	3493.27
489.207	3527.62
489.578	3564.91
489.948	3613.94
490.318	3686.71
490.688	3742.98
491.058	3778.69
491.428	3838.8
491.798	3886.93
492.168	3945.69
492.538	3989.08
492.908	4056.19
493.278	4140.26
493.648	4089.86
494.017	4154.72
494.387	4250.54
494.757	4242.63
495.126	4298.67
495.496	4351.1
495.866	4389.97
496.235	4403.98
496.605	4444.43
496.974	4503.19
497.344	4531.66
497.713	4605.1
498.082	4593.35
498.452	4667.93
498.821	4668.83
499.19	4691.66
499.559	4768.94
499.928	4761.26
500.298	4863.86
500.667	4879.67
501.036	4864.31
501.405	4938.88
501.774	4950.86
502.143	4933.68
502.512	4976.17
502.88	5051.19
503.249	5030.18
503.618	5147.24
503.987	5111.76
504.356	5191.3
504.724	5186.11
505.093	5191.98
505.462	5219.55
505.83	5281.02
506.199	5273.79
506.567	5368.25
506.936	5350.85
507.304	5422.94
507.672	5450.51
508.041	5452.31
508.409	5551.52
508.777	5568.24
509.145	5533.44
509.514	5557.4
509.882	5636.72
510.25	5632.2
510.618	5655.25
510.986	5685.75
511.354	5695.02
511.722	5714.45
512.09	5826.77
512.458	5797.16
512.826	5816.37
513.193	5837.84
513.561	5857.73
513.929	5882.36
514.297	5991.28
514.664	5998.06
515.032	6001.45
515.4	6053.65
515.767	6083.03
516.135	6079.64
516.502	6128
516.869	6175.01
517.237	6125.29
517.604	6169.81
517.972	6255.91
518.339	6233.31
518.706	6268.56
519.073	6311.05
519.44	6296.81
519.808	6380.88
520.175	6376.36
520.542	6452.74
520.909	6458.39
521.276	6441.67
521.643	6497.03
522.009	6527.77
522.376	6555.11
522.743	6575.9
523.11	6654.09
523.477	6749.23
523.843	6760.08
524.21	6825.61
524.577	6830.81
524.943	6890.02
525.31	6906.97
525.676	6966.4
526.043	6980.18
526.409	7012.73
526.776	7099.28
527.142	7099.95
527.508	7130.46
527.874	7125.04
528.241	7162.55
528.607	7240.97
528.973	7293.62
529.339	7212.72
529.705	7315.09
530.071	7375.88
530.437	7412.71
530.803	7431.47
531.169	7524.58
531.535	7539.49
531.901	7506.05
532.267	7577.46
532.632	7572.48
532.998	7652.03
533.364	7693.84
533.73	7768.86
534.095	7769.09
534.461	7752.14
534.826	7838.47
535.192	7890.44
535.557	7894.74
535.923	7941.97
536.288	8001.85
536.653	8094.05
537.019	7990.78
537.384	8069.42
537.749	8054.51
538.114	8098.8
538.479	8122.53
538.845	8129.76
539.21	8108.29
539.575	8208.85
539.94	8206.82
540.305	8286.36
540.67	8273.71
541.034	8279.13
541.399	8322.3
541.764	8426.7
542.129	8459.47
542.494	8493.36
542.858	8495.17
543.223	8464.66
543.587	8527.49
543.952	8527.26
544.316	8608.39
544.681	8634.83
545.045	8687.71
545.41	8710.53
545.774	8741.72
546.138	8799.34
546.503	8798.21
546.867	8828.04
547.231	8940.36
547.595	8898.78
547.959	8922.96
548.324	8947.59
548.688	8934.26
549.052	8982.39
549.416	9002.5
549.779	9029.62
550.143	9078.21
550.507	9137.64
550.871	9205.89
551.235	9209.05
551.599	9195.49
551.962	9193.91
552.326	9245.89
552.689	9306.68
553.053	9287.02
553.417	9310.97
553.78	9470.29
554.143	9413.11
554.507	9470.51
554.87	9475.03
555.234	9593.45
555.597	9562.94
555.96	9558.65
556.323	9653.56
556.686	9632.09
557.05	9703.95
557.413	9764.97
557.776	9809.49
558.139	9817.17
558.502	9787.79
558.865	9823.5
559.228	9899.2
559.59	9891.75
559.953	9882.93
560.316	10054.68
560.679	10044.06
561.041	10103.72
561.404	10138.52
561.767	10150.72
562.129	10137.16
562.492	10294.9
562.854	10256.71
563.217	10229.82
563.579	10263.94
563.941	10329.7
564.304	10344.16
564.666	10424.16
565.028	10475.01
565.39	10434.78
565.753	10618.73
566.115	10569.92
566.477	10550.94
566.839	10593.65
567.201	10739.41
567.563	10708.9
567.925	10747.09
568.287	10759.07
568.648	10824.6
569.01	10869.12
569.372	10942.34
569.734	10938.95
570.095	11040.19
570.457	11024.37
570.819	11098.72
571.18	11124.26
571.542	11197.25
571.903	11209
572.265	11281.99
572.626	11285.83
572.987	11333.74
573.349	11452.61
573.71	11487.41
574.071	11517.01
574.432	11551.81
574.794	11707.97
575.155	11682.88
575.516	11712.49
575.877	11792.49
576.238	11970.11
576.599	12001.07
576.96	12041.29
577.32	12061.41
577.681	12188.18
578.042	12283.32
578.403	12389.08
578.763	12444.22
579.124	12530.77
579.485	12716.3
579.845	12858
580.206	12900.03
580.566	12982.74
580.927	13092.57
581.287	13328.27
581.648	13423.86
582.008	13550.63
582.368	13696.62
582.728	13772.77
583.089	13928.7
583.449	14102.03
583.809	14236.49
584.169	14451.4
584.529	14570.27
584.889	14868.56
585.249	14877.38
585.609	15136.35
585.969	15385.61
586.329	15642.1
586.688	15841.65
587.048	16020.62
587.408	16218.81
587.768	16423.33
588.127	16631.46
588.487	16929.07
588.846	17256.98
589.206	17322.28
589.565	17619
589.925	17988.03
590.284	18148.25
590.643	18470.5
591.003	18793.43
591.362	19025.97
591.721	19312.97
592.08	19513.41
592.44	19884.25
592.799	20085.15
593.158	20350.45
593.517	20679.94
593.876	21053.03
594.235	21329.18
594.593	21596.97
594.952	21902.28
595.311	22180.24
595.67	22564.86
596.029	23065.86
596.387	23245.74
596.746	23618.62
597.104	23759.18
597.463	24071.03
597.822	24523.45
598.18	24635.99
598.538	24945.36
598.897	25414.5
599.255	25456.08
599.613	26168.83
599.972	26233.91
600.33	26667.35
600.688	26820.34
601.046	27250.84
601.404	27502.81
601.762	27833.65
602.12	28292.39
602.478	28444.48
602.836	28766.73
603.194	28939.38
603.552	29172.37
603.91	29408.29
604.268	30026.58
604.625	30091.21
604.983	30435.84
605.341	30571.43
605.698	31054.13
606.056	31364.63
606.413	31542.48
606.771	31851.17
607.128	32144.04
607.485	32155.57
607.843	32481.89
608.2	32809.11
608.557	33222.43
608.914	33243
609.272	33630.56
609.629	33920.49
609.986	34245.68
610.343	34291.78
610.7	34764.09
611.057	34921.82
611.414	35041.14
611.771	35295.15
612.127	35627.34
612.484	35674.57
612.841	36113.65
613.198	36054
613.554	36482.01
613.911	36674.77
614.267	36871.6
614.624	37022.56
614.98	37174.87
615.337	37347.52
615.693	37514.3
616.05	37677.91
616.406	38099.59
616.762	37990.44
617.118	38162.41
617.475	38285.35
617.831	38588.62
618.187	38777.31
618.543	38955.61
618.899	39058.89
619.255	39295.72
619.611	39395.6
619.967	39542.94
620.323	39775.48
620.678	39808.25
621.034	39863.84
621.39	39949.94
621.746	40025.42
622.101	40478.06
622.457	40319.87
622.812	40561
623.168	40586.53
623.523	40683.7
623.879	40906.07
624.234	40713.08
624.589	40966.86
624.945	41211.15
625.3	41181.77
625.655	41350.13
626.01	41357.36
626.365	41361.65
626.72	41559.84
627.075	41555.55
627.43	41479.84
627.785	41591.7
628.14	41749.21
628.495	41781.08
628.85	41829.44
629.205	41768.87
629.559	42041.63
629.914	41991.24
630.269	42122.08
630.623	42034.63
630.978	41985.82
631.332	42183.78
631.687	42329.08
632.041	42181.07
632.396	42157.34
632.75	42280.5
633.104	42160.73
633.459	42144.46
633.813	42248.18
634.167	42210.44
634.521	42323.89
634.875	42275.3
635.229	42362.98
635.583	42165.93
635.937	42350.33
636.291	42223.32
636.645	42302.19
636.999	42271.69
637.352	42363.89
637.706	42238.92
638.06	42368.41
638.413	42304.68
638.767	42287.28
639.121	42295.19
639.474	42116.21
639.828	42199.14
640.181	42249.09
640.534	42314.62
640.888	42179.26
641.241	42111.69
641.594	42076.89
641.947	42237.56
642.301	42130.9
642.654	42148.07
643.007	42194.4
643.36	42124.34
643.713	41957.34
644.066	42376.32
644.419	41957.57
644.771	41758.48
645.124	41507.19
645.477	41282.56
645.83	41026.75
646.182	41084.6
646.535	40958.05
646.888	40987.43
647.24	40873.98
647.593	41110.36
647.945	41100.87
648.298	40799.86
648.65	40858.61
649.002	40831.5
649.355	40884.83
649.707	40870.37
650.059	41069.91
650.411	41569.33
650.763	41506.06
651.115	41863.56
651.467	41813.62
651.819	41809.32
652.171	41786.95
652.523	41635.54
652.875	41626.5
653.227	41496.11
653.578	41700.17
653.93	41786.5
654.282	41561.42
654.633	41427.19
654.985	41551.93
655.337	41607.07
655.688	41728.2
656.039	41654.98
656.391	41355.78
656.742	41520.74
657.094	41438.94
657.445	41700.63
657.796	41543.12
658.147	41428.32
658.498	41360.07
658.849	41420.86
659.2	41344.7
659.551	41311.48
659.902	41477.13
660.253	41396
660.604	41523.68
660.955	41228.1
661.306	41545.6
661.656	41423.57
662.007	41468.09
662.358	41356.23
662.708	41393.74
663.059	41414.53
663.409	41168.66
663.76	41303.8
664.11	41388.77
664.461	41331.37
664.811	41306.06
665.161	41294.76
665.511	41158.49
665.862	41323.01
666.212	41452.27
666.562	41341.54
666.912	41296.57
667.262	41311.71
667.612	41229.45
667.962	41416.57
668.312	41163.92
668.662	41416.79
669.011	41223.35
669.361	41135.9
669.711	41171.83
670.06	41119.4
670.41	41129.34
670.76	41077.59
671.109	41253.63
671.459	41041.66
671.808	41099.06
672.157	41192.62
672.507	40965.73
672.856	40909.69
673.205	41053.19
673.554	41032.85
673.904	41118.72
674.253	41151.04
674.602	41036.46
674.951	40650.26
675.3	40267.9
675.649	40889.57
675.998	40959.4
676.346	40753.53
676.695	41062.23
677.044	40848.67
677.393	40837.37
677.741	40915.56
678.09	40898.61
678.438	40638.73
678.787	40765.96
679.135	40885.28
679.484	40545.63
679.832	40643.03
680.181	40401.23
680.529	40626.76
680.877	40359.87
681.225	40295.69
681.573	40577.27
681.922	40333.21
682.27	40175.24
682.618	40161.01
682.966	40070.39
683.314	40278.74
683.661	40112.87
684.009	39936.83
684.357	39748.14
684.705	39810.05
685.053	39908.36
685.4	39918.75
685.748	39551.76
686.095	39563.51
686.443	39476.96
686.79	39530.51
687.138	39580
687.485	39504.53
687.832	39387.92
688.18	39389.5
688.527	39282.39
688.874	39074.48
689.221	39116.06
689.568	39057.08
689.915	38945.67
690.262	39146.57
690.609	38754.49
690.956	38778.22
691.303	38737.31
691.65	38434.95
691.997	38498.9
692.344	38296.87
692.69	38280.6
693.037	38318.79
693.383	37932.82
693.73	38098.01
694.077	38014.17
694.423	37951.12
694.769	37773.72
695.116	37699.83
695.462	37528.31
695.808	37434.3
696.155	37438.37
696.501	37286.05
696.847	37296.22
697.193	36985.04
697.539	37246.51
697.885	36929.9
698.231	36825.95
698.577	36877.48
698.923	36675.9
699.269	36544.6
699.614	36301.9
699.96	36317.49
700.306	36276.81
700.651	36255.12
700.997	36083.37
701.342	35969.25
701.688	36054.22
702.033	35883.6
702.379	35900.78
702.724	35654.01
703.069	35919.31
703.415	35493.33
703.76	35541.01
704.105	35543.95
704.45	35368.36
704.795	35259.67
705.14	35005.44
705.485	35201.14
705.83	34922.05
706.175	35091.31
706.52	34917.08
706.865	34809.28
707.209	34774.03
707.554	34703.75
707.899	34710.75
708.243	34521.83
708.588	34450.2
708.932	34281.84
709.277	34338.33
709.621	34321.84
709.966	34004.78
710.31	34177.89
710.654	33862.19
710.998	33938.34
711.342	33902.41
711.687	33828.52
712.031	33634.17
712.375	33401.86
712.719	33536.55
713.063	33493.84
713.407	33553.04
713.75	33368.19
714.094	33254.97
714.438	33188.08
714.782	33208.65
715.125	33068.09
715.469	33017.01
715.812	33022.89
716.156	32794.19
716.499	32862.44
716.843	32779.73
717.186	32716.46
717.53	32771.6
717.873	32807.3
718.216	32696.12
718.559	32464.71
718.902	32302.23
719.246	32476.69
719.589	32241.44
719.932	32266.52
720.275	32222.46
720.617	32192.85
720.96	32186.53
721.303	32172.97
721.646	32073.54
721.989	31937.95
722.331	32028.56
722.674	31924.84
723.016	31861.56
723.359	31895.23
723.701	31953.09
724.044	31653.89
724.386	31478.52
724.729	31525.98
725.071	31490.27
725.413	31498.41
725.755	31391.29
726.097	31353.78
726.439	31123.5
726.782	31250.51
727.124	31234.01
727.465	31240.34
727.807	31115.37
728.149	31043.96
728.491	30925.77
728.833	30930.97
729.175	30840.35
729.516	30754.02
729.858	30756.51
730.199	30842.16
730.541	30686.68
730.882	30635.61
731.224	30817.97
731.565	30535.04
731.906	30534.37
732.248	30525.33
732.589	30386.57
732.93	30283.53
733.271	30316.97
733.612	30383.41
733.953	30429.28
734.294	30237.65
734.635	30328.27
734.976	30154.04
735.317	30040.82
735.658	30068.62
735.999	30176.41
736.339	30035.85
736.68	30087.15
737.021	29997.88
737.361	29884.44
737.702	29953.14
738.042	29844.22
738.383	29734.16
738.723	29819.13
739.063	29751.79
739.404	29718.57
739.744	29716.08
740.084	29541.17
740.424	29622.3
740.764	29452.81
741.104	29604.22
741.444	29415.53
741.784	29377.56
742.124	29573.04
742.464	29375.53
742.804	29276.32
743.143	29271.8
743.483	29261.86
743.823	29195.64
744.162	29131.47
744.502	29217.34
744.841	29085.82
745.181	29237.45
745.52	28957.46
745.86	29075.65
746.199	28926.05
746.538	29041.3
746.877	29039.94
747.216	29011.69
747.556	29027.06
747.895	28782.55
748.234	28587.07
748.573	28655.32
748.911	28795.43
749.25	28588.88
749.589	28531.71
749.928	28612.84
750.267	28595.89
750.605	28477.25
750.944	28446.06
751.283	28294.65
751.621	28383.69
751.96	28340.75
752.298	28213.07
752.636	28157.71
752.975	28104.6
753.313	28081.32
753.651	28155.67
753.989	28023.02
754.327	27969.46
754.666	27728.79
755.004	27839.52
755.342	27834.1
755.679	27735.57
756.017	27626.19
756.355	27677.72
756.693	27592.98
757.031	27588.23
757.368	27461.45
757.706	27379.42
758.044	27265.07
758.381	27366.09
758.719	27251.06
759.056	27238.63
759.394	27127.45
