Data from hue_28_FLMS001491_00075.txt Node
Date: Tue Feb 07 17:17:47 GMT 2017
User: dcchb
Spectrometer: FLMS00149
Trigger mode: 0
Integration Time (sec): 2.000000E-2
Scans to average: 10
Electric dark correction enabled: true
Nonlinearity correction enabled: false
Boxcar width: 0
XAxis mode: Wavelengths
Number of Pixels in Spectrum: 2048
>>>>>Begin Spectral Data<<<<<
341.393	-6.74
341.776	-6.74
342.16	-6.74
342.543	-39.05
342.927	-61.88
343.31	-55.78
343.693	-57.81
344.077	-84.02
344.46	-66.4
344.843	-55.1
345.226	-15.55
345.61	-38.83
345.993	-16.68
346.376	-17.81
346.759	-0.86
347.142	11.34
347.525	40.72
347.908	45.01
348.291	84.56
348.674	112.81
349.057	114.39
349.44	123.43
349.823	142.64
350.206	169.98
350.588	209.75
350.971	203.65
351.354	203.88
351.737	246.14
352.119	288.17
352.502	273.03
352.884	270.09
353.267	280.26
353.65	289.07
354.032	301.5
354.414	293.82
354.797	316.87
355.179	310.99
355.562	325.91
355.944	322.97
356.326	311.67
356.709	342.63
357.091	336.98
357.473	350.99
357.855	353.93
358.238	339.92
358.62	347.6
359.002	325.46
359.384	344.89
359.766	334.04
360.148	339.24
360.53	332.24
360.912	334.5
361.294	335.85
361.676	369.98
362.057	332.01
362.439	329.75
362.821	315.06
363.203	311.67
363.584	347.6
363.966	325.91
364.348	320.71
364.729	340.6
365.111	309.64
365.493	314.16
365.874	331.33
366.256	297.89
366.637	296.76
367.019	346.02
367.4	318.23
367.781	310.54
368.163	327.72
368.544	317.55
368.925	318.68
369.306	328.62
369.688	301.73
370.069	329.3
370.45	330.66
370.831	322.52
371.212	309.86
371.593	319.58
371.974	328.85
372.355	298.79
372.736	321.39
373.117	291.79
373.498	315.06
373.879	295.4
374.26	316.19
374.641	338.11
375.021	306.25
375.402	325.68
375.783	345.8
376.163	332.01
376.544	318.45
376.925	324.33
377.305	325.01
377.686	323.65
378.066	329.07
378.447	325.68
378.827	318.9
379.208	319.58
379.588	332.24
379.968	327.49
380.349	335.4
380.729	343.76
381.109	337.66
381.489	317.32
381.87	331.79
382.25	363.65
382.63	361.16
383.01	347.6
383.39	333.59
383.77	343.08
384.15	332.69
384.53	329.98
384.91	330.88
385.29	358.68
385.67	353.25
386.049	369.52
386.429	359.13
386.809	353.71
387.189	356.42
387.568	365.23
387.948	374.95
388.328	344.89
388.707	365.23
389.087	352.8
389.466	364.55
389.846	359.81
390.225	382.18
390.605	376.76
390.984	384.21
391.363	352.58
391.743	363.65
392.122	363.42
392.501	362.97
392.881	384.21
393.26	383.31
393.639	361.39
394.018	383.99
394.397	366.36
394.776	370.65
395.155	376.53
395.534	389.64
395.913	396.64
396.292	399.13
396.671	387.15
397.05	402.29
397.429	394.16
397.808	397.09
398.186	399.58
398.565	405
398.944	410.43
399.323	400.94
399.701	398.9
400.08	412.69
400.458	400.03
400.837	404.1
401.215	382.18
401.594	418.56
401.972	397.55
402.351	399.81
402.729	383.54
403.107	404.33
403.486	421.5
403.864	410.65
404.242	432.8
404.62	416.3
404.999	402.07
405.377	430.54
405.755	414.49
406.133	414.95
406.511	435.74
406.889	414.95
407.267	407.49
407.645	405
408.023	459.92
408.401	445.23
408.779	442.97
409.156	439.58
409.534	438.22
409.912	461.95
410.29	462.63
410.667	455.62
411.045	460.37
411.422	475.96
411.8	461.05
412.178	471.89
412.555	442.52
412.933	471.22
413.31	475.06
413.687	464.21
414.065	480.48
414.442	477.54
414.819	484.32
415.197	480.48
415.574	482.52
415.951	508.05
416.328	496.98
416.705	502.4
417.082	500.37
417.46	508.05
417.837	518.22
418.214	507.6
418.591	506.7
418.967	518.67
419.344	528.16
419.721	511.89
420.098	528.84
420.475	523.19
420.852	516.19
421.228	538.11
421.605	555.06
421.982	548.28
422.358	546.24
422.735	549.86
423.111	561.16
423.488	573.13
423.864	542.4
424.241	558.45
424.617	548.05
424.994	569.52
425.37	572.23
425.746	581.5
426.123	592.12
426.499	575.85
426.875	583.98
427.251	577.2
427.627	594.6
428.003	601.83
428.379	598.22
428.756	588.05
429.132	595.51
429.507	633.02
429.883	602.29
430.259	622.85
430.635	624.21
431.011	616.3
431.387	644.32
431.763	637.09
432.138	661.04
432.514	657.2
432.89	634.83
433.265	666.24
433.641	662.4
434.016	669.86
434.392	677.99
434.767	708.27
435.143	695.84
435.518	698.78
435.894	704.88
436.269	708.5
436.644	694.04
437.02	727.48
437.395	721.83
437.77	727.25
438.145	740.59
438.52	750.98
438.895	750.98
439.271	751.66
439.646	756.86
440.021	760.93
440.395	746.69
440.77	748.27
441.145	776.52
441.52	777.65
441.895	777.2
442.27	797.08
442.645	767.93
443.019	804.77
443.394	788.04
443.769	814.94
444.143	808.38
444.518	808.16
444.892	793.47
445.267	820.81
445.641	849.96
446.016	841.83
446.39	816.29
446.764	820.13
447.139	828.27
447.513	847.7
447.887	861.04
448.262	857.87
448.636	834.82
449.01	838.44
449.384	856.29
449.758	866.23
450.132	879.12
450.506	863.52
450.88	883.41
451.254	873.69
451.628	881.83
452.002	913.01
452.376	905.33
452.75	901.04
453.123	930.41
453.497	939.9
453.871	914.14
454.244	950.07
454.618	944.2
454.992	969.51
455.365	964.54
455.739	989.17
456.112	996.85
456.486	996.85
456.859	985.1
457.232	985.33
457.606	1028.94
457.979	1035.27
458.352	1043.18
458.725	1059
459.099	1088.38
459.472	1078.43
459.845	1093.57
460.218	1095.38
460.591	1115.95
460.964	1103.52
461.337	1113.01
461.71	1173.12
462.083	1161.14
462.456	1166.34
462.829	1157.75
463.201	1196.62
463.574	1181.93
463.947	1226
464.32	1234.13
464.692	1235.94
465.065	1262.83
465.438	1293.34
465.81	1274.59
466.183	1309.84
466.555	1304.87
466.928	1311.87
467.3	1325.43
467.672	1376.73
468.045	1386.9
468.417	1412.21
468.789	1408.37
469.161	1415.6
469.534	1463.51
469.906	1494.47
470.278	1478.2
470.65	1479.33
471.022	1510.96
471.394	1553.67
471.766	1578.53
472.138	1580.11
472.51	1618.08
472.882	1648.59
473.253	1658.53
473.625	1699.88
473.997	1736.27
474.369	1750.05
474.74	1805.42
475.112	1792.31
475.484	1841.12
475.855	1836.83
476.227	1896.04
476.598	1943.95
476.97	1990.95
477.341	2013.32
477.713	2041.8
478.084	2085.19
478.455	2150.27
478.827	2129.25
479.198	2235.69
479.569	2218.74
479.94	2285.41
480.311	2339.87
480.682	2373.54
481.053	2446.08
481.424	2484.27
481.795	2546.87
482.166	2572.63
482.537	2576.02
482.908	2656.02
483.279	2702.8
483.65	2769.01
484.021	2840.42
484.391	2904.6
484.762	2917.71
485.133	2948.67
485.503	2980.98
485.874	3068.21
486.244	3102.11
486.615	3183.24
486.985	3241.77
487.356	3289.45
487.726	3347.07
488.097	3392.72
488.467	3451.48
488.837	3536.45
489.207	3587.07
489.578	3653.51
489.948	3741.64
490.318	3772.6
490.688	3816.44
491.058	3847.85
491.428	3963.33
491.798	3992.71
492.168	4040.16
492.538	4104.57
492.908	4158.13
493.278	4189.99
493.648	4246.71
494.017	4314.51
494.387	4304.79
494.757	4425.46
495.126	4452.81
495.496	4506.36
495.866	4590.88
496.235	4597.44
496.605	4682.18
496.974	4723.08
497.344	4762.4
497.713	4752.01
498.082	4808.05
498.452	4883.3
498.821	4882.4
499.19	4937.77
499.559	4970.76
499.928	5014.15
500.298	5020.7
500.667	5180.7
501.036	5099.12
501.405	5172.11
501.774	5239.9
502.143	5246.46
502.512	5293.01
502.88	5387.25
503.249	5357.64
503.618	5372.1
503.987	5432.67
504.356	5512.21
504.724	5511.76
505.093	5491.2
505.462	5553.34
505.83	5603.74
506.199	5644.64
506.567	5694.13
506.936	5685.54
507.304	5782.04
507.672	5811.64
508.041	5806.22
508.409	5894.8
508.777	5878.08
509.145	5957.85
509.514	5904.97
509.882	5962.37
510.25	5976.38
510.618	6048.47
510.986	6042.82
511.354	6109.71
511.722	6192.87
512.09	6180.44
512.458	6181.57
512.826	6247.11
513.193	6282.59
513.561	6243.95
513.929	6323.27
514.297	6396.03
514.664	6360.78
515.032	6412.53
515.4	6492.98
515.767	6492.53
516.135	6592.86
516.502	6469.7
516.869	6640.77
517.237	6557.84
517.604	6647.78
517.972	6655.46
518.339	6656.14
518.706	6657.27
519.073	6699.53
519.44	6787.21
519.808	6823.59
520.175	6826.3
520.542	6834.66
520.909	6880.77
521.276	6894.32
521.643	6964.83
522.009	7016.58
522.376	7008.67
522.743	7096.13
523.11	7156.69
523.477	7202.79
523.843	7188.33
524.21	7269.91
524.577	7251.6
524.943	7317.36
525.31	7342
525.676	7429.9
526.043	7441.43
526.409	7509.68
526.776	7570.01
527.142	7567.08
527.508	7620.63
527.874	7674.87
528.241	7690.01
528.607	7686.17
528.973	7820.63
529.339	7820.63
529.705	7910.34
530.071	7981.98
530.437	7911.25
530.803	8027.63
531.169	8015.65
531.535	8030.79
531.901	8125.93
532.267	8081.86
532.632	8160.28
532.998	8162.31
533.364	8207.51
533.73	8281.18
534.095	8320.5
534.461	8353.72
534.826	8421.97
535.192	8366.83
535.557	8529.76
535.923	8555.3
536.288	8513.72
536.653	8566.6
537.019	8529.76
537.384	8556.65
537.749	8686.37
538.114	8595.97
538.479	8662.64
538.845	8722.75
539.21	8829.41
539.575	8767.5
539.94	8802.75
540.305	8963.2
540.67	8899.92
541.034	8875.06
541.399	8978.79
541.764	9001.16
542.129	9031.22
542.494	9027.83
542.858	9102.85
543.223	9122.74
543.587	9234.83
543.952	9165.9
544.316	9239.57
544.681	9327.48
545.045	9369.06
545.41	9378.33
545.774	9386.46
546.138	9427.37
546.503	9494.71
546.867	9466.23
547.231	9515.95
547.595	9551.88
547.959	9560.02
548.324	9612.9
548.688	9772.44
549.052	9641.37
549.416	9701.26
549.779	9739.45
550.143	9761.82
550.507	9849.5
550.871	9805.43
551.235	9824.19
551.599	9935.6
551.962	9953
552.326	9902.83
552.689	10126.78
553.053	10010.85
553.417	10075.71
553.78	10200.68
554.143	10065.31
554.507	10179.89
554.87	10209.72
555.234	10312.99
555.597	10276.16
555.96	10252.2
556.323	10380.11
556.686	10364.97
557.05	10404.74
557.413	10409.49
557.776	10510.5
558.139	10505.3
558.502	10487
558.865	10531.74
559.228	10590.95
559.59	10682.47
559.953	10672.53
560.316	10729.25
560.679	10757.73
561.041	10816.48
561.404	10884.95
561.767	10964.05
562.129	10890.83
562.492	11001.56
562.854	10909.13
563.217	10940.32
563.579	11047.89
563.941	11104.84
564.304	11213.53
564.666	11246.07
565.028	11212.63
565.39	11248.11
565.753	11320.42
566.115	11304.38
566.477	11349.12
566.839	11356.13
567.201	11474.32
567.563	11446.75
567.925	11564.26
568.287	11574.43
568.648	11645.61
569.01	11678.15
569.372	11759.51
569.734	11750.02
570.095	11775.33
570.457	11912.95
570.819	11933.51
571.18	11920.41
571.542	12033.4
571.903	12042.66
572.265	12107.07
572.626	12274.3
572.987	12194.3
573.349	12244.92
573.71	12386.84
574.071	12403.78
574.432	12476.78
574.794	12581.86
575.155	12701.18
575.516	12594.06
575.877	12729.43
576.238	12907.05
576.599	12931.23
576.96	13009.87
577.32	13079.25
577.681	13207.38
578.042	13334.38
578.403	13363.08
578.763	13505.22
579.124	13620.02
579.485	13755.39
579.845	13908.15
580.206	13906.12
580.566	14035.38
580.927	14201.93
581.287	14414.13
581.648	14515.37
582.008	14620.9
582.368	14853.89
582.728	14901.12
583.089	15134.11
583.449	15339.98
583.809	15493.19
584.169	15728.67
584.529	15883.01
584.889	16116.91
585.249	16228.32
585.609	16416.79
585.969	16742.2
586.329	16899.03
586.688	17158.46
587.048	17354.61
587.408	17567.94
587.768	17816.3
588.127	18052.9
588.487	18248.83
588.846	18536.05
589.206	18644.52
589.565	18988.92
589.925	19416.03
590.284	19546.2
590.643	19842.01
591.003	20127.65
591.362	20566.06
591.721	20801.3
592.08	20971.47
592.44	21262.53
592.799	21621.17
593.158	21930.54
593.517	22114.26
593.876	22479.68
594.235	22693.23
594.593	23085.54
594.952	23290.73
595.311	23569.59
595.67	23866.31
596.029	24300.87
596.387	24525.73
596.746	24956
597.104	25083.68
597.463	25293.16
597.822	25757.56
598.18	25847.5
598.538	26158.22
598.897	26657.19
599.255	26639.57
599.613	27402.49
599.972	27408.59
600.33	27814.45
600.688	27974.9
601.046	28308
601.404	28730.81
601.762	28976.68
602.12	29301.64
602.478	29559.49
602.836	29873.83
603.194	29841.52
603.552	30195.63
603.91	30296.19
604.268	30849.63
604.625	30955.61
604.983	31275.6
605.341	31390.86
605.698	31860.67
606.056	32126.2
606.413	32339.08
606.771	32540.43
607.128	32866.75
607.485	32865.17
607.843	33059.74
608.2	33385.61
608.557	33788.76
608.914	33817.46
609.272	34210.89
609.629	34224.45
609.986	34714.38
610.343	34708.06
610.7	35245.67
611.057	35159.12
611.414	35426.23
611.771	35668.48
612.127	35946.44
612.484	36106.44
612.841	36373.32
613.198	36302.14
613.554	36563.37
613.911	36857.83
614.267	36934.66
614.624	37160.2
614.98	37417.14
615.337	37720.18
615.693	37822.32
616.05	37836.34
616.406	38180.51
616.762	38054.41
617.118	38276.55
617.475	38253.05
617.831	38661.85
618.187	38756.09
618.543	38752.24
618.899	39161.95
619.255	39183.64
619.611	39146.81
619.967	39406.46
620.323	39542.96
620.678	39522.84
621.034	39665.89
621.39	39681.71
621.746	39786.11
622.101	40318.3
622.457	40050.74
622.812	40298.42
623.168	40351.07
623.523	40412.99
623.879	40649.14
624.234	40443.5
624.589	40599.43
624.945	40918.74
625.3	40908.57
625.655	40907.44
626.01	41059.3
626.365	41130.03
626.72	41163.48
627.075	41012.3
627.43	41203.03
627.785	41137.94
628.14	41274.44
628.495	41368.45
628.85	41415
629.205	41344.04
629.559	41600.08
629.914	41373.64
630.269	41439.63
630.623	41451.38
630.978	41485.73
631.332	41731.15
631.687	41811.37
632.041	41646.18
632.396	41780.41
632.75	41664.71
633.104	41821.32
633.459	41728.44
633.813	41760.75
634.167	41626.07
634.521	41809.79
634.875	41744.03
635.229	42030.35
635.583	41583.36
635.937	41864.25
636.291	41596.69
636.645	41757.14
636.999	41630.59
637.352	41883.46
637.706	41549.91
638.06	41916
638.413	41826.74
638.767	41546.07
639.121	41783.8
639.474	41558.05
639.828	41534.77
640.181	41692.51
640.534	41615.45
640.888	41544.03
641.241	41445.28
641.594	41500.65
641.947	41593.07
642.301	41552.4
642.654	41641.89
643.007	41518.72
643.36	41619.29
643.713	41556.46
644.066	41803.91
644.419	41389.91
644.771	41318.73
645.124	40948.8
645.477	40791.96
645.83	40680.78
646.182	40447.11
646.535	40453.44
646.888	40506.32
647.24	40364.4
647.593	40493.89
647.945	40352.88
648.298	40217.29
648.65	40185.88
649.002	40085.77
649.355	40341.58
649.707	40173.68
650.059	40344.29
650.411	40885.52
650.763	40887.78
651.115	41517.14
651.467	41190.37
651.819	41205.29
652.171	40991.73
652.523	40943.15
652.875	40939.53
653.227	40775.47
653.578	41063.6
653.93	40875.35
654.282	40963.03
654.633	40794
654.985	40950.38
655.337	40988.57
655.688	40928.01
656.039	40996.7
656.391	40655.02
656.742	40899.31
657.094	40984.73
657.445	40965.29
657.796	40802.59
658.147	40875.58
658.498	40695.47
658.849	40877.61
659.2	40814.56
659.551	40751.74
659.902	40760.33
660.253	40949.47
660.604	40767.78
660.955	40589.94
661.306	40849.36
661.656	40740.21
662.007	40858.18
662.358	40815.47
662.708	40794.45
663.059	40712.87
663.409	40483.27
663.76	40733.21
664.11	40645.75
664.461	40837.61
664.811	40745.41
665.161	40759.87
665.511	40681.46
665.862	40639.2
666.212	40659.76
666.562	40774.11
666.912	40660.22
667.262	40627
667.612	40665.41
667.962	40603.04
668.312	40664.51
668.662	40889.81
669.011	40593.55
669.361	40633.1
669.711	40582.25
670.06	40490.73
670.41	40513.78
670.76	40485.98
671.109	40476.27
671.459	40545.64
671.808	40324.18
672.157	40584.29
672.507	40243.5
672.856	40249.61
673.205	40467.9
673.554	40444.18
673.904	40299.32
674.253	40641.23
674.602	40424.52
674.951	39694.14
675.3	39669.73
675.649	40217.06
675.998	40271.53
676.346	40071.53
676.695	40413.89
677.044	39970.74
677.393	40387
677.741	40223.84
678.09	40038.31
678.438	40022.04
678.787	40030.63
679.135	40177.29
679.484	39906.79
679.832	40050.51
680.181	39665.21
680.529	39838.09
680.877	39788.6
681.225	39772.56
681.573	39904.98
681.922	39751.09
682.27	39517.87
682.618	39672.22
682.966	39494.82
683.314	39562.39
683.661	39474.03
684.009	39453.92
684.357	39333.92
684.705	39207.37
685.053	39312.46
685.4	39219.12
685.748	39041.5
686.095	39098.45
686.443	38885.57
686.79	38906.82
687.138	39044.89
687.485	38918.79
687.832	38752.92
688.18	38865.46
688.527	38577.33
688.874	38645.13
689.221	38504.34
689.568	38425.25
689.915	38412.37
690.262	38310.45
690.609	38110.23
690.956	38119.04
691.303	38040.4
691.65	37880.4
691.997	37921.53
692.344	37561.99
692.69	37541.65
693.037	37753.63
693.383	37396.12
693.73	37409.45
694.077	37172.4
694.423	37297.59
694.769	37230.93
695.116	37051.5
695.462	37024.38
695.808	37053.98
696.155	36880.65
696.501	36582.81
696.847	36730.38
697.193	36430.95
697.539	36647.67
697.885	36314.57
698.231	36232.31
698.577	36260.78
698.923	36206.77
699.269	36019.66
699.614	35931.75
699.96	35820.34
700.306	35785.09
700.651	35864.18
700.997	35622.61
701.342	35480.92
701.688	35445.89
702.033	35504.65
702.379	35394.37
702.724	35207.03
703.069	35314.59
703.415	34905.57
703.76	35016.52
704.105	34998.9
704.45	34836.19
704.795	34676.19
705.14	34626.25
705.485	34585.35
705.83	34387.61
706.175	34467.84
706.52	34332.92
706.865	34314.39
707.209	34170.9
707.554	34100.39
707.899	34047.51
708.243	33889.55
708.588	33968.19
708.932	33734.3
709.277	33760.28
709.621	33641.19
709.966	33431.25
710.31	33606.16
710.654	33217.47
710.998	33325.95
711.342	33381.99
711.687	33174.09
712.031	33111.26
712.375	33009.8
712.719	33068.33
713.063	33085.73
713.407	33059.29
713.75	32890.7
714.094	32879.86
714.438	32683.02
714.782	32777.03
715.125	32497.04
715.469	32632.18
715.812	32511.5
716.156	32336.14
716.499	32314.67
716.843	32275.35
717.186	32266.09
717.53	32254.79
717.873	32251.4
718.216	32162.13
718.559	32009.6
718.902	31854.57
719.246	31856.38
719.589	31890.73
719.932	31763.5
720.275	31732.99
720.617	31516.73
720.96	31590.85
721.303	31602.83
721.646	31617.52
721.989	31385.21
722.331	31473.34
722.674	31370.06
723.016	31370.74
723.359	31270.41
723.701	31260.24
724.044	31232.44
724.386	30985.22
724.729	31190.63
725.071	30999.23
725.413	31013.01
725.755	30999.45
726.097	30838.78
726.439	30745
726.782	30657.09
727.124	30870.64
727.465	30765.11
727.807	30561.5
728.149	30660.71
728.491	30468.85
728.833	30640.59
729.175	30497.77
729.516	30459.35
729.858	30338.91
730.199	30383.65
730.541	30378.45
730.882	30361.28
731.224	30365.35
731.565	30131.23
731.906	30210.77
732.248	30189.98
732.589	30067.05
732.93	30004
733.271	30034.05
733.612	29994.28
733.953	30119.93
734.294	29922.65
734.635	29781.63
734.976	29985.02
735.317	29605.82
735.658	29733.72
735.999	29659.15
736.339	29548.19
736.68	29601.75
737.021	29515.65
737.361	29398.37
737.702	29484.69
738.042	29374.64
738.383	29396.11
738.723	29450.34
739.063	29230.91
739.404	29228.65
739.744	29089
740.084	29105.27
740.424	29309.33
740.764	29096.23
741.104	29140.52
741.444	29038.6
741.784	28827.98
742.124	29042.22
742.464	28844.71
742.804	28838.61
743.143	28853.52
743.483	28740.53
743.823	28619.63
744.162	28637.03
744.502	28666.18
744.841	28522.46
745.181	28628.44
745.52	28541.66
745.86	28566.97
746.199	28424.15
746.538	28537.6
746.877	28475
747.216	28521.1
747.556	28389.8
747.895	28259.86
748.234	28260.99
748.573	28285.4
748.911	28242.92
749.25	28179.87
749.589	28088.57
749.928	27939.65
750.267	27961.12
750.605	27994.11
750.944	27883.38
751.283	27934.45
751.621	27889.03
751.96	27797.05
752.298	27686.55
752.636	27689.26
752.975	27571.52
753.313	27517.74
753.651	27498.98
753.989	27474.12
754.327	27371.75
754.666	27327.91
755.004	27346.22
755.342	27344.86
755.679	27207.69
756.017	27041.59
756.355	27144.87
756.693	27146.22
757.031	27104.64
757.368	26834.14
757.706	26928.15
758.044	26858.55
758.381	26900.35
758.719	26655.16
759.056	26739.45
759.394	26616.74
759.731	26380.14
