Data from hue_10_FLMS001491_5.txt Node
Date: Mon Feb 06 15:31:19 GMT 2017
User: dcchb
Spectrometer: FLMS00149
Trigger mode: 0
Integration Time (sec): 2.000000E-2
Scans to average: 10
Electric dark correction enabled: true
Nonlinearity correction enabled: false
Boxcar width: 0
XAxis mode: Wavelengths
Number of Pixels in Spectrum: 2048
>>>>>Begin Spectral Data<<<<<
341.393	-5.25
341.776	-5.25
342.16	-5.25
342.543	-80.51
342.927	-54.52
343.31	-82.77
343.693	-63.78
344.077	-60.62
344.46	-75.31
344.843	-43.22
345.226	-28.3
345.61	-24.91
345.993	-19.27
346.376	8.98
346.759	15.54
347.142	18.7
347.525	41.52
347.908	66.83
348.291	70.9
348.674	79.04
349.057	96.66
349.44	109.55
349.823	126.27
350.206	175.31
350.588	203.78
350.971	199.94
351.354	239.26
351.737	219.6
352.119	235.42
352.502	243.33
352.884	265.93
353.267	270.44
353.65	300.73
354.032	302.99
354.414	303.21
354.797	302.53
355.179	328.3
355.562	301.4
355.944	296.88
356.326	330.1
356.709	340.95
357.091	322.65
357.473	328.97
357.855	330.1
358.238	319.26
358.62	357
359.002	321.52
359.384	349.76
359.766	333.72
360.148	325.36
360.53	354.06
360.912	325.81
361.294	336.88
361.676	307.51
362.057	313.61
362.439	328.52
362.821	322.87
363.203	327.17
363.584	339.37
363.966	329.88
364.348	326.04
364.729	322.19
365.111	314.74
365.493	317.68
365.874	299.82
366.256	318.58
366.637	306.15
367.019	312.25
367.4	315.42
367.781	307.05
368.163	303.89
368.544	298.01
368.925	296.21
369.306	313.83
369.688	323.32
370.069	305.02
370.45	304.12
370.831	303.89
371.212	314.06
371.593	337.11
371.974	325.36
372.355	309.31
372.736	302.08
373.117	300.5
373.498	312.48
373.879	313.83
374.26	318.35
374.641	312.93
375.021	292.14
375.402	310.67
375.783	287.39
376.163	319.03
376.544	310.22
376.925	329.65
377.305	326.71
377.686	314.06
378.066	325.36
378.447	331.46
378.827	316.55
379.208	309.54
379.588	319.48
379.968	317.22
380.349	328.75
380.729	314.29
381.109	327.39
381.489	329.88
381.87	329.88
382.25	319.03
382.63	339.14
383.01	347.5
383.39	336.66
383.77	352.48
384.15	344.12
384.53	327.84
384.91	342.99
385.29	335.08
385.67	348.86
386.049	348.63
386.429	340.05
386.809	332.82
387.189	349.54
387.568	351.12
387.948	340.05
388.328	359.03
388.707	348.18
389.087	358.13
389.466	360.84
389.846	356.32
390.225	346.38
390.605	369.43
390.984	361.74
391.363	355.64
391.743	360.61
392.122	375.75
392.501	351.8
392.881	369.43
393.26	370.56
393.639	372.36
394.018	357.67
394.397	356.32
394.776	363.32
395.155	357.22
395.534	385.47
395.913	360.39
396.292	380.95
396.671	373.72
397.05	387.5
397.429	362.42
397.808	377.79
398.186	380.05
398.565	379.14
398.944	371.91
399.323	372.82
399.701	391.12
400.08	358.13
400.458	382.76
400.837	359.48
401.215	401.97
401.594	396.54
401.972	363.1
402.351	375.98
402.729	394.28
403.107	402.19
403.486	389.54
403.864	390.67
404.242	400.16
404.62	398.8
404.999	380.5
405.377	407.16
405.755	416.2
406.133	396.77
406.511	399.71
406.889	388.18
407.267	410.33
407.645	407.62
408.023	400.61
408.401	400.61
408.779	414.4
409.156	419.37
409.534	413.94
409.912	426.82
410.29	429.76
410.667	443.55
411.045	434.73
411.422	437.67
411.8	434.28
412.178	411.68
412.555	430.44
412.933	439.93
413.31	445.36
413.687	452.14
414.065	455.3
414.442	450.1
414.819	445.36
415.197	444.23
415.574	461.85
415.951	473.38
416.328	470.21
416.705	477.45
417.082	470.89
417.46	480.61
417.837	500.04
418.214	450.33
418.591	483.55
418.967	458.91
419.344	486.03
419.721	489.2
420.098	497.33
420.475	488.97
420.852	512.02
421.228	494.62
421.605	499.59
421.982	511.12
422.358	504.34
422.735	500.95
423.111	508.4
423.488	512.25
423.864	519.7
424.241	535.07
424.617	502.3
424.994	504.11
425.37	507.73
425.746	534.17
426.123	553.15
426.499	523.09
426.875	545.69
427.251	542.75
427.627	542.3
428.003	531.23
428.379	557.67
428.756	546.14
429.132	556.54
429.507	577.1
429.883	583.21
430.259	566.26
430.635	577.78
431.011	574.39
431.387	583.43
431.763	598.57
432.138	590.44
432.514	603.77
432.89	600.61
433.265	604.9
433.641	620.27
434.016	613.94
434.392	596.31
434.767	654.84
435.143	635.18
435.518	629.08
435.894	642.41
436.269	641.28
436.644	629.53
437.02	649.64
437.395	657.55
437.77	658.91
438.145	645.8
438.52	664.11
438.895	661.85
439.271	673.6
439.646	691.45
440.021	681.51
440.395	707.95
440.77	682.41
441.145	680.38
441.52	715.86
441.895	712.47
442.27	715.18
442.645	695.97
443.019	711.11
443.394	707.72
443.769	702.52
444.143	698
444.518	718.34
444.892	745.69
445.267	730.32
445.641	740.26
446.016	742.52
446.39	738.23
446.764	755.4
447.139	753.6
447.513	736.42
447.887	754.5
448.262	778.45
448.636	786.82
449.01	782.75
449.384	759.47
449.758	773.03
450.132	765.35
450.506	780.04
450.88	785.91
451.254	803.54
451.628	793.82
452.002	805.57
452.376	802.18
452.75	797.44
453.123	806.48
453.497	839.47
453.871	827.72
454.244	839.7
454.618	835.85
454.992	836.31
455.365	854.84
455.739	881.28
456.112	893.48
456.486	884.89
456.859	889.19
457.232	911.33
457.606	893.93
457.979	915.85
458.352	923.54
458.725	934.38
459.099	920.37
459.472	934.83
459.845	941.16
460.218	952.91
460.591	976.64
460.964	978.9
461.337	987.04
461.71	985
462.083	1024.55
462.456	993.14
462.829	1012.35
463.201	1019.58
463.574	1013.93
463.947	1039.24
464.32	1091.21
464.692	1079.92
465.065	1065.9
465.438	1099.35
465.81	1109.52
466.183	1119.46
466.555	1122.63
466.928	1166.69
467.3	1141.16
467.672	1151.1
468.045	1185.9
468.417	1166.01
468.789	1188.84
469.161	1225
469.534	1206.92
469.906	1252.57
470.278	1276.75
470.65	1273.36
471.022	1298.21
471.394	1310.19
471.766	1319.68
472.138	1347.93
472.51	1373.24
472.882	1409.17
473.253	1423.63
473.625	1401.94
473.997	1431.09
474.369	1458.66
474.74	1477.19
475.112	1481.26
475.484	1508.6
475.855	1541.6
476.227	1548.6
476.598	1614.82
476.97	1596.06
477.341	1665.66
477.713	1691.88
478.084	1694.81
478.455	1734.36
478.827	1741.37
479.198	1825.43
479.569	1795.15
479.94	1832.44
480.311	1863.85
480.682	1885.32
481.053	1956.95
481.424	1968.03
481.795	2001.02
482.166	2070.62
482.537	2086.89
482.908	2077.4
483.279	2158.08
483.65	2158.3
484.021	2246.89
484.391	2220
484.762	2261.58
485.133	2305.65
485.503	2358.75
485.874	2399.2
486.244	2421.8
486.615	2472.19
486.985	2521.23
487.356	2539.09
487.726	2573.66
488.097	2623.83
488.467	2638.07
488.837	2683.94
489.207	2713.77
489.578	2803.26
489.948	2854.11
490.318	2854.33
490.688	2887.1
491.058	2942.24
491.428	2980.88
491.798	3015.91
492.168	3053.42
492.538	3113.53
492.908	3113.76
493.278	3161.44
493.648	3168.22
494.017	3221.78
494.387	3290.25
494.757	3325.05
495.126	3323.7
495.496	3343.81
495.866	3354.21
496.235	3418.61
496.605	3434.43
496.974	3463.81
497.344	3487.76
497.713	3503.81
498.082	3560.75
498.452	3609.79
498.821	3570.7
499.19	3600.75
499.559	3702.9
499.928	3660.41
500.298	3691.6
500.667	3723.01
501.036	3703.57
501.405	3787.87
501.774	3803.69
502.143	3764.82
502.512	3852.05
502.88	3870.12
503.249	3923.68
503.618	3919.16
503.987	3934.08
504.356	4022.44
504.724	4011.82
505.093	3981.08
505.462	4007.97
505.83	4031.7
506.199	4083.23
506.567	4087.52
506.936	4093.4
507.304	4191.25
507.672	4154.86
508.041	4181.75
508.409	4226.73
508.777	4218.82
509.145	4260.85
509.514	4250.23
509.882	4347.63
510.25	4284.8
510.618	4300.85
510.986	4359.15
511.354	4353.5
511.722	4382.43
512.09	4450.67
512.458	4435.76
512.826	4452.71
513.193	4423.33
513.561	4489.77
513.929	4554.85
514.297	4531.35
514.664	4561.63
515.032	4553.72
515.4	4602.31
515.767	4609.99
516.135	4631.01
516.502	4598.92
516.869	4655.87
517.237	4709.42
517.604	4661.52
517.972	4718.92
518.339	4689.09
518.706	4721.18
519.073	4743.55
519.44	4830.55
519.808	4821.29
520.175	4834.84
520.542	4850.44
520.909	4846.14
521.276	4889.98
521.643	4960.04
522.009	4986.93
522.376	4963.88
522.743	4979.7
523.11	4998.46
523.477	5096.76
523.843	5068.28
524.21	5125.68
524.577	5131.79
524.943	5219.92
525.31	5145.8
525.676	5287.71
526.043	5243.87
526.409	5287.94
526.776	5309.18
527.142	5280.48
527.508	5349.86
527.874	5446.81
528.241	5452.91
528.607	5427.6
528.973	5495.39
529.339	5447.48
529.705	5523.19
530.071	5585.56
530.437	5559.35
530.803	5615.39
531.169	5616.29
531.535	5673.47
531.901	5652.22
532.267	5691.77
532.632	5734.71
532.998	5728.83
533.364	5770.87
533.73	5743.97
534.095	5821.71
534.461	5861.26
534.826	5909.17
535.192	5913.01
535.557	5955.95
535.923	5970.18
536.288	5970.63
536.653	5990.29
537.019	5958.88
537.384	6019.22
537.749	6046.56
538.114	6092.21
538.479	6054.25
538.845	6113.68
539.21	6123.62
539.575	6130.18
539.94	6117.52
540.305	6181.02
540.67	6230.06
541.034	6262.15
541.399	6256.95
541.764	6277.07
542.129	6367.91
542.494	6357.74
542.858	6378.76
543.223	6368.59
543.587	6384.63
543.952	6426.44
544.316	6521.13
544.681	6455.82
545.045	6503.28
545.41	6527.46
545.774	6568.13
546.138	6589.15
546.503	6599.77
546.867	6571.75
547.231	6649.03
547.595	6699.43
547.959	6700.56
548.324	6719.31
548.688	6716.15
549.052	6759.99
549.416	6773.55
549.779	6809.26
550.143	6769.03
550.507	6897.39
550.871	6950.27
551.235	6880.89
551.599	7002.02
551.962	6970.38
552.326	6997.05
552.689	7067.55
553.053	7144.16
553.417	7070.94
553.78	7154.33
554.143	7129.25
554.507	7126.54
554.87	7155.46
555.234	7203.6
555.597	7167.89
555.96	7197.95
556.323	7287.66
556.686	7296.02
557.05	7289.92
557.413	7320.43
557.776	7376.02
558.139	7315.46
558.502	7373.31
558.865	7378.28
559.228	7472.97
559.59	7464.38
559.953	7523.14
560.316	7545.06
560.679	7566.3
561.041	7619.4
561.404	7639.74
561.767	7593.87
562.129	7667.09
562.492	7748.89
562.854	7749.57
563.217	7715.22
563.579	7796.12
563.941	7825.27
564.304	7837.48
564.666	7881.54
565.028	7895.56
565.39	7894.65
565.753	7920.19
566.115	7968.32
566.477	8043.57
566.839	8084.7
567.201	8076.34
567.563	8122.89
567.925	8111.59
568.287	8133.29
568.648	8203.8
569.01	8201.76
569.372	8281.99
569.734	8254.64
570.095	8338.03
570.457	8343.9
570.819	8378.71
571.18	8430.23
571.542	8477.69
571.903	8464.13
572.265	8498.03
572.626	8594.52
572.987	8619.15
573.349	8590.23
573.71	8724.91
574.071	8732.37
574.432	8827.96
574.794	8881.52
575.155	8853.5
575.516	8874.06
575.877	8982.98
576.238	9047.39
576.599	9115.18
576.96	9153.83
577.32	9234.05
577.681	9315.63
578.042	9375.74
578.403	9402.18
578.763	9514.95
579.124	9571.22
579.485	9698.22
579.845	9832.45
580.206	9867.71
580.566	9921.26
580.927	10013.24
581.287	10233.8
581.648	10220.92
582.008	10318.99
582.368	10576.84
582.728	10636.27
583.089	10779.32
583.449	10979.09
583.809	11062.03
584.169	11200.1
584.529	11353.09
584.889	11575.23
585.249	11674.66
585.609	11856.58
585.969	12094.54
586.329	12178.15
586.688	12439.39
587.048	12524.13
587.408	12871.02
587.768	13046.15
588.127	13167.05
588.487	13438.91
588.846	13642.97
589.206	13780.37
589.565	14151.89
589.925	14364.09
590.284	14517.53
590.643	14725.88
591.003	15014.01
591.362	15414.68
591.721	15552.98
592.08	15750.04
592.44	16148.9
592.799	16358.61
593.158	16585.27
593.517	16929.22
593.876	17135.76
594.235	17388.86
594.593	17813.94
594.952	18028.17
595.311	18248.05
595.67	18566.91
596.029	18940.69
596.387	19170.29
596.746	19494.35
597.104	19669.48
597.463	19927.78
597.822	20325.51
598.18	20579.29
598.538	20882.56
598.897	21263.57
599.255	21380.62
599.613	21981.74
599.972	22032.58
600.33	22465.57
600.688	22647.71
601.046	22920.02
601.404	23366.79
601.762	23525.88
602.12	23935.13
602.478	24042.48
602.836	24294.22
603.194	24529.02
603.552	24867.09
603.91	24963.35
604.268	25378.49
604.625	25518.37
604.983	26012.59
605.341	26093.27
605.698	26503.2
606.056	26767.6
606.413	26961.27
606.771	27229.28
607.128	27561.25
607.485	27626.79
607.843	27986.78
608.2	28197.85
608.557	28549.02
608.914	28647.55
609.272	28985.85
609.629	29245.28
609.986	29543.12
610.343	29576.57
610.7	30025.82
611.057	30147.85
611.414	30276.44
611.771	30552.13
612.127	30842.75
612.484	31024.66
612.841	31226.02
613.198	31205.68
613.554	31579.23
613.911	31817.19
614.267	32035.49
614.624	32224.86
614.98	32357.06
615.337	32717.95
615.693	32804.05
616.05	32736.03
616.406	33251.27
616.762	33246.98
617.118	33257.15
617.475	33559.06
617.831	33677.93
618.187	33853.06
618.543	33834.08
618.899	34320.4
619.255	34413.28
619.611	34444.91
619.967	34627.51
620.323	34748.18
620.678	34837.45
621.034	34719.03
621.39	34941.4
621.746	35109.53
622.101	35496.86
622.457	35397.2
622.812	35465.9
623.168	35623.41
623.523	35709.97
623.879	35880.36
624.234	35770.3
624.589	36002.16
624.945	36074.93
625.3	36231.31
625.655	36152.89
626.01	36373
626.365	36482.83
626.72	36465.65
627.075	36481.92
627.43	36546.55
627.785	36595.82
628.14	36784.51
628.495	36766.21
628.85	36927.11
629.205	36705.65
629.559	37090.95
629.914	36837.39
630.269	37081.68
630.623	36869.26
630.978	37055.24
631.332	37177.72
631.687	37192.64
632.041	37115.8
632.396	37371.84
632.75	37205.97
633.104	37335.91
633.459	37078.97
633.813	37132.3
634.167	37230.83
634.521	37322.8
634.875	37228.8
635.229	37378.85
635.583	37186.31
635.937	37188.8
636.291	37222.02
636.645	37424.5
636.999	37293.65
637.352	37456.81
637.706	37134.11
638.06	37358.96
638.413	37393.54
638.767	37263.6
639.121	37423.82
639.474	37097.5
639.828	37159.19
640.181	37349.7
640.534	37351.96
640.888	37242.81
641.241	37028.57
641.594	37188.57
641.947	37252.52
642.301	37163.94
642.654	37277.38
643.007	37305.4
643.36	37128.01
643.713	37062.25
644.066	37207.55
644.419	37108.12
644.771	36954.45
645.124	36518.53
645.477	36532.09
645.83	36284.41
646.182	36206.9
646.535	36217.52
646.888	36236.5
647.24	36016.17
647.593	36170.29
647.945	36222.27
648.298	36074.93
648.65	35826.35
649.002	35959.45
649.355	35931.88
649.707	36057.98
650.059	36009.62
650.411	36637.4
650.763	36628.13
651.115	37016.15
651.467	36821.12
651.819	36802.37
652.171	36723.05
652.523	36758.98
652.875	36678.08
653.227	36698.41
653.578	36779.32
653.93	36658.19
654.282	36535.93
654.633	36449.61
654.985	36708.13
655.337	36647.79
655.688	36637.4
656.039	36735.25
656.391	36296.39
656.742	36437.63
657.094	36433.11
657.445	36621.13
657.796	36585.65
658.147	36485.31
658.498	36501.81
658.849	36575.7
659.2	36508.14
659.551	36469.72
659.902	36527.12
660.253	36594.01
660.604	36568.47
660.955	36409.61
661.306	36467.23
661.656	36473.11
662.007	36367.12
662.358	36396.95
662.708	36382.94
663.059	36325.99
663.409	36172.78
663.76	36320.34
664.11	36303.4
664.461	36395.82
664.811	36376.16
665.161	36385.2
665.511	36321.02
665.862	36344.07
666.212	36435.14
666.562	36359.21
666.912	36412.32
667.262	36375.94
667.612	36290.29
667.962	36333.9
668.312	36223.4
668.662	36491.64
669.011	36363.51
669.361	36246.67
669.711	36298.2
670.06	36195.38
670.41	36077.41
670.76	36169.39
671.109	36254.81
671.459	36273.11
671.808	36130.07
672.157	36261.36
672.507	35980.69
672.856	36050.07
673.205	36114.93
673.554	36173.46
673.904	36197.18
674.253	36274.02
674.602	36173.46
674.951	35605.33
675.3	35554.04
675.649	35942.73
675.998	36014.59
676.346	36029.5
676.695	36000.58
677.044	35773.69
677.393	35823.63
677.741	35972.33
678.09	35817.98
678.438	35804.2
678.787	35819.79
679.135	35673.58
679.484	35610.76
679.832	35772.79
680.181	35486.02
680.529	35658.21
680.877	35451.21
681.225	35492.12
681.573	35808.04
681.922	35389.75
682.27	35348.62
682.618	35355.62
682.966	35200.37
683.314	35332.57
683.661	35281.95
684.009	35009.64
684.357	34910.66
684.705	35090.55
685.053	34876.09
685.4	34918.12
685.748	34796.32
686.095	34733.95
686.443	34713.83
686.79	34619.37
687.138	34714.51
687.485	34611.91
687.832	34440.17
688.18	34462.77
688.527	34332.37
688.874	34372.15
689.221	34333.73
689.568	34164.02
689.915	34170.57
690.262	34201.53
690.609	34071.82
690.956	33826.17
691.303	33891.03
691.65	33756.34
691.997	33771.94
692.344	33469.57
692.69	33462.34
693.037	33500.31
693.383	33235.68
693.73	33492.17
694.077	33280.42
694.423	33171.73
694.769	33057.61
695.116	32999.08
695.462	33071.39
695.808	32850.15
696.155	32927.21
696.501	32719.31
696.847	32786.2
697.193	32410.62
697.539	32494.91
697.885	32381.24
698.231	32251.75
698.577	32326.78
698.923	32264.86
699.269	31947.13
699.614	31930.4
699.96	31807.24
700.306	31762.5
700.651	31793.91
700.997	31721.37
701.342	31588.72
701.688	31523.86
702.033	31501.71
702.379	31334.94
702.724	31374.26
703.069	31290.42
703.415	31083.87
703.76	30972.69
704.105	30990.77
704.45	30968.39
704.795	30807.27
705.14	30824.22
705.485	30680.27
705.83	30685.01
706.175	30640.95
706.52	30524.56
706.865	30399.14
707.209	30366.15
707.554	30320.28
707.899	30413.83
708.243	30127.51
708.588	30171.81
708.932	29860.63
709.277	29949.21
709.621	30071.02
709.966	29710.57
710.31	29828.76
710.654	29664.93
710.998	29715.55
711.342	29628.77
711.687	29444.59
712.031	29509.9
712.375	29249.34
712.719	29326.86
713.063	29318.27
713.407	29269.46
713.75	29090.93
714.094	29226.52
714.438	29158.27
714.782	29110.59
715.125	28890.03
715.469	29039.41
715.812	28761.22
716.156	28596.93
716.499	28755.8
716.843	28759.64
717.186	28557.84
717.53	28621.11
717.873	28636.7
718.216	28527.33
718.559	28396.48
718.902	28258.41
719.246	28281.91
719.589	28167.34
719.932	28196.94
720.275	28257.51
720.617	28100
720.96	28013.44
721.303	28050.73
721.646	28035.36
721.989	27850.06
722.331	27939.32
722.674	27808.25
723.016	27908.36
723.359	27689.16
723.701	27835.82
724.044	27579.56
724.386	27455.27
724.729	27597.64
725.071	27490.29
725.413	27573.46
725.755	27501.37
726.097	27442.84
726.439	27259.79
726.782	27198.32
727.124	27420.24
727.465	27181.6
727.807	27058.67
728.149	27069.06
728.491	27063.19
728.833	27139.79
729.175	27069.51
729.516	27031.78
729.858	26814.38
730.199	26922.85
730.541	26846.7
730.882	26835.62
731.224	26910.87
731.565	26703.65
731.906	26651.67
732.248	26696.64
732.589	26629.53
732.93	26533.71
733.271	26614.38
733.612	26550.66
733.953	26453.03
734.294	26363.32
734.635	26349.99
734.976	26476.54
735.317	26218.46
735.658	26216.66
735.999	26250.1
736.339	26217.33
736.68	26327.39
737.021	26195.64
737.361	26029.54
737.702	26248.07
738.042	26087.17
738.383	26100.5
738.723	25962.88
739.063	25922.65
739.404	25988.86
739.744	25949.09
740.084	25808.08
740.424	25940.5
740.764	25826.61
741.104	25806.04
741.444	25635.65
741.784	25576.45
742.124	25680.62
742.464	25661.64
742.804	25603.11
743.143	25551.81
743.483	25566.73
743.823	25333.29
744.162	25444.7
744.502	25422.78
744.841	25275.89
745.181	25410.57
745.52	25230.47
745.86	25211.03
746.199	25154.99
746.538	25061.88
746.877	25197.93
747.216	25185.95
747.556	25074.31
747.895	25143.24
748.234	24944.37
748.573	24903.47
748.911	24770.59
749.25	24948.67
749.589	24750.71
749.928	24818.5
750.267	24818.73
750.605	24819.18
750.944	24694.44
751.283	24590.03
751.621	24677.26
751.96	24598.84
752.298	24559.75
752.636	24481.79
752.975	24415.8
753.313	24389.58
753.651	24483.59
753.989	24305.29
754.327	24306.2
754.666	24181.23
755.004	24210.61
755.342	24234.79
755.679	24258.06
756.017	24062.59
756.355	24047.9
756.693	24014
757.031	24011.97
757.368	23764.74
757.706	23820.56
758.044	23755.48
758.381	23829.6
758.719	23597.06
759.056	23650.85
759.394	23490.63
759.731	23371.08
760.068	23315.26
760.405	23381.02
760.743	23269.16
761.08	23235.94
