Data from hue_350_FLMS001491_29.txt Node
Date: Mon Feb 06 15:37:49 GMT 2017
User: dcchb
Spectrometer: FLMS00149
Trigger mode: 0
Integration Time (sec): 2.000000E-2
Scans to average: 10
Electric dark correction enabled: true
Nonlinearity correction enabled: false
Boxcar width: 0
XAxis mode: Wavelengths
Number of Pixels in Spectrum: 2048
>>>>>Begin Spectral Data<<<<<
341.393	-13.63
341.776	-13.63
342.16	-13.63
342.543	-43.01
342.927	-69.9
343.31	-72.84
343.693	-67.87
344.077	-69
344.46	-63.57
344.843	-55.21
345.226	-45.49
345.61	-62.22
345.993	-16.57
346.376	4
346.759	9.19
347.142	39.48
347.525	53.71
347.908	55.97
348.291	86.25
348.674	99.59
349.057	104.56
349.44	122.86
349.823	144.33
350.206	158.57
350.588	193.14
350.971	225.91
351.354	218.68
351.737	244.67
352.119	248.06
352.502	247.61
352.884	270.88
353.267	300.03
353.65	276.53
354.032	299.58
354.414	332.35
354.797	286.25
355.179	305.46
355.562	332.12
355.944	343.42
356.326	325.12
356.709	335.51
357.091	332.35
357.473	355.85
357.855	355.17
358.238	343.88
358.62	328.28
359.002	335.06
359.384	339.58
359.766	321.73
360.148	324.44
360.53	355.17
360.912	350.2
361.294	328.06
361.676	330.77
362.057	328.96
362.439	331.45
362.821	321.05
363.203	325.12
363.584	319.47
363.966	330.09
364.348	317.44
364.729	337.32
365.111	334.16
365.493	309.3
365.874	300.49
366.256	322.86
366.637	317.44
367.019	332.58
367.4	300.71
367.781	313.37
368.163	315.63
368.544	311.11
368.925	307.94
369.306	330.77
369.688	325.8
370.069	324.44
370.45	300.03
370.831	303.42
371.212	323.76
371.593	292.13
371.974	316.98
372.355	327.6
372.736	307.27
373.117	337.32
373.498	305.91
373.879	305.46
374.26	302.07
374.641	310.43
375.021	314.95
375.402	329.41
375.783	314.5
376.163	338
376.544	309.3
376.925	333.48
377.305	332.58
377.686	314.27
378.066	334.16
378.447	321.5
378.827	337.1
379.208	321.5
379.588	333.25
379.968	319.69
380.349	324.44
380.729	327.38
381.109	338.23
381.489	324.89
381.87	322.18
382.25	333.48
382.63	361.95
383.01	360.6
383.39	344.33
383.77	359.92
384.15	342.97
384.53	341.16
384.91	366.25
385.29	329.41
385.67	339.81
386.049	355.17
386.429	342.29
386.809	342.29
387.189	347.26
387.568	345.23
387.948	369.19
388.328	363.99
388.707	355.85
389.087	342.52
389.466	379.58
389.846	373.7
390.225	350.88
390.605	350.88
390.984	349.75
391.363	381.39
391.743	356.53
392.122	357.21
392.501	362.41
392.881	362.41
393.26	360.6
393.639	370.09
394.018	369.19
394.397	368.96
394.776	371.22
395.155	368.06
395.534	396.53
395.913	378.9
396.292	369.86
396.671	391.33
397.05	378.45
397.429	368.28
397.808	366.7
398.186	403.31
398.565	360.82
398.944	383.42
399.323	375.51
399.701	392.46
400.08	392.46
400.458	392.01
400.837	391.33
401.215	384.55
401.594	403.31
401.972	399.47
402.351	420.26
402.729	406.92
403.107	396.98
403.486	403.76
403.864	394.5
404.242	392.69
404.62	407.6
404.999	405.12
405.377	402.18
405.755	409.18
406.133	423.2
406.511	407.6
406.889	419.58
407.267	432.01
407.645	425.45
408.023	417.55
408.401	421.16
408.779	441.73
409.156	438.11
409.534	450.31
409.912	433.82
410.29	441.5
410.667	455.51
411.045	450.09
411.422	428.17
411.8	459.8
412.178	466.13
412.555	457.09
412.933	475.17
413.31	475.62
413.687	470.88
414.065	475.62
414.442	487.15
414.819	488.05
415.197	456.41
415.574	482.85
415.951	486.47
416.328	493.7
416.705	492.57
417.082	483.53
417.46	499.13
417.837	499.13
418.214	509.07
418.591	478.33
418.967	506.81
419.344	514.72
419.721	513.59
420.098	503.64
420.475	512.23
420.852	530.54
421.228	551.33
421.605	532.8
421.982	550.2
422.358	546.81
422.735	526.24
423.111	562.63
423.488	540.25
423.864	541.16
424.241	569.63
424.617	572.34
424.994	582.29
425.37	571.44
425.746	554.04
426.123	572.8
426.499	564.21
426.875	565.79
427.251	584.77
427.627	591.78
428.003	578.45
428.379	595.62
428.756	608.5
429.132	622.06
429.507	607.15
429.883	618.44
430.259	622.51
430.635	606.02
431.011	648.27
431.387	641.49
431.763	666.35
432.138	643.98
432.514	633.36
432.89	655.28
433.265	663.87
433.641	670.65
434.016	667.26
434.392	690.53
434.767	712.68
435.143	705.45
435.518	706.58
435.894	693.24
436.269	690.98
436.644	711.32
437.02	713.13
437.395	721.04
437.77	716.07
438.145	734.37
438.52	728.5
438.895	757.2
439.271	736.18
439.646	778.21
440.021	770.76
440.395	763.53
440.77	764.2
441.145	768.5
441.52	761.04
441.895	795.16
442.27	807.37
442.645	780.47
443.019	799.46
443.394	783.86
443.769	800.13
444.143	786.35
444.518	834.26
444.892	826.8
445.267	834.26
445.641	808.72
446.016	837.2
446.39	821.6
446.764	832.68
447.139	849.62
447.513	813.92
447.887	830.64
448.262	850.98
448.636	874.26
449.01	858.21
449.384	869.06
449.758	857.53
450.132	871.54
450.506	894.37
450.88	889.4
451.254	872
451.628	871.77
452.002	920.36
452.376	890.3
452.75	915.39
453.123	885.78
453.497	918.78
453.871	940.7
454.244	921.49
454.618	957.19
454.992	935.5
455.365	952.9
455.739	971.2
456.112	972.33
456.486	968.49
456.859	981.82
457.232	998.32
457.606	1012.33
457.979	997.42
458.352	1025.21
458.725	1015.5
459.099	1015.27
459.472	1049.85
459.845	1067.92
460.218	1055.95
460.591	1084.42
460.964	1079
461.337	1092.56
461.71	1130.75
462.083	1137.53
462.456	1131.2
462.829	1129.39
463.201	1142.27
463.574	1145.44
463.947	1183.18
464.32	1193.34
464.692	1206.9
465.065	1205.1
465.438	1216.85
465.81	1274.47
466.183	1248.94
466.555	1254.81
466.928	1277.18
467.3	1261.59
467.672	1282.83
468.045	1327.8
468.417	1316.5
468.789	1328.93
469.161	1318.09
469.534	1359.44
469.906	1366
470.278	1397.18
470.65	1417.52
471.022	1401.02
471.394	1443.73
471.766	1490.74
472.138	1493.22
472.51	1500.45
472.882	1522.6
473.253	1554.92
473.625	1561.02
473.997	1607.34
474.369	1625.2
474.74	1601.24
475.112	1644.63
475.484	1694.35
475.855	1713.78
476.227	1727.34
476.598	1780
476.97	1798.75
477.341	1830.16
477.713	1819.09
478.084	1851.63
478.455	1899.99
478.827	1922.36
479.198	1991.97
479.569	1994.45
479.94	2038.75
480.311	2025.64
480.682	2101.8
481.053	2126.65
481.424	2164.62
481.795	2181.11
482.166	2201.23
482.537	2238.29
482.908	2296.37
483.279	2258.63
483.65	2331.17
484.021	2416.14
484.391	2423.82
484.762	2447.55
485.133	2502.46
485.503	2521.22
485.874	2550.6
486.244	2577.94
486.615	2623.82
486.985	2700.2
487.356	2720.99
487.726	2726.64
488.097	2796.92
488.467	2803.7
488.837	2853.87
489.207	2928.44
489.578	2982.22
489.948	2946.07
490.318	3014.54
490.688	3025.39
491.058	3061.09
491.428	3115.78
491.798	3158.94
492.168	3221.99
492.538	3206.4
492.908	3284.14
493.278	3305.15
493.648	3315.77
494.017	3400.07
494.387	3407.3
494.757	3417.69
495.126	3482.32
495.496	3481.19
495.866	3521.42
496.235	3508.09
496.605	3566.84
496.974	3613.17
497.344	3583.56
497.713	3664.47
498.082	3691.58
498.452	3770.45
498.821	3704.46
499.19	3721.19
499.559	3809.55
499.928	3804.8
500.298	3823.11
500.667	3868.98
501.036	3806.83
501.405	3838.92
501.774	3859.26
502.143	3936.32
502.512	3909.88
502.88	4013.61
503.249	4002.08
503.618	4037.56
503.987	4038.47
504.356	4042.31
504.724	4056.09
505.093	4090.67
505.462	4086.6
505.83	4129.54
506.199	4158.69
506.567	4234.17
506.936	4227.84
507.304	4226.03
507.672	4254.05
508.041	4262.42
508.409	4294.73
508.777	4289.76
509.145	4319.59
509.514	4364.11
509.882	4319.59
510.25	4386.03
510.618	4433.71
510.986	4367.05
511.354	4416.31
511.722	4486.37
512.09	4498.79
512.458	4485.24
512.826	4494.73
513.193	4547.38
513.561	4548.06
513.929	4573.14
514.297	4576.76
514.664	4595.29
515.032	4652.24
515.4	4633.93
515.767	4656.53
516.135	4655.85
516.502	4723.87
516.869	4736.98
517.237	4736.75
517.604	4722.29
517.972	4774.04
518.339	4771.78
518.706	4827.37
519.073	4763.19
519.44	4859.01
519.808	4888.16
520.175	4826.24
520.542	4917.54
520.909	4946.47
521.276	4903.98
521.643	5004.54
522.009	4991.66
522.376	4991.44
522.743	4992.11
523.11	5056.07
523.477	5100.13
523.843	5110.08
524.21	5150.53
524.577	5185.33
524.943	5220.13
525.31	5216.97
525.676	5241.15
526.043	5301.03
526.409	5240.24
526.776	5321.15
527.142	5316.4
527.508	5393.23
527.874	5344.65
528.241	5435.04
528.607	5452.22
528.973	5470.97
529.339	5477.75
529.705	5513.68
530.071	5579.44
530.437	5588.26
530.803	5639.78
531.169	5657.86
531.535	5639.33
531.901	5685.2
532.267	5669.38
532.632	5735.15
532.998	5800.23
533.364	5818.99
533.73	5786.22
534.095	5836.61
534.461	5905.08
534.826	5915.71
535.192	5904.86
535.557	5977.4
535.923	5975.37
536.288	5976.95
536.653	5979.66
537.019	6024.4
537.384	6086.32
537.749	6075.25
538.114	6094.23
538.479	6115.7
538.845	6106.89
539.21	6198.86
539.575	6181.91
539.94	6188.47
540.305	6243.61
540.67	6265.53
541.034	6272.98
541.399	6300.78
541.764	6381.68
542.129	6359.31
542.494	6369.25
542.858	6465.52
543.223	6379.42
543.587	6446.31
543.952	6502.36
544.316	6476.37
544.681	6520.89
545.045	6579.42
545.41	6612.18
545.774	6539.19
546.138	6606.08
546.503	6632.98
546.867	6678.62
547.231	6661.22
547.595	6688.79
547.959	6767.44
548.324	6796.59
548.688	6799.3
549.052	6772.63
549.416	6804.04
549.779	6855.79
550.143	6868.9
550.507	6900.31
550.871	6945.06
551.235	6900.76
551.599	6968.11
551.962	6962.23
552.326	6995.68
552.689	7074.55
553.053	7088.33
553.417	7084.26
553.78	7123.13
554.143	7121.1
554.507	7107.99
554.87	7178.72
555.234	7211.04
555.597	7239.29
555.96	7220.76
556.323	7284.48
556.686	7292.62
557.05	7306.18
557.413	7320.64
557.776	7261.21
558.139	7343.01
558.502	7381.43
558.865	7380.75
559.228	7420.07
559.59	7485.38
559.953	7502.11
560.316	7578.04
560.679	7576.91
561.041	7613.29
561.404	7627.75
561.767	7677.24
562.129	7685.83
562.492	7669.11
562.854	7716.34
563.217	7674.3
563.579	7729.67
563.941	7829.33
564.304	7809.22
564.666	7867.29
565.028	7840.18
565.39	7902.55
565.753	7982.77
566.115	8001.3
566.477	7959.27
566.839	7965.14
567.201	8101.19
567.563	8088.76
567.925	8110.22
568.287	8107.96
568.648	8196.55
569.01	8207.17
569.372	8302.08
569.734	8246.49
570.095	8276.55
570.457	8299.15
570.819	8348.86
571.18	8396.77
571.542	8406.94
571.903	8475.19
572.265	8536.88
572.626	8576.65
572.987	8631.11
573.349	8623.21
573.71	8695.97
574.071	8727.61
574.432	8788.62
574.794	8903.65
575.155	8896.42
575.516	8927.38
575.877	8988.62
576.238	9036.08
576.599	9124.44
576.96	9147.03
577.32	9205.34
577.681	9273.13
578.042	9346.8
578.403	9458.44
578.763	9471.54
579.124	9572.56
579.485	9697.98
579.845	9802.84
580.206	9913.79
580.566	10095.26
580.927	10142.49
581.287	10247.8
581.648	10392.42
582.008	10493.44
582.368	10653.66
582.728	10754.67
583.089	10899.3
583.449	11019.3
583.809	11160.31
584.169	11391.27
584.529	11473.98
584.889	11721.88
585.249	11809.56
585.609	11917.81
585.969	12184.02
586.329	12343.11
586.688	12563.67
587.048	12735.64
587.408	12905.8
587.768	13103.31
588.127	13322.97
588.487	13531.33
588.846	13917.08
589.206	13980.13
589.565	14215.37
589.925	14565.2
590.284	14715.47
590.643	15072.75
591.003	15266.42
591.362	15502.8
591.721	15765.16
592.08	16029.56
592.44	16340.29
592.799	16571.47
593.158	16851.24
593.517	17067.5
593.876	17312.69
594.235	17627.71
594.593	17901.83
594.952	18227.47
595.311	18493.91
595.67	18771.41
596.029	19162.59
596.387	19426.76
596.746	19708.56
597.104	19844.38
597.463	20181.32
597.822	20626.28
598.18	20678.71
598.538	20964.35
598.897	21306.71
599.255	21495.41
599.613	22113.7
599.972	22274.82
600.33	22459.9
600.688	22637.98
601.046	23137.85
601.404	23375.13
601.762	23505.3
602.12	24060.77
602.478	24209.91
602.836	24355.9
603.194	24662.56
603.552	24943.45
603.91	25164.01
604.268	25509.77
604.625	25531.69
604.983	25933.48
605.341	25933.03
605.698	26478.1
606.056	26625.22
606.413	26881.26
606.771	27248.7
607.128	27420.23
607.485	27581.13
607.843	27718.07
608.2	28133.43
608.557	28487.32
608.914	28468.11
609.272	28751.72
609.629	29324.36
609.986	29318.93
610.343	29420.62
610.7	29742.88
611.057	29898.13
611.414	30175.86
611.771	30253.6
612.127	30675.51
612.484	30723.42
612.841	30930.42
613.198	31020.36
613.554	31266
613.911	31616.05
614.267	31582.83
614.624	31777.62
614.98	32069.14
615.337	32176.48
615.693	32229.36
616.05	32493.99
616.406	32669.8
616.762	32704.83
617.118	32958.61
617.475	33035.44
617.831	33312.27
618.187	33430.46
618.543	33660.51
618.899	33894.41
619.255	33867.97
619.611	34005.36
619.967	34253.94
620.323	34394.28
620.678	34315.19
621.034	34410.78
621.39	34438.12
621.746	34604.22
622.101	35132.34
622.457	34917.88
622.812	34961.5
623.168	35205.56
623.523	35327.14
623.879	35505.44
624.234	35282.39
624.589	35567.81
624.945	35615.72
625.3	35738.2
625.655	35781.14
626.01	35777.07
626.365	35946.1
626.72	36028.36
627.075	35945.2
627.43	36141.35
627.785	36053.44
628.14	36193.1
628.495	36189.94
628.85	36309.48
629.205	36134.57
629.559	36604.39
629.914	36436.26
630.269	36497.27
630.623	36323.27
630.978	36370.95
631.332	36557.84
631.687	36594.9
632.041	36576.59
632.396	36745.4
632.75	36684.16
633.104	36761.22
633.459	36596.48
633.813	36654.78
634.167	36600.55
634.521	36641.68
634.875	36850.03
635.229	36668.8
635.583	36784.72
635.937	36683.48
636.291	36689.36
636.645	36741.79
636.999	36725.52
637.352	36902.91
637.706	36573.66
638.06	36724.16
638.413	36707.21
638.767	36638.74
639.121	36747.89
639.474	36495.24
639.828	36638.06
640.181	36783.59
640.534	36733.65
640.888	36661.34
641.241	36525.3
641.594	36568.01
641.947	36653.2
642.301	36632.64
642.654	36618.63
643.007	36737.04
643.36	36565.07
643.713	36472.87
644.066	36703.37
644.419	36537.73
644.771	36266.09
645.124	35850.06
645.477	35989.49
645.83	35746.33
646.182	35551.99
646.535	35536.62
646.888	35597.41
647.24	35302.5
647.593	35674.25
647.945	35634.7
648.298	35437.87
648.65	35330.75
649.002	35342.95
649.355	35481.26
649.707	35319.23
650.059	35490.3
650.411	36029.72
650.763	35973.9
651.115	36370.72
651.467	36118.08
651.819	36189.94
652.171	36127.57
652.523	36231.97
652.875	36121.92
653.227	36051.86
653.578	36243.5
653.93	36131.18
654.282	35993.11
654.633	35894.8
654.985	36008.93
655.337	35964.86
655.688	36059.77
656.039	36072.43
656.391	35848.03
656.742	35765.09
657.094	35913.11
657.445	36034.91
657.796	35996.27
658.147	35739.33
658.498	35784.98
658.849	35998.53
659.2	35775.03
659.551	35845.77
659.902	35946.1
660.253	35957.85
660.604	35874.01
660.955	35813.45
661.306	35885.77
661.656	35770.06
662.007	35838.54
662.358	35714.02
662.708	35798.54
663.059	35777.29
663.409	35549.28
663.76	35850.51
664.11	35762.83
664.461	35642.83
664.811	35807.12
665.161	35741.59
665.511	35721.7
665.862	35749.72
666.212	35910.85
666.562	35852.55
666.912	35803.28
667.262	35645.77
667.612	35825.43
667.962	35887.57
668.312	35730.74
668.662	35990.62
669.011	35677.41
669.361	35657.3
669.711	35732.1
670.06	35785.66
670.41	35536.62
670.76	35417.08
671.109	35510.18
671.459	35581.82
671.808	35607.13
672.157	35736.84
672.507	35460.69
672.856	35437.19
673.205	35458.66
673.554	35523.52
673.904	35428.38
674.253	35661.14
674.602	35620.46
674.951	35028.39
675.3	34878.11
675.649	35419.79
675.998	35394.25
676.346	35361.03
676.695	35396.96
677.044	35183.41
677.393	35387.02
677.741	35421.6
678.09	35270.87
678.438	35227.93
678.787	35333.92
679.135	35285.33
679.484	34962.85
679.832	35207.82
680.181	34986.58
680.529	35095.5
680.877	34900.48
681.225	34954.04
681.573	35183.41
681.922	34896.19
682.27	34818.67
682.618	34743.42
682.966	34735.06
683.314	34938.67
683.661	34717.89
684.009	34518.57
684.357	34483.77
684.705	34528.51
685.053	34532.13
685.4	34394.28
685.748	34288.97
686.095	34244.45
686.443	34038.81
686.79	34131.91
687.138	34080.16
687.485	34161.29
687.832	34099.82
688.18	34042.2
688.527	33882.88
688.874	33807.85
689.221	33834.75
689.568	33670.68
689.915	33637.24
690.262	33648.08
690.609	33530.12
690.956	33491.7
691.303	33341.65
691.65	33261.88
691.997	33297.36
692.344	33012.85
692.69	32986.63
693.037	33134.88
693.383	32824.83
693.73	32851.27
694.077	32686.75
694.423	32894.66
694.769	32635.68
695.116	32575.34
695.462	32511.62
695.808	32299.19
696.155	32476.36
696.501	32159.54
696.847	32117.05
697.193	31974
697.539	32025.98
697.885	31909.6
698.231	31799.77
698.577	31785.76
698.923	31688.59
699.269	31624.18
699.614	31364.08
699.96	31375.6
700.306	31474.81
700.651	31169.51
700.997	31226.68
701.342	31135.61
701.688	31166.34
702.033	30923.64
702.379	30904.88
702.724	30682.74
703.069	30960.25
703.415	30513.25
703.76	30569.97
704.105	30535.17
704.45	30522.06
704.795	30404.78
705.14	30285.91
705.485	30282.07
705.83	30049.99
706.175	30193.26
706.52	30016.77
706.865	29942.42
707.209	29975.64
707.554	29878.24
707.899	29894.06
708.243	29763.44
708.588	29698.81
708.932	29437.12
709.277	29333.4
709.621	29514.86
709.966	29286.16
710.31	29305.83
710.654	29057.7
710.998	29187.18
711.342	29192.16
711.687	29134.3
712.031	28910.13
712.375	28957.13
712.719	28920.07
713.063	28885.5
713.407	28920.3
713.75	28649.57
714.094	28694.32
714.438	28566.41
714.782	28658.84
715.125	28458.62
715.469	28433.08
715.812	28410.71
716.156	28242.35
716.499	28218.85
716.843	28344.27
717.186	28085.07
717.53	28251.39
717.873	28171.84
718.216	28104.28
718.559	28037.61
718.902	27817.28
719.246	27878.29
719.589	27816.15
719.932	27684.63
720.275	27684.17
720.617	27760.33
720.96	27686.21
721.303	27443.05
721.646	27535.48
721.989	27407.57
722.331	27518.98
722.674	27400.11
723.016	27353.33
723.359	27268.36
723.701	27373.45
724.044	27182.04
724.386	26998.99
724.729	27277.86
725.071	27209.16
725.413	27137.97
725.755	27049.84
726.097	27020.24
726.439	26846
726.782	26702.05
727.124	27009.84
727.465	26713.13
727.807	26898.43
728.149	26675.61
728.491	26655.73
728.833	26778.66
729.175	26582.96
729.516	26487.14
729.858	26473.81
730.199	26533.24
730.541	26400.59
730.882	26374.6
731.224	26412.34
731.565	26232.46
731.906	26325.56
732.248	26301.84
732.589	26092.35
732.93	25986.36
733.271	26062.29
733.612	26165.57
733.953	26121.73
734.294	25994.5
734.635	25926.93
734.976	25977.1
735.317	25943.88
735.658	25872.47
735.999	25832.02
736.339	25891.23
736.68	25902.98
737.021	25782.75
737.361	25693.49
737.702	25709.99
738.042	25646.03
738.383	25542.99
738.723	25665.47
739.063	25438.36
739.404	25679.93
739.744	25367.62
740.084	25385.93
740.424	25468.41
740.764	25420.28
741.104	25506.15
741.444	25220.74
741.784	25214.63
742.124	25343.44
742.464	25131.02
742.804	25114.75
743.143	25101.42
743.483	25099.38
743.823	24940.52
744.162	24959.95
744.502	25137.35
744.841	24893.06
745.181	25091.7
745.52	24904.81
745.86	24840.86
746.199	24863.23
746.538	24776.91
746.877	24663.24
747.216	24716.57
747.556	24764.02
747.895	24708.88
748.234	24649
748.573	24571.49
748.911	24419.63
749.25	24434.09
749.589	24409.68
749.928	24489
750.267	24441.77
750.605	24297.82
750.944	24363.58
751.283	24205.62
751.621	24210.37
751.96	24136.24
752.298	24199.07
752.636	24155.45
752.975	23976.02
753.313	23942.12
753.651	24089.01
753.989	23930.6
754.327	23910.26
754.666	23893.76
755.004	23700.32
755.342	23852.41
755.679	23731.51
756.017	23606.09
756.355	23657.61
756.693	23541.23
757.031	23561.34
757.368	23449.48
757.706	23442.02
758.044	23304.4
758.381	23272.31
758.719	23261.92
759.056	23202.26
759.394	23206.1
759.731	23031.87
760.068	22993.45
760.405	22907.12
760.743	22834.36
761.08	22802.49
