Data from hue_110_FLMS001491_00085.txt Node
Date: Tue Feb 07 17:01:56 GMT 2017
User: dcchb
Spectrometer: FLMS00149
Trigger mode: 0
Integration Time (sec): 2.000000E-2
Scans to average: 10
Electric dark correction enabled: true
Nonlinearity correction enabled: false
Boxcar width: 0
XAxis mode: Wavelengths
Number of Pixels in Spectrum: 2048
>>>>>Begin Spectral Data<<<<<
341.393	-6.45
341.776	-6.45
342.16	-6.45
342.543	-61.82
342.927	-74.48
343.31	-71.09
343.693	-56.17
344.077	-74.93
344.46	-75.61
344.843	-48.94
345.226	-44.19
345.61	-30.41
345.993	-20.01
346.376	0.78
346.759	-3.06
347.142	25.18
347.525	42.13
347.908	76.93
348.291	87.78
348.674	86.65
349.057	104.95
349.44	126.42
349.823	155.8
350.206	157.61
350.588	186.08
350.971	208.45
351.354	205.97
351.737	226.99
352.119	244.61
352.502	264.72
352.884	255.69
353.267	265.63
353.65	290.03
354.032	311.28
354.414	311.28
354.797	298.4
355.179	330.49
355.562	330.71
355.944	315.12
356.326	335.23
356.709	329.13
357.091	343.14
357.473	349.24
357.855	342.24
358.238	358.28
358.62	347.21
359.002	354.21
359.384	356.25
359.766	328
360.148	320.99
360.53	329.36
360.912	316.25
361.294	320.99
361.676	326.87
362.057	327.55
362.439	342.01
362.821	327.1
363.203	315.57
363.584	312.41
363.966	308.57
364.348	326.19
364.729	308.79
365.111	309.24
365.493	311.73
365.874	329.36
366.256	318.51
366.637	308.34
367.019	325.06
367.4	324.16
367.781	314.21
368.163	284.39
368.544	323.71
368.925	292.52
369.306	332.52
369.688	310.83
370.069	314.67
370.45	301.79
370.831	312.86
371.212	312.41
371.593	306.53
371.974	307.89
372.355	311.73
372.736	322.8
373.117	327.1
373.498	325.51
373.879	316.25
374.26	311.05
374.641	336.36
375.021	311.5
375.402	302.92
375.783	314.21
376.163	328.45
376.544	320.77
376.925	304.05
377.305	296.81
377.686	324.16
378.066	330.49
378.447	309.02
378.827	323.48
379.208	330.03
379.588	324.84
379.968	317.83
380.349	337.94
380.729	308.79
381.109	353.76
381.489	323.71
381.87	334.55
382.25	347.66
382.63	336.81
383.01	348.79
383.39	326.42
383.77	344.27
384.15	346.53
384.53	349.02
384.91	337.27
385.29	348.11
385.67	352.41
386.049	350.82
386.429	338.62
386.809	347.89
387.189	347.21
387.568	356.47
387.948	361.45
388.328	373.42
388.707	349.92
389.087	358.51
389.466	362.12
389.846	360.32
390.225	357.83
390.605	366.64
390.984	357.83
391.363	344.04
391.743	358.28
392.122	399.64
392.501	363.25
392.881	363.25
393.26	371.16
393.639	371.61
394.018	358.06
394.397	361.9
394.776	375.46
395.155	357.38
395.534	384.5
395.913	375.68
396.292	375
396.671	415.23
397.05	380.2
397.429	372.52
397.808	390.82
398.186	393.99
398.565	390.6
398.944	397.15
399.323	390.15
399.701	375.23
400.08	375.23
400.458	387.89
400.837	393.76
401.215	391.28
401.594	396.25
401.972	397.38
402.351	392.86
402.729	417.72
403.107	409.13
403.486	420.43
403.864	414.33
404.242	406.87
404.62	389.02
404.999	423.36
405.377	419.75
405.755	440.77
406.133	428.34
406.511	438.51
406.889	410.26
407.267	417.49
407.645	433.53
408.023	430.14
408.401	439.41
408.779	448.67
409.156	432.4
409.534	448.9
409.912	459.3
410.29	444.61
410.667	477.83
411.045	462.91
411.422	473.53
411.8	448.22
412.178	462.91
412.555	479.86
412.933	465.17
413.31	460.43
413.687	471.95
414.065	505.85
414.442	510.14
414.819	466.08
415.197	486.87
415.574	503.36
415.951	498.39
416.328	495.23
416.705	512.18
417.082	499.52
417.46	492.97
417.837	514.21
418.214	523.47
418.591	506.53
418.967	500.65
419.344	524.6
419.721	540.42
420.098	537.94
420.475	518.28
420.852	516.47
421.228	555.56
421.605	519.41
421.982	527.99
422.358	538.62
422.735	548.11
423.111	557.15
423.488	567.99
423.864	564.83
424.241	569.58
424.617	567.77
424.994	554.21
425.37	543.36
425.746	559.41
426.123	586.3
426.499	580.2
426.875	601.89
427.251	600.54
427.627	616.13
428.003	579.29
428.379	603.02
428.756	589.24
429.132	599.18
429.507	625.39
429.883	618.84
430.259	631.04
430.635	664.49
431.011	630.59
431.387	648.67
431.763	626.75
432.138	650.7
432.514	663.13
432.89	655
433.265	660.87
433.641	679.63
434.016	665.39
434.392	706.75
434.767	708.78
435.143	695.9
435.518	690.7
435.894	709.68
436.269	737.48
436.644	714.66
437.02	730.02
437.395	736.58
437.77	735.9
438.145	745.39
438.52	759.4
438.895	772.51
439.271	770.93
439.646	759.17
440.021	770.25
440.395	774.77
440.77	760.98
441.145	784.26
441.52	782
441.895	833.52
442.27	805.28
442.645	820.42
443.019	797.37
443.394	820.42
443.769	809.57
444.143	830.59
444.518	838.72
444.892	828.33
445.267	835.56
445.641	864.03
446.016	848.21
446.39	850.92
446.764	861.09
447.139	862.68
447.513	857.93
447.887	861.09
448.262	892.96
448.636	872.84
449.01	876.23
449.384	924.14
449.758	911.49
450.132	914.88
450.506	899.96
450.88	904.26
451.254	936.8
451.628	975.44
452.002	955.78
452.376	968.21
452.75	963.69
453.123	956.01
453.497	973.41
453.871	1010.02
454.244	1008.21
454.618	997.81
454.992	1005.27
455.365	1025.38
455.739	1062.22
456.112	1072.39
456.486	1081.88
456.859	1063.35
457.232	1081.2
457.606	1083.69
457.979	1097.47
458.352	1138.6
458.725	1149
459.099	1119.39
459.472	1164.81
459.845	1195.77
460.218	1217.47
460.591	1196
460.964	1221.54
461.337	1215.43
461.71	1241.65
462.083	1248.88
462.456	1274.64
462.829	1245.04
463.201	1315.77
463.574	1332.72
463.947	1321.19
464.32	1345.15
464.692	1365.71
465.065	1356.9
465.438	1365.94
465.81	1417.69
466.183	1426.5
466.555	1475.09
466.928	1498.36
467.3	1508.76
467.672	1527.52
468.045	1548.53
468.417	1559.61
468.789	1607.06
469.161	1612.03
469.534	1629.89
469.906	1699.72
470.278	1675.99
470.65	1772.03
471.022	1786.27
471.394	1809.09
471.766	1843.21
472.138	1856.77
472.51	1887.28
472.882	1934.29
473.253	1981.74
473.625	2011.12
473.997	2064.45
474.369	2095.64
474.74	2107.16
475.112	2184
475.484	2246.14
475.855	2279.13
476.227	2332.92
476.598	2430.77
476.97	2481.62
477.341	2532.01
477.713	2590.77
478.084	2631.22
478.455	2746.69
478.827	2770.2
479.198	2879.57
479.569	2889.51
479.94	3024.2
480.311	3059.23
480.682	3167.25
481.053	3275.04
481.424	3355.49
481.795	3434.36
482.166	3508.93
482.537	3607.91
482.908	3720.23
483.279	3800.22
483.65	3947.79
484.021	4061.01
484.391	4144.62
484.762	4240.89
485.133	4320.21
485.503	4425.29
485.874	4585.97
486.244	4713.42
486.615	4803.36
486.985	4936.69
487.356	5045.39
487.726	5129.68
488.097	5277.93
488.467	5394.76
488.837	5570.12
489.207	5726.28
489.578	5855.31
489.948	5956.33
490.318	6086.72
490.688	6207.85
491.058	6350.67
491.428	6470.44
491.798	6626.14
492.168	6774.84
492.538	6867.49
492.908	7010.08
493.278	7184.54
493.648	7279.23
494.017	7434.93
494.387	7552.22
494.757	7694.81
495.126	7881.25
495.496	7913.11
495.866	8009.61
496.235	8137.51
496.605	8357.62
496.974	8447.33
497.344	8615.69
497.713	8677.61
498.082	8785.4
498.452	8986.08
498.821	9034.66
499.19	9106.3
499.559	9274.66
499.928	9302
500.298	9493.63
500.667	9640.98
501.036	9551.03
501.405	9778.82
501.774	9844.59
502.143	9936.33
502.512	9949.22
502.88	10150.79
503.249	10232.6
503.618	10228.98
503.987	10352.82
504.356	10437.56
504.724	10549.88
505.093	10611.35
505.462	10683.89
505.83	10800.49
506.199	10871.45
506.567	10991
506.936	11017.89
507.304	11180.6
507.672	11193.02
508.041	11235.06
508.409	11345.11
508.777	11475.05
509.145	11585.56
509.514	11611.77
509.882	11626.01
510.25	11661.71
510.618	11836.85
510.986	11772.9
511.354	11974.02
511.722	12025.77
512.09	12130.18
512.458	12062.61
512.826	12113.9
513.193	12240.45
513.561	12276.16
513.929	12284.52
514.297	12430.05
514.664	12487.45
515.032	12484.97
515.4	12584.4
515.767	12649.03
516.135	12665.08
516.502	12603.84
516.869	12819.42
517.237	12881.57
517.604	12740.78
517.972	12905.3
518.339	13023.94
518.706	12903.04
519.073	13041.79
519.44	12986.2
519.808	13135.35
520.175	13077.27
520.542	13248.79
520.909	13298.51
521.276	13203.59
521.643	13250.37
522.009	13357.04
522.376	13369.69
522.743	13433.87
523.11	13492.17
523.477	13510.7
523.843	13576.24
524.21	13658.95
524.577	13719.29
524.943	13738.27
525.31	13738.27
525.676	13830.92
526.043	13912.28
526.409	13830.02
526.776	13909.11
527.142	14005.38
527.508	14028.66
527.874	14010.35
528.241	14007.41
528.607	14047.41
528.973	14048.32
529.339	14048.09
529.705	14119.05
530.071	14187.75
530.437	14137.58
530.803	14158.6
531.169	14198.82
531.535	14129.67
531.901	14131.48
532.267	14159.5
532.632	14190.46
532.998	14197.24
533.364	14244.7
533.73	14170.35
534.095	14249.44
534.461	14229.56
534.826	14228.65
535.192	14157.69
535.557	14216.67
535.923	14211.48
536.288	14156.56
536.653	14183.68
537.019	14112.95
537.384	14159.05
537.749	14119.5
538.114	14092.38
538.479	13972.84
538.845	14044.93
539.21	13907.53
539.575	13928.32
539.94	13832.28
540.305	14016.23
540.67	13947.3
541.034	13810.36
541.399	13846.97
541.764	13926.51
542.129	13806.29
542.494	13766.06
542.858	13819.62
543.223	13733.75
543.587	13817.59
543.952	13695.33
544.316	13658.95
544.681	13625.73
545.045	13691.26
545.41	13618.72
545.774	13569.69
546.138	13635.9
546.503	13511.38
546.867	13514.09
547.231	13555.22
547.595	13455.56
547.959	13526.52
548.324	13452.85
548.688	13425.96
549.052	13407.2
549.416	13368.79
549.779	13295.79
550.143	13291.27
550.507	13309.35
550.871	13283.37
551.235	13178.96
551.599	13283.59
551.962	13237.49
552.326	13161.79
552.689	13220.54
553.053	13085.63
553.417	13088.79
553.78	13206.76
554.143	13111.62
554.507	13101.68
554.87	13052.64
555.234	13215.57
555.597	13090.38
555.96	13051.51
556.323	13102.58
556.686	13014.45
557.05	13044.95
557.413	13053.54
557.776	12993.88
558.139	12978.29
558.502	12994.11
558.865	12951.17
559.228	13152.75
559.59	13049.93
559.953	12967.89
560.316	13065.29
560.679	13085.86
561.041	13052.64
561.404	13070.94
561.767	13082.24
562.129	12953.88
562.492	13116.14
562.854	13084.27
563.217	13064.39
563.579	13068
563.941	13147.32
564.304	13130.83
564.666	13199.53
565.028	13258.51
565.39	13141
565.753	13183.93
566.115	13185.74
566.477	13264.83
566.839	13201.56
567.201	13254.67
567.563	13201.56
567.925	13272.74
568.287	13260.32
568.648	13297.38
569.01	13284.27
569.372	13333.53
569.734	13372.18
570.095	13302.35
570.457	13375.34
570.819	13415.79
571.18	13293.31
571.542	13451.95
571.903	13376.47
572.265	13427.77
572.626	13446.75
572.987	13486.07
573.349	13460.08
573.71	13536.92
574.071	13567.88
574.432	13477.48
574.794	13577.37
575.155	13522
575.516	13516.35
575.877	13613.3
576.238	13598.84
576.599	13687.65
576.96	13568.1
577.32	13526.75
577.681	13561.32
578.042	13683.58
578.403	13594.32
578.763	13605.62
579.124	13597.26
579.485	13665.28
579.845	13664.15
580.206	13637.25
580.566	13516.13
580.927	13570.82
581.287	13612.4
581.648	13564.49
582.008	13643.36
582.368	13593.41
582.728	13541.89
583.089	13601.55
583.449	13556.13
583.809	13605.16
584.169	13557.48
584.529	13487.88
584.889	13581.44
585.249	13534.66
585.609	13436.58
585.969	13516.58
586.329	13533.75
586.688	13550.7
587.048	13426.86
587.408	13420.99
587.768	13419.41
588.127	13530.59
588.487	13424.15
588.846	13495.79
589.206	13389.35
589.565	13409.69
589.925	13437.03
590.284	13486.52
590.643	13393.42
591.003	13418.5
591.362	13491.72
591.721	13437.26
592.08	13400.42
592.44	13517.71
592.799	13454.21
593.158	13373.76
593.517	13399.07
593.876	13413.98
594.235	13350.03
594.593	13353.87
594.952	13364.27
595.311	13308.22
595.67	13355.23
596.029	13399.52
596.387	13357.71
596.746	13422.34
597.104	13331.27
597.463	13298.96
597.822	13283.14
598.18	13364.95
598.538	13298.51
598.897	13361.78
599.255	13247.66
599.613	13426.41
599.972	13307.09
600.33	13387.77
600.688	13312.29
601.046	13381.67
601.404	13391.84
601.762	13322.01
602.12	13376.02
602.478	13418.28
602.836	13310.26
603.194	13267.55
603.552	13320.2
603.91	13227.55
604.268	13284.72
604.625	13307.32
604.983	13420.54
605.341	13331.5
605.698	13377.15
606.056	13366.08
606.413	13327.88
606.771	13440.42
607.128	13392.74
607.485	13330.6
607.843	13344.15
608.2	13414.21
608.557	13450.14
608.914	13411.5
609.272	13422.8
609.629	13481.78
609.986	13494.89
610.343	13402.23
610.7	13534.43
611.057	13463.93
611.414	13518.16
611.771	13505.51
612.127	13472.51
612.484	13493.98
612.841	13606.29
613.198	13521.55
613.554	13623.24
613.911	13582.57
614.267	13571.95
614.624	13546.18
614.98	13684.48
615.337	13638.38
615.693	13685.39
616.05	13543.7
616.406	13734.88
616.762	13714.31
617.118	13631.6
617.475	13672.28
617.831	13742.11
618.187	13690.13
618.543	13666.63
618.899	13805.84
619.255	13778.72
619.611	13763.58
619.967	13815.1
620.323	13853.75
620.678	13737.36
621.034	13736.69
621.39	13640.64
621.746	13714.54
622.101	13852.84
622.457	13833.41
622.812	13869.11
623.168	13842.67
623.523	13848.1
623.879	13836.12
624.234	13729.91
624.589	13793.86
624.945	13784.6
625.3	13826.18
625.655	13759.29
626.01	13750.25
626.365	13818.94
626.72	13745.05
627.075	13713.86
627.43	13778.27
627.785	13673.41
628.14	13734.2
628.495	13794.76
628.85	13759.74
629.205	13652.62
629.559	13686.52
629.914	13632.51
630.269	13640.87
630.623	13686.74
630.978	13584.83
631.332	13642.68
631.687	13707.08
632.041	13644.94
632.396	13649.68
632.75	13592.28
633.104	13647.42
633.459	13611.49
633.813	13584.6
634.167	13575.56
634.521	13550.48
634.875	13533.3
635.229	13561.55
635.583	13515.22
635.937	13485.17
636.291	13393.19
636.645	13420.54
636.999	13391.39
637.352	13456.02
637.706	13357.94
638.06	13353.65
638.413	13344.83
638.767	13377.83
639.121	13362.23
639.474	13280.88
639.828	13282.24
640.181	13361.56
640.534	13263.25
640.888	13281.11
641.241	13218.28
641.594	13266.87
641.947	13316.13
642.301	13275.91
642.654	13197.94
643.007	13268.68
643.36	13283.14
643.713	13334.44
644.066	13324.04
644.419	13213.76
644.771	13147.32
645.124	12999.76
645.477	12986.88
645.83	12943.04
646.182	12917.05
646.535	12811.74
646.888	12823.04
647.24	12799.76
647.593	12814.23
647.945	12826.43
648.298	12649.94
648.65	12722.48
649.002	12733.1
649.355	12669.82
649.707	12749.59
650.059	12759.54
650.411	12896.93
650.763	12971.28
651.115	13081.56
651.467	12969.48
651.819	13023.49
652.171	12911.4
652.523	13030.94
652.875	13001.34
653.227	12912.53
653.578	13109.58
653.93	13077.95
654.282	12915.47
654.633	13004.5
654.985	12969.7
655.337	12971.96
655.688	13013.54
656.039	13010.38
656.391	12946.88
656.742	13019.87
657.094	13000.21
657.445	13004.73
657.796	13043.82
658.147	12973.32
658.498	13027.1
658.849	13081.34
659.2	13004.5
659.551	13026.65
659.902	13089.02
660.253	13051.73
660.604	13103.26
660.955	13021.68
661.306	13078.85
661.656	13081.34
662.007	13068.68
662.358	13130.15
662.708	13106.65
663.059	13089.7
663.409	13002.92
663.76	13113.65
664.11	13108.45
664.461	13083.82
664.811	13073.65
665.161	13119.08
665.511	13080.21
665.862	13017.16
666.212	13100.32
666.562	13069.81
666.912	13151.62
667.262	13090.6
667.612	13132.18
667.962	13131.05
668.312	13004.95
668.662	13190.49
669.011	13199.98
669.361	13079.98
669.711	13099.19
670.06	13069.13
670.41	13046.31
670.76	13029.81
671.109	13094.9
671.459	13031.17
671.808	13065.52
672.157	13145.74
672.507	12969.7
672.856	13009.47
673.205	12965.86
673.554	13018.74
673.904	12949.81
674.253	12981.68
674.602	12887.44
674.951	12797.05
675.3	12690.16
675.649	12942.13
675.998	12836.37
676.346	12881.79
676.695	12907.78
677.044	12804.06
677.393	12826.65
677.741	12822.81
678.09	12856.71
678.438	12852.64
678.787	12785.53
679.135	12791.17
679.484	12785.98
679.832	12801.57
680.181	12642.7
680.529	12776.49
680.877	12694.68
681.225	12704.85
681.573	12715.47
681.922	12625.08
682.27	12599.54
682.618	12595.25
682.966	12551.41
683.314	12616.04
683.661	12568.58
684.009	12488.58
684.357	12456.04
684.705	12423.73
685.053	12464.18
685.4	12479.54
685.748	12336.95
686.095	12331.53
686.443	12331.07
686.79	12302.37
687.138	12289.49
687.485	12294.46
687.832	12233.45
688.18	12190.29
688.527	12150.29
688.874	12133.57
689.221	12051.08
689.568	12094.92
689.915	12059.67
690.262	11999.56
690.609	11932.67
690.956	11894.02
691.303	11884.76
691.65	11824.65
691.997	11798.88
692.344	11772.9
692.69	11719.34
693.037	11726.12
693.383	11569.74
693.73	11581.26
694.077	11614.71
694.423	11637.31
694.769	11540.36
695.116	11452.23
695.462	11469.63
695.808	11451.1
696.155	11395.28
696.501	11316.19
696.847	11317.09
697.193	11240.48
697.539	11295.62
697.885	11210.88
698.231	11147.15
698.577	11090.43
698.923	11082.97
699.269	11115.96
699.614	10996.42
699.96	10946.25
700.306	10933.82
700.651	10901.28
700.997	10829.19
701.342	10776.31
701.688	10760.49
702.033	10746.03
702.379	10642.53
702.724	10678.24
703.069	10717.78
703.415	10589.65
703.76	10599.37
704.105	10502.42
704.45	10552.14
704.795	10438.69
705.14	10437.79
705.485	10357.11
705.83	10308.98
706.175	10409.54
706.52	10343.1
706.865	10263.56
707.209	10278.02
707.554	10216.33
707.899	10261.3
708.243	10185.59
708.588	10094.07
708.932	10101.53
709.277	10053.62
709.621	10032.6
709.966	9959.84
710.31	10028.08
710.654	9966.39
710.998	9972.49
711.342	10000.29
711.687	9882.78
712.031	9876.22
712.375	9776.56
712.719	9879.39
713.063	9843.91
713.407	9757.36
713.75	9756.68
714.094	9771.37
714.438	9682.1
714.782	9713.06
715.125	9667.19
715.469	9718.94
715.812	9606.17
716.156	9585.38
716.499	9583.12
716.843	9555.78
717.186	9535.44
717.53	9646.85
717.873	9598.49
718.216	9555.55
718.559	9507.87
718.902	9449.34
719.246	9479.85
719.589	9456.35
719.932	9430.13
720.275	9391.49
720.617	9414.54
720.96	9435.33
721.303	9456.12
721.646	9376.12
721.989	9333.64
722.331	9390.59
722.674	9310.14
723.016	9402.34
723.359	9388.78
723.701	9333.41
724.044	9373.86
724.386	9302.45
724.729	9376.58
725.071	9328.44
725.413	9226.07
725.755	9277.6
726.097	9254.09
726.439	9248.9
726.782	9251.38
727.124	9272.4
727.465	9240.99
727.807	9267.65
728.149	9207.99
728.491	9212.06
728.833	9242.57
729.175	9191.5
729.516	9147.65
729.858	9186.07
730.199	9145.85
730.541	9176.58
730.882	9131.38
731.224	9146.07
731.565	9169.8
731.906	9145.85
732.248	9134.77
732.589	9143.36
732.93	9134.55
733.271	9160.76
733.612	9100.42
733.953	9137.94
734.294	9172.06
734.635	9113.08
734.976	9119.86
735.317	9100.2
735.658	9085.06
735.999	9150.82
736.339	9188.56
736.68	9151.04
737.021	9197.15
737.361	9079.41
737.702	9117.83
738.042	9141.33
738.383	9150.82
738.723	9201.66
739.063	9182
739.404	9195.11
739.744	9109.24
740.084	9151.5
740.424	9233.08
740.764	9171.38
741.104	9247.54
741.444	9177.71
741.784	9219.97
742.124	9262.45
742.464	9313.98
742.804	9264.71
743.143	9273.3
743.483	9356.24
743.823	9305.16
744.162	9328.89
744.502	9407.31
744.841	9379.29
745.181	9396.01
745.52	9477.82
745.86	9516.91
746.199	9510.81
746.538	9509.23
746.877	9626.74
747.216	9643.24
747.556	9709.67
747.895	9757.81
748.234	9725.94
748.573	9781.99
748.911	9914.41
749.25	9913.96
749.589	9956.67
749.928	10107.86
750.267	10166.39
750.605	10166.39
750.944	10264.24
751.283	10296.78
751.621	10426.27
751.96	10515.75
752.298	10567.73
752.636	10631.68
752.975	10721.85
753.313	10798.01
753.651	10993.03
753.989	11040.26
754.327	11142.18
754.666	11187.83
755.004	11329.97
755.342	11507.82
755.679	11649.74
756.017	11726.57
756.355	11867.36
756.693	12029.39
757.031	12150.74
757.368	12256.73
757.706	12416.95
758.044	12454.23
758.381	12656.72
