Data from hue_80_FLMS001491_3.txt Node
Date: Mon Feb 06 15:22:21 GMT 2017
User: dcchb
Spectrometer: FLMS00149
Trigger mode: 0
Integration Time (sec): 2.000000E-2
Scans to average: 10
Electric dark correction enabled: true
Nonlinearity correction enabled: false
Boxcar width: 0
XAxis mode: Wavelengths
Number of Pixels in Spectrum: 2048
>>>>>Begin Spectral Data<<<<<
341.393	-7.94
341.776	-7.94
342.16	-7.94
342.543	-60.82
342.927	-63.08
343.31	-57.43
343.693	-64.21
344.077	-61.27
344.46	-66.69
344.843	-40.25
345.226	-61.27
345.61	-15.62
345.993	-37.32
346.376	-28.05
346.759	13.3
347.142	22.34
347.525	40.42
347.908	49.01
348.291	77.26
348.674	108.44
349.057	121.32
349.44	122.68
349.823	162
350.206	151.83
350.588	183.47
350.971	212.17
351.354	219.63
351.737	218.5
352.119	257.14
352.502	289
352.884	276.57
353.267	293.52
353.65	293.98
354.032	318.83
354.414	307.76
354.797	300.08
355.179	291.26
355.562	317.03
355.944	322.22
356.326	342.34
356.709	342.11
357.091	334.43
357.473	315.67
357.855	346.18
358.238	327.65
358.62	359.74
359.002	341.21
359.384	339.17
359.766	348.66
360.148	347.08
360.53	350.7
360.912	333.52
361.294	333.07
361.676	338.49
362.057	317.48
362.439	322.68
362.821	325.39
363.203	320.42
363.584	336.46
363.966	328.1
364.348	313.41
364.729	310.7
365.111	295.56
365.493	347.31
365.874	320.64
366.256	307.08
366.637	308.44
367.019	314.09
367.4	297.59
367.781	327.65
368.163	319.96
368.544	319.29
368.925	304.14
369.306	323.13
369.688	329.23
370.069	309.34
370.45	314.09
370.831	304.37
371.212	317.03
371.593	316.8
371.974	305.5
372.355	319.74
372.736	342.56
373.117	329.68
373.498	304.37
373.879	326.52
374.26	316.12
374.641	333.97
375.021	306.18
375.402	331.26
375.783	323.35
376.163	347.99
376.544	331.04
376.925	323.35
377.305	318.83
377.686	320.64
378.066	302.11
378.447	326.74
378.827	330.58
379.208	320.64
379.588	323.81
379.968	322.45
380.349	332.17
380.729	335.1
381.109	347.76
381.489	338.49
381.87	336.01
382.25	345.27
382.63	330.58
383.01	333.07
383.39	331.94
383.77	329.91
384.15	334.43
384.53	338.49
384.91	345.27
385.29	345.5
385.67	363.35
386.049	336.46
386.429	343.69
386.809	371.04
387.189	347.76
387.568	351.83
387.948	359.74
388.328	340.98
388.707	353.86
389.087	356.35
389.466	364.93
389.846	345.05
390.225	377.14
390.605	374.65
390.984	356.57
391.363	354.76
391.743	366.52
392.122	372.84
392.501	387.98
392.881	367.87
393.26	389.34
393.639	362.45
394.018	369.45
394.397	366.52
394.776	376.69
395.155	359.51
395.534	384.37
395.913	391.6
396.292	382.56
396.671	374.43
397.05	370.13
397.429	400.41
397.808	369.91
398.186	386.4
398.565	382.11
398.944	383.24
399.323	393.63
399.701	396.8
400.08	376.23
400.458	393.86
400.837	402.67
401.215	401.54
401.594	409.45
401.972	404.93
402.351	394.09
402.729	406.74
403.107	413.52
403.486	371.71
403.864	407.64
404.242	400.64
404.62	405.61
404.999	412.84
405.377	411.71
405.755	411.71
406.133	430.92
406.511	421.43
406.889	428.44
407.267	409.45
407.645	408.77
408.023	420.3
408.401	446.51
408.779	429.34
409.156	439.96
409.534	445.38
409.912	449.68
410.29	438.15
410.667	430.69
411.045	430.02
411.422	462.56
411.8	446.51
412.178	458.94
412.555	449.68
412.933	440.86
413.31	456.91
413.687	468.21
414.065	462.78
414.442	471.6
414.819	458.72
415.197	481.99
415.574	489.9
415.951	496.91
416.328	488.77
416.705	495.1
417.082	502.11
417.46	495.33
417.837	493.97
418.214	519.05
418.591	509.56
418.967	498.04
419.344	498.04
419.721	515.44
420.098	497.36
420.475	513.63
420.852	519.28
421.228	510.69
421.605	524.25
421.982	525.38
422.358	554.99
422.735	537.36
423.111	534.42
423.488	554.53
423.864	517.47
424.241	559.51
424.617	552.05
424.994	564.93
425.37	547.75
425.746	543.23
426.123	591.14
426.499	568.09
426.875	570.35
427.251	568.32
427.627	574.87
428.003	571.93
428.379	611.93
428.756	578.04
429.132	591.59
429.507	583.46
429.883	587.98
430.259	602.44
430.635	616.68
431.011	628.43
431.387	617.13
431.763	627.07
432.138	644.7
432.514	637.7
432.89	633.63
433.265	641.54
433.641	656.9
434.016	639.05
434.392	681.31
434.767	647.41
435.143	652.38
435.518	703.23
435.894	704.36
436.269	691.48
436.644	702.33
437.02	713.4
437.395	709.11
437.77	711.14
438.145	701.2
438.52	731.48
438.895	712.72
439.271	723.12
439.646	736.22
440.021	735.55
440.395	729.22
440.77	751.14
441.145	766.96
441.52	757.24
441.895	775.54
442.27	771.25
442.645	779.39
443.019	797.46
443.394	787.75
443.769	786.84
444.143	778.03
444.518	794.53
444.892	795.66
445.267	800.18
445.641	797.46
446.016	810.35
446.39	817.8
446.764	836.11
447.139	827.97
447.513	842.89
447.887	831.14
448.262	853.73
448.636	843.34
449.01	872.04
449.384	865.94
449.758	828.2
450.132	871.14
450.506	880.85
450.88	898.71
451.254	888.54
451.628	902.09
452.002	908.42
452.376	928.99
452.75	929.89
453.123	916.56
453.497	944.81
453.871	965.37
454.244	941.87
454.618	988.65
454.992	982.54
455.365	980.06
455.739	997.91
456.112	1004.47
456.486	1013.05
456.859	1035.65
457.232	1058.93
457.606	1085.37
457.979	1044.46
458.352	1045.14
458.725	1084.91
459.099	1102.09
459.472	1091.92
459.845	1127.4
460.218	1133.5
460.591	1115.42
460.964	1143.44
461.337	1162.65
461.71	1188.87
462.083	1202.65
462.456	1210.56
462.829	1226.38
463.201	1243.1
463.574	1250.11
463.947	1260.5
464.32	1323.78
464.692	1293.27
465.065	1302.54
465.438	1336.89
465.81	1352.48
466.183	1359.94
466.555	1403.78
466.928	1425.7
467.3	1370.33
467.672	1442.19
468.045	1470.44
468.417	1506.82
468.789	1513.38
469.161	1522.64
469.534	1574.17
469.906	1573.26
470.278	1599.25
470.65	1648.97
471.022	1671.57
471.394	1763.09
471.766	1742.75
472.138	1754.05
472.51	1790.21
472.882	1828.17
473.253	1838.34
473.625	1896.19
473.997	1978
474.369	1985.23
474.74	2017.32
475.112	2068.84
475.484	2110.88
475.855	2197.2
476.227	2196.3
476.598	2260.48
476.97	2328.05
477.341	2386.35
477.713	2477.87
478.084	2512
478.455	2603.75
478.827	2622.28
479.198	2722.61
479.569	2771.42
479.94	2859.11
480.311	2909.73
480.682	3021.59
481.053	3070.85
481.424	3177.74
481.795	3296.16
482.166	3324.18
482.537	3425.64
482.908	3565.3
483.279	3639.42
483.65	3728.46
484.021	3823.83
484.391	3941.79
484.762	4052.07
485.133	4112.41
485.503	4259.75
485.874	4379.29
486.244	4423.58
486.615	4587.65
486.985	4726.63
487.356	4839.84
487.726	4919.39
488.097	5130.46
488.467	5158.48
488.837	5358.47
489.207	5451.58
489.578	5632.59
489.948	5766.6
490.318	5886.82
490.688	5997.1
491.058	6176.98
491.428	6341.95
491.798	6409.52
492.168	6638.22
492.538	6739
492.908	6819.91
493.278	7047.47
493.648	7076.4
494.017	7216.73
494.387	7389.16
494.757	7462.83
495.126	7704.63
495.496	7750.95
495.866	7927.67
496.235	8047.67
496.605	8198.85
496.974	8331.5
497.344	8490.14
497.713	8621.89
498.082	8748.89
498.452	8931.04
498.821	9009
499.19	9095.1
499.559	9254.19
499.928	9325.83
500.298	9440.63
500.667	9600.17
501.036	9681.3
501.405	9824.8
501.774	9903.89
502.143	10071.8
502.512	10128.29
502.88	10300.04
503.249	10354.95
503.618	10477.89
503.987	10583.2
504.356	10702.29
504.724	10829.29
505.093	10926.24
505.462	10952.68
505.83	11096.86
506.199	11243.07
506.567	11433.34
506.936	11421.59
507.304	11610.29
507.672	11709.72
508.041	11768.02
508.409	11928.7
508.777	11987.91
509.145	12062.48
509.514	12206.88
509.882	12283.26
510.25	12281.91
510.618	12450.72
510.986	12535.69
511.354	12660.43
511.722	12775.23
512.09	12834.89
512.458	12848
512.826	12968.67
513.193	13169.12
513.561	13111.72
513.929	13221.09
514.297	13422.67
514.664	13439.17
515.032	13440.97
515.4	13638.48
515.767	13597.35
516.135	13701.76
516.502	13669.22
516.869	13884.35
517.237	13962.99
517.604	13928.65
517.972	14059.72
518.339	14094.97
518.706	14227.39
519.073	14246.83
519.44	14323.21
519.808	14493.83
520.175	14474.39
520.542	14688.17
520.909	14701.28
521.276	14639.59
521.643	14802.29
522.009	14852.01
522.376	14933.14
522.743	14937.88
523.11	15100.14
523.477	15226.69
523.843	15285.67
524.21	15382.84
524.577	15397.76
524.943	15456.06
525.31	15597.98
525.676	15645.44
526.043	15655.38
526.409	15725.43
526.776	15915.71
527.142	15881.81
527.508	15865.09
527.874	15974.69
528.241	16036.16
528.607	16000.91
528.973	16089.72
529.339	16121.58
529.705	16270.73
530.071	16310.96
530.437	16338.53
530.803	16386.66
531.169	16442.7
531.535	16343.04
531.901	16437.05
532.267	16479.99
532.632	16601.57
532.998	16491.52
533.364	16587.78
533.73	16623.04
534.095	16567.45
534.461	16659.65
534.826	16679.99
535.192	16713.88
535.557	16803.82
535.923	16727.67
536.288	16788.68
536.653	16785.97
537.019	16718.18
537.384	16821.9
537.749	16791.17
538.114	16897.15
538.479	16763.6
538.845	16783.71
539.21	16741.23
539.575	16830.94
539.94	16834.33
540.305	16917.94
540.67	16895.57
541.034	16787.33
541.399	16999.75
541.764	16845.63
542.129	16901.9
542.494	16961.11
542.858	16838.63
543.223	16865.74
543.587	16930.37
543.952	16846.08
544.316	16828.46
544.681	16781.9
545.045	16789.81
545.41	16791.39
545.774	16747.1
546.138	16799.3
546.503	16798.4
546.867	16751.17
547.231	16905.52
547.595	16802.02
547.959	16838.63
548.324	16880.66
548.688	16750.94
549.052	16776.25
549.416	16724.28
549.779	16783.71
550.143	16766.08
550.507	16821.22
550.871	16775.12
551.235	16700.78
551.599	16889.25
551.962	16781.45
552.326	16830.72
552.689	16908.91
553.053	16724.5
553.417	16710.27
553.78	16870.71
554.143	16745.07
554.507	16797.72
554.87	16815.57
555.234	16915.01
555.597	16768.12
555.96	16864.61
556.323	16921.33
556.686	16764.05
557.05	16849.92
557.413	16876.14
557.776	16863.71
558.139	16856.03
558.502	16944.16
558.865	16985.06
559.228	17098.73
559.59	17020.54
559.953	16950.26
560.316	17112.29
560.679	17021.45
561.041	17188.45
561.404	17187.32
561.767	17201.78
562.129	17133.53
562.492	17275.9
562.854	17234.55
563.217	17228.22
563.579	17232.96
563.941	17305.28
564.304	17440.19
564.666	17491.26
565.028	17438.61
565.39	17456.46
565.753	17500.53
566.115	17483.35
566.477	17524.93
566.839	17560.19
567.201	17611.94
567.563	17628.21
567.925	17672.5
568.287	17697.81
568.648	17626.4
569.01	17779.62
569.372	17923.79
569.734	17751.14
570.095	17904.59
570.457	17909.78
570.819	17889.67
571.18	17951.14
571.542	18040.85
571.903	18027.52
572.265	18102.77
572.626	18044.7
572.987	18076.56
573.349	18164.69
573.71	18193.39
574.071	18192.71
574.432	18193.39
574.794	18372.14
575.155	18183
575.516	18234.52
575.877	18248.53
576.238	18268.64
576.599	18367.62
576.96	18363.1
577.32	18366.72
577.681	18316.55
578.042	18317.23
578.403	18357.68
578.763	18306.38
579.124	18473.84
579.485	18379.38
579.845	18431.35
580.206	18382.31
580.566	18405.82
580.927	18496.66
581.287	18494.63
581.648	18403.78
582.008	18559.26
582.368	18501.18
582.728	18473.61
583.089	18430.22
583.449	18459.37
583.809	18449.66
584.169	18464.57
584.529	18449.66
584.889	18639.48
585.249	18487.85
585.609	18397
585.969	18472.25
586.329	18437.68
586.688	18442.42
587.048	18409.43
587.408	18352.71
587.768	18278.81
588.127	18398.58
588.487	18299.6
588.846	18421.18
589.206	18338.02
589.565	18326.72
589.925	18442.42
590.284	18334.4
590.643	18406.72
591.003	18438.36
591.362	18488.07
591.721	18333.28
592.08	18335.08
592.44	18299.6
592.799	18350
593.158	18319.94
593.517	18191.13
593.876	18248.31
594.235	18252.83
594.593	18255.76
594.952	18281.3
595.311	18245.59
595.67	18280.85
596.029	18424.57
596.387	18288.3
596.746	18280.4
597.104	18318.36
597.463	18297.57
597.822	18450.79
598.18	18282.65
598.538	18325.59
598.897	18402.88
599.255	18161.08
599.613	18535.08
599.972	18448.75
600.33	18428.19
600.688	18368.08
601.046	18380.96
601.404	18472.48
601.762	18314.74
602.12	18453.27
602.478	18335.08
602.836	18405.14
603.194	18362.2
603.552	18400.39
603.91	18296.21
604.268	18447.85
604.625	18324.24
604.983	18392.03
605.341	18345.7
605.698	18452.59
606.056	18403.78
606.413	18386.15
606.771	18415.53
607.128	18415.08
607.485	18312.71
607.843	18368.3
608.2	18550.67
608.557	18526.49
608.914	18471.58
609.272	18564.68
609.629	18585.92
609.986	18523.1
610.343	18557.9
610.7	18676.77
611.057	18753.38
611.414	18619.6
611.771	18588.18
612.127	18705.02
612.484	18665.7
612.841	18755.41
613.198	18697.11
613.554	18695.75
613.911	18847.61
614.267	18738.91
614.624	18901.85
614.98	18839.93
615.337	18872.7
615.693	18815.3
616.05	18899.14
616.406	18956.54
616.762	18848.29
617.118	18930.32
617.475	18891.23
617.831	19002.18
618.187	18923.09
618.543	19041.5
618.899	19082.41
619.255	19050.32
619.611	19076.31
619.967	19036.08
620.323	19174.83
620.678	19039.7
621.034	19046.25
621.39	18977.1
621.746	19077.21
622.101	19217.55
622.457	19078.11
622.812	19091.67
623.168	19091.22
623.523	19255.06
623.879	19198.79
624.234	19041.73
624.589	19111.11
624.945	19166.7
625.3	19216.64
625.655	19187.26
626.01	19131.45
626.365	19210.31
626.72	19081.96
627.075	19084.22
627.43	19093.93
627.785	19070.2
628.14	19075.63
628.495	19213.7
628.85	19083.31
629.205	19018.23
629.559	19171.67
629.914	19098
630.269	19159.24
630.623	19016.65
630.978	19018.23
631.332	19180.03
631.687	19187.94
632.041	19129.86
632.396	19014.61
632.75	19021.17
633.104	19022.97
633.459	18873.6
633.813	18889.19
634.167	18862.07
634.521	18843.54
634.875	18904.33
635.229	18846.48
635.583	18655.53
635.937	18791.12
636.291	18625.7
636.645	18685.36
636.999	18622.98
637.352	18798.35
637.706	18647.62
638.06	18693.04
638.413	18613.49
638.767	18559.03
639.121	18654.62
639.474	18581.86
639.828	18500.05
640.181	18548.86
640.534	18552.93
640.888	18509.32
641.241	18480.16
641.594	18582.76
641.947	18618.92
642.301	18443.78
642.654	18498.47
643.007	18612.36
643.36	18471.12
643.713	18353.84
644.066	18604.23
644.419	18419.15
644.771	18321.52
645.124	18094.64
645.477	18023.45
645.83	17907.98
646.182	17918.82
646.535	17908.88
646.888	17794.53
647.24	17803.12
647.593	17894.64
647.945	17930.12
648.298	17761.54
648.65	17703.91
649.002	17782.78
649.355	17836.11
649.707	17759.96
650.059	17824.14
650.411	17990.01
650.763	18045.15
651.115	18315.42
651.467	18195.88
651.819	18170.12
652.171	18192.71
652.523	18158.14
652.875	18082.66
653.227	18127.86
653.578	18223.45
653.93	18115.88
654.282	18104.35
654.633	18094.19
654.985	18120.85
655.337	18171.7
655.688	18161.98
656.039	18147.07
656.391	18044.47
656.742	18071.14
657.094	18066.62
657.445	18079.27
657.796	18202.43
658.147	18107.07
658.498	18134.41
658.849	18218.48
659.2	18150
659.551	18109.33
659.902	18171.25
660.253	18169.44
660.604	18276.55
660.955	18053.28
661.306	18200.17
661.656	18135.09
662.007	18210.79
662.358	18161.98
662.708	18162.88
663.059	18143.9
663.409	18199.04
663.76	18267.74
664.11	18211.47
664.461	18215.76
664.811	18329.66
665.161	18210.34
665.511	18136.44
665.862	18186.16
666.212	18137.12
666.562	18225.03
666.912	18210.79
667.262	18153.17
667.612	18308.19
667.962	18238.36
668.312	18199.04
668.662	18246.05
669.011	18224.35
669.361	18219.38
669.711	18169.44
670.06	18077.24
670.41	18058.71
670.76	18115.43
671.109	18162.88
671.459	18042.21
671.808	18102.09
672.157	18104.13
672.507	17953.17
672.856	18039.72
673.205	18044.7
673.554	18055.09
673.904	18127.63
674.253	18099.16
674.602	18027.97
674.951	17842.67
675.3	17753.86
675.649	17977.13
675.998	17959.73
676.346	17977.35
676.695	18116.78
677.044	17872.72
677.393	17908.2
677.741	17948.43
678.09	17961.53
678.438	17868.43
678.787	17915.43
679.135	17892.38
679.484	17734.19
679.832	17727.64
680.181	17593.41
680.529	17720.41
680.877	17690.81
681.225	17685.83
681.573	17758.15
681.922	17617.14
682.27	17561.77
682.618	17639.73
682.966	17468.66
683.314	17485.61
683.661	17560.41
684.009	17325.62
684.357	17310.03
684.705	17344.15
685.053	17235.9
685.4	17336.01
685.748	17308.44
686.095	17261.66
686.443	17105.74
686.79	17190.71
687.138	17179.86
687.485	17105.06
687.832	16950.94
688.18	17058.96
688.527	16956.36
688.874	16975.8
689.221	16790.49
689.568	16960.66
689.915	16740.32
690.262	16768.57
690.609	16691.06
690.956	16687.44
691.303	16621
691.65	16612.42
691.997	16541.01
692.344	16442.03
692.69	16389.6
693.037	16497.62
693.383	16208.13
693.73	16306.21
694.077	16178.53
694.423	16186.66
694.769	16104.18
695.116	16022.6
695.462	15961.59
695.808	15951.19
696.155	15958.2
696.501	15772.89
696.847	15775.15
697.193	15669.16
697.539	15778.31
697.885	15610.41
698.231	15518.66
698.577	15588.04
698.923	15591.43
699.269	15402.73
699.614	15361.15
699.96	15307.82
700.306	15292
700.651	15231.89
700.997	15102.4
701.342	15150.31
701.688	15173.13
702.033	14998
702.379	15028.05
702.724	14932.69
703.069	15014.49
703.415	14800.03
703.76	14888.17
704.105	14883.65
704.45	14812.24
704.795	14694.27
705.14	14664.22
705.485	14581.28
705.83	14594.62
706.175	14493.83
706.52	14398.92
706.865	14414.06
707.209	14396.66
707.554	14297.45
707.899	14323.44
708.243	14225.36
708.588	14267.62
708.932	14108.08
709.277	14029.21
709.621	14059.04
709.966	13976.55
710.31	14054.07
710.654	13932.71
710.998	13989.66
711.342	13995.08
711.687	13894.75
712.031	13824.47
712.375	13886.39
712.719	13745.15
713.063	13708.76
713.407	13744.7
713.75	13750.8
714.094	13662.44
714.438	13671.02
714.782	13594.42
715.125	13610.46
715.469	13609.56
715.812	13573.63
716.156	13453.4
716.499	13405.27
716.843	13469.22
717.186	13306.29
717.53	13385.61
717.873	13396.91
718.216	13412.5
718.559	13377.02
718.902	13295.44
719.246	13220.19
719.589	13222.22
719.932	13166.18
720.275	13195.78
720.617	13256.8
720.96	13148.1
721.303	13188.33
721.646	13159.85
721.989	13025.39
722.331	13175.44
722.674	13116.24
723.016	13058.39
723.359	13034.43
723.701	13072.62
724.044	12946.3
724.386	12948.56
724.729	12958.28
725.071	12983.13
725.413	12983.81
725.755	12992.4
726.097	12923.7
726.439	12912.63
726.782	12908.11
727.124	12944.26
727.465	12828.34
727.807	12885.28
728.149	12730.03
728.491	12781.33
728.833	12798.73
729.175	12764.83
729.516	12832.63
729.858	12771.61
730.199	12730.94
730.541	12830.14
730.882	12847.77
731.224	12777.94
731.565	12805.28
731.906	12774.1
732.248	12723.48
732.589	12759.41
732.93	12678.73
733.271	12708.79
733.612	12729.58
733.953	12678.96
734.294	12754.44
734.635	12667.21
734.976	12698.85
735.317	12648.68
735.658	12638.06
735.999	12644.84
736.339	12623.82
736.68	12701.78
737.021	12719.64
737.361	12709.02
737.702	12791.73
738.042	12728.68
738.383	12653.2
738.723	12759.64
739.063	12710.37
739.404	12776.36
739.744	12684.84
740.084	12712.86
740.424	12716.7
740.764	12780.2
741.104	12845.51
741.444	12652.75
741.784	12683.71
742.124	12765.96
742.464	12793.08
742.804	12827.43
743.143	12796.47
743.483	12835.34
743.823	12808
744.162	12825.62
744.502	12871.05
744.841	12796.92
745.181	12945.39
745.52	12873.53
745.86	13003.02
746.199	12978.39
746.538	13075.79
746.877	13130.93
747.216	13180.64
747.556	13191.94
747.895	13217.48
748.234	13263.13
748.573	13284.14
748.911	13310.81
749.25	13377.25
749.589	13455.21
749.928	13500.18
750.267	13607.07
750.605	13563.91
750.944	13745.15
751.283	13753.96
751.621	13873.51
751.96	13884.58
752.298	13986.5
752.636	14041.41
752.975	14146.49
753.313	14139.49
753.651	14349.65
753.989	14384.23
754.327	14544.45
754.666	14517.1
755.004	14665.57
755.342	14866.47
755.679	14943.31
756.017	14941.73
756.355	15133.59
756.693	15226.24
757.031	15394.37
