Data from hue_230_FLMS001491_00033.txt Node
Date: Tue Feb 07 16:37:08 GMT 2017
User: dcchb
Spectrometer: FLMS00149
Trigger mode: 0
Integration Time (sec): 2.000000E-2
Scans to average: 10
Electric dark correction enabled: true
Nonlinearity correction enabled: false
Boxcar width: 0
XAxis mode: Wavelengths
Number of Pixels in Spectrum: 2048
>>>>>Begin Spectral Data<<<<<
341.393	-9.83
341.776	-9.83
342.16	-9.83
342.543	-55.25
342.927	-69.04
343.31	-77.4
343.693	-85.53
344.077	-71.07
344.46	-69.94
344.843	-46.21
345.226	-49.83
345.61	-15.93
345.993	-10.96
346.376	13.9
346.759	25.42
347.142	18.19
347.525	38.3
347.908	49.38
348.291	80.56
348.674	101.13
349.057	100
349.44	109.94
349.823	143.16
350.206	169.6
350.588	193.33
350.971	204.18
351.354	220.9
351.737	229.26
352.119	259.54
352.502	248.92
352.884	272.42
353.267	261.35
353.65	291.63
354.032	289.14
354.414	294.79
354.797	301.57
355.179	318.07
355.562	302.7
355.944	310.16
356.326	351.74
356.709	322.36
357.091	333.21
357.473	337.73
357.855	342.25
358.238	325.53
358.62	336.83
359.002	329.82
359.384	345.41
359.766	333.89
360.148	324.85
360.53	315.81
360.912	336.83
361.294	316.26
361.676	325.53
362.057	338.41
362.439	327.79
362.821	335.02
363.203	328.69
363.584	311.97
363.966	319.88
364.348	312.42
364.729	332.99
365.111	329.37
365.493	328.69
365.874	314.23
366.256	315.13
366.637	298.41
367.019	306.55
367.4	310.84
367.781	319.2
368.163	301.8
368.544	297.05
368.925	308.58
369.306	292.31
369.688	288.47
370.069	299.54
370.45	291.4
370.831	284.63
371.212	307
371.593	323.95
371.974	306.55
372.355	294.12
372.736	311.52
373.117	319.43
373.498	320.1
373.879	311.97
374.26	316.26
374.641	320.78
375.021	300.67
375.402	315.58
375.783	309.48
376.163	326.88
376.544	334.34
376.925	313.1
377.305	301.35
377.686	323.27
378.066	300.22
378.447	303.38
378.827	331.4
379.208	309.48
379.588	309.94
379.968	351.74
380.349	342.02
380.729	316.71
381.109	322.59
381.489	314.91
381.87	312.2
382.25	321.01
382.63	327.79
383.01	323.04
383.39	357.17
383.77	351.06
384.15	347.67
384.53	326.43
384.91	360.1
385.29	348.13
385.67	351.97
386.049	347
386.429	344.74
386.809	342.02
387.189	351.29
387.568	361.01
387.948	347.9
388.328	359.43
388.707	344.06
389.087	356.71
389.466	346.09
389.846	356.26
390.225	359.88
390.605	349.26
390.984	351.52
391.363	372.08
391.743	362.14
392.122	365.08
392.501	376.83
392.881	387.45
393.26	358.97
393.639	358.52
394.018	397.62
394.397	355.81
394.776	381.8
395.155	374.79
395.534	382.25
395.913	387
396.292	407.79
396.671	380.67
397.05	365.08
397.429	387.67
397.808	396.26
398.186	394.23
398.565	377.5
398.944	398.29
399.323	384.96
399.701	381.12
400.08	385.87
400.458	401.46
400.837	420.21
401.215	409.59
401.594	409.82
401.972	400.33
402.351	412.53
402.729	434.45
403.107	420.67
403.486	417.05
403.864	425.64
404.242	431.51
404.62	439.88
404.999	436.49
405.377	419.31
405.755	445.07
406.133	449.14
406.511	437.84
406.889	452.76
407.267	460.89
407.645	445.98
408.023	446.65
408.401	454.11
408.779	471.29
409.156	477.16
409.534	484.39
409.912	490.27
410.29	517.16
410.667	500.66
411.045	497.5
411.422	521.68
411.8	529.36
412.178	530.04
412.555	560.55
412.933	538.18
413.31	557.39
413.687	528.01
414.065	544.51
414.442	581.34
414.819	576.82
415.197	584.96
415.574	589.02
415.951	588.57
416.328	614.11
416.705	591.74
417.082	613.43
417.46	614.56
417.837	636.48
418.214	650.04
418.591	661.56
418.967	648.23
419.344	663.15
419.721	649.59
420.098	670.6
420.475	668.57
420.852	700.66
421.228	691.39
421.605	704.05
421.982	713.77
422.358	731.39
422.735	729.59
423.111	731.85
423.488	759.19
423.864	739.08
424.241	784.27
424.617	799.87
424.994	778.4
425.37	789.7
425.746	799.64
426.123	802.8
426.499	828.57
426.875	843.03
427.251	856.14
427.627	876.02
428.003	867.66
428.379	888
428.756	891.84
429.132	905.85
429.507	903.14
429.883	900.65
430.259	922.57
430.635	920.99
431.011	936.81
431.387	955.57
431.763	992.4
432.138	995.79
432.514	993.99
432.89	993.08
433.265	1037.37
433.641	1070.37
434.016	1085.51
434.392	1077.15
434.767	1087.99
435.143	1103.36
435.518	1116.47
435.894	1141.33
436.269	1156.92
436.644	1153.75
437.02	1200.53
437.395	1203.02
437.77	1229.23
438.145	1239.18
438.52	1247.54
438.895	1282.57
439.271	1275.11
439.646	1319.85
440.021	1309.91
440.395	1345.39
440.77	1349.23
441.145	1344.03
441.52	1400.75
441.895	1376.8
442.27	1406.86
442.645	1408.89
443.019	1426.52
443.394	1411.38
443.769	1459.51
444.143	1457.7
444.518	1471.03
444.892	1467.42
445.267	1506.97
445.641	1487.08
446.016	1501.54
446.39	1538.38
446.764	1571.37
447.139	1547.64
447.513	1574.08
447.887	1534.08
448.262	1560.52
448.636	1592.16
449.01	1587.87
449.384	1624.25
449.758	1599.39
450.132	1630.35
450.506	1636.68
450.88	1645.72
451.254	1630.8
451.628	1661.99
452.002	1697.7
452.376	1724.81
452.75	1737.02
453.123	1750.8
453.497	1759.16
453.871	1765.26
454.244	1808.2
454.618	1811.36
454.992	1834.42
455.365	1816.11
455.739	1863.57
456.112	1875.54
456.486	1884.58
456.859	1929.55
457.232	1968.42
457.606	1950.8
457.979	1974.75
458.352	2013.17
458.725	2060.4
459.099	2017.91
459.472	2077.35
459.845	2089.1
460.218	2120.74
460.591	2129.77
460.964	2121.64
461.337	2185.59
461.71	2221.52
462.083	2242.99
462.456	2226.04
462.829	2232.14
463.201	2277.12
463.574	2326.15
463.947	2351.92
464.32	2342.2
464.692	2412.48
465.065	2384.23
465.438	2436.43
465.81	2460.39
466.183	2466.94
466.555	2544.68
466.928	2527.28
467.3	2482.53
467.672	2602.08
468.045	2633.04
468.417	2644.79
468.789	2675.75
469.161	2674.84
469.534	2704
469.906	2759.81
470.278	2797.55
470.65	2813.82
471.022	2886.14
471.394	2920.04
471.766	2958.45
472.138	2954.16
472.51	3040.03
472.882	3021.95
473.253	3070.09
473.625	3097.21
473.997	3165.23
474.369	3206.81
474.74	3203.87
475.112	3250.2
475.484	3317.77
475.855	3384.43
476.227	3370.42
476.598	3498.78
476.97	3501.94
477.341	3579.91
477.713	3614.93
478.084	3641.6
478.455	3716.4
478.827	3792.56
479.198	3835.27
479.569	3799.79
479.94	3894.7
480.311	3932.89
480.682	3975.38
481.053	4082.49
481.424	4130.85
481.795	4167.91
482.166	4224.18
482.537	4259.21
482.908	4366.55
483.279	4392.77
483.65	4472.09
484.021	4581.46
484.391	4609.26
484.762	4596.38
485.133	4621.46
485.503	4728.8
485.874	4839.31
486.244	4802.7
486.615	4941.45
486.985	4939.64
487.356	5032.52
487.726	5043.37
488.097	5126.31
488.467	5164.27
488.837	5235
489.207	5279.75
489.578	5397.49
489.948	5379.86
490.318	5462.79
490.688	5460.76
491.058	5561.77
491.428	5583.24
491.798	5630.7
492.168	5802.22
492.538	5724.26
492.908	5855.33
493.278	5869.56
493.648	5893.52
494.017	5923.8
494.387	5977.36
494.757	6034.98
495.126	6093.51
495.496	6110.91
495.866	6115.43
496.235	6231.36
496.605	6229.78
496.974	6304.58
497.344	6303.9
497.713	6316.78
498.082	6382.09
498.452	6419.83
498.821	6411.7
499.19	6435.42
499.559	6485.59
499.928	6515.65
500.298	6513.84
500.667	6616.89
501.036	6621.86
501.405	6668.86
501.774	6652.37
502.143	6684.46
502.512	6710.67
502.88	6805.81
503.249	6698.47
503.618	6780.73
503.987	6778.69
504.356	6868.63
504.724	6897.56
505.093	6899.14
505.462	6905.92
505.83	6938.46
506.199	6921.74
506.567	7017.56
506.936	7038.57
507.304	7146.14
507.672	7098.01
508.041	7102.75
508.409	7167.61
508.777	7127.38
509.145	7186.82
509.514	7174.16
509.882	7194.73
510.25	7222.3
510.618	7216.87
510.986	7270.66
511.354	7312.46
511.722	7388.85
512.09	7400.6
512.458	7299.58
512.826	7375.51
513.193	7444.66
513.561	7447.37
513.929	7422.52
514.297	7460.26
514.664	7541.61
515.032	7516.53
515.4	7620.03
515.767	7541.61
516.135	7624.32
516.502	7537.77
516.869	7643.3
517.237	7696.18
517.604	7548.62
517.972	7649.18
518.339	7636.75
518.706	7659.35
519.073	7624.32
519.44	7690.53
519.808	7747.48
520.175	7728.5
520.542	7800.81
520.909	7787.7
521.276	7807.59
521.643	7825.9
522.009	7826.35
522.376	7917.42
522.743	7873.58
523.11	7952.45
523.477	7991.54
523.843	7948.83
524.21	8010.07
524.577	8004.42
524.943	7970.07
525.31	8069.96
525.676	8118.32
526.043	8055.04
526.409	8119.45
526.776	8183.85
527.142	8162.61
527.508	8148.6
527.874	8178.43
528.241	8229.28
528.607	8151.31
528.973	8255.72
529.339	8222.72
529.705	8226.56
530.071	8246
530.437	8277.41
530.803	8271.31
531.169	8286.45
531.535	8267.92
531.901	8287.13
532.267	8226.11
532.632	8288.93
532.998	8301.82
533.364	8292.1
533.73	8321.7
534.095	8273.79
534.461	8316.05
534.826	8314.92
535.192	8309.5
535.557	8339.55
535.923	8330.29
536.288	8284.87
536.653	8308.6
537.019	8249.84
537.384	8295.26
537.749	8283.51
538.114	8256.39
538.479	8254.36
538.845	8313.11
539.21	8203.51
539.575	8173.91
539.94	8215.49
540.305	8283.06
540.67	8236.05
541.034	8204.87
541.399	8168.94
541.764	8152.89
542.129	8243.06
542.494	8182.95
542.858	8173.01
543.223	8118.32
543.587	8204.19
543.952	8140.01
544.316	8129.39
544.681	8101.82
545.045	8123.74
545.41	8130.07
545.774	8142.05
546.138	8128.03
546.503	8084.65
546.867	8008.26
547.231	8089.84
547.595	8079.9
547.959	8062.27
548.324	8040.13
548.688	8059.34
549.052	8008.26
549.416	8033.57
549.779	8028.38
550.143	7980.24
550.507	7975.04
550.871	7987.02
551.235	7943.41
551.599	8012.56
551.962	7900.47
552.326	7956.74
552.689	7915.16
553.053	7931.2
553.417	7934.14
553.78	7975.5
554.143	7891.66
554.507	7962.16
554.87	7952.45
555.234	7994.71
555.597	7895.27
555.96	7986.57
556.323	7928.49
556.686	7907.48
557.05	7966.68
557.413	7975.27
557.776	7912
558.139	7924.42
558.502	7918.32
558.865	7918.77
559.228	7960.81
559.59	7971.43
559.953	7975.27
560.316	8011.43
560.679	7968.49
561.041	8041.48
561.404	8025.66
561.767	8034.93
562.129	7967.14
562.492	8094.82
562.854	8020.24
563.217	8010.75
563.579	8048.71
563.941	8060.24
564.304	8105.89
564.666	8074.93
565.028	8105.66
565.39	8160.12
565.753	8153.57
566.115	8184.98
566.477	8162.61
566.839	8140.92
567.201	8231.99
567.563	8250.07
567.925	8262.04
568.287	8244.87
568.648	8282.16
569.01	8320.12
569.372	8336.84
569.734	8306.79
570.095	8398.76
570.457	8315.37
570.819	8339.55
571.18	8332.32
571.542	8362.38
571.903	8366.67
572.265	8523.5
572.626	8389.5
572.987	8437.63
573.349	8469.95
573.71	8488.93
574.071	8467.01
574.432	8561.92
574.794	8590.17
575.155	8624.97
575.516	8492.77
575.877	8548.14
576.238	8546.55
576.599	8634.01
576.96	8612.09
577.32	8648.7
577.681	8631.07
578.042	8758.75
578.403	8714.23
578.763	8806.44
579.124	8740.67
579.485	8823.38
579.845	8779.54
580.206	8797.17
580.566	8805.76
580.927	8819.77
581.287	8839.88
581.648	8899.31
582.008	8845.08
582.368	8904.51
582.728	8900.67
583.089	8873.33
583.449	8866.77
583.809	8968.92
584.169	8931.63
584.529	8955.13
584.889	9058.18
585.249	8975.24
585.609	9028.8
585.969	9020.67
586.329	8945.41
586.688	9029.93
587.048	8998.29
587.408	9060.89
587.768	9012.53
588.127	9047.56
588.487	9057.5
588.846	9093.66
589.206	9083.94
589.565	9097.27
589.925	9143.38
590.284	9094.56
590.643	9194
591.003	9125.52
591.362	9183.83
591.721	9153.77
592.08	9205.75
592.44	9157.16
592.799	9180.21
593.158	9211.85
593.517	9210.72
593.876	9185.41
594.235	9205.75
594.593	9220.44
594.952	9281.9
595.311	9263.82
595.67	9259.3
596.029	9314.22
596.387	9295.01
596.746	9321.22
597.104	9324.39
597.463	9318.74
597.822	9363.48
598.18	9311.28
598.538	9358.51
598.897	9347.44
599.255	9261.56
599.613	9495
599.972	9378.62
600.33	9406.87
600.688	9404.39
601.046	9434.67
601.404	9411.62
601.762	9413.88
602.12	9427.89
602.478	9464.95
602.836	9412.07
603.194	9407.1
603.552	9384.27
603.91	9331.62
604.268	9455.68
604.625	9390.15
604.983	9412.07
605.341	9464.04
605.698	9426.08
606.056	9445.29
606.413	9485.06
606.771	9562.57
607.128	9499.52
607.485	9476.02
607.843	9466.08
608.2	9539.98
608.557	9502.91
608.914	9498.17
609.272	9535.91
609.629	9588.56
609.986	9575.45
610.343	9555.12
610.7	9655
611.057	9597.15
611.414	9575.23
611.771	9615.68
612.127	9670.14
612.484	9622.91
612.841	9644.15
613.198	9612.29
613.554	9589.69
613.911	9684.15
614.267	9678.28
614.624	9649.12
614.98	9710.14
615.337	9777.48
615.693	9739.29
616.05	9662.01
616.406	9786.75
616.762	9694.77
617.118	9656.36
617.475	9704.94
617.831	9762.57
618.187	9768.67
618.543	9749.46
618.899	9845.28
619.255	9771.38
619.611	9735
619.967	9852.74
620.323	9841.44
620.678	9822.23
621.034	9783.36
621.39	9762.79
621.746	9771.83
622.101	9843.92
622.457	9873.98
622.812	9870.36
623.168	9811.61
623.523	9878.95
623.879	9812.51
624.234	9791.72
624.589	9818.39
624.945	9811.61
625.3	9823.13
625.655	9885.5
626.01	9798.05
626.365	9882.57
626.72	9843.02
627.075	9771.61
627.43	9767.99
627.785	9768.67
628.14	9802.34
628.495	9816.8
628.85	9716.69
629.205	9774.77
629.559	9794.43
629.914	9759.86
630.269	9792.85
630.623	9715.56
630.978	9749.24
631.332	9765.73
631.687	9772.51
632.041	9604.83
632.396	9717.82
632.75	9715.56
633.104	9722.12
633.459	9666.07
633.813	9606.64
634.167	9634.89
634.521	9720.54
634.875	9635.34
635.229	9699.07
635.583	9614.55
635.937	9606.64
636.291	9579.07
636.645	9566.42
636.999	9598.96
637.352	9587.43
637.706	9473.08
638.06	9595.79
638.413	9564.83
638.767	9471.28
639.121	9498.62
639.474	9475.57
639.828	9434.67
640.181	9484.61
640.534	9464.72
640.888	9453.2
641.241	9440.99
641.594	9452.97
641.947	9503.14
642.301	9421.56
642.654	9412.97
643.007	9384.72
643.36	9391.73
643.713	9385.85
644.066	9401.67
644.419	9429.24
644.771	9348.12
645.124	9224.96
645.477	9174.79
645.83	9155.58
646.182	9132.53
646.535	9117.16
646.888	9113.55
647.24	9084.39
647.593	9087.33
647.945	9068.8
648.298	9052.08
648.65	8985.19
649.002	8944.74
649.355	9113.55
649.707	9049.14
650.059	9054.34
650.411	9201
650.763	9209.81
651.115	9294.33
651.467	9290.26
651.819	9270.6
652.171	9215.24
652.523	9221.34
652.875	9138.4
653.227	9178.18
653.578	9215.69
653.93	9251.62
654.282	9221.34
654.633	9128.46
654.985	9181.57
655.337	9222.92
655.688	9180.44
656.039	9228.57
656.391	9189.02
656.742	9182.47
657.094	9175.01
657.445	9183.83
657.796	9209.59
658.147	9213.66
658.498	9177.5
658.849	9241.9
659.2	9150.38
659.551	9184.28
659.902	9300.66
660.253	9223.15
660.604	9199.19
660.955	9197.16
661.306	9246.65
661.656	9251.62
662.007	9207.33
662.358	9274.45
662.708	9246.42
663.059	9239.42
663.409	9194.9
663.76	9310.15
664.11	9256.82
664.461	9233.09
664.811	9259.76
665.161	9257.95
665.511	9235.58
665.862	9262.02
666.212	9263.6
666.562	9252.98
666.912	9233.77
667.262	9245.07
667.612	9233.32
667.962	9272.64
668.312	9208.46
668.662	9236.93
669.011	9223.37
669.361	9260.89
669.711	9264.73
670.06	9246.65
670.41	9242.58
670.76	9188.57
671.109	9233.32
671.459	9194.9
671.808	9168.91
672.157	9185.63
672.507	9210.49
672.856	9170.27
673.205	9154
673.554	9234.22
673.904	9167.56
674.253	9168.46
674.602	9188.8
674.951	9036.26
675.3	9004.4
675.649	9135.24
675.998	9069.25
676.346	9125.3
676.695	9105.86
677.044	9087.33
677.393	9154.9
677.741	9033.77
678.09	9130.49
678.438	9047.33
678.787	9061.8
679.135	9057.28
679.484	9012.08
679.832	9043.72
680.181	8983.15
680.529	9012.76
680.877	8929.6
681.225	8998.97
681.573	8959.43
681.922	8890.73
682.27	8890.05
682.618	8881.01
682.966	8893.89
683.314	8874.23
683.661	8849.15
684.009	8770.28
684.357	8837.85
684.705	8765.53
685.053	8783.38
685.4	8765.31
685.748	8766.66
686.095	8779.09
686.443	8687.34
686.79	8663.84
687.138	8709.49
687.485	8667.46
687.832	8673.33
688.18	8587.23
688.527	8528.93
688.874	8591.98
689.221	8558.53
689.568	8490.74
689.915	8510.62
690.262	8471.98
690.609	8531.87
690.956	8396.73
691.303	8389.27
691.65	8388.37
691.997	8324.19
692.344	8371.42
692.69	8308.6
693.037	8323.74
693.383	8203.97
693.73	8272.66
694.077	8189.05
694.423	8206.68
694.769	8140.92
695.116	8126.9
695.462	8086.23
695.808	8100.46
696.155	8056.62
696.501	8027.92
696.847	7994.25
697.193	7922.84
697.539	8008.04
697.885	7869.51
698.231	7893.24
698.577	7830.87
698.923	7875.61
699.269	7799.91
699.614	7768.27
699.96	7741.15
700.306	7783.19
700.651	7736.86
700.997	7641.27
701.342	7695.05
701.688	7638.33
702.033	7592.23
702.379	7537.32
702.724	7580.7
703.069	7535.51
703.415	7480.37
703.76	7479.01
704.105	7465.23
704.45	7446.7
704.795	7466.58
705.14	7436.3
705.485	7362.63
705.83	7334.38
706.175	7293.03
706.52	7272.46
706.865	7296.42
707.209	7226.82
707.554	7201.96
707.899	7239.24
708.243	7217.78
708.588	7192.24
708.932	7147.95
709.277	7102.3
709.621	7125.58
709.966	7099.14
710.31	7065.92
710.654	7004.45
710.998	7114.95
711.342	6987.05
711.687	6967.84
712.031	7018.91
712.375	6932.13
712.719	6997.44
713.063	6977.56
713.407	6923.55
713.75	6888.07
714.094	6924.9
714.438	6880.84
714.782	6975.97
715.125	6858.24
715.469	6844
715.812	6866.83
716.156	6742.31
716.499	6815.3
716.843	6875.19
717.186	6768.52
717.53	6866.83
717.873	6787.05
718.216	6742.99
718.559	6747.05
718.902	6689.43
719.246	6759.26
719.589	6639.71
719.932	6718.35
720.275	6679.03
720.617	6674.06
720.96	6606.94
721.303	6630
721.646	6701.18
721.989	6601.75
722.331	6639.71
722.674	6666.83
723.016	6625.25
723.359	6555.65
723.701	6608.53
724.044	6586.83
724.386	6600.39
724.729	6606.94
725.071	6597
725.413	6555.42
725.755	6526.27
726.097	6547.74
726.439	6532.37
726.782	6554.97
727.124	6519.94
727.465	6498.93
727.807	6552.03
728.149	6520.17
728.491	6515.42
728.833	6510
729.175	6504.35
729.516	6480.62
729.858	6525.82
730.199	6530.56
730.541	6447.4
730.882	6491.69
731.224	6479.49
731.565	6470.9
731.906	6464.58
732.248	6514.07
732.589	6450.79
732.93	6404.69
733.271	6424.58
733.612	6408.08
733.953	6452.37
734.294	6443.11
734.635	6462.09
734.976	6434.29
735.317	6456.67
735.658	6454.86
735.999	6408.76
736.339	6408.08
736.68	6466.38
737.021	6449.21
737.361	6423.45
737.702	6484.91
738.042	6482.43
738.383	6485.59
738.723	6493.5
739.063	6460.51
739.404	6521.98
739.744	6487.4
740.084	6469.77
740.424	6482.88
740.764	6527.4
741.104	6567.4
741.444	6493.28
741.784	6496.21
742.124	6608.98
742.464	6564.91
742.804	6596.1
743.143	6611.01
743.483	6638.36
743.823	6572.37
744.162	6589.54
744.502	6673.16
744.841	6686.49
745.181	6693.72
745.52	6758.13
745.86	6770.78
746.199	6784.12
746.538	6771.69
746.877	6856.66
747.216	6869.31
747.556	6847.62
747.895	6917.67
748.234	6977.78
748.573	7011.91
748.911	7004.67
749.25	7048.97
749.589	7071.57
749.928	7186.14
750.267	7221.17
750.605	7265.68
750.944	7300.94
751.283	7313.59
751.621	7475.4
751.96	7470.65
752.298	7540.48
752.636	7624.55
752.975	7646.92
753.313	7690.53
753.651	7853.01
753.989	7889.17
754.327	7987.7
754.666	8015.04
755.004	8140.92
755.342	8234.92
755.679	8320.8
756.017	8450.29
756.355	8443.05
756.693	8601.24
757.031	8673.78
757.368	8758.53
757.706	8825.64
758.044	8947.9
758.381	9105.86
758.719	9220.89
759.056	9303.37
759.394	9495.23
759.731	9462.92
760.068	9611.16
760.405	9699.74
760.743	9796.01
761.08	9937.7
761.417	10073.52
761.754	10180.41
762.091	10274.87
762.428	10408.43
762.765	10415.21
763.102	10541.53
763.438	10727.29
763.775	10781.07
764.112	10995.3
764.449	11079.37
764.785	11207.05
765.122	11275.52
765.458	11365.01
765.795	11421.51
766.131	11504.22
766.467	11585.12
766.804	11741.5
767.14	11758.22
767.476	11910.76
767.812	11954.83
768.148	12140.81
768.485	12136.97
768.821	12176.06
769.157	12389.17
769.492	12386.68
