Data from hue_240_FLMS001491_00089.txt Node
Date: Tue Feb 07 16:36:05 GMT 2017
User: dcchb
Spectrometer: FLMS00149
Trigger mode: 0
Integration Time (sec): 2.000000E-2
Scans to average: 10
Electric dark correction enabled: true
Nonlinearity correction enabled: false
Boxcar width: 0
XAxis mode: Wavelengths
Number of Pixels in Spectrum: 2048
>>>>>Begin Spectral Data<<<<<
341.393	-22.49
341.776	-22.49
342.16	-22.49
342.543	-62.48
342.927	-49.15
343.31	-68.36
343.693	-69.49
344.077	-77.63
344.46	-53.67
344.843	-42.37
345.226	-66.33
345.61	-27.46
345.993	-21.81
346.376	12.32
346.759	8.02
347.142	22.94
347.525	49.83
347.908	68.36
348.291	81.69
348.674	85.53
349.057	98.42
349.44	131.63
349.823	140.9
350.206	158.75
350.588	198.3
350.971	204.4
351.354	209.6
351.737	217.51
352.119	263.16
352.502	254.8
352.884	277.17
353.267	259.32
353.65	289.14
354.032	305.87
354.414	298.86
354.797	300.9
355.179	311.52
355.562	302.25
355.944	320.33
356.326	317.84
356.709	314.46
357.091	334.34
357.473	326.43
357.855	330.05
358.238	332.31
358.62	333.21
359.002	345.41
359.384	330.95
359.766	345.87
360.148	353.55
360.53	317.62
360.912	339.77
361.294	331.63
361.676	329.6
362.057	312.2
362.439	295.25
362.821	309.26
363.203	330.27
363.584	304.74
363.966	330.95
364.348	315.36
364.729	326.66
365.111	316.71
365.493	319.88
365.874	299.54
366.256	308.81
366.637	323.27
367.019	311.29
367.4	316.26
367.781	300.44
368.163	299.99
368.544	308.13
368.925	303.38
369.306	303.83
369.688	299.31
370.069	297.05
370.45	292.76
370.831	290.73
371.212	319.88
371.593	289.14
371.974	323.95
372.355	303.16
372.736	315.81
373.117	315.58
373.498	316.49
373.879	315.36
374.26	296.83
374.641	302.93
375.021	321.46
375.402	311.74
375.783	335.02
376.163	302.03
376.544	303.61
376.925	302.7
377.305	319.2
377.686	311.07
378.066	325.53
378.447	317.17
378.827	315.58
379.208	337.05
379.588	305.64
379.968	326.21
380.349	336.83
380.729	328.92
381.109	326.21
381.489	321.46
381.87	344.96
382.25	338.86
382.63	339.99
383.01	327.11
383.39	315.13
383.77	339.31
384.15	329.82
384.53	347
384.91	357.39
385.29	340.44
385.67	355.58
386.049	334.57
386.429	349.48
386.809	330.5
387.189	355.58
387.568	354.91
387.948	324.62
388.328	358.52
388.707	375.24
389.087	341.35
389.466	363.72
389.846	351.06
390.225	339.09
390.605	374.57
390.984	376.37
391.363	356.26
391.743	345.41
392.122	389.71
392.501	366.43
392.881	371.63
393.26	357.84
393.639	393.32
394.018	359.65
394.397	370.72
394.776	363.27
395.155	371.18
395.534	394.68
395.913	379.54
396.292	380.44
396.671	370.27
397.05	381.35
397.429	388.58
397.808	373.44
398.186	389.26
398.565	389.48
398.944	386.77
399.323	388.13
399.701	383.61
400.08	408.24
400.458	398.29
400.837	401.91
401.215	386.32
401.594	397.84
401.972	393.77
402.351	383.38
402.729	414.11
403.107	427.22
403.486	415.02
403.864	432.42
404.242	410.72
404.62	409.59
404.999	436.03
405.377	430.61
405.755	429.25
406.133	410.72
406.511	428.12
406.889	434.68
407.267	443.49
407.645	429.48
408.023	453.21
408.401	471.06
408.779	455.69
409.156	450.72
409.534	454.34
409.912	486.65
410.29	483.94
410.667	496.82
411.045	501.12
411.422	489.37
411.8	503.83
412.178	492.76
412.555	508.12
412.933	506.09
413.31	530.49
413.687	511.51
414.065	531.17
414.442	547.22
414.819	567.33
415.197	558.97
415.574	542.92
415.951	579.31
416.328	594.67
416.705	580.66
417.082	553.54
417.46	611.62
417.837	601.45
418.214	579.53
418.591	598.06
418.967	582.47
419.344	612.3
419.721	607.78
420.098	617.95
420.475	621.57
420.852	649.59
421.228	654.33
421.605	667.21
421.982	684.39
422.358	662.69
422.735	679.19
423.111	672.19
423.488	686.65
423.864	715.57
424.241	728.23
424.617	734.33
424.994	741.34
425.37	711.28
425.746	738.62
426.123	749.7
426.499	776.14
426.875	773.2
427.251	782.24
427.627	796.93
428.003	808.23
428.379	806.87
428.756	803.26
429.132	815.01
429.507	827.66
429.883	837.38
430.259	835.57
430.635	871.05
431.011	876.93
431.387	902.46
431.763	870.37
432.138	888.68
432.514	927.32
432.89	925.29
433.265	949.47
433.641	958.28
434.016	943.82
434.392	961.44
434.767	979.07
435.143	1010.26
435.518	1018.17
435.894	1042.57
436.269	1036.47
436.644	1049.12
437.02	1090.48
437.395	1105.39
437.77	1097.26
438.145	1127.31
438.52	1135.45
438.895	1156.47
439.271	1151.72
439.646	1152.4
440.021	1197.82
440.395	1193.08
440.77	1207.99
441.145	1193.75
441.52	1204.6
441.895	1219.52
442.27	1230.14
442.645	1264.26
443.019	1271.72
443.394	1287.54
443.769	1292.28
444.143	1310.81
444.518	1298.84
444.892	1305.84
445.267	1308.33
445.641	1330.7
446.016	1352.39
446.39	1365.5
446.764	1349.68
447.139	1363.47
447.513	1382
447.887	1418.83
448.262	1405.27
448.636	1388.55
449.01	1424.48
449.384	1425.39
449.758	1431.49
450.132	1438.27
450.506	1447.76
450.88	1458.38
451.254	1490.24
451.628	1493.18
452.002	1523.46
452.376	1495.67
452.75	1548.32
453.123	1537.02
453.497	1571.6
453.871	1572.05
454.244	1579.05
454.618	1601.88
454.992	1630.58
455.365	1635.32
455.739	1672.84
456.112	1690.69
456.486	1704.47
456.859	1669.22
457.232	1747.41
457.606	1719.84
457.979	1755.32
458.352	1777.69
458.725	1822.89
459.099	1803.91
459.472	1879.16
459.845	1889.33
460.218	1914.86
460.591	1882.32
460.964	1908.09
461.337	1937.92
461.71	1948.76
462.083	1986.5
462.456	1979.04
462.829	2005.71
463.201	2051.58
463.574	2057.01
463.947	2035.54
464.32	2091.58
464.692	2110.57
465.065	2120.96
465.438	2137.01
465.81	2169.32
466.183	2202.54
466.555	2253.39
466.928	2271.92
467.3	2247.29
467.672	2271.69
468.045	2368.64
468.417	2362.54
468.789	2334.74
469.161	2366.6
469.534	2361.41
469.906	2473.49
470.278	2447.51
470.65	2497
471.022	2518.24
471.394	2592.81
471.766	2612.02
472.138	2633.49
472.51	2660.83
472.882	2739.02
473.253	2751.45
473.625	2771.57
473.997	2804.33
474.369	2820.38
474.74	2853.37
475.112	2904.67
475.484	2965.68
475.855	2998
476.227	3057.43
476.598	3093.14
476.97	3099.24
477.341	3126.81
477.713	3190.99
478.084	3241.84
478.455	3312.34
478.827	3273.02
479.198	3384.2
479.569	3412
479.94	3498.33
480.311	3510.76
480.682	3574.26
481.053	3601.6
481.424	3709.62
481.795	3722.28
482.166	3770.86
482.537	3795.27
482.908	3898.54
483.279	3929.28
483.65	3938.99
484.021	4084.3
484.391	4034.13
484.762	4063.96
485.133	4160.68
485.503	4212.43
485.874	4261.24
486.244	4291.07
486.615	4385.08
486.985	4401.35
487.356	4456.27
487.726	4526.1
488.097	4616.94
488.467	4585.53
488.837	4654.23
489.207	4730.38
489.578	4807.44
489.948	4789.14
490.318	4837.05
490.688	4890.83
491.058	4978.29
491.428	4966.76
491.798	5009.92
492.168	5098.51
492.538	5143.25
492.908	5182.35
493.278	5235.91
493.648	5234.78
494.017	5277.71
494.387	5378.95
494.757	5386.41
495.126	5441.1
495.496	5478.39
495.866	5481.32
496.235	5505.73
496.605	5561.77
496.974	5566.07
497.344	5627.31
497.713	5609.68
498.082	5637.93
498.452	5705.95
498.821	5753.18
499.19	5772.16
499.559	5799.96
499.928	5799.28
500.298	5908.43
500.667	5910.92
501.036	5836.8
501.405	5884.03
501.774	5962.44
502.143	5976.68
502.512	6008.54
502.88	6008.54
503.249	6025.27
503.618	6091.48
503.987	6078.82
504.356	6103.23
504.724	6111.59
505.093	6145.04
505.462	6189.55
505.83	6222.1
506.199	6194.98
506.567	6251.93
506.936	6234.07
507.304	6325.14
507.672	6292.15
508.041	6337.8
508.409	6379.61
508.777	6359.27
509.145	6437.68
509.514	6431.81
509.882	6448.08
510.25	6481.75
510.618	6489.89
510.986	6496.89
511.354	6551.35
511.722	6582.54
512.09	6574.86
512.458	6608.3
512.826	6597
513.193	6618.7
513.561	6645.14
513.929	6705.02
514.297	6737.56
514.664	6784.34
515.032	6742.99
515.4	6712.48
515.767	6770.33
516.135	6771.91
516.502	6773.27
516.869	6870.89
517.237	6815.08
517.604	6821.63
517.972	6858.69
518.339	6894.39
518.706	6902.98
519.073	6901.85
519.44	6980.04
519.808	6976.88
520.175	6952.7
520.542	6991.79
520.909	6988.63
521.276	7002.64
521.643	7097.33
522.009	7083.54
522.376	7060.49
522.743	7090.32
523.11	7167.16
523.477	7158.34
523.843	7178.91
524.21	7211
524.577	7269.98
524.943	7212.13
525.31	7274.5
525.676	7283.31
526.043	7262.07
526.409	7383.87
526.776	7382.74
527.142	7382.07
527.508	7320.6
527.874	7335.97
528.241	7395.17
528.607	7373.25
528.973	7367.38
529.339	7412.8
529.705	7405.12
530.071	7454.15
530.437	7455.51
530.803	7460.71
531.169	7506.58
531.535	7451.67
531.901	7445.57
532.267	7524.21
532.632	7501.16
532.998	7418.67
533.364	7495.06
533.73	7518.11
534.095	7557.88
534.461	7560.82
534.826	7559.46
535.192	7534.83
535.557	7531.89
535.923	7531.67
536.288	7584.32
536.653	7522.18
537.019	7506.36
537.384	7476.3
537.749	7504.1
538.114	7518.33
538.479	7552
538.845	7484.44
539.21	7457.32
539.575	7529.86
539.94	7518.11
540.305	7511.1
540.67	7476.07
541.034	7510.88
541.399	7478.79
541.764	7458
542.129	7481.27
542.494	7499.58
542.858	7431.78
543.223	7415.29
543.587	7459.58
543.952	7443.53
544.316	7404.66
544.681	7399.24
545.045	7421.16
545.41	7394.49
545.774	7374.61
546.138	7392.01
546.503	7410.09
546.867	7396.08
547.231	7402.63
547.595	7393.14
547.959	7410.54
548.324	7389.98
548.688	7375.51
549.052	7380.48
549.416	7373.93
549.779	7341.16
550.143	7338.23
550.507	7368.28
550.871	7330.77
551.235	7319.02
551.599	7329.19
551.962	7357.89
552.326	7364.89
552.689	7407.83
553.053	7311.11
553.417	7315.17
553.78	7361.28
554.143	7301.62
554.507	7348.17
554.87	7331.9
555.234	7346.81
555.597	7317.43
555.96	7325.8
556.323	7304.1
556.686	7339.36
557.05	7336.87
557.413	7371.22
557.776	7376.87
558.139	7356.3
558.502	7378
558.865	7402.63
559.228	7422.74
559.59	7402.4
559.953	7406.7
560.316	7454.83
560.679	7428.84
561.041	7495.96
561.404	7474.94
561.767	7490.76
562.129	7457.32
562.492	7445.57
562.854	7485.34
563.217	7484.44
563.579	7533.25
563.941	7562.4
564.304	7544.32
564.666	7612.12
565.028	7564.21
565.39	7613.02
565.753	7662.96
566.115	7609.63
566.477	7660.25
566.839	7708.16
567.201	7709.06
567.563	7700.02
567.925	7773.24
568.287	7803.98
568.648	7757.65
569.01	7792
569.372	7854.82
569.734	7817.53
570.095	7825.9
570.457	7831.09
570.819	7902.05
571.18	7882.62
571.542	7953.58
571.903	7886.91
572.265	7940.7
572.626	7956.51
572.987	7997.42
573.349	8006
573.71	8034.25
574.071	8057.3
574.432	8077.64
574.794	8099.56
575.155	8071.99
575.516	8053.91
575.877	8088.26
576.238	8134.36
576.599	8072.22
576.96	8078.54
577.32	8089.84
577.681	8168.03
578.042	8215.26
578.403	8165.77
578.763	8221.14
579.124	8152.67
579.485	8239.22
579.845	8237.64
580.206	8259.33
580.566	8321.25
580.927	8328.48
581.287	8403.06
581.648	8302.04
582.008	8375.94
582.368	8265.66
582.728	8397.63
583.089	8379.1
583.449	8404.41
583.809	8369.38
584.169	8453.9
584.529	8366.45
584.889	8442.83
585.249	8385.43
585.609	8444.86
585.969	8401.25
586.329	8456.16
586.688	8505.2
587.048	8443.73
587.408	8464.07
587.768	8447.8
588.127	8452.09
588.487	8516.05
588.846	8564.18
589.206	8515.82
589.565	8490.29
589.925	8465.2
590.284	8540.23
590.643	8517.4
591.003	8566.44
591.362	8586.78
591.721	8581.13
592.08	8550.85
592.44	8551.98
592.799	8558.98
593.158	8604.18
593.517	8581.58
593.876	8609.38
594.235	8598.76
594.593	8605.08
594.952	8618.87
595.311	8536.39
595.67	8634.69
596.029	8663.39
596.387	8630.17
596.746	8703.16
597.104	8599.89
597.463	8596.27
597.822	8705.65
598.18	8658.64
598.538	8671.3
598.897	8697.96
599.255	8616.16
599.613	8765.76
599.972	8674.24
600.33	8719.66
600.688	8655.03
601.046	8755.36
601.404	8693.67
601.762	8703.16
602.12	8805.98
602.478	8776.61
602.836	8729.15
603.194	8739.54
603.552	8758.3
603.91	8724.86
604.268	8758.75
604.625	8784.51
604.983	8761.92
605.341	8762.14
605.698	8755.14
606.056	8814.12
606.413	8791.07
606.771	8917.62
607.128	8796.49
607.485	8767.57
607.843	8776.38
608.2	8825.42
608.557	8882.82
608.914	8829.71
609.272	8887.56
609.629	8895.7
609.986	8910.39
610.343	8842.37
610.7	8944.06
611.057	8869.71
611.414	8877.62
611.771	8958.97
612.127	8941.35
612.484	8961.01
612.841	8966.88
613.198	8916.94
613.554	8909.03
613.911	9002.81
614.267	8960.1
614.624	8973.44
614.98	8954.23
615.337	9020.67
615.693	9001.46
616.05	8987.22
616.406	9069.48
616.762	8991.29
617.118	8961.69
617.475	9090.04
617.831	9052.53
618.187	9066.77
618.543	9014.34
618.899	9081.23
619.255	9112.87
619.611	9062.25
619.967	9119.87
620.323	9130.27
620.678	9113.09
621.034	9051.85
621.39	8986.32
621.746	9054.34
622.101	9103.15
622.457	9057.95
622.812	9079.2
623.168	9149.48
623.523	9111.06
623.879	9154.45
624.234	9037.39
624.589	9130.27
624.945	9082.36
625.3	9084.17
625.655	9070.16
626.01	9091.4
626.365	9115.35
626.72	9084.62
627.075	9055.02
627.43	9031.06
627.785	9056.15
628.14	9066.54
628.495	9071.06
628.85	9055.69
629.205	9003.27
629.559	9068.58
629.914	8983.38
630.269	9056.6
630.623	9008.46
630.978	9028.12
631.332	9044.39
631.687	9076.03
632.041	9001.23
632.396	8963.95
632.75	8944.96
633.104	8988.35
633.459	8951.97
633.813	8967.79
634.167	8945.64
634.521	8980.89
634.875	8906.55
635.229	8948.13
635.583	8881.46
635.937	8885.76
636.291	8869.03
636.645	8909.03
636.999	8816.83
637.352	8839.2
637.706	8774.8
638.06	8841.24
638.413	8848.92
638.767	8855.25
639.121	8758.07
639.474	8750.17
639.828	8765.08
640.181	8730.05
640.534	8796.49
640.888	8737.51
641.241	8687.34
641.594	8697.29
641.947	8729.37
642.301	8692.99
642.654	8667.91
643.007	8728.02
643.36	8646.89
643.713	8643.73
644.066	8664.52
644.419	8601.24
644.771	8624.52
645.124	8454.35
645.477	8537.97
645.83	8489.61
646.182	8414.36
646.535	8355.37
646.888	8374.81
647.24	8350.18
647.593	8394.92
647.945	8441.25
648.298	8363.28
648.65	8323.74
649.002	8359.67
649.355	8350.18
649.707	8345.43
650.059	8439.67
650.411	8553.33
650.763	8512.66
651.115	8542.04
651.467	8580.68
651.819	8546.33
652.171	8557.4
652.523	8552.66
652.875	8530.28
653.227	8455.71
653.578	8509.72
653.93	8477.18
654.282	8507.23
654.633	8464.3
654.985	8509.04
655.337	8464.52
655.688	8394.69
656.039	8543.84
656.391	8468.59
656.742	8440.12
657.094	8481.47
657.445	8577.74
657.796	8461.13
658.147	8505.2
658.498	8489.16
658.849	8451.42
659.2	8486.22
659.551	8451.42
659.902	8447.57
660.253	8502.71
660.604	8467.23
660.955	8442.6
661.306	8532.54
661.656	8478.53
662.007	8556.95
662.358	8512.43
662.708	8498.87
663.059	8461.36
663.409	8431.76
663.76	8495.48
664.11	8491.87
664.461	8543.17
664.811	8482.83
665.161	8471.75
665.511	8461.36
665.862	8454.58
666.212	8536.16
666.562	8518.76
666.912	8537.97
667.262	8469.95
667.612	8514.24
667.962	8470.85
668.312	8420.46
668.662	8463.85
669.011	8522.15
669.361	8454.81
669.711	8490.06
670.06	8475.82
670.41	8391.08
670.76	8431.98
671.109	8468.59
671.459	8475.82
671.808	8456.84
672.157	8435.6
672.507	8384.75
672.856	8362.83
673.205	8397.41
673.554	8384.98
673.904	8363.73
674.253	8391.98
674.602	8372.32
674.951	8315.37
675.3	8256.85
675.649	8384.98
675.998	8294.13
676.346	8314.47
676.695	8375.94
677.044	8329.16
677.393	8307.92
677.741	8388.59
678.09	8265.88
678.438	8282.83
678.787	8298.43
679.135	8252.55
679.484	8209.84
679.832	8254.59
680.181	8247.58
680.529	8265.88
680.877	8186.11
681.225	8208.71
681.573	8255.04
681.922	8192.67
682.27	8094.59
682.618	8211.65
682.966	8128.03
683.314	8118.54
683.661	8058.43
684.009	8067.7
684.357	8063.4
684.705	8008.94
685.053	8009.85
685.4	8003.74
685.748	8002.84
686.095	7968.27
686.443	7945.67
686.79	7892.79
687.138	7991.32
687.485	8054.36
687.832	7917.42
688.18	7880.81
688.527	7883.75
688.874	7900.24
689.221	7791.77
689.568	7786.57
689.915	7800.13
690.262	7764.65
690.609	7756.52
690.956	7643.08
691.303	7717.2
691.65	7664.09
691.997	7675.17
692.344	7597.65
692.69	7592.46
693.037	7641.72
693.383	7564.21
693.73	7523.76
694.077	7570.08
694.423	7501.38
694.769	7427.04
695.116	7388.85
695.462	7477.43
695.808	7425
696.155	7402.86
696.501	7334.84
696.847	7332.58
697.193	7333.48
697.539	7322.86
697.885	7304.1
698.231	7279.92
698.577	7257.78
698.923	7188.4
699.269	7181.85
699.614	7178
699.96	7128.97
700.306	7140.26
700.651	7068.63
700.997	7055.07
701.342	7074.96
701.688	7023.21
702.033	6943.89
702.379	7006.71
702.724	6952.47
703.069	6991.79
703.415	6925.58
703.76	6910.44
704.105	6865.02
704.45	6847.39
704.795	6819.37
705.14	6809.88
705.485	6823.66
705.83	6761.52
706.175	6806.94
706.52	6764.45
706.865	6680.84
707.209	6701.41
707.554	6709.09
707.899	6722.42
708.243	6667.28
708.588	6680.16
708.932	6558.58
709.277	6590.22
709.621	6613.5
709.966	6568.75
710.31	6576.21
710.654	6505.93
710.998	6505.25
711.342	6497.8
711.687	6512.03
712.031	6448.98
712.375	6468.64
712.719	6433.16
713.063	6504.8
713.407	6422.77
713.75	6436.55
714.094	6406.5
714.438	6417.57
714.782	6387.74
715.125	6358.36
715.469	6372.6
715.812	6357.46
716.156	6332.83
716.499	6316.33
716.843	6334.41
717.186	6244.47
717.53	6321.3
717.873	6298.03
718.216	6331.02
718.559	6311.36
718.902	6259.38
719.246	6284.69
719.589	6196.11
719.932	6196.56
720.275	6195.66
720.617	6193.85
720.96	6181.19
721.303	6138.71
721.646	6157.24
721.989	6137.35
722.331	6170.57
722.674	6168.54
723.016	6175.77
723.359	6102.78
723.701	6131.03
724.044	6118.82
724.386	6054.87
724.729	6132.83
725.071	6143.91
725.413	6132.38
725.755	6087.64
726.097	6109.56
726.439	6059.61
726.782	6068.65
727.124	6117.69
727.465	6060.29
727.807	6045.83
728.149	6043.57
728.491	6008.77
728.833	6029.56
729.175	5983.01
729.516	6022.33
729.858	6017.58
730.199	6043.57
730.541	5982.1
730.882	5977.13
731.224	6028.66
731.565	5991.59
731.906	5978.94
732.248	6001.09
732.589	6013.51
732.93	6006.28
733.271	6000.18
733.612	6012.38
733.953	5992.5
734.294	5978.03
734.635	5960.86
734.976	5971.48
735.317	5954.76
735.658	6046.73
735.999	5982.1
736.339	6013.74
736.68	6016.9
737.021	5989.79
737.361	5947.08
737.702	6001.99
738.042	5961.76
738.383	6002.22
738.723	5948.21
739.063	5949.56
739.404	5999.73
739.744	5950.01
740.084	6004.47
740.424	5947.53
740.764	5981.65
741.104	6038.82
741.444	6007.64
741.784	6006.96
742.124	5987.53
742.464	5998.6
742.804	6063.23
743.143	6030.46
743.483	6082.21
743.823	6041.54
744.162	6066.17
744.502	6074.3
744.841	6059.61
745.181	6125.38
745.52	6116.79
745.86	6188.2
746.199	6118.14
746.538	6125.38
746.877	6220.06
747.216	6216.22
747.556	6269.78
747.895	6311.81
748.234	6285.37
748.573	6239.72
748.911	6359.49
749.25	6437.68
749.589	6343
749.928	6435.42
750.267	6481.3
750.605	6535.31
750.944	6515.87
751.283	6548.42
751.621	6609.88
751.96	6722.65
752.298	6764.45
752.636	6811.91
752.975	6910.89
753.313	6875.41
753.651	6987.73
753.989	7019.36
754.327	7085.12
754.666	7122.41
755.004	7244.22
755.342	7261.62
755.679	7374.16
756.017	7379.81
756.355	7546.58
756.693	7489.86
757.031	7656.41
757.368	7669.74
757.706	7799.68
758.044	7860.7
758.381	7986.12
758.719	7981.37
759.056	8168.71
759.394	8215.04
759.731	8289.39
760.068	8386.11
760.405	8433.79
760.743	8547.23
761.08	8671.75
761.417	8724.18
761.754	8806.89
762.091	8911.74
762.428	8976.6
762.765	9124.84
763.102	9248.46
763.438	9269.7
763.775	9322.35
764.112	9492.97
764.449	9556.25
764.785	9624.72
765.122	9703.81
765.458	9788.1
765.795	9798.5
766.131	9864.03
766.467	9975.44
766.804	10053.18
767.14	10180.18
767.476	10270.35
767.812	10250.01
768.148	10356.45
768.485	10378.82
768.821	10333.4
769.157	10446.39
769.492	10547.41
