Data from hue_80_FLMS001491_34.txt Node
Date: Mon Feb 06 15:22:54 GMT 2017
User: dcchb
Spectrometer: FLMS00149
Trigger mode: 0
Integration Time (sec): 2.000000E-2
Scans to average: 10
Electric dark correction enabled: true
Nonlinearity correction enabled: false
Boxcar width: 0
XAxis mode: Wavelengths
Number of Pixels in Spectrum: 2048
>>>>>Begin Spectral Data<<<<<
341.393	-13.9
341.776	-13.9
342.16	-13.9
342.543	-53.44
342.927	-96.38
343.31	-75.37
343.693	-77.85
344.077	-47.12
344.46	-71.52
344.843	-48.25
345.226	-48.93
345.61	-41.02
345.993	-14.12
346.376	-4.41
346.759	10.73
347.142	19.55
347.525	57.51
347.908	67.68
348.291	90.28
348.674	75.14
349.057	107.68
349.44	134.57
349.823	156.95
350.206	159.88
350.588	196.49
350.971	191.29
351.354	229.49
351.737	234.23
352.119	238.52
352.502	241.24
352.884	270.39
353.267	288.02
353.65	309.48
354.032	282.14
354.414	304.74
354.797	309.26
355.179	287.56
355.562	308.35
355.944	324.85
356.326	336.15
356.709	334.57
357.091	323.04
357.473	323.27
357.855	345.64
358.238	338.41
358.62	339.99
359.002	318.52
359.384	341.57
359.766	328.47
360.148	348.13
360.53	354.91
360.912	328.92
361.294	323.49
361.676	338.64
362.057	319.88
362.439	324.85
362.821	323.04
363.203	299.31
363.584	323.95
363.966	332.08
364.348	318.75
364.729	323.72
365.111	305.42
365.493	305.42
365.874	303.38
366.256	318.75
366.637	331.18
367.019	289.14
367.4	315.36
367.781	299.09
368.163	316.04
368.544	309.71
368.925	311.52
369.306	308.58
369.688	327.79
370.069	323.04
370.45	306.77
370.831	299.54
371.212	308.35
371.593	287.11
371.974	313.55
372.355	306.77
372.736	329.82
373.117	318.75
373.498	329.37
373.879	300.22
374.26	320.33
374.641	304.74
375.021	301.35
375.402	309.26
375.783	307.9
376.163	302.7
376.544	311.07
376.925	317.84
377.305	289.82
377.686	315.58
378.066	318.52
378.447	316.49
378.827	315.81
379.208	321.46
379.588	329.6
379.968	308.35
380.349	320.78
380.729	335.92
381.109	323.72
381.489	332.31
381.87	324.4
382.25	336.38
382.63	333.66
383.01	325.98
383.39	344.96
383.77	343.15
384.15	328.92
384.53	319.43
384.91	331.63
385.29	332.99
385.67	343.61
386.049	314
386.429	347.67
386.809	324.85
387.189	358.07
387.568	345.87
387.948	325.3
388.328	340.44
388.707	353.55
389.087	365.98
389.466	376.37
389.846	354
390.225	359.43
390.605	333.89
390.984	355.13
391.363	345.87
391.743	368.69
392.122	357.39
392.501	367.11
392.881	359.88
393.26	376.6
393.639	375.02
394.018	371.63
394.397	365.98
394.776	365.3
395.155	340.89
395.534	376.15
395.913	368.24
396.292	379.54
396.671	379.54
397.05	367.79
397.429	366.43
397.808	375.7
398.186	379.99
398.565	374.34
398.944	384.51
399.323	378.41
399.701	396.71
400.08	370.5
400.458	388.58
400.837	375.92
401.215	389.26
401.594	385.19
401.972	394.68
402.351	377.28
402.729	401.46
403.107	394.68
403.486	389.48
403.864	384.28
404.242	378.41
404.62	381.57
404.999	394.23
405.377	417.96
405.755	408.92
406.133	405.98
406.511	413.44
406.889	403.72
407.267	401.91
407.645	400.1
408.023	421.34
408.401	435.58
408.779	448.01
409.156	421.57
409.534	434.9
409.912	445.75
410.29	436.71
410.667	448.01
411.045	443.72
411.422	438.29
411.8	439.65
412.178	459.99
412.555	449.59
412.933	471.51
413.31	443.72
413.687	459.76
414.065	451.17
414.442	477.61
414.819	445.53
415.197	480.1
415.574	453.21
415.951	476.03
416.328	478.07
416.705	489.59
417.082	486.65
417.46	467.9
417.837	485.07
418.214	493.89
418.591	467.9
418.967	491.17
419.344	475.13
419.721	494.56
420.098	511.74
420.475	506.99
420.852	515.58
421.228	513.55
421.605	533.21
421.982	521.23
422.358	524.17
422.735	531.4
423.111	523.94
423.488	549.93
423.864	527.78
424.241	521.23
424.617	532.53
424.994	540.21
425.37	556.48
425.746	531.17
426.123	549.03
426.499	541.34
426.875	532.75
427.251	542.47
427.627	572.3
428.003	544.96
428.379	575.47
428.756	562.36
429.132	574.56
429.507	579.76
429.883	578.4
430.259	590.38
430.635	585.86
431.011	612.75
431.387	607.78
431.763	631.28
432.138	597.84
432.514	621.79
432.89	633.32
433.265	618.85
433.641	647.55
434.016	632.19
434.392	651.4
434.767	662.69
435.143	669.47
435.518	688.91
435.894	663.6
436.269	682.35
436.644	660.66
437.02	649.36
437.395	700.66
437.77	684.39
438.145	688.91
438.52	685.07
438.895	730.94
439.271	699.98
439.646	714.67
440.021	744.95
440.395	731.62
440.77	723.03
441.145	736.36
441.52	762.58
441.895	753.77
442.27	741.34
442.645	741.11
443.019	760.32
443.394	756.7
443.769	766.42
444.143	777.72
444.518	768.91
444.892	775.23
445.267	791.05
445.641	790.6
446.016	794.67
446.39	798.74
446.764	829.47
447.139	806.65
447.513	805.52
447.887	800.09
448.262	809.81
448.636	806.65
449.01	817.27
449.384	814.33
449.758	837.61
450.132	846.87
450.506	843.71
450.88	855.23
451.254	837.61
451.628	872.18
452.002	870.37
452.376	895
452.75	892.97
453.123	907.66
453.497	906.76
453.871	937.26
454.244	940.88
454.618	948.11
454.992	914.21
455.365	934.33
455.739	955.79
456.112	956.7
456.486	982.91
456.859	995.34
457.232	1000.99
457.606	1003.7
457.979	1002.12
458.352	1059.52
458.725	1034.89
459.099	1030.37
459.472	1062.23
459.845	1070.14
460.218	1094.77
460.591	1082.34
460.964	1100.88
461.337	1108.78
461.71	1107.2
462.083	1141.55
462.456	1134.09
462.829	1145.39
463.201	1156.92
463.574	1185.17
463.947	1193.53
464.32	1223.81
464.692	1211.38
465.065	1241.66
465.438	1246.41
465.81	1278.05
466.183	1296.12
466.555	1308.55
466.928	1325.5
467.3	1329.34
467.672	1372.96
468.045	1390.58
468.417	1386.29
468.789	1412.05
469.161	1431.26
469.534	1456.57
469.906	1514.42
470.278	1519.4
470.65	1515.78
471.022	1592.39
471.394	1604.36
471.766	1620.18
472.138	1685.49
472.51	1690.24
472.882	1732.72
473.253	1778.15
473.625	1798.26
473.997	1855.88
474.369	1861.76
474.74	1868.09
475.112	1934.3
475.484	1988.31
475.855	2043.45
476.227	2085.71
476.598	2123.67
476.97	2185.37
477.341	2224.01
477.713	2273.95
478.084	2305.14
478.455	2368.64
478.827	2469.88
479.198	2555.98
479.569	2568.41
479.94	2678.23
480.311	2700.83
480.682	2816.99
481.053	2919.58
481.424	2951.22
481.795	3009.07
482.166	3102.4
482.537	3196.19
482.908	3290.42
483.279	3411.1
483.65	3467.82
484.021	3588.49
484.391	3687.93
484.762	3716.17
485.133	3826.23
485.503	3936.51
485.874	4067.35
486.244	4135.82
486.615	4244.3
486.985	4371.98
487.356	4477.96
487.726	4572.42
488.097	4737.84
488.467	4800.89
488.837	4977.84
489.207	5110.26
489.578	5188.9
489.948	5319.52
490.318	5440.87
490.688	5542.79
491.058	5731.49
491.428	5827.53
491.798	5955.89
492.168	6116.11
492.538	6188.42
492.908	6385.93
493.278	6453.95
493.648	6543.44
494.017	6742.31
494.387	6858.92
494.757	7005.8
495.126	7127.38
495.496	7180.72
495.866	7332.12
496.235	7520.37
496.605	7570.54
496.974	7774.15
497.344	7864.54
497.713	8037.87
498.082	8102.72
498.452	8271.99
498.821	8313.34
499.19	8458.65
499.559	8595.14
499.928	8629.72
500.298	8829.49
500.667	8971.63
501.036	9001.01
501.405	9185.86
501.774	9256.82
502.143	9368.45
502.512	9421.56
502.88	9582.46
503.249	9662.91
503.618	9748.78
503.987	9746.52
504.356	9986.74
504.724	10095.21
505.093	10073.75
505.462	10237.58
505.83	10316
506.199	10395.09
506.567	10603.22
506.936	10643.9
507.304	10810.68
507.672	10822.65
508.041	10884.57
508.409	11000.5
508.777	11215.41
509.145	11243.21
509.514	11193.94
509.882	11326.14
510.25	11415.18
510.618	11527.49
510.986	11527.04
511.354	11677.09
511.722	11769.97
512.09	11877.99
512.458	11868.73
512.826	12007.93
513.193	12091.77
513.561	12149.17
513.929	12223.07
514.297	12291.09
514.664	12357.53
515.032	12418.32
515.4	12569.73
515.767	12647.01
516.135	12685.43
516.502	12625.09
516.869	12837.97
517.237	12903.73
517.604	12891.3
517.972	12929.26
518.339	13068.7
518.706	13074.8
519.073	13152.31
519.44	13158.19
519.808	13334.9
520.175	13243.15
520.542	13460.78
520.909	13564.05
521.276	13485.63
521.643	13644.5
522.009	13698.96
522.376	13731.5
522.743	13741.9
523.11	13942.12
523.477	14016.92
523.843	14092.85
524.21	14146.86
524.577	14208.1
524.943	14208.1
525.31	14301.88
525.676	14387.31
526.043	14479.51
526.409	14470.02
526.776	14559.5
527.142	14662.78
527.508	14681.08
527.874	14694.87
528.241	14763.34
528.607	14764.47
528.973	14873.17
529.339	14817.35
529.705	14926.73
530.071	14992.71
530.437	14956.78
530.803	15129.66
531.169	15190.45
531.535	15090.34
531.901	15157.23
532.267	15146.16
532.632	15251.46
532.998	15213.05
533.364	15258.24
533.73	15276.55
534.095	15341.63
534.461	15384.34
534.826	15334.17
535.192	15352.93
535.557	15491.46
535.923	15426.15
536.288	15446.49
536.653	15439.26
537.019	15432.48
537.384	15399.03
537.749	15455.3
538.114	15431.57
538.479	15426.15
538.845	15487.39
539.21	15417.56
539.575	15481.74
539.94	15437.67
540.305	15473.38
540.67	15426.15
541.034	15391.35
541.399	15561.96
541.764	15516.09
542.129	15462.31
542.494	15500.5
542.858	15512.93
543.223	15471.57
543.587	15596.77
543.952	15469.54
544.316	15454.4
544.681	15485.81
545.045	15370.78
545.41	15475.19
545.774	15487.62
546.138	15418.69
546.503	15479.25
546.867	15401.97
547.231	15493.72
547.595	15353.16
547.959	15486.94
548.324	15386.38
548.688	15504.11
549.052	15421.18
549.416	15501.4
549.779	15373.95
550.143	15460.72
550.507	15482.87
550.871	15514.51
551.235	15437.45
551.599	15460.72
551.962	15515.86
552.326	15464.34
552.689	15504.34
553.053	15379.14
553.417	15404.68
553.78	15559.25
554.143	15433.61
554.507	15503.21
554.87	15490.78
555.234	15632.02
555.597	15401.06
555.96	15507.73
556.323	15569.87
556.686	15549.31
557.05	15570.33
557.413	15586.6
557.776	15504.56
558.139	15592.02
558.502	15647.84
558.865	15605.35
559.228	15660.72
559.59	15707.04
559.953	15668.18
560.316	15744.78
560.679	15774.16
561.041	15857.78
561.404	15852.58
561.767	15869.98
562.129	15869.53
562.492	15927.6
562.854	15922.41
563.217	15989.07
563.579	15984.1
563.941	15929.19
564.304	16063.42
564.666	16130.54
565.028	16080.14
565.39	16209.18
565.753	16191.1
566.115	16174.83
566.477	16226.58
566.839	16277.88
567.201	16336.18
567.563	16240.82
567.925	16470.87
568.287	16255.73
568.648	16448.49
569.01	16503.63
569.372	16546.57
569.734	16528.72
570.095	16501.15
570.457	16661.6
570.819	16593.8
571.18	16610.3
571.542	16725.77
571.903	16656.62
572.265	16754.47
572.626	16722.61
572.987	16764.19
573.349	16829.95
573.71	16813
574.071	16866.11
574.432	16901.36
574.794	16945.88
575.155	16930.52
575.516	16928.93
575.877	16972.1
576.238	16933.68
576.599	16969.61
576.96	17013.45
577.32	17000.8
577.681	17031.98
578.042	17121.92
578.403	17035.15
578.763	17059.78
579.124	17095.71
579.485	17169.15
579.845	17205.31
580.206	17125.31
580.566	17057.07
580.927	17103.62
581.287	17198.08
581.648	17106.33
582.008	17275.59
582.368	17208.47
582.728	17116.27
583.089	17085.31
583.449	17164.18
583.809	17174.12
584.169	17145.2
584.529	17061.59
584.889	17281.47
585.249	17120.57
585.609	17036.28
585.969	17233.33
586.329	17150.17
586.688	17113.34
587.048	17059.78
587.408	17062.72
587.768	17108.14
588.127	17055.94
588.487	17083.73
588.846	17193.56
589.206	17036.73
589.565	17030.4
589.925	17106.56
590.284	17007.8
590.643	17119.89
591.003	17165.54
591.362	17151.98
591.721	17043.96
592.08	17126.89
592.44	17153.79
592.799	17145.88
593.158	17097.97
593.517	17086.44
593.876	17082.6
594.235	16992.21
594.593	17026.56
594.952	17004.19
595.311	16957.41
595.67	16963.73
596.029	17159.89
596.387	17062.72
596.746	17148.81
597.104	17059.1
597.463	16974.81
597.822	17086.22
598.18	16936.39
598.538	16940.46
598.897	17115.6
599.255	16980.23
599.613	17119.44
599.972	17038.76
600.33	17021.81
600.688	17043.28
601.046	17010.51
601.404	17093.22
601.762	17034.92
602.12	17114.92
602.478	17087.12
602.836	17160.34
603.194	16987.91
603.552	17116.27
603.91	17090.29
604.268	17165.99
604.625	17097.52
604.983	17241.02
605.341	17015.26
605.698	17101.13
606.056	17186.55
606.413	17160.57
606.771	17131.19
607.128	17171.86
607.485	17023.17
607.843	17252.31
608.2	17266.78
608.557	17304.97
608.914	17159.44
609.272	17297.96
609.629	17283.73
609.986	17385.64
610.343	17269.72
610.7	17431.52
611.057	17405.53
611.414	17407.56
611.771	17377.06
612.127	17372.54
612.484	17417.06
612.841	17455.47
613.198	17434.23
613.554	17462.48
613.911	17623.6
614.267	17622.25
614.624	17504.29
614.98	17576.6
615.337	17603.49
615.693	17562.82
616.05	17569.59
616.406	17637.62
616.762	17590.61
617.118	17580.89
617.475	17664.51
617.831	17704.96
618.187	17657.95
618.543	17650.04
618.899	17791.96
619.255	17717.84
619.611	17702.7
619.967	17818.18
620.323	17842.13
620.678	17736.6
621.034	17759.19
621.39	17767.78
621.746	17735.92
622.101	17962.35
622.457	17812.98
622.812	17726.88
623.168	17838.74
623.523	17820.66
623.879	17920.09
624.234	17791.28
624.589	17868.57
624.945	17899.08
625.3	17921
625.655	17963.26
626.01	17847.78
626.365	17827.21
626.72	17945.4
627.075	17882.58
627.43	17875.35
627.785	17852.52
628.14	17792.87
628.495	17855.24
628.85	17787.67
629.205	17809.36
629.559	17744.28
629.914	17728.91
630.269	17756.26
630.623	17811.85
630.978	17680.1
631.332	17804.16
631.687	17857.27
632.041	17730.95
632.396	17773.88
632.75	17636.26
633.104	17744.96
633.459	17581.12
633.813	17694.11
634.167	17617.28
634.521	17665.64
634.875	17612.08
635.229	17657.95
635.583	17481.24
635.937	17566.66
636.291	17561.69
636.645	17488.47
636.999	17441.46
637.352	17545.41
637.706	17434
638.06	17461.35
638.413	17464.06
638.767	17421.8
639.121	17457.06
639.474	17307.23
639.828	17333.44
640.181	17281.24
640.534	17343.16
640.888	17381.12
641.241	17274.24
641.594	17321.47
641.947	17361.46
642.301	17285.76
642.654	17311.75
643.007	17345.42
643.36	17223.39
643.713	17356.04
644.066	17331.41
644.419	17161.92
644.771	17092.77
645.124	16901.14
645.477	16882.38
645.83	16763.29
646.182	16644.42
646.535	16643.52
646.888	16722.84
647.24	16606
647.593	16659.11
647.945	16680.13
648.298	16534.37
648.65	16578.21
649.002	16536.18
649.355	16620.47
649.707	16536.18
650.059	16683.97
650.411	16801.03
650.763	16893.23
651.115	17054.35
651.467	16958.99
651.819	17035.37
652.171	16971.19
652.523	16895.94
652.875	16887.13
653.227	16866.56
653.578	17006.9
653.93	16934.13
654.282	16920.35
654.633	16859.33
654.985	16995.15
655.337	16921.7
655.688	16918.54
656.039	16995.82
656.391	16804.42
656.742	16888.71
657.094	16806.9
657.445	16903.4
657.796	16837.86
658.147	16827.24
658.498	16773.68
658.849	16965.99
659.2	16944.3
659.551	16877.41
659.902	16901.59
660.253	16928.48
660.604	16893.91
660.955	16897.75
661.306	16854.81
661.656	16899.78
662.007	16953.11
662.358	16937.52
662.708	17001.93
663.059	16926.9
663.409	16866.34
663.76	16930.74
664.11	17075.37
664.461	16881.25
664.811	17005.99
665.161	17000.57
665.511	16959.22
665.862	17009.16
666.212	16981.59
666.562	17017.52
666.912	16982.49
667.262	17048.7
667.612	16890.52
667.962	16949.5
668.312	16985.43
668.662	16899.1
669.011	16936.39
669.361	16958.54
669.711	16853
670.06	16923.28
670.41	16871.76
670.76	16869.5
671.109	16886.45
671.459	16827.69
671.808	16799.22
672.157	16798.99
672.507	16714.7
672.856	16786.11
673.205	16797.41
673.554	16884.87
673.904	16804.87
674.253	16844.19
674.602	16789.5
674.951	16525.33
675.3	16482.62
675.649	16703.18
675.998	16741.14
676.346	16722.16
676.695	16645.33
677.044	16547.02
677.393	16792.21
677.741	16723.97
678.09	16611.43
678.438	16617.53
678.787	16645.55
679.135	16642.84
679.484	16504.54
679.832	16591.77
680.181	16395.39
680.529	16437.42
680.877	16383.86
681.225	16383.86
681.573	16542.5
681.922	16376.63
682.27	16318.55
682.618	16367.59
682.966	16297.76
683.314	16351.55
683.661	16227.03
684.009	16161.72
684.357	16153.13
684.705	16117.2
685.053	16131.44
685.4	16191.1
685.748	16028.17
686.095	16051.67
686.443	15918.79
686.79	16023.19
687.138	16013.03
687.485	15928.51
687.832	15940.94
688.18	15931.45
688.527	15808.74
688.874	15835.18
689.221	15702.3
689.568	15694.39
689.915	15667.5
690.262	15636.54
690.609	15609.65
690.956	15466.6
691.303	15488.75
691.65	15382.08
691.997	15286.72
692.344	15312.93
692.69	15223.44
693.037	15230.22
693.383	15082.88
693.73	15151.8
694.077	15088.08
694.423	15115.87
694.769	15000.4
695.116	14928.53
695.462	14960.85
695.808	14932.15
696.155	14864.13
696.501	14799.05
696.847	14756.11
697.193	14668.88
697.539	14764.7
697.885	14616.23
698.231	14571.03
698.577	14523.57
698.923	14442.9
699.269	14381.66
699.614	14269.79
699.96	14258.5
700.306	14230.47
700.651	14189.34
700.997	14166.29
701.342	14142.57
701.688	14095.56
702.033	14084.49
702.379	14051.49
702.724	13890.14
703.069	13971.05
703.415	13780.32
703.76	13826.19
704.105	13808.34
704.45	13743.03
704.795	13704.39
705.14	13585.52
705.485	13588.46
705.83	13549.14
706.175	13610.15
706.52	13579.87
706.865	13467.56
707.209	13441.12
707.554	13377.16
707.899	13382.81
708.243	13311.18
708.588	13275.47
708.932	13179.43
709.277	13210.61
709.621	13207.22
709.966	13053.78
710.31	13159.54
710.654	13021.47
710.998	13082.48
711.342	13051.97
711.687	13019.66
712.031	12863.05
712.375	12862.15
712.719	12908.93
713.063	12822.6
713.407	12866.22
713.75	12803.84
714.094	12828.93
714.438	12736.5
714.782	12748.03
715.125	12639.78
715.469	12689.5
715.812	12600.46
716.156	12557.75
716.499	12619.22
716.843	12589.61
717.186	12474.59
717.53	12643.17
717.873	12534.7
718.216	12591.19
718.559	12537.18
718.902	12453.8
719.246	12396.4
719.589	12403.85
719.932	12373.35
720.275	12338.09
720.617	12257.42
720.96	12296.96
721.303	12298.55
721.646	12313.69
721.989	12209.74
722.331	12274.59
722.674	12213.13
723.016	12286.12
723.359	12187.36
723.701	12303.97
724.044	12178.32
724.386	12031.21
724.729	12132
725.071	12163.63
725.413	12098.33
725.755	12103.07
726.097	12041.83
726.439	12013.58
726.782	11964.77
727.124	12091.32
727.465	12043.41
727.807	11989.63
728.149	12012.68
728.491	11995.5
728.833	11985.33
729.175	11939.23
729.516	11939.01
729.858	11923.19
730.199	11966.35
730.541	11854.49
730.882	11886.58
731.224	12005
731.565	11893.13
731.906	11833.93
732.248	11872.34
732.589	11807.26
732.93	11823.08
733.271	11872.12
733.612	11806.81
733.953	11892.23
734.294	11905.56
734.635	11825.79
734.976	11892
735.317	11798.9
735.658	11838.22
735.999	11819.69
736.339	11789.63
736.68	11916.64
737.021	11869.86
737.361	11786.02
737.702	11859.91
738.042	11836.41
738.383	11867.6
738.723	11875.96
739.063	11875.96
739.404	11796.41
739.744	11877.77
740.084	11814.27
740.424	11845
740.764	11895.85
741.104	11910.08
741.444	11825.56
741.784	11786.7
742.124	11965.22
742.464	11879.57
742.804	11869.41
743.143	11874.6
743.483	11902.85
743.823	11939.23
744.162	11984.88
744.502	11937.65
744.841	11968.39
745.181	12102.85
745.52	11999.12
745.86	12087.48
746.199	12146.69
746.538	12141.71
746.877	12241.6
747.216	12276.17
747.556	12254.71
747.895	12364.99
748.234	12381.03
748.573	12377.87
748.911	12429.39
749.25	12396.17
749.589	12467.36
749.928	12545.77
750.267	12618.76
750.605	12661.93
750.944	12735.15
751.283	12821.47
751.621	12955.93
751.96	12938.3
752.298	12989.6
752.636	13096.49
752.975	13101.46
753.313	13200.22
753.651	13276.37
753.989	13329.93
754.327	13489.25
754.666	13494
755.004	13598.17
755.342	13762.69
755.679	13906.87
756.017	13933.31
756.355	14035.9
756.693	14115.45
757.031	14187.54
