Data from hue_80_FLMS001491_35.txt Node
Date: Mon Feb 06 15:22:54 GMT 2017
User: dcchb
Spectrometer: FLMS00149
Trigger mode: 0
Integration Time (sec): 2.000000E-2
Scans to average: 10
Electric dark correction enabled: true
Nonlinearity correction enabled: false
Boxcar width: 0
XAxis mode: Wavelengths
Number of Pixels in Spectrum: 2048
>>>>>Begin Spectral Data<<<<<
341.393	-22.92
341.776	-22.92
342.16	-22.92
342.543	-66.54
342.927	-56.59
343.31	-74
343.693	-74
344.077	-69.02
344.46	-63.15
344.843	-56.14
345.226	-45.52
345.61	-26.54
345.993	-30.61
346.376	12.33
346.759	27.02
347.142	36.06
347.525	32.89
347.908	33.8
348.291	86
348.674	99.11
349.057	111.76
349.44	121.48
349.823	138.88
350.206	159.44
350.588	190.86
350.971	218.43
351.354	210.52
351.737	229.27
352.119	244.19
352.502	244.64
352.884	276.05
353.267	275.83
353.65	282.83
354.032	277.41
354.414	316.05
354.797	317.18
355.179	318.31
355.562	322.83
355.944	324.19
356.326	319.44
356.709	321.02
357.091	325.54
357.473	344.52
357.855	333.23
358.238	334.36
358.62	351.3
359.002	324.19
359.384	336.16
359.766	318.54
360.148	347.91
360.53	340.68
360.912	318.76
361.294	316.95
361.676	331.19
362.057	340.91
362.439	336.62
362.821	323.06
363.203	303.17
363.584	311.08
363.966	325.77
364.348	318.76
364.729	332.77
365.111	304.98
365.493	310.4
365.874	321.47
366.256	319.89
366.637	311.98
367.019	315.83
367.4	308.59
367.781	302.27
368.163	318.31
368.544	316.95
368.925	305.88
369.306	336.84
369.688	309.72
370.069	312.21
370.45	312.66
370.831	308.82
371.212	292.77
371.593	300.68
371.974	336.39
372.355	324.41
372.736	304.75
373.117	315.83
373.498	309.5
373.879	320.12
374.26	306.79
374.641	326.22
375.021	314.7
375.402	305.66
375.783	334.36
376.163	324.64
376.544	316.5
376.925	310.18
377.305	310.85
377.686	313.11
378.066	326.22
378.447	343.85
378.827	344.07
379.208	303.17
379.588	343.85
379.968	334.58
380.349	328.48
380.729	314.92
381.109	330.74
381.489	344.98
381.87	333.45
382.25	310.85
382.63	337.52
383.01	329.84
383.39	348.82
383.77	331.42
384.15	337.97
384.53	330.29
384.91	340.23
385.29	346.33
385.67	321.93
386.049	340.46
386.429	330.06
386.809	347.01
387.189	345.88
387.568	354.69
387.948	354.69
388.328	348.37
388.707	346.11
389.087	341.59
389.466	344.98
389.846	350.85
390.225	347.91
390.605	365.54
390.984	372.55
391.363	342.49
391.743	365.09
392.122	363.06
392.501	358.76
392.881	351.98
393.26	335.49
393.639	374.35
394.018	375.26
394.397	339.1
394.776	365.54
395.155	367.12
395.534	387.69
395.913	368.48
396.292	374.13
396.671	386.11
397.05	405.31
397.429	370.96
397.808	372.09
398.186	363.51
398.565	389.5
398.944	377.97
399.323	360.12
399.701	362.38
400.08	389.5
400.458	387.24
400.837	382.26
401.215	386.78
401.594	411.19
401.972	404.18
402.351	400.12
402.729	396.27
403.107	390.63
403.486	392.66
403.864	382.04
404.242	394.69
404.62	405.54
404.999	415.48
405.377	399.21
405.755	402.15
406.133	427.01
406.511	385.2
406.889	410.29
407.267	414.81
407.645	403.73
408.023	431.08
408.401	428.59
408.779	423.84
409.156	418.42
409.534	411.64
409.912	426.1
410.29	439.44
410.667	449.83
411.045	437.4
411.422	404.86
411.8	450.28
412.178	437.63
412.555	444.18
412.933	439.89
413.31	444.18
413.687	460.45
414.065	476.5
414.442	458.42
414.819	475.37
415.197	474.01
415.574	482.6
415.951	482.6
416.328	480.79
416.705	477.4
417.082	467.46
417.46	491.64
417.837	466.56
418.214	480.34
418.591	502.71
418.967	475.59
419.344	496.16
419.721	491.41
420.098	517.85
420.475	508.14
420.852	508.81
421.228	509.72
421.605	500.45
421.982	541.36
422.358	539.1
422.735	521.24
423.111	500.68
423.488	511.3
423.864	509.49
424.241	551.75
424.617	537.74
424.994	519.89
425.37	550.17
425.746	546.33
426.123	528.25
426.499	564.63
426.875	535.25
427.251	567.57
427.627	561.24
428.003	551.3
428.379	565.99
428.756	568.25
429.132	581.81
429.507	595.14
429.883	560.79
430.259	617.74
430.635	593.78
431.011	625.42
431.387	624.07
431.763	618.87
432.138	641.24
432.514	634.46
432.89	611.64
433.265	618.64
433.641	650.05
434.016	643.5
434.392	639.66
434.767	643.5
435.143	653.67
435.518	657.51
435.894	674.01
436.269	665.42
436.644	677.17
437.02	680.34
437.395	701.13
437.77	694.35
438.145	693.44
438.52	710.62
438.895	718.98
439.271	696.38
439.646	707.68
440.021	706.55
440.395	732.99
440.77	701.35
441.145	731.18
441.52	743.84
441.895	721.92
442.27	761.69
442.645	751.75
443.019	765.76
443.394	761.24
443.769	775.25
444.143	783.84
444.518	754.68
444.892	793.78
445.267	766.89
445.641	798.07
446.016	798.52
446.39	769.6
446.764	808.92
447.139	802.37
447.513	805.53
447.887	805.08
448.262	815.02
448.636	836.94
449.01	822.48
449.384	833.55
449.758	823.83
450.132	845.3
450.506	865.19
450.88	840.33
451.254	843.27
451.628	870.39
452.002	892.53
452.376	878.97
452.75	881.46
453.123	915.58
453.497	885.98
453.871	912.87
454.244	914.45
454.618	925.53
454.992	925.98
455.365	923.94
455.739	955.58
456.112	930.27
456.486	991.51
456.859	1000.78
457.232	994.45
457.606	995.13
457.979	999.65
458.352	1022.47
458.725	1016.82
459.099	1058.18
459.472	1066.77
459.845	1082.13
460.218	1088.91
460.591	1087.33
460.964	1075.81
461.337	1108.12
461.71	1123.26
462.083	1139.08
462.456	1134.56
462.829	1157.16
463.201	1173.2
463.574	1159.19
463.947	1185.18
464.32	1207.78
464.692	1216.82
465.065	1237.83
465.438	1277.16
465.81	1281.68
466.183	1295.46
466.555	1304.27
466.928	1322.35
467.3	1334.33
467.672	1375.68
468.045	1416.14
468.417	1408.68
468.789	1432.86
469.161	1439.86
469.534	1476.25
469.906	1475.79
470.278	1512.63
470.65	1545.4
471.022	1587.2
471.394	1604.15
471.766	1630.37
472.138	1669.91
472.51	1683.7
472.882	1732.51
473.253	1773.19
473.625	1803.92
473.997	1851.83
474.369	1897.03
474.74	1865.16
475.112	1943.8
475.484	2008.44
475.855	2062.22
476.227	2049.79
476.598	2139.28
476.97	2170.92
477.341	2231.93
477.713	2273.06
478.084	2326.62
478.455	2400.74
478.827	2440.06
479.198	2546.05
479.569	2574.97
479.94	2653.39
480.311	2725.71
480.682	2791.69
481.053	2892.93
481.424	2959.15
481.795	3040.73
482.166	3131.57
482.537	3184.9
482.908	3302.64
483.279	3356.42
483.65	3466.7
484.021	3520.26
484.391	3688.62
484.762	3712.57
485.133	3823.3
485.503	3933.81
485.874	4033.24
486.244	4127.02
486.615	4261.26
486.985	4343.52
487.356	4487.69
487.726	4573.57
488.097	4725.2
488.467	4800
488.837	4983.05
489.207	5083.16
489.578	5190.5
489.948	5318.63
490.318	5490.38
490.688	5547.55
491.058	5718.39
491.428	5875.68
491.798	5930.82
492.168	6136.46
492.538	6190.47
492.908	6415.1
493.278	6496.68
493.648	6587.07
494.017	6727.63
494.387	6836.78
494.757	7004.69
495.126	7147.96
495.496	7225.47
495.866	7348.41
496.235	7478.35
496.605	7602.87
496.974	7704.56
497.344	7867.26
497.713	8012.35
498.082	8145.45
498.452	8268.61
498.821	8304.32
499.19	8442.39
499.559	8582.05
499.928	8698.43
500.298	8829.05
500.667	8929.16
501.036	9077.85
501.405	9106.55
501.774	9156.04
502.143	9295.7
502.512	9438.52
502.88	9572.53
503.249	9616.37
503.618	9688.23
503.987	9836.7
504.356	9925.97
504.724	10011.39
505.093	10095
505.462	10154.89
505.83	10270.82
506.199	10429.23
506.567	10531.15
506.936	10577.25
507.304	10728.21
507.672	10854.98
508.041	10807.75
508.409	10989.67
508.777	11101.53
509.145	11155.09
509.514	11247.51
509.882	11372.26
510.25	11366.38
510.618	11477.34
510.986	11492.71
511.354	11669.42
511.722	11793.72
512.09	11867.84
512.458	11819.7
512.826	12054.73
513.193	12019.7
513.561	12115.06
513.929	12259.47
514.297	12347.83
514.664	12371.78
515.032	12436.64
515.4	12578.33
515.767	12569.29
516.135	12601.15
516.502	12529.97
516.869	12809.28
517.237	12871.2
517.604	12843.18
517.972	12931.09
518.339	13098.09
518.706	13071.42
519.073	13105.32
519.44	13145.09
519.808	13294.01
520.175	13282.26
520.542	13424.41
520.909	13498.53
521.276	13477.96
521.643	13558.19
522.009	13704.85
522.376	13723.38
522.743	13754.57
523.11	13966.09
523.477	13992.75
523.843	13989.59
524.21	14151.85
524.577	14235.01
524.943	14279.75
525.31	14287.66
525.676	14421.22
526.043	14413.31
526.409	14517.94
526.776	14644.49
527.142	14563.36
527.508	14612.85
527.874	14700.76
528.241	14745.05
528.607	14857.82
528.973	14887.42
529.339	14899.4
529.705	14866.85
530.071	14989.11
530.437	15119.5
530.803	15047.87
531.169	15131.25
531.535	15072.95
531.901	15165.15
532.267	15136.68
532.632	15185.94
532.998	15167.41
533.364	15324.47
533.73	15297.13
534.095	15318.14
534.461	15366.05
534.826	15337.35
535.192	15389.33
535.557	15472.49
535.923	15366.05
536.288	15409.67
536.653	15415.54
537.019	15326.96
537.384	15461.42
537.749	15463.45
538.114	15413.28
538.479	15470.23
538.845	15558.59
539.21	15466.84
539.575	15457.12
539.94	15451.92
540.305	15543.45
540.67	15514.52
541.034	15430.91
541.399	15571.24
541.764	15462.55
542.129	15534.18
542.494	15464.81
542.858	15486.5
543.223	15470.91
543.587	15583.45
543.952	15460.96
544.316	15442.21
544.681	15492.83
545.045	15444.69
545.41	15596.55
545.774	15528.53
546.138	15420.51
546.503	15381.42
546.867	15407.63
547.231	15547.29
547.595	15469.78
547.959	15408.31
548.324	15498.48
548.688	15345.49
549.052	15403.11
549.416	15382.77
549.779	15469.78
550.143	15405.37
550.507	15471.81
550.871	15487.86
551.235	15305.71
551.599	15521.98
551.962	15393.62
552.326	15502.54
552.689	15514.75
553.053	15407.41
553.417	15465.94
553.78	15519.04
554.143	15449.66
554.507	15480.62
554.87	15564.01
555.234	15609.66
555.597	15470
555.96	15429.78
556.323	15587.74
556.686	15465.71
557.05	15532.37
557.413	15615.31
557.776	15550.23
558.139	15672.26
558.502	15588.19
558.865	15648.3
559.228	15738.02
559.59	15628.87
559.953	15759.71
560.316	15794.97
560.679	15866.15
561.041	15886.72
561.404	15802.88
561.767	15915.19
562.129	15854.63
562.492	15992.47
562.854	15896.21
563.217	15929.43
563.579	15969.88
563.941	16046.48
564.304	16021.4
564.666	16164.22
565.028	16201.96
565.39	16085.35
565.753	16200.15
566.115	16211.23
566.477	16287.38
566.839	16348.85
567.201	16320.6
567.563	16259.81
567.925	16414.16
568.287	16436.98
568.648	16379.58
569.01	16427.94
569.372	16541.61
569.734	16436.31
570.095	16441.05
570.457	16601.72
570.819	16712.23
571.18	16557.43
571.542	16723.98
571.903	16607.6
572.265	16754.04
572.626	16766.01
572.987	16734.83
573.349	16750.42
573.71	16823.64
574.071	16912.68
574.432	16878.1
574.794	16983.86
575.155	16988.83
575.516	16920.59
575.877	16854.83
576.238	16947.03
576.599	17004.65
576.96	16963.3
577.32	16975.05
577.681	17093.46
578.042	17070.64
578.403	17018.21
578.763	16961.04
579.124	16998.55
579.485	17151.77
579.845	17154.03
580.206	17126.68
580.566	17144.76
580.927	17136.4
581.287	17131.65
581.648	17064.54
582.008	17239.45
582.368	17168.49
582.728	17109.28
583.089	17177.98
583.449	17159.22
583.809	17214.59
584.169	17156.74
584.529	17099.56
584.889	17190.41
585.249	17129.85
585.609	17051.43
585.969	17147.25
586.329	17055.95
586.688	17090.98
587.048	17222.73
587.408	17100.24
587.768	17091.43
588.127	17093.01
588.487	17093.01
588.846	17184.08
589.206	17039
589.565	17092.11
589.925	17048.94
590.284	17036.06
590.643	17058.44
591.003	17054.82
591.362	17141.82
591.721	17151.99
592.08	17058.89
592.44	17098.21
592.799	17039.23
593.158	17036.97
593.517	16994.03
593.876	17056.4
594.235	16925.78
594.593	17048.27
594.952	17049.4
595.311	16947.7
595.67	16990.64
596.029	17128.49
596.387	17104.54
596.746	17114.93
597.104	17041.49
597.463	17022.28
597.822	17099.56
598.18	17009.85
598.538	17010.3
598.897	17051.2
599.255	16892.11
599.613	17161.03
599.972	17092.79
600.33	17069.51
600.688	16872.45
601.046	17038.32
601.404	17070.86
601.762	17055.72
602.12	17087.36
602.478	17131.65
602.836	17177.98
603.194	17036.97
603.552	17044.2
603.91	17065.22
604.268	17129.85
604.625	17078.77
604.983	17104.76
605.341	17026.8
605.698	17239.22
606.056	17244.19
606.413	17121.48
606.771	17196.29
607.128	17217.3
607.485	17243.97
607.843	17191.31
608.2	17311.76
608.557	17271.09
608.914	17168.49
609.272	17208.04
609.629	17360.57
609.986	17342.95
610.343	17348.82
610.7	17482.61
611.057	17366
611.414	17379.11
611.771	17366
612.127	17482.15
612.484	17419.78
612.841	17356.51
613.198	17401.93
613.554	17414.13
613.911	17543.17
614.267	17383.62
614.624	17535.26
614.98	17502.94
615.337	17622.94
615.693	17579.55
616.05	17490.97
616.406	17677.63
616.762	17575.26
617.118	17673.79
617.475	17584.52
617.831	17707.91
618.187	17722.15
618.543	17593.56
618.899	17919.88
619.255	17732.32
619.611	17723.73
619.967	17758.98
620.323	17832.2
620.678	17780.68
621.034	17690.06
621.39	17714.92
621.746	17790.62
622.101	17974.34
622.457	17742.26
622.812	17857.06
623.168	17812.09
623.523	17913.55
623.879	17883.95
624.234	17769.83
624.589	17875.82
624.945	17856.83
625.3	17863.84
625.655	17864.97
626.01	17943.38
626.365	17908.58
626.72	17891.86
627.075	17821.58
627.43	17908.13
627.785	17876.49
628.14	17751.3
628.495	17849.83
628.85	17818.42
629.205	17692.32
629.559	17806.44
629.914	17768.93
630.269	17763.28
630.623	17739.55
630.978	17787.91
631.332	17808.25
631.687	17767.8
632.041	17728.93
632.396	17765.54
632.75	17687.57
633.104	17745.88
633.459	17589.5
633.813	17669.72
634.167	17635.6
634.521	17633.56
634.875	17594.69
635.229	17653.67
635.583	17538.87
635.937	17578.87
636.291	17516.28
636.645	17522.38
636.999	17440.57
637.352	17523.51
637.706	17333.46
638.06	17510.4
638.413	17429.5
638.767	17403.74
639.121	17446.45
639.474	17390.4
639.828	17328.49
640.181	17286.9
640.534	17363.74
640.888	17291.88
641.241	17242.16
641.594	17158.09
641.947	17246.45
642.301	17264.76
642.654	17343.63
643.007	17351.76
643.36	17261.14
643.713	17263.18
644.066	17349.95
644.419	17155.38
644.771	17030.41
645.124	16921.04
645.477	16923.75
645.83	16745.9
646.182	16649.86
646.535	16710.2
646.888	16561.95
647.24	16607.15
647.593	16730.08
647.945	16584.32
648.298	16573.48
648.65	16567.6
649.002	16516.98
649.355	16611.44
649.707	16549.3
650.059	16643.53
650.411	16842.62
650.763	16878.55
651.115	17073.35
651.467	17022.73
651.819	16934.15
652.171	16963.52
652.523	16922.39
652.875	16901.6
653.227	16914.03
653.578	16947.03
653.93	16892.56
654.282	16962.39
654.633	16934.15
654.985	16916.74
655.337	16913.35
655.688	16891.43
656.039	17055.95
656.391	16819.57
656.742	16845.11
657.094	16785.45
657.445	17033.8
657.796	16859.57
658.147	16904.09
658.498	16918.55
658.849	16922.39
659.2	16919.46
659.551	16881.72
659.902	16903.41
660.253	16907.48
660.604	16962.17
660.955	16839.46
661.306	17007.59
661.656	16918.33
662.007	16935.05
662.358	16936.63
662.708	16897.76
663.059	16914.03
663.409	16875.16
663.76	16936.4
664.11	16860.25
664.461	16939.34
664.811	16866.12
665.161	16896.63
665.511	16907.48
665.862	16974.6
666.212	17020.92
666.562	17076.06
666.912	16949.51
667.262	16994.93
667.612	16933.24
667.962	17013.01
668.312	16968.49
668.662	16967.36
669.011	16883.75
669.361	16791.78
669.711	16886.46
670.06	16934.15
670.41	16824.09
670.76	16877.88
671.109	16860.93
671.459	16888.27
671.808	16808.95
672.157	16893.47
672.507	16687.15
672.856	16753.13
673.205	16755.84
673.554	16912.45
673.904	16755.62
674.253	16810.76
674.602	16856.18
674.951	16642.4
675.3	16455.97
675.649	16684.43
675.998	16689.41
676.346	16679.91
676.695	16739.35
677.044	16535.96
677.393	16686.92
677.741	16707.03
678.09	16673.59
678.438	16639.92
678.787	16576.64
679.135	16596.07
679.484	16513.14
679.832	16521.95
680.181	16356.99
680.529	16451.67
680.877	16412.8
681.225	16451.22
681.573	16531.67
681.922	16393.37
682.27	16342.3
682.618	16428.62
682.966	16305.91
683.314	16307.72
683.661	16283.77
684.009	16184.11
684.357	16132.58
684.705	16201.28
685.053	16130.32
685.4	16131.23
685.748	16029.08
686.095	16097.1
686.443	15991.57
686.79	15940.95
687.138	15903.44
687.485	15937.56
687.832	15890.1
688.18	15898.69
688.527	15746.61
688.874	15867.73
689.221	15768.07
689.568	15699.83
689.915	15657.34
690.262	15641.52
690.609	15610.11
690.956	15507.06
691.303	15534.18
691.65	15413.06
691.997	15431.59
692.344	15238.14
692.69	15307.07
693.037	15284.92
693.383	15172.38
693.73	15204.7
694.077	15084.25
694.423	15046.29
694.769	15009
695.116	15032.5
695.462	14899.62
695.808	14870.7
696.155	14950.24
696.501	14756.35
696.847	14765.16
697.193	14664.15
697.539	14759.97
697.885	14533.3
698.231	14473.42
698.577	14517.26
698.923	14483.36
699.269	14388.22
699.614	14291.05
699.96	14277.94
700.306	14256.48
700.651	14162.92
700.997	14129.02
701.342	14135.35
701.688	14065.52
702.033	14019.42
702.379	13973.77
702.724	13992.98
703.069	13980.32
703.415	13808.8
703.76	13757.73
704.105	13794.79
704.45	13701.46
704.795	13731.07
705.14	13635.25
705.485	13666.43
705.83	13571.97
706.175	13551.18
706.52	13470.51
706.865	13448.81
707.209	13428.93
707.554	13332.66
707.899	13447.91
708.243	13358.87
708.588	13348.48
708.932	13191.87
709.277	13190.29
709.621	13173.57
709.966	13133.79
710.31	13129.27
710.654	13012.21
710.998	13053.57
711.342	12916.4
711.687	12986.45
712.031	12946.23
712.375	12822.61
712.719	12927.47
713.063	12890.64
713.407	12891.77
713.75	12860.58
714.094	12786.68
714.438	12746.46
714.782	12696.74
715.125	12690.64
715.469	12721.83
715.812	12601.15
716.156	12535.16
716.499	12593.24
716.843	12596.63
717.186	12456.07
717.53	12604.09
717.873	12500.82
718.216	12452
718.559	12495.17
718.902	12334.04
719.246	12452.91
719.589	12351.44
719.932	12383.08
720.275	12293.14
720.617	12313.7
720.96	12297.43
721.303	12277.09
721.646	12295.17
721.989	12254.72
722.331	12260.6
722.674	12209.52
723.016	12226.25
723.359	12234.38
723.701	12198
724.044	12154.38
724.386	12115.29
724.729	12095.85
725.071	12112.13
725.413	12067.83
725.755	12129.75
726.097	12021.28
726.439	12002.75
726.782	11932.69
727.124	12046.59
727.465	11965.91
727.807	12059.92
728.149	11963.2
728.491	11995.29
728.833	12011.56
729.175	11906.48
729.516	11945.12
729.858	11916.65
730.199	11963.2
730.541	11913.26
730.882	11945.8
731.224	11983.09
731.565	11943.09
731.906	11885.46
732.248	11898.35
732.589	11873.71
732.93	11850.89
733.271	11840.95
733.612	11888.85
733.953	11869.87
734.294	11896.09
734.635	11818.8
734.976	11900.38
735.317	11825.8
735.658	11807.27
735.999	11886.14
736.339	11831
736.68	11829.42
737.021	11842.3
737.361	11823.77
737.702	11850.66
738.042	11857.89
738.383	11841.62
738.723	11849.08
739.063	11862.19
739.404	11834.39
739.744	11816.31
740.084	11842.98
740.424	11874.17
740.764	11866.71
741.104	11912.58
741.444	11773.15
741.784	11788.52
742.124	11931.79
742.464	11828.97
742.804	11908.97
743.143	11917.55
743.483	11968.63
743.823	11965.46
744.162	11925.92
744.502	12045.69
744.841	11933.6
745.181	12075.06
745.52	12021.51
745.86	12099.24
746.199	12091.56
746.538	12200.03
746.877	12249.07
747.216	12254.72
747.556	12309.86
747.895	12317.77
748.234	12312.57
748.573	12356.64
748.911	12422.85
749.25	12487.26
749.589	12511.44
749.928	12621.26
750.267	12615.39
750.605	12606.35
750.944	12711.43
751.283	12729.51
751.621	12844.54
751.96	12888.38
752.298	13071.87
752.636	13044.53
752.975	13167.69
753.313	13173.57
753.651	13357.52
753.989	13274.13
754.327	13468.7
754.666	13524.52
755.004	13588.7
755.342	13772.65
755.679	13775.81
756.017	13851.06
756.355	14121.34
756.693	14058.06
