Data from hue_20_FLMS001491_16.txt Node
Date: Mon Feb 06 15:33:41 GMT 2017
User: dcchb
Spectrometer: FLMS00149
Trigger mode: 0
Integration Time (sec): 2.000000E-2
Scans to average: 10
Electric dark correction enabled: true
Nonlinearity correction enabled: false
Boxcar width: 0
XAxis mode: Wavelengths
Number of Pixels in Spectrum: 2048
>>>>>Begin Spectral Data<<<<<
341.393	-4.89
341.776	-4.89
342.16	-4.89
342.543	-73.81
342.927	-60.48
343.31	-54.38
343.693	-69.97
344.077	-77.88
344.46	-59.8
344.843	-58.22
345.226	-32.46
345.61	-21.84
345.993	-11.67
346.376	1.21
346.759	-15.73
347.142	25.62
347.525	31.04
347.908	50.25
348.291	84.38
348.674	86.86
349.057	122.57
349.44	118.27
349.823	150.36
350.206	157.37
350.588	195.56
350.971	203.02
351.354	236.01
351.737	224.26
352.119	256.35
352.502	277.14
352.884	266.97
353.267	277.37
353.65	285.73
354.032	295.9
354.414	307.2
354.797	314.65
355.179	326.86
355.562	309.68
355.944	330.25
356.326	318.49
356.709	332.96
357.091	332.73
357.473	345.61
357.855	353.3
358.238	342.67
358.62	327.99
359.002	342.45
359.384	330.92
359.766	354.2
360.148	332.28
360.53	313.07
360.912	318.49
361.294	323.69
361.676	342.67
362.057	331.6
362.439	353.3
362.821	329.34
363.203	327.99
363.584	325.05
363.966	328.66
364.348	325.5
364.729	290.7
365.111	303.81
365.493	336.35
365.874	303.13
366.256	313.52
366.637	322.11
367.019	289.12
367.4	317.59
367.781	302.68
368.163	306.74
368.544	316.91
368.925	307.42
369.306	324.82
369.688	312.62
370.069	309.68
370.45	331.15
370.831	339.51
371.212	307.42
371.593	302.22
371.974	295.22
372.355	326.4
372.736	295.22
373.117	316.23
373.498	302.22
373.879	319.4
374.26	340.87
374.641	316.01
375.021	312.84
375.402	332.51
375.783	309.91
376.163	318.04
376.544	330.7
376.925	339.96
377.305	332.28
377.686	283.69
378.066	327.31
378.447	328.44
378.827	330.25
379.208	320.98
379.588	338.83
379.968	356.46
380.349	307.2
380.729	343.35
381.109	315.1
381.489	339.96
381.87	331.83
382.25	320.98
382.63	323.69
383.01	324.14
383.39	346.74
383.77	341.32
384.15	351.26
384.53	368.89
384.91	344.26
385.29	330.02
385.67	347.19
386.049	373.18
386.429	330.25
386.809	359.4
387.189	342.45
387.568	351.49
387.948	350.58
388.328	339.74
388.707	364.82
389.087	362.34
389.466	352.62
389.846	332.73
390.225	370.7
390.605	396.23
390.984	357.36
391.363	352.39
391.743	370.47
392.122	359.17
392.501	347.42
392.881	374.09
393.26	353.97
393.639	358.27
394.018	359.62
394.397	347.87
394.776	378.38
395.155	386.29
395.534	377.25
395.913	361.43
396.292	381.54
396.671	372.28
397.05	393.75
397.429	382.22
397.808	382.45
398.186	376.8
398.565	380.64
398.944	367.98
399.323	380.64
399.701	372.96
400.08	389.91
400.458	395.78
400.837	389
401.215	383.58
401.594	393.29
401.972	386.74
402.351	391.26
402.729	389.23
403.107	404.59
403.486	389
403.864	394.88
404.242	402.33
404.62	398.27
404.999	386.29
405.377	427.19
405.755	397.81
406.133	403.69
406.511	394.2
406.889	425.84
407.267	396.23
407.645	434.88
408.023	418.83
408.401	412.73
408.779	424.48
409.156	420.41
409.534	429.23
409.912	423.12
410.29	435.55
410.667	434.65
411.045	439.62
411.422	450.69
411.8	434.65
412.178	446.17
412.555	434.2
412.933	455.67
413.31	443.24
413.687	457.25
414.065	459.06
414.442	483.69
414.819	472.16
415.197	487.53
415.574	472.39
415.951	460.41
416.328	476
416.705	483.24
417.082	471.71
417.46	471.48
417.837	485.04
418.214	481.65
418.591	490.47
418.967	480.75
419.344	485.5
419.721	478.72
420.098	478.04
420.475	474.2
420.852	475.55
421.228	494.99
421.605	510.35
421.982	514.2
422.358	509
422.735	494.08
423.111	503.35
423.488	519.62
423.864	523.23
424.241	525.49
424.617	525.72
424.994	534.08
425.37	516.46
425.746	535.44
426.123	536.79
426.499	534.99
426.875	539.05
427.251	537.47
427.627	541.09
428.003	550.8
428.379	528.21
428.756	539.96
429.132	561.2
429.507	564.14
429.883	538.6
430.259	595.78
430.635	580.18
431.011	581.54
431.387	582.89
431.763	580.41
432.138	612.05
432.514	605.49
432.89	605.72
433.265	618.6
433.641	611.82
434.016	616.11
434.392	608.2
434.767	623.12
435.143	601.88
435.518	613.85
435.894	639.62
436.269	635.32
436.644	636.45
437.02	648.2
437.395	661.99
437.77	652.72
438.145	664.7
438.52	671.25
438.895	663.12
439.271	655.21
439.646	660.86
440.021	689.33
440.395	673.97
440.77	675.1
441.145	704.92
441.52	705.15
441.895	709.44
442.27	718.94
442.645	706.73
443.019	705.38
443.394	710.57
443.769	712.83
444.143	694.3
444.518	727.98
444.892	703.57
445.267	746.05
445.641	726.17
446.016	719.84
446.39	739.5
446.764	731.82
447.139	750.12
447.513	736.11
447.887	761.87
448.262	769.56
448.636	753.96
449.01	756.68
449.384	760.29
449.758	793.96
450.132	773.62
450.506	782.21
450.88	761.65
451.254	786.73
451.628	809.1
452.002	786.96
452.376	791.48
452.75	810.01
453.123	784.24
453.497	818.14
453.871	831.48
454.244	835.54
454.618	838.93
454.992	866.5
455.365	878.93
455.739	884.13
456.112	889.55
456.486	878.48
456.859	906.73
457.232	871.93
457.606	895.43
457.979	889.1
458.352	941.08
458.725	943.34
459.099	951.47
459.472	953.96
459.845	954.64
460.218	963.45
460.591	1003.9
460.964	989.66
461.337	993.28
461.71	986.95
462.083	990.79
462.456	1008.42
462.829	1018.59
463.201	1021.07
463.574	1034.41
463.947	1057.01
464.32	1086.84
464.692	1094.07
465.065	1074.18
465.438	1079.6
465.81	1099.26
466.183	1141.98
466.555	1143.33
466.928	1143.33
467.3	1134.74
467.672	1155.31
468.045	1169.09
468.417	1197.79
468.789	1210.45
469.161	1236.66
469.534	1262.65
469.906	1257
470.278	1269.2
470.65	1298.13
471.022	1318.24
471.394	1334.96
471.766	1329.32
472.138	1366.6
472.51	1374.06
472.882	1384.68
473.253	1438.47
473.625	1469.2
473.997	1471.23
474.369	1484.11
474.74	1540.16
475.112	1529.99
475.484	1513.49
475.855	1583.77
476.227	1615.18
476.598	1646.6
476.97	1658.12
477.341	1694.96
477.713	1709.87
478.084	1745.8
478.455	1761.62
478.827	1806.14
479.198	1835.52
479.569	1857.66
479.94	1878.68
480.311	1893.59
480.682	1943.08
481.053	1972.91
481.424	2029.18
481.795	2081.39
482.166	2117.09
482.537	2151.21
482.908	2181.95
483.279	2175.17
483.65	2228.05
484.021	2279.8
484.391	2335.39
484.762	2351.21
485.133	2387.82
485.503	2428.04
485.874	2476.63
486.244	2494.26
486.615	2559.11
486.985	2560.24
487.356	2626
487.726	2673.46
488.097	2671.2
488.467	2709.17
488.837	2786.68
489.207	2837.98
489.578	2891.08
489.948	2896.96
490.318	2953.45
490.688	2973.79
491.058	2997.97
491.428	3052.21
491.798	3116.16
492.168	3137.63
492.538	3171.07
492.908	3252.88
493.278	3254.01
493.648	3304.18
494.017	3284.97
494.387	3314.8
494.757	3427.11
495.126	3410.84
495.496	3444.97
495.866	3481.8
496.235	3508.69
496.605	3552.76
496.974	3561.57
497.344	3629.14
497.713	3620.78
498.082	3668.01
498.452	3706.2
498.821	3679.31
499.19	3674.11
499.559	3736.48
499.928	3781
500.298	3771.06
500.667	3815.8
501.036	3883.37
501.405	3878.4
501.774	3863.49
502.143	3921.11
502.512	3945.29
502.88	3996.14
503.249	3976.93
503.618	3974.44
503.987	4030.04
504.356	4071.84
504.724	4086.76
505.093	4119.3
505.462	4103.93
505.83	4145.06
506.199	4175.79
506.567	4228.22
506.936	4202.46
507.304	4248.11
507.672	4304.38
508.041	4259.63
508.409	4358.39
508.777	4372.4
509.145	4402.68
509.514	4378.73
509.882	4404.04
510.25	4428.44
510.618	4391.61
510.986	4433.41
511.354	4462.79
511.722	4531.94
512.09	4486.97
512.458	4556.12
512.826	4540.08
513.193	4551.38
513.561	4570.13
513.929	4642.45
514.297	4638.38
514.664	4677.7
515.032	4670.47
515.4	4716.57
515.767	4715.89
516.135	4758.38
516.502	4712.5
516.869	4770.58
517.237	4827.98
517.604	4739.17
517.972	4831.82
518.339	4874.31
518.706	4850.13
519.073	4832.73
519.44	4876.57
519.808	4915.21
520.175	4907.98
520.542	4948.2
520.909	4948.88
521.276	4986.17
521.643	5045.15
522.009	5029.11
522.376	5100.06
522.743	5062.32
523.11	5134.19
523.477	5169.89
523.843	5199.95
524.21	5220.29
524.577	5263.45
524.943	5234.07
525.31	5289.66
525.676	5353.84
526.043	5375.76
526.409	5363.56
526.776	5458.02
527.142	5453.73
527.508	5490.79
527.874	5543.22
528.241	5512.26
528.607	5519.04
528.973	5574.63
529.339	5581.63
529.705	5641.52
530.071	5692.59
530.437	5710.44
530.803	5726.71
531.169	5724.23
531.535	5756.32
531.901	5799.71
532.267	5812.36
532.632	5875.41
532.998	5847.16
533.364	5858.01
533.73	5896.65
534.095	5919.48
534.461	5989.53
534.826	5999.48
535.192	6018.91
535.557	6098.46
535.923	6056.42
536.288	6077.21
536.653	6150.43
537.019	6092.13
537.384	6171.22
537.749	6133.93
538.114	6184.55
538.479	6199.92
538.845	6226.36
539.21	6215.74
539.575	6284.21
539.94	6246.7
540.305	6322.86
540.67	6300.48
541.034	6369.86
541.399	6379.35
541.764	6428.62
542.129	6447.6
542.494	6468.39
542.858	6511.1
543.223	6511.33
543.587	6599.46
543.952	6584.09
544.316	6600.36
544.681	6575.05
545.045	6625.22
545.41	6677.2
545.774	6684.65
546.138	6707.7
546.503	6783.64
546.867	6738.89
547.231	6819.57
547.595	6847.36
547.959	6804.2
548.324	6839.9
548.688	6829.06
549.052	6927.81
549.416	6914.03
549.779	6918.77
550.143	6940.24
550.507	7009.39
550.871	7057.07
551.235	7046
551.599	7100.69
551.962	7095.04
552.326	7155.38
552.689	7168.48
553.053	7149.05
553.417	7157.64
553.78	7269.05
554.143	7189.05
554.507	7206.22
554.87	7219.56
555.234	7328.25
555.597	7272.44
555.96	7260.91
556.323	7400.34
556.686	7379.78
557.05	7463.39
557.413	7443.73
557.776	7467.46
558.139	7528.93
558.502	7568.47
558.865	7502.03
559.228	7583.84
559.59	7601.01
559.953	7602.37
560.316	7675.14
560.679	7630.84
561.041	7730.95
561.404	7747
561.767	7799.65
562.129	7777.96
562.492	7902.7
562.854	7856.6
563.217	7962.59
563.579	7883.27
563.941	7939.31
564.304	8000.33
564.666	8071.28
565.028	8023.6
565.39	8052.08
565.753	8126.65
566.115	8111.74
566.477	8151.06
566.839	8121
567.201	8168.01
567.563	8193.99
567.925	8215.69
568.287	8276.25
568.648	8304.27
569.01	8366.42
569.372	8404.61
569.734	8443.25
570.095	8455.23
570.457	8558.5
570.819	8481.9
571.18	8537.26
571.542	8591.72
571.903	8651.83
572.265	8646.64
572.626	8702.91
572.987	8696.35
573.349	8704.94
573.71	8848.21
574.071	8880.08
574.432	8956.91
574.794	8989.68
575.155	9032.62
575.516	9003.92
575.877	9152.84
576.238	9198.03
576.599	9251.59
576.96	9330.91
577.32	9403.91
577.681	9502.66
578.042	9549.66
578.403	9607.52
578.763	9626.5
579.124	9737.23
579.485	9916.66
579.845	9913.27
580.206	10011.35
580.566	10167.73
580.927	10199.14
581.287	10332.69
581.648	10417.44
582.008	10563.87
582.368	10689.97
582.728	10760.71
583.089	10965.22
583.449	11085.67
583.809	11215.38
584.169	11399.33
584.529	11563.85
584.889	11781.7
585.249	11863.73
585.609	12040.45
585.969	12249.03
586.329	12379.87
586.688	12650.37
587.048	12896.24
587.408	12982.57
587.768	13246.29
588.127	13421.65
588.487	13635.88
588.846	13908.42
589.206	14100.28
589.565	14294.85
589.925	14620.94
590.284	14734.16
590.643	15121.95
591.003	15376.63
591.362	15629.05
591.721	15886.45
592.08	16130.28
592.44	16506.54
592.799	16773.2
593.158	17018.39
593.517	17276.47
593.876	17652.28
594.235	17806.85
594.593	18186.27
594.952	18397.12
595.311	18738.12
595.67	18963.65
596.029	19414.72
596.387	19676.86
596.746	20018.32
597.104	20174.47
597.463	20473.9
597.822	20858.75
598.18	21016.48
598.538	21374.66
598.897	21766.07
599.255	21851.04
599.613	22381.87
599.972	22615.54
600.33	22952.25
600.688	23181.62
601.046	23484.89
601.404	23841.27
601.762	24156.06
602.12	24456.84
602.478	24731.86
602.836	25107
603.194	25123.49
603.552	25562.58
603.91	25765.28
604.268	26086.86
604.625	26282.78
604.983	26701.98
605.341	26859.04
605.698	27144.68
606.056	27504.67
606.413	27655.63
606.771	28074.37
607.128	28282.73
607.485	28367.25
607.843	28668.71
608.2	28965.65
608.557	29260.78
608.914	29461.46
609.272	29669.59
609.629	29902.8
609.986	30250.59
610.343	30278.61
610.7	30705.94
611.057	30854.19
611.414	31133.96
611.771	31375.08
612.127	31604.23
612.484	31770.55
612.841	32059.81
613.198	32096.87
613.554	32374.15
613.911	32627.25
614.267	32769.84
614.624	32799
614.98	33156.73
615.337	33537.28
615.693	33457.06
616.05	33679.88
616.406	34008
616.762	34101.56
617.118	34193.54
617.475	34368.45
617.831	34553.07
618.187	34634.2
618.543	34831.49
618.899	35141.31
619.255	35238.93
619.611	35286.84
619.967	35507.4
620.323	35625.81
620.678	35649.09
621.034	35752.14
621.39	35896.09
621.746	36040.27
622.101	36409.75
622.457	36207.27
622.812	36374.72
623.168	36508.28
623.523	36645.67
623.879	36905.33
624.234	36725.45
624.589	36850.87
624.945	37076.17
625.3	37173.34
625.655	37343.06
626.01	37361.14
626.365	37384.86
626.72	37521.36
627.075	37546.44
627.43	37575.59
627.785	37513.9
628.14	37756.61
628.495	37868.47
628.85	37685.42
629.205	37724.97
629.559	38067.33
629.914	37979.88
630.269	38085.86
630.623	37936.49
630.978	37875.47
631.332	38150.72
631.687	38214
632.041	38157.73
632.396	38263.26
632.75	38143.04
633.104	38194.56
633.459	38124.05
633.813	38131.96
634.167	38101.91
634.521	38257.16
634.875	38284.05
635.229	38220.32
635.583	38155.92
635.937	38261.9
636.291	38130.38
636.645	38343.03
636.999	38182.36
637.352	38312.98
637.706	38286.99
638.06	38428
638.413	38185.75
638.767	38194.56
639.121	38353.43
639.474	38172.87
639.828	38083.15
640.181	38286.76
640.534	38187.78
640.888	38188.01
641.241	38043.6
641.594	38263.94
641.947	38310.72
642.301	38185.3
642.654	38252.64
643.007	38188.23
643.36	38198.18
643.713	38171.96
644.066	38282.69
644.419	38122.7
644.771	37877.73
645.124	37475.03
645.477	37449.27
645.83	37290.4
646.182	37185.55
646.535	36993.91
646.888	37131.99
647.24	37000.24
647.593	37288.6
647.945	37035.95
648.298	37085.44
648.65	37018.09
649.002	36856.29
649.355	37080.24
649.707	36933.35
650.059	37192.78
650.411	37606.55
650.763	37574.46
651.115	38069.14
651.467	38007.22
651.819	37840.22
652.171	37796.83
652.523	37703.27
652.875	37735.36
653.227	37656.72
653.578	37959.76
653.93	37822.37
654.282	37594.12
654.633	37570.62
654.985	37630.51
655.337	37783.27
655.688	37652.43
656.039	37910.05
656.391	37531.3
656.742	37580.57
657.094	37595.48
657.445	37821.01
657.796	37696.72
658.147	37589.15
658.498	37581.92
658.849	37601.58
659.2	37630.73
659.551	37420.34
659.902	37661.92
660.253	37467.12
660.604	37694.69
660.955	37509.38
661.306	37538.08
661.656	37590.51
662.007	37643.39
662.358	37590.73
662.708	37687.68
663.059	37445.43
663.409	37461.02
663.76	37607.68
664.11	37666.89
664.461	37613.33
664.811	37591.64
665.161	37590.73
665.511	37545.54
665.862	37659.43
666.212	37702.82
666.562	37799.77
666.912	37694.23
667.262	37531.3
667.612	37596.84
667.962	37595.71
668.312	37455.15
668.662	37721.13
669.011	37517.97
669.361	37483.39
669.711	37393
670.06	37450.4
670.41	37369.72
670.76	37396.84
671.109	37618.3
671.459	37494.01
671.808	37332.66
672.157	37465.99
672.507	37210.41
672.856	37386.67
673.205	37475.94
673.554	37447.46
673.904	37368.82
674.253	37579.21
674.602	37461.47
674.951	36905.78
675.3	36641.61
675.649	37222.83
675.998	37294.02
676.346	37297.41
676.695	37511.19
677.044	37150.29
677.393	37209.28
677.741	37355.03
678.09	37219.9
678.438	37173.34
678.787	37162.05
679.135	37276.17
679.484	36937.19
679.832	37107.13
680.181	36934.71
680.529	36978.55
680.877	36974.71
681.225	36924.76
681.573	37107.81
681.922	36819.46
682.27	36801.6
682.618	36730.42
682.966	36690.19
683.314	36877.53
683.661	36661.95
684.009	36547.15
684.357	36453.59
684.705	36430.99
685.053	36502.85
685.4	36380.6
685.748	36170.21
686.095	36176.76
686.443	36106.93
686.79	36145.12
687.138	36226.02
687.485	36228.28
687.832	35977.44
688.18	36042.07
688.527	35731.8
688.874	35814.96
689.221	35798.69
689.568	35730.67
689.915	35648.41
690.262	35700.61
690.609	35511.24
690.956	35350.79
691.303	35382.66
691.65	35311.25
691.997	35306.5
692.344	35107.64
692.69	35001.42
693.037	35061.76
693.383	34718.49
693.73	34871.03
694.077	34680.3
694.423	34687.53
694.769	34549.46
695.116	34563.24
695.462	34595.11
695.808	34424.26
696.155	34360.76
696.501	34305.62
696.847	34297.49
697.193	33949.02
697.539	34065.18
697.885	33859.31
698.231	33782.7
698.577	33839.65
698.923	33623.61
699.269	33531.41
699.614	33305.2
699.96	33323.05
700.306	33393.56
700.651	33300.9
700.997	33272.2
701.342	33074.92
701.688	33087.35
702.033	32889.16
702.379	32964.19
702.724	32789.05
703.069	33036.5
703.415	32592.9
703.76	32477.65
704.105	32636.51
704.45	32497.76
704.795	32312.23
705.14	32186.58
705.485	32297.99
705.83	32071.78
706.175	32207.83
706.52	32040.37
706.865	31864.33
707.209	31804.9
707.554	31767.61
707.899	31883.77
708.243	31653.94
708.588	31625.92
708.932	31512.25
709.277	31350.22
709.621	31360.62
709.966	31262.31
710.31	31294.4
710.654	30962.21
710.998	31031.59
711.342	31143.9
711.687	30923.79
712.031	30771.25
712.375	30755.21
712.719	30822.78
713.063	30696.9
713.407	30768.32
713.75	30708.66
714.094	30658.94
714.438	30479.51
714.782	30585.95
715.125	30452.62
715.469	30470.47
715.812	30168.56
716.156	30165.62
716.499	30151.83
716.843	30152.74
717.186	29969.24
717.53	30061.44
717.873	30085.62
718.216	30057.6
718.559	29874.55
718.902	29774.44
719.246	29832.29
719.589	29702.58
719.932	29579.65
720.275	29588.46
720.617	29626.88
720.96	29521.79
721.303	29509.82
721.646	29454.9
721.989	29216.72
722.331	29382.81
722.674	29277.51
723.016	29364.51
723.359	29118.87
723.701	29297.17
724.044	28990.28
724.386	28878.2
724.729	29086.33
725.071	28845.2
725.413	28981.92
725.755	28979.21
726.097	28877.97
726.439	28789.84
726.782	28754.58
727.124	28741.93
727.465	28622.83
727.807	28555.72
728.149	28574.7
728.491	28560.01
728.833	28488.15
729.175	28374.48
729.516	28421.71
729.858	28380.13
730.199	28361.82
730.541	28287.48
730.882	28214.71
731.224	28308.04
731.565	28049.29
731.906	28157.99
732.248	28171.55
732.589	27957.09
732.93	27853.36
733.271	27933.14
733.612	27955.96
733.953	27985.11
734.294	27795.29
734.635	27828.28
734.976	27854.27
735.317	27685.01
735.658	27713.03
735.999	27627.61
736.339	27560.94
736.68	27615.4
737.021	27517.33
737.361	27351.91
737.702	27455.86
738.042	27431.91
738.383	27400.27
738.723	27429.65
739.063	27258.35
739.404	27355.75
739.744	27194.62
740.084	27253.83
740.424	27222.65
740.764	27017.68
741.104	27238.69
741.444	26892.03
741.784	26978.58
742.124	27027.62
742.464	26883.9
742.804	26920.28
743.143	26866.05
743.483	26877.12
743.823	26757.35
744.162	26748.53
744.502	26876.89
744.841	26623.57
745.181	26732.72
745.52	26650.46
745.86	26657.24
746.199	26640.06
746.538	26646.39
746.877	26500.18
747.216	26475.55
747.556	26445.72
747.895	26553.96
748.234	26394.87
748.573	26353.29
748.911	26309.9
749.25	26352.84
749.589	26144.71
749.928	26198.04
750.267	26203.92
750.605	26152.62
750.944	26085.95
751.283	25922.57
751.621	25968.44
751.96	25828.56
752.298	25798.05
752.636	25882.57
752.975	25693.19
753.313	25584.5
753.651	25855.9
753.989	25632.63
754.327	25594.44
754.666	25466.76
755.004	25487.1
755.342	25487.55
755.679	25447.55
756.017	25323.26
756.355	25455.46
756.693	25296.82
757.031	25284.84
757.368	25094.11
757.706	25068.8
758.044	25078.75
758.381	25059.54
758.719	24859.09
759.056	24907.9
759.394	24709.04
759.731	24684.63
760.068	24725.54
760.405	24581.59
760.743	24537.74
761.08	24587.69
761.417	24464.75
