Data from hue_100_FLMS001491_00025.txt Node
Date: Tue Feb 07 17:02:56 GMT 2017
User: dcchb
Spectrometer: FLMS00149
Trigger mode: 0
Integration Time (sec): 2.000000E-2
Scans to average: 10
Electric dark correction enabled: true
Nonlinearity correction enabled: false
Boxcar width: 0
XAxis mode: Wavelengths
Number of Pixels in Spectrum: 2048
>>>>>Begin Spectral Data<<<<<
341.393	-25.2
341.776	-25.2
342.16	-25.2
342.543	-62.03
342.927	-53.67
343.31	-91.64
343.693	-68.59
344.077	-61.35
344.46	-65.2
344.843	-57.96
345.226	-24.07
345.61	1.92
345.993	-15.03
346.376	-23.62
346.759	12.99
347.142	37.17
347.525	41.24
347.908	48.25
348.291	76.95
348.674	85.53
349.057	103.39
349.44	128.47
349.823	136.38
350.206	181.35
350.588	184.29
350.971	217.96
351.354	215.7
351.737	233.78
352.119	243.72
352.502	257.96
352.884	261.35
353.267	298.86
353.65	303.38
354.032	301.57
354.414	315.36
354.797	328.01
355.179	330.5
355.562	335.47
355.944	328.69
356.326	335.7
356.709	321.69
357.091	356.49
357.473	329.37
357.855	345.19
358.238	337.73
358.62	334.57
359.002	330.05
359.384	316.04
359.766	347.9
360.148	335.02
360.53	347.9
360.912	344.51
361.294	351.52
361.676	337.96
362.057	342.7
362.439	321.23
362.821	331.86
363.203	319.65
363.584	341.57
363.966	326.88
364.348	342.25
364.729	315.13
365.111	323.72
365.493	324.17
365.874	331.63
366.256	342.02
366.637	305.64
367.019	304.29
367.4	329.14
367.781	331.18
368.163	321.01
368.544	300.44
368.925	326.88
369.306	335.02
369.688	302.93
370.069	332.53
370.45	311.74
370.831	326.66
371.212	331.86
371.593	310.84
371.974	323.95
372.355	320.78
372.736	337.51
373.117	341.8
373.498	351.06
373.879	304.06
374.26	321.91
374.641	325.53
375.021	323.04
375.402	324.62
375.783	330.05
376.163	329.14
376.544	352.42
376.925	339.54
377.305	325.53
377.686	337.96
378.066	345.87
378.447	348.13
378.827	336.38
379.208	356.71
379.588	350.39
379.968	351.52
380.349	351.06
380.729	335.92
381.109	329.82
381.489	362.59
381.87	356.94
382.25	328.92
382.63	350.61
383.01	353.1
383.39	350.61
383.77	358.3
384.15	391.29
384.53	344.96
384.91	355.36
385.29	353.32
385.67	355.58
386.049	374.57
386.429	352.42
386.809	365.98
387.189	368.92
387.568	378.63
387.948	378.18
388.328	380.67
388.707	358.97
389.087	363.72
389.466	392.19
389.846	391.52
390.225	379.31
390.605	369.59
390.984	384.28
391.363	393.77
391.743	377.73
392.122	393.1
392.501	393.77
392.881	390.16
393.26	404.62
393.639	390.84
394.018	383.38
394.397	396.49
394.776	396.71
395.155	398.07
395.534	396.03
395.913	418.41
396.292	410.27
396.671	413.89
397.05	396.94
397.429	404.85
397.808	405.98
398.186	398.07
398.565	424.96
398.944	423.83
399.323	420.21
399.701	428.35
400.08	436.03
400.458	434.9
400.837	418.41
401.215	417.73
401.594	429.03
401.972	441.23
402.351	408.01
402.729	435.58
403.107	417.5
403.486	434
403.864	444.17
404.242	427.45
404.62	437.39
404.999	442.59
405.377	431.29
405.755	453.66
406.133	460.67
406.511	465.19
406.889	463.83
407.267	465.19
407.645	442.81
408.023	462.02
408.401	483.49
408.779	476.94
409.156	463.15
409.534	485.52
409.912	486.2
410.29	509.93
410.667	479.2
411.045	502.7
411.422	502.7
411.8	521.68
412.178	542.25
412.555	506.09
412.933	520.78
413.31	532.98
413.687	524.84
414.065	548.12
414.442	516.94
414.819	541.79
415.197	524.39
415.574	528.69
415.951	546.54
416.328	528.23
416.705	545.18
417.082	571.85
417.46	550.16
417.837	574.11
418.214	569.14
418.591	568.23
418.967	563.49
419.344	570.95
419.721	579.31
420.098	574.34
420.475	584.96
420.852	609.81
421.228	595.58
421.605	613.88
421.982	615.69
422.358	601.68
422.735	608.01
423.111	610.72
423.488	624.73
423.864	634.9
424.241	643.26
424.617	638.74
424.994	650.04
425.37	625.86
425.746	632.41
426.123	647.55
426.499	641.68
426.875	657.95
427.251	650.94
427.627	681
428.003	695.24
428.379	689.59
428.756	676.93
429.132	684.39
429.507	699.53
429.883	728.91
430.259	723.94
430.635	711.05
431.011	724.84
431.387	731.17
431.763	737.04
432.138	752.18
432.514	746.53
432.89	755.12
433.265	773.88
433.641	786.53
434.016	768.23
434.392	772.07
434.767	812.52
435.143	796.02
435.518	840.77
435.894	815.23
436.269	835.8
436.644	841.22
437.02	840.54
437.395	821.11
437.77	849.58
438.145	869.02
438.52	874.21
438.895	838.51
439.271	860.43
439.646	905.17
440.021	923.93
440.395	903.14
440.77	906.53
441.145	890.71
441.52	930.03
441.895	917.6
442.27	935.46
442.645	937.26
443.019	957.83
443.394	948.79
443.769	947.21
444.143	966.64
444.518	996.47
444.892	981.1
445.267	980.65
445.641	970.03
446.016	985.85
446.39	984.27
446.764	996.24
447.139	997.6
447.513	1019.52
447.887	1017.94
448.262	1024.94
448.636	1013.87
449.01	1016.36
449.384	1030.59
449.758	1051.84
450.132	1040.09
450.506	1071.95
450.88	1066.98
451.254	1101.78
451.628	1101.55
452.002	1096.36
452.376	1124.15
452.75	1130.48
453.123	1132.06
453.497	1149.24
453.871	1145.85
454.244	1181.1
454.618	1184.04
454.992	1170.93
455.365	1223.81
455.739	1236.46
456.112	1252.28
456.486	1227.65
456.859	1276.92
457.232	1307.2
457.606	1278.72
457.979	1271.72
458.352	1335.22
458.725	1343.81
459.099	1351.04
459.472	1390.81
459.845	1380.87
460.218	1372.05
460.591	1436.46
460.964	1414.99
461.337	1442.11
461.71	1460.87
462.083	1471.49
462.456	1476.23
462.829	1525.72
463.201	1520.52
463.574	1547.19
463.947	1584.48
464.32	1589
464.692	1625.38
465.065	1656.57
465.438	1671.48
465.81	1697.92
466.183	1732.95
466.555	1741.76
466.928	1750.8
467.3	1779.05
467.672	1802.33
468.045	1876
468.417	1869.89
468.789	1882.78
469.161	1925.94
469.534	1969.55
469.906	1995.77
470.278	2021.98
470.65	2061.08
471.022	2103.11
471.394	2151.47
471.766	2190.11
472.138	2226.27
472.51	2255.87
472.882	2323.44
473.253	2379.26
473.625	2407.28
473.997	2489.54
474.369	2515.08
474.74	2553.72
475.112	2603.66
475.484	2670.1
475.855	2736.99
476.227	2758.68
476.598	2865.35
476.97	2938.11
477.341	2983.54
477.713	3091.56
478.084	3128.84
478.455	3260.59
478.827	3291.78
479.198	3415.16
479.569	3464.43
479.94	3569.74
480.311	3639.79
480.682	3781.93
481.053	3899.45
481.424	3992.32
481.795	4129.04
482.166	4193
482.537	4292.88
482.908	4398.42
483.279	4469.15
483.65	4660.1
484.021	4767.45
484.391	4927.22
484.762	5011.73
485.133	5064.16
485.503	5181.9
485.874	5375.34
486.244	5505.28
486.615	5650.81
486.985	5751.15
487.356	5940.75
487.726	6087.41
488.097	6270.91
488.467	6359.04
488.837	6524.69
489.207	6663.44
489.578	6814.62
489.948	6980.49
490.318	7172.81
490.688	7219.13
491.058	7416.64
491.428	7585.68
491.798	7759.01
492.168	7974.14
492.538	8038.77
492.908	8266.34
493.278	8443.73
493.648	8550.85
494.017	8685.08
494.387	8882.37
494.757	8997.39
495.126	9139.31
495.496	9222.92
495.866	9381.34
496.235	9526.42
496.605	9727.31
496.974	9909.46
497.344	9915.33
497.713	10111.26
498.082	10237.13
498.452	10407.75
498.821	10500.85
499.19	10611.59
499.559	10748.76
499.928	10923.67
500.298	10958.02
500.667	11214.73
501.036	11238.69
501.405	11418.8
501.774	11458.12
502.143	11567.27
502.512	11689.75
502.88	11808.84
503.249	11838.22
503.618	11993.02
503.987	12107.37
504.356	12247.47
504.724	12212.9
505.093	12324.76
505.462	12468.49
505.83	12557.07
506.199	12700.57
506.567	12877.97
506.936	12833
507.304	13080
507.672	13157.28
508.041	13163.16
508.409	13236.38
508.777	13276.37
509.145	13547.55
509.514	13589.36
509.882	13651.28
510.25	13682.24
510.618	13768.34
510.986	13812.86
511.354	13945.06
511.722	14027.99
512.09	14041.33
512.458	14136.24
512.826	14230.7
513.193	14336.23
513.561	14330.81
513.929	14418.72
514.297	14518.6
514.664	14630.01
515.032	14674.53
515.4	14733.28
515.767	14818.93
516.135	14817.35
516.502	14791.36
516.869	15042.43
517.237	14938.93
517.604	14966.73
517.972	15095.76
518.339	15132.14
518.706	15202.65
519.073	15266.15
519.44	15374.62
519.808	15401.74
520.175	15387.73
520.542	15543.89
520.909	15649.42
521.276	15533.26
521.643	15748.4
522.009	15794.73
522.376	15789.53
522.743	15773.94
523.11	15909.07
523.477	16057.77
523.843	16101.16
524.21	16160.82
524.577	16129.86
524.943	16270.42
525.31	16239.46
525.676	16323.53
526.043	16323.98
526.409	16392.9
526.776	16533.24
527.142	16485.78
527.508	16511.32
527.874	16638.77
528.241	16595.16
528.607	16506.8
528.973	16709.05
529.339	16528.27
529.705	16764.42
530.071	16829.05
530.437	16725.77
530.803	16823.63
531.169	16854.59
531.535	16876.05
531.901	16841.03
532.267	16877.18
532.632	16916.28
532.998	16908.14
533.364	16868.6
533.73	16949.27
534.095	16934.36
534.461	16991.3
534.826	16950.4
535.192	17001.93
535.557	16984.3
535.923	16936.16
536.288	16917.41
536.653	16979.78
537.019	16842.16
537.384	16842.38
537.749	16913.34
538.114	16808.71
538.479	16794.93
538.845	16789.95
539.21	16595.83
539.575	16705.21
539.94	16766.23
540.305	16742.05
540.67	16694.14
541.034	16706.57
541.399	16754.25
541.764	16715.38
542.129	16662.95
542.494	16633.8
542.858	16618.89
543.223	16640.58
543.587	16676.28
543.952	16521.26
544.316	16553.12
544.681	16410.3
545.045	16424.31
545.41	16546.8
545.774	16523.75
546.138	16455.5
546.503	16427.03
546.867	16342.51
547.231	16410.75
547.595	16388.83
547.959	16303.41
548.324	16153.81
548.688	16164.66
549.052	16327.14
549.416	16142.74
549.779	16152.68
550.143	16151.1
550.507	16123.08
550.871	16134.83
551.235	15977.09
551.599	16132.34
551.962	16060.48
552.326	16053.02
552.689	16039.92
553.053	15947.26
553.417	16002.18
553.78	16112.46
554.143	15980.48
554.507	15969.18
554.87	16019.35
555.234	15969.64
555.597	15919.69
555.96	15870.88
556.323	15920.15
556.686	15832.69
557.05	15992.46
557.413	15943.65
557.776	15823.88
558.139	15848.28
558.502	15976.19
558.865	15873.59
559.228	15957.43
559.59	15950.43
559.953	15962.18
560.316	15953.37
560.679	15910.2
561.041	15973.03
561.404	15938.22
561.767	16053.02
562.129	15992.46
562.492	16117.88
562.854	16082.18
563.217	16027.94
563.579	15996.98
563.941	16125.34
564.304	16097.32
564.666	16196.3
565.028	15980.48
565.39	16064.55
565.753	16183.19
566.115	16206.92
566.477	16197.43
566.839	16206.01
567.201	16258.67
567.563	16286.46
567.925	16314.03
568.287	16378.21
568.648	16306.35
569.01	16493.92
569.372	16480.13
569.734	16352.45
570.095	16404.43
570.457	16464.31
570.819	16509.51
571.18	16500.92
571.542	16565.1
571.903	16472.9
572.265	16417.76
572.626	16532.79
572.987	16565.55
573.349	16565.1
573.71	16592.45
574.071	16590.19
574.432	16620.01
574.794	16710.18
575.155	16608.04
575.516	16624.99
575.877	16712.67
576.238	16653.69
576.599	16721.26
576.96	16699.56
577.32	16702.95
577.681	16748.83
578.042	16736.62
578.403	16839.22
578.763	16730.07
579.124	16802.84
579.485	16794.93
579.845	16884.41
580.206	16747.92
580.566	16805.55
580.927	16721.26
581.287	16809.84
581.648	16821.14
582.008	16730.97
582.368	16750.41
582.728	16753.12
583.089	16711.99
583.449	16767.36
583.809	16685.32
584.169	16666.12
584.529	16638.09
584.889	16732.1
585.249	16698.21
585.609	16688.71
585.969	16755.6
586.329	16573.24
586.688	16699.79
587.048	16663.63
587.408	16545.44
587.768	16642.39
588.127	16631.09
588.487	16545.21
588.846	16747.02
589.206	16677.41
589.565	16529.4
589.925	16626.57
590.284	16615.72
590.643	16543.41
591.003	16657.08
591.362	16636.96
591.721	16477.65
592.08	16517.64
592.44	16478.55
592.799	16561.49
593.158	16555.84
593.517	16562.62
593.876	16478.1
594.235	16394.71
594.593	16397.42
594.952	16492.79
595.311	16522.16
595.67	16498.44
596.029	16582.05
596.387	16600.35
596.746	16510.87
597.104	16385.22
597.463	16480.81
597.822	16474.71
598.18	16439.45
598.538	16382.73
598.897	16506.35
599.255	16294.15
599.613	16499.11
599.972	16440.81
600.33	16472.45
600.688	16425.9
601.046	16460.7
601.404	16502.05
601.762	16462.5
602.12	16398.33
602.478	16457.53
602.836	16488.27
603.194	16372.79
603.552	16513.58
603.91	16391.55
604.268	16482.17
604.625	16385.22
604.983	16537.53
605.341	16355.84
605.698	16522.84
606.056	16620.47
606.413	16435.16
606.771	16549.96
607.128	16465.67
607.485	16438.55
607.843	16439.23
608.2	16466.12
608.557	16518.77
608.914	16514.26
609.272	16621.14
609.629	16585.67
609.986	16645.78
610.343	16653.69
610.7	16686.91
611.057	16669.05
611.414	16727.13
611.771	16660.69
612.127	16682.39
612.484	16691.43
612.841	16733.01
613.198	16787.47
613.554	16773.01
613.911	16807.81
614.267	16814.59
614.624	16765.55
614.98	16763.97
615.337	16942.94
615.693	16916.05
616.05	16867.69
616.406	16959.22
616.762	16824.76
617.118	16860.91
617.475	16866.79
617.831	16874.92
618.187	16813
618.543	16929.61
618.899	16971.87
619.255	16934.36
619.611	16926
619.967	17141.36
620.323	17124.41
620.678	16993.34
621.034	16942.94
621.39	16945.2
621.746	16947.01
622.101	17148.36
622.457	16980.91
622.812	17075.14
623.168	17013.22
623.523	17079.66
623.879	17019.78
624.234	16926.9
624.589	16929.16
624.945	17024.52
625.3	16954.24
625.655	16888.48
626.01	16989.72
626.365	17029.04
626.72	16977.29
627.075	16959.22
627.43	16932.32
627.785	16987.46
628.14	16915.83
628.495	16948.59
628.85	17031.76
629.205	16929.39
629.559	17025.2
629.914	16918.09
630.269	16875.38
630.623	16824.08
630.978	16741.14
631.332	16899.1
631.687	16928.93
632.041	16833.79
632.396	16832.44
632.75	16690.3
633.104	16789.28
633.459	16653.46
633.813	16689.17
634.167	16688.49
634.521	16683.97
634.875	16743.18
635.229	16684.65
635.583	16573.69
635.937	16591.09
636.291	16609.17
636.645	16595.61
636.999	16559
637.352	16481.94
637.706	16551.09
638.06	16530.75
638.413	16429.29
638.767	16454.82
639.121	16481.49
639.474	16353.36
639.828	16349.29
640.181	16409.17
640.534	16345.22
640.888	16261.83
641.241	16235.39
641.594	16225.22
641.947	16376.86
642.301	16202.62
642.654	16315.62
643.007	16304.77
643.36	16328.5
643.713	16169.63
644.066	16345.22
644.419	16189.52
644.771	16137.77
645.124	16000.14
645.477	15960.37
645.83	15861.84
646.182	15733.94
646.535	15732.35
646.888	15702.52
647.24	15589.53
647.593	15789.53
647.945	15739.13
648.298	15623.43
648.65	15540.5
649.002	15669.31
649.355	15749.76
649.707	15735.74
650.059	15802.18
650.411	16019.35
650.763	15957.21
651.115	16037.21
651.467	15980.03
651.819	16116.75
652.171	16010.99
652.523	15945.46
652.875	16010.99
653.227	16028.84
653.578	16053.02
653.93	16061.84
654.282	16009.18
654.633	15913.82
654.985	15938.68
655.337	15914.72
655.688	16001.27
656.039	16067.26
656.391	15919.92
656.742	15907.04
657.094	15942.74
657.445	16083.53
657.796	16026.13
658.147	15959.92
658.498	16006.7
658.849	16112.46
659.2	16061.39
659.551	15912.24
659.902	16036.08
660.253	16073.81
660.604	16043.76
660.955	15970.31
661.306	16041.5
661.656	16018.22
662.007	16054.83
662.358	16069.97
662.708	16092.8
663.059	15949.3
663.409	15882.63
663.76	16073.81
664.11	16079.24
664.461	16031.78
664.811	16023.65
665.161	16107.03
665.511	16041.73
665.862	16022.52
666.212	16119.69
666.562	16131.89
666.912	16055.74
667.262	16017.09
667.612	16079.46
667.962	16042.63
668.312	16081.72
668.662	16072.91
669.011	16046.24
669.361	16041.27
669.711	15939.35
670.06	16003.08
670.41	15906.81
670.76	15895.29
671.109	16014.16
671.459	15964.21
671.808	15931.45
672.157	15893.25
672.507	15874.27
672.856	15897.1
673.205	15899.58
673.554	15922.86
673.904	15956.08
674.253	15990.65
674.602	15844.67
674.951	15640.15
675.3	15526.26
675.649	15821.84
675.998	15807.38
676.346	15783.65
676.695	15870.66
677.044	15714.5
677.393	15757.44
677.741	15769.64
678.09	15641.74
678.438	15691.9
678.787	15678.34
679.135	15716.54
679.484	15595.41
679.832	15639.93
680.181	15478.35
680.529	15601.28
680.877	15512.25
681.225	15485.36
681.573	15544.56
681.922	15474.51
682.27	15405.13
682.618	15443.55
682.966	15361.97
683.314	15458.69
683.661	15369.88
684.009	15214.63
684.357	15232.03
684.705	15121.98
685.053	15269.09
685.4	15140.05
685.748	15105.93
686.095	15074.29
686.443	15028.64
686.79	14991.81
687.138	14982.32
687.485	15017.35
687.832	15002.43
688.18	14910.68
688.527	14818.25
688.874	14841.76
689.221	14766.73
689.568	14750.46
689.915	14686.73
690.262	14776.22
690.609	14674.76
690.956	14611.71
691.303	14617.81
691.65	14470.92
691.997	14599.05
692.344	14412.84
692.69	14342.33
693.037	14332.39
693.383	14248.33
693.73	14305.5
694.077	14212.17
694.423	14128.56
694.769	14151.15
695.116	14084.94
695.462	13996.58
695.808	13918.84
696.155	13978.95
696.501	13817.6
696.847	13835.23
697.193	13736.93
697.539	13758.17
697.885	13693.09
698.231	13524.28
698.577	13698.51
698.923	13626.87
699.269	13515.01
699.614	13404.73
699.96	13394.56
700.306	13322.25
700.651	13275.47
700.997	13304.85
701.342	13243.15
701.688	13267.79
702.033	13101.92
702.379	13087.23
702.724	13039.77
703.069	13123.16
703.415	12992.54
703.76	12827.35
704.105	12912.09
704.45	12882.71
704.795	12778.08
705.14	12754.13
705.485	12693.56
705.83	12647.01
706.175	12664.86
706.52	12612.66
706.865	12604.08
707.209	12564.53
707.554	12474.59
707.899	12591.87
708.243	12409.96
708.588	12389.84
708.932	12336.29
709.277	12304.2
709.621	12310.52
709.966	12219.23
710.31	12222.62
710.654	12114.37
710.998	12135.39
711.342	12167.7
711.687	12066.46
712.031	12064.65
712.375	11996.86
712.719	12031.44
713.063	11941.49
713.407	12038.44
713.75	11947.82
714.094	11927.26
714.438	11851.78
714.782	11894.72
715.125	11771.1
715.469	11830.08
715.812	11734.27
716.156	11635.51
716.499	11744.89
716.843	11737.43
717.186	11606.14
717.53	11663.31
717.873	11695.62
718.216	11646.13
718.559	11590.32
718.902	11563.65
719.246	11530.88
719.589	11558.68
719.932	11457.66
720.275	11427.61
720.617	11421.73
720.96	11505.57
721.303	11496.99
721.646	11420.83
721.989	11386.25
722.331	11414.95
722.674	11374.28
723.016	11463.99
723.359	11365.01
723.701	11360.04
724.044	11256.31
724.386	11208.18
724.729	11268.29
725.071	11278.01
725.413	11264.45
725.755	11284.79
726.097	11233.72
726.439	11129.99
726.782	11228.97
727.124	11205.92
727.465	11228.29
727.807	11165.92
728.149	11295.41
728.491	11219.48
728.833	11243.66
729.175	11191.46
729.516	11172.93
729.858	11173.15
730.199	11142.19
730.541	11172.93
730.882	11131.57
731.224	11188.07
731.565	11093.61
731.906	11156.2
732.248	11135.87
732.589	11125.47
732.93	11112.59
733.271	11041.63
733.612	11125.47
733.953	11094.51
734.294	11118.01
734.635	11065.13
734.976	11169.08
735.317	11067.84
735.658	11032.37
735.999	10988.75
736.339	11051.35
736.68	11107.39
737.021	11044.57
737.361	11026.49
737.702	11092.48
738.042	11092.48
738.383	11139.48
738.723	11150.55
739.063	11071.01
739.404	11151.91
739.744	11113.49
740.084	11072.36
740.424	11219.7
740.764	11125.24
741.104	11185.13
741.444	11133.15
741.784	11260.16
742.124	11241.85
742.464	11289.99
742.804	11259.25
743.143	11304.22
743.483	11310.78
743.823	11289.76
744.162	11312.58
744.502	11375.63
744.841	11320.72
745.181	11420.6
745.52	11420.15
745.86	11478
746.199	11503.54
746.538	11603.88
746.877	11682.97
747.216	11734.27
747.556	11752.35
747.895	11778.11
748.234	11857.65
748.573	11853.81
748.911	11942.85
749.25	11983.98
749.589	12007.03
749.928	12154.14
750.267	12213.8
750.605	12237.31
750.944	12324.53
751.283	12350.97
751.621	12539.44
751.96	12531.31
752.298	12648.82
752.636	12801.81
752.975	12895.59
753.313	12939.21
753.651	13109.82
753.989	13190.73
754.327	13258.52
754.666	13410.83
755.004	13550.94
755.342	13688.34
