Data from hue_00_FLMS001491_44.txt Node
Date: Mon Feb 06 15:29:45 GMT 2017
User: dcchb
Spectrometer: FLMS00149
Trigger mode: 0
Integration Time (sec): 2.000000E-2
Scans to average: 10
Electric dark correction enabled: true
Nonlinearity correction enabled: false
Boxcar width: 0
XAxis mode: Wavelengths
Number of Pixels in Spectrum: 2048
>>>>>Begin Spectral Data<<<<<
341.393	-3.45
341.776	-3.45
342.16	-3.45
342.543	-67.4
342.927	-90.45
343.31	-81.41
343.693	-71.47
344.077	-74.4
344.46	-75.76
344.843	-56.33
345.226	-38.02
345.61	-36.21
345.993	-10.45
346.376	-4.35
346.759	32.03
347.142	23.22
347.525	60.28
347.908	61.18
348.291	72.94
348.674	86.27
349.057	112.48
349.44	123.78
349.823	128.08
350.206	169.43
350.588	182.76
350.971	196.77
351.354	239.26
351.737	252.82
352.119	254.85
352.502	252.37
352.884	265.02
353.267	277.22
353.65	298.47
354.032	295.75
354.414	305.25
354.797	305.7
355.179	332.14
355.562	307.05
355.944	314.96
356.326	332.82
356.709	345.7
357.091	338.24
357.473	357.22
357.855	348.63
358.238	340.05
358.62	357.9
359.002	348.18
359.384	338.01
359.766	317.9
360.148	344.34
360.53	336.43
360.912	318.58
361.294	327.17
361.676	317.9
362.057	325.81
362.439	323.1
362.821	337.11
363.203	319.94
363.584	315.64
363.966	302.76
364.348	305.7
364.729	332.36
365.111	315.19
365.493	316.09
365.874	331.69
366.256	317.45
366.637	300.05
367.019	303.44
367.4	323.55
367.781	310.67
368.163	339.14
368.544	303.89
368.925	296.21
369.306	309.31
369.688	301.4
370.069	303.21
370.45	294.17
370.831	320.39
371.212	310.67
371.593	307.28
371.974	293.95
372.355	319.03
372.736	296.21
373.117	318.58
373.498	311.57
373.879	328.52
374.26	312.48
374.641	307.28
375.021	314.29
375.402	326.04
375.783	309.77
376.163	310.22
376.544	314.06
376.925	309.31
377.305	311.8
377.686	340.27
378.066	321.52
378.447	337.79
378.827	310.22
379.208	303.66
379.588	315.19
379.968	326.26
380.349	325.13
380.729	328.3
381.109	326.94
381.489	337.79
381.87	311.57
382.25	332.36
382.63	320.61
383.01	338.24
383.39	338.69
383.77	338.47
384.15	348.63
384.53	338.92
384.91	340.05
385.29	340.27
385.67	342.76
386.049	347.5
386.429	328.07
386.809	350.44
387.189	350.44
387.568	355.41
387.948	342.08
388.328	357.22
388.707	342.31
389.087	346.15
389.466	354.06
389.846	344.79
390.225	377.79
390.605	362.87
390.984	347.96
391.363	365.13
391.743	364.23
392.122	386.6
392.501	356.54
392.881	363.1
393.26	368.97
393.639	363.55
394.018	367.17
394.397	358.58
394.776	363.32
395.155	375.53
395.534	369.88
395.913	361.74
396.292	376.2
396.671	341.63
397.05	370.1
397.429	381.4
397.808	385.02
398.186	382.08
398.565	387.28
398.944	364.91
399.323	380.95
399.701	387.28
400.08	357
400.458	396.54
400.837	383.66
401.215	375.75
401.594	384.11
401.972	389.76
402.351	406.26
402.729	375.07
403.107	395.64
403.486	412.81
403.864	406.26
404.242	398.35
404.62	406.03
404.999	395.19
405.377	395.19
405.755	415.07
406.133	428.41
406.511	413.27
406.889	423.89
407.267	434.06
407.645	434.06
408.023	403.1
408.401	418.24
408.779	399.26
409.156	422.08
409.534	439.93
409.912	432.25
410.29	447.16
410.667	434.06
411.045	429.31
411.422	441.51
411.8	448.52
412.178	464.11
412.555	436.99
412.933	441.06
413.31	455.3
413.687	464.56
414.065	468.63
414.442	425.92
414.819	493.94
415.197	456.65
415.574	464.79
415.951	474.51
416.328	474.06
416.705	486.71
417.082	502.53
417.46	486.71
417.837	490.78
418.214	485.35
418.591	490.1
418.967	504.34
419.344	476.09
419.721	508.63
420.098	520.61
420.475	513.83
420.852	499.37
421.228	529.42
421.605	492.81
421.982	509.31
422.358	515.18
422.735	534.17
423.111	521.96
423.488	538.91
423.864	524.68
424.241	530.1
424.617	520.83
424.994	547.5
425.37	543.66
425.746	544.11
426.123	560.83
426.499	536.43
426.875	545.24
427.251	554.51
427.627	556.09
428.003	562.19
428.379	571.68
428.756	587.72
429.132	585.92
429.507	584.11
429.883	589.08
430.259	611.9
430.635	598.12
431.011	584.11
431.387	596.54
431.763	627.95
432.138	640.38
432.514	634.05
432.89	640.83
433.265	651
433.641	635.86
434.016	647.84
434.392	650.55
434.767	643.99
435.143	674.05
435.518	669.3
435.894	652.36
436.269	659.59
436.644	673.82
437.02	669.3
437.395	683.54
437.77	691.22
438.145	689.19
438.52	697.55
438.895	714.5
439.271	695.52
439.646	700.49
440.021	727.61
440.395	711.56
440.77	703.65
441.145	735.07
441.52	739.59
441.895	733.94
442.27	753.6
442.645	732.13
443.019	752.47
443.394	751.56
443.769	759.47
444.143	758.57
444.518	752.01
444.892	767.83
445.267	766.7
445.641	756.08
446.016	774.39
446.39	801.28
446.764	748.85
447.139	789.3
447.513	779.13
447.887	805.57
448.262	792.24
448.636	795.18
449.01	799.92
449.384	799.24
449.758	798.57
450.132	815.29
450.506	826.59
450.88	848.06
451.254	828.85
451.628	848.96
452.002	838.57
452.376	852.12
452.75	863.2
453.123	871.56
453.497	869.07
453.871	876.76
454.244	899.13
454.618	903.65
454.992	891.67
455.365	882.18
455.739	909.75
456.112	942.07
456.486	929.41
456.859	923.54
457.232	964.21
457.606	937.55
457.979	953.36
458.352	976.19
458.725	967.38
459.099	981.84
459.472	1000.6
459.845	997.21
460.218	1025.91
460.591	1019.8
460.964	1019.35
461.337	1053.93
461.71	1047.37
462.083	1069.29
462.456	1047.15
462.829	1110.65
463.201	1104.55
463.574	1116.07
463.947	1084.89
464.32	1130.54
464.692	1143.19
465.065	1179.35
465.438	1162.4
465.81	1166.92
466.183	1192.23
466.555	1205.56
466.928	1234.26
467.3	1217.54
467.672	1246.92
468.045	1250.08
468.417	1254.83
468.789	1272
469.161	1280.36
469.534	1310.19
469.906	1330.08
470.278	1339.34
470.65	1366.24
471.022	1380.25
471.394	1429.96
471.766	1397.19
472.138	1439.91
472.51	1458.66
472.882	1449.4
473.253	1480.13
473.625	1477.64
473.997	1575.72
474.369	1543.63
474.74	1567.59
475.112	1599
475.484	1618.88
475.855	1660.69
476.227	1651.88
476.598	1693.68
476.97	1709.96
477.341	1784.3
477.713	1788.6
478.084	1778.2
478.455	1852.32
478.827	1863.4
479.198	1904.07
479.569	1899.33
479.94	1945.88
480.311	1981.81
480.682	2013.68
481.053	2072.88
481.424	2111.53
481.795	2144.07
482.166	2166.44
482.537	2181.36
482.908	2233.56
483.279	2279.88
483.65	2294.35
484.021	2356.49
484.391	2378.64
484.762	2399.2
485.133	2403.5
485.503	2459.99
485.874	2521.01
486.244	2575.69
486.615	2599.88
486.985	2625.19
487.356	2664.05
487.726	2717.61
488.097	2746.31
488.467	2749.7
488.837	2862.24
489.207	2833.32
489.578	2933.2
489.948	2913.54
490.318	2963.93
490.688	3040.09
491.058	3032.18
491.428	3091.84
491.798	3104.95
492.168	3148.79
492.538	3170.71
492.908	3221.55
493.278	3260.42
493.648	3269.46
494.017	3332.96
494.387	3362.11
494.757	3360.53
495.126	3411.61
495.496	3385.84
495.866	3495.22
496.235	3494.09
496.605	3574.76
496.974	3546.97
497.344	3560.3
497.713	3625.61
498.082	3644.82
498.452	3688.43
498.821	3680.07
499.19	3701.32
499.559	3764.36
499.928	3782.67
500.298	3777.92
500.667	3836
501.036	3834.87
501.405	3885.49
501.774	3859.5
502.143	3939.05
502.512	3894.08
502.88	3937.24
503.249	3989.44
503.618	3996.45
503.987	4031.48
504.356	4055.66
504.724	4015.21
505.093	4050.68
505.462	4118.93
505.83	4104.02
506.199	4136.56
506.567	4177.23
506.936	4162.32
507.304	4182.88
507.672	4233.05
508.041	4293.62
508.409	4272.6
508.777	4268.53
509.145	4338.13
509.514	4301.75
509.882	4317.12
510.25	4331.81
510.618	4392.14
510.986	4362.77
511.354	4373.84
511.722	4434.4
512.09	4467.4
512.458	4455.65
512.826	4485.48
513.193	4513.05
513.561	4511.01
513.929	4527.06
514.297	4609.09
514.664	4622.19
515.032	4561.18
515.4	4662.65
515.767	4659.93
516.135	4671.23
516.502	4660.39
516.869	4707.39
517.237	4679.37
517.604	4720.5
517.972	4744
518.339	4783.55
518.706	4748.75
519.073	4763.66
519.44	4774.51
519.808	4847.95
520.175	4808.63
520.542	4889.31
520.909	4878.01
521.276	4860.83
521.643	4917.55
522.009	4887.5
522.376	5005.24
522.743	5003.2
523.11	5030.55
523.477	5085.69
523.843	5050.43
524.21	5101.5
524.577	5179.47
524.943	5170.88
525.31	5184.89
525.676	5242.29
526.043	5211.11
526.409	5319.35
526.776	5327.49
527.142	5302.18
527.508	5377.88
527.874	5390.31
528.241	5394.83
528.607	5409.97
528.973	5438.22
529.339	5454.49
529.705	5541.27
530.071	5537.43
530.437	5519.12
530.803	5548.05
531.169	5651.55
531.535	5600.25
531.901	5644.31
532.267	5668.04
532.632	5666.91
532.998	5729.28
533.364	5767.25
533.73	5738.1
534.095	5852.9
534.461	5833.24
534.826	5873.46
535.192	5891.54
535.557	5917.3
535.923	5901.26
536.288	5988.49
536.653	5917.53
537.019	5936.51
537.384	5986.68
537.749	6049.73
538.114	6045.66
538.479	6026.45
538.845	6109.61
539.21	6085.43
539.575	6091.31
539.94	6179.22
540.305	6164.98
540.67	6191.65
541.034	6222.15
541.399	6246.33
541.764	6259.44
542.129	6275.71
542.494	6307.12
542.858	6343.51
543.223	6340.34
543.587	6407.91
543.952	6368.36
544.316	6456.04
544.681	6414.92
545.045	6502.37
545.41	6461.24
545.774	6535.59
546.138	6546.44
546.503	6572.88
546.867	6568.58
547.231	6652.42
547.595	6681.58
547.959	6685.87
548.324	6673.21
548.688	6707.56
549.052	6744.17
549.416	6754.12
549.779	6807.9
550.143	6773.32
550.507	6809.03
550.871	6873.89
551.235	6841.35
551.599	6929.03
551.962	6929.48
552.326	6933.09
552.689	7013.32
553.053	6969.03
553.417	6964.51
553.78	7035.24
554.143	7058.51
554.507	7074.11
554.87	7061.45
555.234	7161.56
555.597	7124.95
555.96	7168.79
556.323	7154.56
556.686	7154.33
557.05	7243.59
557.413	7232.3
557.776	7333.08
558.139	7299.41
558.502	7311.16
558.865	7350.71
559.228	7367.21
559.59	7397.04
559.953	7417.15
560.316	7466.87
560.679	7459.86
561.041	7506.86
561.404	7510.03
561.767	7597.71
562.129	7560.42
562.492	7671.83
562.854	7601.1
563.217	7634.55
563.579	7619.86
563.941	7726.52
564.304	7691.72
564.666	7789.12
565.028	7813.75
565.39	7765.62
565.753	7840.87
566.115	7892.39
566.477	7949.34
566.839	7928.32
567.201	7985.27
567.563	7978.49
567.925	8025.04
568.287	8022.11
568.648	8106.85
569.01	8107.53
569.372	8184.81
569.734	8142.55
570.095	8220.97
570.457	8229.78
570.819	8325.37
571.18	8289.9
571.542	8331.48
571.903	8347.07
572.265	8392.27
572.626	8468.65
572.987	8467.52
573.349	8525.6
573.71	8567.18
574.071	8552.94
574.432	8672.03
574.794	8801.29
575.155	8793.16
575.516	8822.08
575.877	8842.65
576.238	8973.94
576.599	9008.52
576.96	9036.32
577.32	9161.28
577.681	9191.11
578.042	9253.94
578.403	9378.45
578.763	9434.95
579.124	9514.04
579.485	9667.94
579.845	9711.78
580.206	9862.06
580.566	9835.39
580.927	10000.36
581.287	10186.34
581.648	10273.12
582.008	10405.55
582.368	10558.76
582.728	10660
583.089	10755.14
583.449	10912.65
583.809	11148.8
584.169	11290.04
584.529	11351.74
584.889	11675.34
585.249	11716.02
585.609	11873.53
585.969	12156.23
586.329	12286.4
586.688	12465.83
587.048	12703.56
587.408	12800.74
587.768	13124.8
588.127	13341.51
588.487	13559.59
588.846	13744.89
589.206	13974.94
589.565	14238.89
589.925	14445.89
590.284	14614.25
590.643	14931.53
591.003	15261.24
591.362	15465.75
591.721	15721.34
592.08	16017.38
592.44	16242.45
592.799	16493.52
593.158	16781.2
593.517	17122.43
593.876	17387.06
594.235	17580.95
594.593	17915.18
594.952	18174.38
595.311	18426.13
595.67	18667.02
596.029	19120.57
596.387	19356.27
596.746	19748.12
597.104	19832.42
597.463	20155.8
597.822	20586.52
598.18	20725.5
598.538	20965.95
598.897	21439.38
599.255	21551.47
599.613	22013.15
599.972	22170.21
600.33	22582.17
600.688	22645
601.046	23158.66
601.404	23489.95
601.762	23700.11
602.12	23982.36
602.478	24256.93
602.836	24511.39
603.194	24675.9
603.552	24940.08
603.91	25021.43
604.268	25456.45
604.625	25667.97
604.983	25994.74
605.341	26153.83
605.698	26456.65
606.056	26721.95
606.413	26962.62
606.771	27199.23
607.128	27338.21
607.485	27427.92
607.843	27839.21
608.2	28238.07
608.557	28419.08
608.914	28544.28
609.272	28819.3
609.629	29169.57
609.986	29465.61
610.343	29458.6
610.7	29897.91
611.057	30047.29
611.414	30074.86
611.771	30374.06
612.127	30688.85
612.484	30713.94
612.841	30932.24
613.198	30978.56
613.554	31319.35
613.911	31718.88
614.267	31586.68
614.624	31797.07
614.98	32040.91
615.337	32450.84
615.693	32362.93
616.05	32414.46
616.406	32731.29
616.762	32837.5
617.118	32909.81
617.475	33100.77
617.831	33281.55
618.187	33457.37
618.543	33631.83
618.899	33853.97
619.255	33990.24
619.611	34015.09
619.967	34386.61
620.323	34456.44
620.678	34488.08
621.034	34328.08
621.39	34622.54
621.746	34589.09
622.101	35005.8
622.457	34799.03
622.812	35012.58
623.168	35168.74
623.523	35160.6
623.879	35601.49
624.234	35332.12
624.589	35432.68
624.945	35594.49
625.3	35703.19
625.655	35605.11
626.01	35869.06
626.365	35904.99
626.72	35849.17
627.075	35915.38
627.43	35995.38
627.785	36048.94
628.14	36148.82
628.495	36260.01
628.85	36257.75
629.205	36293.45
629.559	36462.94
629.914	36372.55
630.269	36468.36
630.623	36422.94
630.978	36335.94
631.332	36596.95
631.687	36619.09
632.041	36596.27
632.396	36679.21
632.75	36542.94
633.104	36685.53
633.459	36539.77
633.813	36553.33
634.167	36628.81
634.521	36573.45
634.875	36660.45
635.229	36679.66
635.583	36659.32
635.937	36615.7
636.291	36554.24
636.645	36629.94
636.999	36564.41
637.352	36904.74
637.706	36410.29
638.06	36833.78
638.413	36540.23
638.767	36506.1
639.121	36652.77
639.474	36565.76
639.828	36681.01
640.181	36599.66
640.534	36669.94
640.888	36714.68
641.241	36330.06
641.594	36531.41
641.947	36651.86
642.301	36557.4
642.654	36623.61
643.007	36688.02
643.36	36579.32
643.713	36560.34
644.066	36682.14
644.419	36412.55
644.771	36159.67
645.124	35890.75
645.477	35868.83
645.83	35662.28
646.182	35534.15
646.535	35505.45
646.888	35584.32
647.24	35434.72
647.593	35520.37
647.945	35377.32
648.298	35340.26
648.65	35256.64
649.002	35146.82
649.355	35295.96
649.707	35372.12
650.059	35531.21
650.411	35856.18
650.763	35952.9
651.115	36283.51
651.467	36175.26
651.819	36164.42
652.171	36079.9
652.523	36226.56
652.875	36252.1
653.227	35952.44
653.578	36190.86
653.93	36011.2
654.282	35927.13
654.633	35865.44
654.985	36020.24
655.337	35985.44
655.688	35956.06
656.039	36042.84
656.391	35802.17
656.742	35852.56
657.094	35899.56
657.445	35991.99
657.796	35949.51
658.147	35865.89
658.498	35792.9
658.849	35993.8
659.2	35853.01
659.551	35818.21
659.902	35900.24
660.253	35832
660.604	35896.4
660.955	35725.56
661.306	35829.06
661.656	35730.98
662.007	35763.07
662.358	35853.92
662.708	35795.16
663.059	35745.9
663.409	35452.8
663.76	35790.64
664.11	35678.33
664.461	35829.96
664.811	35723.75
665.161	35803.3
665.511	35588.84
665.862	35712.22
666.212	35808.49
666.562	35894.59
666.912	35705.45
667.262	35632.9
667.612	35610.76
667.962	35802.62
668.312	35722.39
668.662	35779.12
669.011	35780.47
669.361	35704.77
669.711	35538.9
670.06	35624.32
670.41	35543.87
670.76	35490.99
671.109	35696.41
671.459	35454.38
671.808	35549.97
672.157	35604.21
672.507	35415.06
672.856	35272.01
673.205	35459.12
673.554	35591.55
673.904	35374.15
674.253	35544.55
674.602	35414.61
674.951	34905.47
675.3	34777.33
675.649	35440.37
675.998	35294.38
676.346	35405.79
676.695	35415.51
677.044	35175.97
677.393	35304.55
677.741	35325.79
678.09	35249.64
678.438	35065.24
678.787	35179.81
679.135	35164.67
679.484	34927.61
679.832	35065.24
680.181	34939.59
680.529	35048.06
680.877	35052.58
681.225	34841.29
681.573	35048.06
681.922	34765.58
682.27	34648.75
682.618	34770.1
682.966	34624.8
683.314	34787.28
683.661	34619.82
684.009	34540.73
684.357	34434.29
684.705	34355.65
685.053	34422.99
685.4	34363.56
685.748	34178.93
686.095	34216.67
686.443	34187.52
686.79	34022.55
687.138	34097.35
687.485	34118.14
687.832	33939.84
688.18	33940.97
688.527	33741.43
688.874	33836.12
689.221	33708.89
689.568	33622.56
689.915	33625.73
690.262	33582.79
690.609	33348.9
690.956	33258.5
691.303	33289.24
691.65	33235.68
691.997	33234.32
692.344	33024.39
692.69	33062.35
693.037	33022.13
693.383	32801.34
693.73	32926.31
694.077	32637.05
694.423	32769.25
694.769	32559.99
695.116	32585.98
695.462	32366.1
695.808	32343.95
696.155	32406.55
696.501	32062.15
696.847	32161.58
697.193	31988.71
697.539	32088.82
697.885	31805.21
698.231	31707.81
698.577	31679.79
698.923	31578.55
699.269	31467.82
699.614	31285.67
699.96	31285.9
700.306	31400.02
700.651	31144.66
700.997	31112.57
701.342	31011.11
701.688	30931.11
702.033	30865.57
702.379	30948.96
702.724	30691.11
703.069	30716.88
703.415	30565.92
703.76	30472.81
704.105	30525.02
704.45	30392.14
704.795	30243.89
705.14	30305.59
705.485	30173.39
705.83	30136.78
706.175	30120.73
706.52	29904.47
706.865	29821.53
707.209	29891.59
707.554	29699.73
707.899	29853.17
708.243	29576.57
708.588	29622.44
708.932	29439.4
709.277	29377.02
709.621	29504.03
709.966	29161.44
710.31	29333.86
710.654	29064.49
710.998	29072.85
711.342	29105.17
711.687	28989.24
712.031	28839.19
712.375	28759.64
712.719	28989.24
713.063	28890.03
713.407	28761.22
713.75	28631.06
714.094	28718.74
714.438	28550.83
714.782	28580.89
715.125	28428.57
715.469	28362.59
715.812	28322.81
716.156	28233.33
716.499	28196.04
716.843	28241.23
717.186	28107.23
717.53	28140.67
717.873	28090.73
718.216	27934.8
718.559	28035.82
718.902	27733.45
719.246	27772.55
719.589	27633.12
719.932	27583.63
720.275	27662.04
720.617	27558.77
720.96	27557.86
721.303	27540.69
721.646	27562.61
721.989	27379.34
722.331	27409.39
722.674	27361.48
723.016	27371.65
723.359	27230.41
723.701	27377.3
724.044	27081.94
724.386	27001.49
724.729	27208.72
725.071	26920.59
725.413	27065.45
725.755	27007.37
726.097	26890.08
726.439	26792.69
726.782	26866.13
727.124	26872.46
727.465	26695.96
727.807	26716.76
728.149	26639.02
728.491	26663.2
728.833	26694.61
729.175	26551.79
729.516	26502.3
729.858	26381.85
730.199	26428.63
730.541	26397.44
730.882	26337.78
731.224	26458.46
731.565	26220.27
731.906	26314.51
732.248	26131.23
732.589	26086.04
732.93	26008.53
733.271	25977.79
733.612	26000.39
733.953	26085.36
734.294	25990.45
734.635	25827.51
734.976	25955.42
735.317	25769.44
735.658	25746.84
735.999	25757.68
736.339	25808.98
736.68	25822.09
737.021	25665.26
737.361	25544.13
737.702	25717.46
738.042	25548.65
738.383	25500.06
738.723	25676.1
739.063	25461.87
739.404	25611.25
739.744	25450.57
740.084	25309.11
740.424	25398.6
740.764	25241.54
741.104	25434.98
741.444	25219.62
741.784	25205.61
742.124	25255.1
742.464	25146.63
742.804	25158.15
743.143	25024.14
743.483	25125.38
743.823	24918.84
744.162	24887.2
744.502	25034.09
744.841	24856.69
745.181	25034.99
745.52	24866.63
745.86	24847.43
746.199	24822.57
746.538	24781.66
746.877	24726.52
747.216	24821.44
747.556	24790.7
747.895	24616.47
748.234	24623.25
748.573	24513.88
748.911	24482.46
749.25	24466.42
749.589	24379.87
749.928	24436.59
750.267	24438.62
750.605	24351.85
750.944	24350.94
751.283	24104.85
751.621	24301.23
751.96	24119.08
752.298	24142.36
752.636	24159.31
752.975	24002.7
753.313	23854.01
753.651	23987.11
753.989	23848.36
754.327	23888.81
754.666	23775.36
755.004	23745.31
755.342	23737.85
755.679	23681.35
756.017	23577.4
756.355	23715.25
756.693	23506.22
757.031	23463.96
757.368	23510.51
757.706	23354.13
758.044	23379.67
758.381	23323.4
758.719	23278.2
759.056	23226
759.394	23199.33
759.731	22967.48
760.068	23111.65
760.405	22877.31
760.743	22889.29
761.08	22906.01
