Data from hue_290_FLMS001491_00019.txt Node
Date: Tue Feb 07 15:52:23 GMT 2017
User: dcchb
Spectrometer: FLMS00149
Trigger mode: 0
Integration Time (sec): 2.000000E-2
Scans to average: 10
Electric dark correction enabled: true
Nonlinearity correction enabled: false
Boxcar width: 0
XAxis mode: Wavelengths
Number of Pixels in Spectrum: 2048
>>>>>Begin Spectral Data<<<<<
341.393	-5.51
341.776	-5.51
342.16	-5.51
342.543	-52.29
342.927	-68.33
343.31	-77.37
343.693	-66.3
344.077	-45.73
344.46	-57.03
344.843	-36.69
345.226	-49.57
345.61	-34.66
345.993	-22.46
346.376	3.3
346.759	-10.25
347.142	17.32
347.525	42.4
347.908	72.68
348.291	69.97
348.674	81.27
349.057	113.13
349.44	141.61
349.823	128.5
350.206	140.02
350.588	176.86
350.971	196.75
351.354	226.8
351.737	219.34
352.119	226.35
352.502	243.07
352.884	268.38
353.267	264.09
353.65	294.82
354.032	276.29
354.414	287.59
354.797	299.12
355.179	304.09
355.562	282.85
355.944	292.11
356.326	332.79
356.709	311.09
357.091	334.37
357.473	333.69
357.855	330.08
358.238	338.21
358.62	336.86
359.002	319.45
359.384	330.3
359.766	346.12
360.148	338.89
360.53	327.36
360.912	321.71
361.294	330.53
361.676	324.2
362.057	326.46
362.439	331.43
362.821	322.17
363.203	316.52
363.584	297.99
363.966	307.03
364.348	325.56
364.729	311.55
365.111	306.57
365.493	289.4
365.874	294.6
366.256	288.27
366.637	316.97
367.019	298.66
367.4	295.73
367.781	296.63
368.163	300.25
368.544	300.02
368.925	312.45
369.306	307.7
369.688	301.6
370.069	301.38
370.45	294.82
370.831	267.93
371.212	297.08
371.593	313.13
371.974	281.94
372.355	312.45
372.736	306.35
373.117	312.22
373.498	300.92
373.879	312.22
374.26	300.7
374.641	293.47
375.021	317.2
375.402	314.03
375.783	312.45
376.163	324.43
376.544	321.94
376.925	306.12
377.305	324.43
377.686	321.04
378.066	314.26
378.447	322.39
378.827	326.46
379.208	322.84
379.588	312.45
379.968	311.55
380.349	304.54
380.729	325.33
381.109	330.3
381.489	358.32
381.87	327.82
382.25	337.99
382.63	332.34
383.01	340.02
383.39	317.2
383.77	322.39
384.15	316.74
384.53	340.7
384.91	318.32
385.29	352
385.67	352.9
386.049	338.44
386.429	337.08
386.809	344.99
387.189	343.86
387.568	339.79
387.948	356.52
388.328	326.69
388.707	351.77
389.087	356.29
389.466	344.99
389.846	365.1
390.225	341.83
390.605	354.26
390.984	360.81
391.363	334.82
391.743	363.3
392.122	358.78
392.501	386.57
392.881	360.13
393.26	361.94
393.639	366.46
394.018	371.43
394.397	382.05
394.776	387.25
395.155	378.89
395.534	355.61
395.913	371.43
396.292	378.44
396.671	371.88
397.05	384.31
397.429	381.15
397.808	386.12
398.186	370.3
398.565	384.09
398.944	382.5
399.323	367.59
399.701	401.03
400.08	383.63
400.458	410.98
400.837	398.77
401.215	416.63
401.594	403.97
401.972	387.02
402.351	405.78
402.729	454.82
403.107	391.77
403.486	409.62
403.864	426.8
404.242	403.52
404.62	429.73
404.999	405.78
405.377	448.04
405.755	422.5
406.133	441.26
406.511	449.17
406.889	459.79
407.267	451.43
407.645	446.91
408.023	477.42
408.401	461.15
408.779	466.8
409.156	477.64
409.534	467.7
409.912	476.06
410.29	510.18
410.667	493.91
411.045	501.37
411.422	497.3
411.8	508.6
412.178	522.39
412.555	526.46
412.933	551.99
413.31	539.79
413.687	553.35
414.065	554.02
414.442	580.01
414.819	590.41
415.197	567.81
415.574	580.92
415.951	589.73
416.328	610.07
416.705	622.95
417.082	611.42
417.46	642.84
417.837	611.65
418.214	613.01
418.591	613.23
418.967	645.77
419.344	635.83
419.721	671.76
420.098	655.49
420.475	667.24
420.852	678.54
421.228	684.64
421.605	683.97
421.982	712.44
422.358	709.73
422.735	700.91
423.111	735.26
423.488	739.1
423.864	755.15
424.241	743.62
424.617	741.36
424.994	783.17
425.37	765.54
425.746	803.74
426.123	780.46
426.499	791.98
426.875	832.66
427.251	820.01
427.627	841.25
428.003	848.48
428.379	867.46
428.756	840.8
429.132	855.49
429.507	884.64
429.883	878.99
430.259	899.33
430.635	904.98
431.011	888.71
431.387	924.86
431.763	938.65
432.138	952.21
432.514	968.25
432.89	982.94
433.265	1001.02
433.641	1008.02
434.016	1011.41
434.392	1029.49
434.767	1032.88
435.143	1019.1
435.518	1061.36
435.894	1100.9
436.269	1094.12
436.644	1113.11
437.02	1129.83
437.395	1125.99
437.77	1120.79
438.145	1160.79
438.52	1151.07
438.895	1161.92
439.271	1158.08
439.646	1224.52
440.021	1238.07
440.395	1202.37
440.77	1205.76
441.145	1212.99
441.52	1226.55
441.895	1229.26
442.27	1236.49
442.645	1244.63
443.019	1241.46
443.394	1269.94
443.769	1284.63
444.143	1273.33
444.518	1295.25
444.892	1295.47
445.267	1274.91
445.641	1295.47
446.016	1310.62
446.39	1327.56
446.764	1299.99
447.139	1295.25
447.513	1333.21
447.887	1346.09
448.262	1324.85
448.636	1363.04
449.01	1375.47
449.384	1361.46
449.758	1357.39
450.132	1386.55
450.506	1372.08
450.88	1393.78
451.254	1389.26
451.628	1416.83
452.002	1407.11
452.376	1428.8
452.75	1437.62
453.123	1462.48
453.497	1440.1
453.871	1465.41
454.244	1487.11
454.618	1525.98
454.992	1541.12
455.365	1525.3
455.739	1549.93
456.112	1546.54
456.486	1545.86
456.859	1536.15
457.232	1610.27
457.606	1596.71
457.979	1590.61
458.352	1623.6
458.725	1631.74
459.099	1609.14
459.472	1655.46
459.845	1683.49
460.218	1683.71
460.591	1663.37
460.964	1689.81
461.337	1727.1
461.71	1733.2
462.083	1754.67
462.456	1764.16
462.829	1765.74
463.201	1781.79
463.574	1764.61
463.947	1786.08
464.32	1813.65
464.692	1798.06
465.065	1852.3
465.438	1873.76
465.81	1850.49
466.183	1903.82
466.555	1916.48
466.928	1931.84
467.3	1912.18
467.672	1938.17
468.045	1961.22
468.417	1966.87
468.789	1979.75
469.161	1981.78
469.534	2041.9
469.906	2086.87
470.278	2078.28
470.65	2091.61
471.022	2123.25
471.394	2176.58
471.766	2199.63
472.138	2212.29
472.51	2210.7
472.882	2218.61
473.253	2267.65
473.625	2285.05
473.997	2283.7
474.369	2355.11
474.74	2336.8
475.112	2314.88
475.484	2356.24
475.855	2401.21
476.227	2420.19
476.598	2473.52
476.97	2489.34
477.341	2532.5
477.713	2555.33
478.084	2542.22
478.455	2675.78
478.827	2616.8
479.198	2679.39
479.569	2669
479.94	2781.76
480.311	2769.11
480.682	2785.15
481.053	2845.94
481.424	2898.14
481.795	2898.14
482.166	2925.04
482.537	2925.26
482.908	3001.19
483.279	3001.42
483.65	3056.78
484.021	3083
484.391	3073.28
484.762	3102.43
485.133	3172.26
485.503	3170.23
485.874	3239.6
486.244	3206.61
486.615	3297
486.985	3333.16
487.356	3354.63
487.726	3358.47
488.097	3408.19
488.467	3435.53
488.837	3487.73
489.207	3465.59
489.578	3548.97
489.948	3570.44
490.318	3621.06
490.688	3617.9
491.058	3669.42
491.428	3707.84
491.798	3706.03
492.168	3732.7
492.538	3776.54
492.908	3795.97
493.278	3814.28
493.648	3859.93
494.017	3901.96
494.387	3902.19
494.757	3940.38
495.126	4021.5
495.496	3948.06
495.866	3980.83
496.235	4012.47
496.605	4052.69
496.974	4093.37
497.344	4092.01
497.713	4067.6
498.082	4150.77
498.452	4172.91
498.821	4152.8
499.19	4185.12
499.559	4164.78
499.928	4207.71
500.298	4190.99
500.667	4263.31
501.036	4251.55
501.405	4249.97
501.774	4249.52
502.143	4317.77
502.512	4341.72
502.88	4328.84
503.249	4332.68
503.618	4380.14
503.987	4366.58
504.356	4374.04
504.724	4411.32
505.093	4447.26
505.462	4424.21
505.83	4474.83
506.199	4487.03
506.567	4483.41
506.936	4499.91
507.304	4511.44
507.672	4559.34
508.041	4553.24
508.409	4553.02
508.777	4613.58
509.145	4553.92
509.514	4635.05
509.882	4650.41
510.25	4658.1
510.618	4677.76
510.986	4662.17
511.354	4692.22
511.722	4762.28
512.09	4780.58
512.458	4715.5
512.826	4759.56
513.193	4767.93
513.561	4779
513.929	4808.15
514.297	4833.23
514.664	4783.07
515.032	4844.76
515.4	4881.59
515.767	4843.18
516.135	4909.16
516.502	4927.7
516.869	4913.23
517.237	4946.9
517.604	4929.73
517.972	4967.24
518.339	4963.63
518.706	4964.08
519.073	4953.46
519.44	4993.91
519.808	5042.49
520.175	5004.08
520.542	5087.47
520.909	5080.01
521.276	5067.35
521.643	5066.22
522.009	5122.72
522.376	5129.95
522.743	5146.45
523.11	5180.8
523.477	5163.17
523.843	5188.48
524.21	5256.5
524.577	5263.96
524.943	5272.09
525.31	5306.67
525.676	5395.25
526.043	5387.57
526.409	5344.41
526.776	5397.74
527.142	5455.82
527.508	5464.63
527.874	5451.75
528.241	5523.39
528.607	5537.85
528.973	5508.92
529.339	5528.81
529.705	5611.52
530.071	5583.27
530.437	5627.56
530.803	5641.57
531.169	5664.17
531.535	5641.57
531.901	5684.29
532.267	5685.42
532.632	5713.66
532.998	5776.49
533.364	5767.9
533.73	5772.19
534.095	5771.29
534.461	5825.07
534.826	5858.52
535.192	5858.74
535.557	5899.42
535.923	5914.11
536.288	5935.35
536.653	5940.55
537.019	5909.59
537.384	5916.14
537.749	5948.69
538.114	5949.36
538.479	5990.49
538.845	6042.92
539.21	6028.23
539.575	6030.04
539.94	6096.7
540.305	6142.58
540.67	6083.15
541.034	6066.65
541.399	6108
541.764	6132.41
542.129	6224.16
542.494	6163.14
542.858	6190.03
543.223	6195.68
543.587	6261.67
543.952	6221.22
544.316	6278.39
544.681	6284.95
545.045	6277.72
545.41	6299.64
545.774	6348.22
546.138	6320.2
546.503	6326.75
546.867	6373.31
547.231	6389.58
547.595	6387.77
547.959	6430.03
548.324	6407.43
548.688	6421.22
549.052	6487.65
549.416	6432.97
549.779	6427.32
550.143	6499.41
550.507	6482
550.871	6524.72
551.235	6571.04
551.599	6599.52
551.962	6510.03
552.326	6591.83
552.689	6576.69
553.053	6565.62
553.417	6540.76
553.78	6707.08
554.143	6599.97
554.507	6669.12
554.87	6656.69
555.234	6762.45
555.597	6635.67
555.96	6714.54
556.323	6652.17
556.686	6776.69
557.05	6772.84
557.413	6763.81
557.776	6784.6
558.139	6828.21
558.502	6879.51
558.865	6822.56
559.228	6904.82
559.59	6908.21
559.953	6889.9
560.316	6945.27
560.679	6938.26
561.041	7011.26
561.404	6989.11
561.767	7054.42
562.129	7008.54
562.492	7093.51
562.854	7063.91
563.217	7073.85
563.579	7098.49
563.941	7134.19
564.304	7096.23
564.666	7151.82
565.028	7158.15
565.39	7168.09
565.753	7229.78
566.115	7252.38
566.477	7203.79
566.839	7316.33
567.201	7307.52
567.563	7360.85
567.925	7362.89
568.287	7368.99
568.648	7428.19
569.01	7401.08
569.372	7535.08
569.734	7502.99
570.095	7495.76
570.457	7532.37
570.819	7513.84
571.18	7622.54
571.542	7627.29
571.903	7639.71
572.265	7706.61
572.626	7726.27
572.987	7750.67
573.349	7716.77
573.71	7827.73
574.071	7872.93
574.432	7908.86
574.794	7986.37
575.155	7962.64
575.516	7966.03
575.877	8006.94
576.238	8090.1
576.599	8083.32
576.96	8230.89
577.32	8209.64
577.681	8328.06
578.042	8303.65
578.403	8406.47
578.763	8361.28
579.124	8493.93
579.485	8498.22
579.845	8620.48
580.206	8761.27
580.566	8719.23
580.927	8740.7
581.287	8862.28
581.648	8981.6
582.008	9010.53
582.368	9051.43
582.728	9183.4
583.089	9236.51
583.449	9336.84
583.809	9410.06
584.169	9528.25
584.529	9651.41
584.889	9746.78
585.249	9768.02
585.609	9910.84
585.969	10010.05
586.329	10136.82
586.688	10271.51
587.048	10339.08
587.408	10429.47
587.768	10571.61
588.127	10640.31
588.487	10778.84
588.846	10940.19
589.206	11048.44
589.565	11157.81
589.925	11322.56
590.284	11330.01
590.643	11579.05
591.003	11782.66
591.362	11893.16
591.721	12000.73
592.08	12102.42
592.44	12225.58
592.799	12432.13
593.158	12460.38
593.517	12616.98
593.876	12749.18
594.235	12866.02
594.593	13040.93
594.952	13255.16
595.311	13273.92
595.67	13534.93
596.029	13674.36
596.387	13786.67
596.746	13894.47
597.104	14057.4
597.463	14155.7
597.822	14302.36
598.18	14374.23
598.538	14541.45
598.897	14706.87
599.255	14709.58
599.613	14957.26
599.972	15028.9
600.33	15148.67
600.688	15211.94
601.046	15378.04
601.404	15509.56
601.762	15698.26
602.12	15831.14
602.478	15985.48
602.836	15914.3
603.194	16048.98
603.552	16169.89
603.91	16167.4
604.268	16317.45
604.625	16440.84
604.983	16571.91
605.341	16558.35
605.698	16740.49
606.056	16896.19
606.413	16869.75
606.771	16987.94
607.128	17141.16
607.485	17091.9
607.843	17243.98
608.2	17237.2
608.557	17535.5
608.914	17466.8
609.272	17699.56
609.629	17775.72
609.986	17970.29
610.343	17945.21
610.7	18097.52
611.057	18092.09
611.414	18146.78
611.771	18212.77
612.127	18427.91
612.484	18377.51
612.841	18402.6
613.198	18443.72
613.554	18523.27
613.911	18711.51
614.267	18782.25
614.624	18826.76
614.98	18841
615.337	18933.88
615.693	18963.71
616.05	18985.4
616.406	19057.72
616.762	19085.97
617.118	19125.74
617.475	19206.42
617.831	19273.08
618.187	19345.62
618.543	19447.09
618.899	19427.88
619.255	19457.03
619.611	19522.11
619.967	19527.54
620.323	19609.57
620.678	19636.01
621.034	19565.5
621.39	19734.31
621.746	19695.44
622.101	19952.84
622.457	19868.55
622.812	19816.12
623.168	19932.72
623.523	19924.36
623.879	19986.51
624.234	19975.44
624.589	20063.34
624.945	20082.78
625.3	20050.46
625.655	20151.7
626.01	20148.76
626.365	20063.34
626.72	20200.29
627.075	20171.81
627.43	20138.14
627.785	20136.11
628.14	20192.6
628.495	20243.9
628.85	20224.47
629.205	20181.53
629.559	20226.5
629.914	20258.37
630.269	20229.89
630.623	20274.18
630.978	20175.88
631.332	20231.47
631.687	20339.72
632.041	20195.77
632.396	20291.13
632.75	20243.9
633.104	20234.86
633.459	20146.05
633.813	20218.14
634.167	20133.4
634.521	20169.55
634.875	20305.37
635.229	20260.4
635.583	20122.32
635.937	20183.34
636.291	20097.92
636.645	20127.97
636.999	20101.76
637.352	20159.16
637.706	20057.69
638.06	20112.83
638.413	20028.54
638.767	20010.91
639.121	20047.52
639.474	19975.44
639.828	19961.88
640.181	20000.29
640.534	19972.72
640.888	19954.87
641.241	19868.77
641.594	19933.85
641.947	19928.66
642.301	19891.82
642.654	19909
643.007	19988.99
643.36	19956.23
643.713	20071.7
644.066	20123.91
644.419	19855.44
644.771	19890.24
645.124	19676.01
645.477	19607.31
645.83	19446.41
646.182	19460.19
646.535	19399.86
646.888	19443.7
647.24	19307.2
647.593	19455.9
647.945	19426.52
648.298	19265.4
648.65	19210.03
649.002	19156.47
649.355	19411.38
649.707	19259.52
650.059	19404.15
650.411	19746.29
650.763	19739.74
651.115	19817.47
651.467	19784.25
651.819	19723.01
652.171	19773.86
652.523	19726.63
652.875	19648.21
653.227	19601.21
653.578	19828.09
653.93	19710.36
654.282	19717.36
654.633	19585.39
654.985	19703.58
655.337	19771.15
655.688	19773.86
656.039	19794.87
656.391	19651.38
656.742	19721.66
657.094	19671.26
657.445	19783.12
657.796	19772.5
658.147	19727.76
658.498	19675.56
658.849	19676.46
659.2	19695.22
659.551	19803.69
659.902	19807.98
660.253	19779.06
660.604	19774.08
660.955	19676.69
661.306	19796.68
661.656	19777.7
662.007	19829
662.358	19831.71
662.708	19786.06
663.059	19819.51
663.409	19697.93
663.76	19808.21
664.11	19795.55
664.461	19844.14
664.811	19931.37
665.161	19840.07
665.511	19781.32
665.862	19810.02
666.212	19857.02
666.562	19821.99
666.912	19852.05
667.262	19903.35
667.612	19804.14
667.962	19840.98
668.312	19756.91
668.662	19908.32
669.011	19941.09
669.361	19852.95
669.711	19749.45
670.06	19774.08
670.41	19737.48
670.76	19736.8
671.109	19763.92
671.459	19791.49
671.808	19754.42
672.157	19680.98
672.507	19666.52
672.856	19587.87
673.205	19669.91
673.554	19718.04
673.904	19632.17
674.253	19740.41
674.602	19654.54
674.951	19368.22
675.3	19359.63
675.649	19549.01
675.998	19591.26
676.346	19670.58
676.695	19616.8
677.044	19478.95
677.393	19651.15
677.741	19590.59
678.09	19541.32
678.438	19407.31
678.787	19578.84
679.135	19397.6
679.484	19338.62
679.832	19301.33
680.181	19216.81
680.529	19328.9
680.877	19252.97
681.225	19288
681.573	19420.42
681.922	19212.52
682.27	19139.98
682.618	19139.75
682.966	19169.81
683.314	19118.73
683.661	19058.17
684.009	19010.94
684.357	18996.48
684.705	18944.73
685.053	18944.95
685.4	18893.43
685.748	18830.61
686.095	18853.88
686.443	18737.5
686.79	18739.76
687.138	18765.98
687.485	18652.08
687.832	18607.34
688.18	18756.26
688.527	18583.83
688.874	18472.88
689.221	18572.76
689.568	18370.28
689.915	18341.81
690.262	18322.6
690.609	18311.52
690.956	18258.87
691.303	18221.13
691.65	18049.84
691.997	18183.62
692.344	18057.29
692.69	18015.26
693.037	17993.57
693.383	17818.43
693.73	17902.95
694.077	17775.72
694.423	17771.2
694.769	17695.5
695.116	17620.69
695.462	17706.12
695.808	17544.54
696.155	17642.84
696.501	17433.81
696.847	17429.06
697.193	17320.36
697.539	17391.1
697.885	17190.65
698.231	17170.99
698.577	17150.88
698.923	17149.97
699.269	17042.18
699.614	16942.52
699.96	16897.32
700.306	16869.75
700.651	16698.91
700.997	16699.36
701.342	16663.21
701.688	16609.2
702.033	16571.46
702.379	16632.25
702.724	16579.37
703.069	16501.63
703.415	16305.48
703.76	16340.73
704.105	16312.93
704.45	16154.74
704.795	16084.24
705.14	15995.2
705.485	16049.89
705.83	15971.25
706.175	15991.13
706.52	16026.61
706.865	15844.47
707.209	15835.88
707.554	15716.56
707.899	15799.95
708.243	15618.04
708.588	15747.3
708.932	15545.27
709.277	15648.09
709.621	15647.87
709.966	15539.62
710.31	15567.87
710.654	15400.41
710.998	15430.47
711.342	15404.71
711.687	15347.53
712.031	15240.87
712.375	15181.66
712.719	15223.92
713.063	15107.77
713.407	15230.25
713.75	15108.22
714.094	15090.37
714.438	14990.03
714.782	15006.3
715.125	14909.81
715.469	14952.52
715.812	14891.73
716.156	14851.5
716.499	14835.01
716.843	14803.82
717.186	14702.81
717.53	14765.4
717.873	14827.32
718.216	14792.97
718.559	14751.39
718.902	14602.02
719.246	14687.44
719.589	14628.01
719.932	14535.35
720.275	14584.62
720.617	14450.38
720.96	14531.74
721.303	14623.26
721.646	14406.99
721.989	14418.75
722.331	14513.21
722.674	14413.32
723.016	14499.42
723.359	14485.18
723.701	14459.2
724.044	14403.6
724.386	14311.63
724.729	14413.55
725.071	14335.36
725.413	14361.57
725.755	14374.45
726.097	14328.13
726.439	14191.86
726.782	14234.8
727.124	14243.16
727.465	14277.73
727.807	14284.06
728.149	14159.99
728.491	14187.56
728.833	14239.77
729.175	14124.74
729.516	14123.84
729.858	14160.22
730.199	14219.65
730.541	14047.23
730.882	14089.94
731.224	14119.09
731.565	14047.91
731.906	14112.99
732.248	14081.35
732.589	14061.01
732.93	14052.2
733.271	14124.97
733.612	14167.68
733.953	14111.41
734.294	14023.5
734.635	14034.35
734.976	14082.26
735.317	14019.43
735.658	13985.54
735.999	13992.09
736.339	13976.04
736.68	14017.63
737.021	13968.81
737.361	13962.49
737.702	14027.57
738.042	13968.14
738.383	13922.49
738.723	14037.74
739.063	14037.29
739.404	14009.49
739.744	13995.25
740.084	13976.04
740.424	14026.89
740.764	13933.33
741.104	14096.27
741.444	13999.55
741.784	13992.54
742.124	14019.43
742.464	14094.23
742.804	14070.51
743.143	14040.68
743.483	14057.17
743.823	14025.76
744.162	14097.62
744.502	14143.95
744.841	14169.49
745.181	14172.2
745.52	14126.78
745.86	14276.83
746.199	14303.95
746.538	14254.46
746.877	14415.13
747.216	14439.31
747.556	14457.16
747.895	14474.79
748.234	14439.76
748.573	14583.94
748.911	14535.8
749.25	14631.85
749.589	14745.74
749.928	14723.82
750.267	14906.42
750.605	14845.17
750.944	14953.19
751.283	15010.59
751.621	15137.14
751.96	15096.02
752.298	15212.62
752.636	15364.93
752.975	15340.08
753.313	15376.91
753.651	15539.17
753.989	15663.46
754.327	15702.1
754.666	15691.03
755.004	15879.05
755.342	15932.6
755.679	16061.41
756.017	16023.67
756.355	16224.12
756.693	16382.31
757.031	16420.73
757.368	16481.29
757.706	16543.44
758.044	16587.95
758.381	16767.16
758.719	16923.09
759.056	17059.35
759.394	17085.57
759.731	17092.8
760.068	17133.93
