Data from hue_280_FLMS001491_00063.txt Node
Date: Tue Feb 07 15:55:36 GMT 2017
User: dcchb
Spectrometer: FLMS00149
Trigger mode: 0
Integration Time (sec): 2.000000E-2
Scans to average: 10
Electric dark correction enabled: true
Nonlinearity correction enabled: false
Boxcar width: 0
XAxis mode: Wavelengths
Number of Pixels in Spectrum: 2048
>>>>>Begin Spectral Data<<<<<
341.393	-21.12
341.776	-21.12
342.16	-21.12
342.543	-52.3
342.927	-67.89
343.31	-68.57
343.693	-61.11
344.077	-61.34
344.46	-51.17
344.843	-48.69
345.226	-22.7
345.61	-42.81
345.993	-27.67
346.376	-8.23
346.759	13.46
347.142	24.76
347.525	39.67
347.908	53.69
348.291	84.42
348.674	86.45
349.057	89.84
349.44	143.63
349.823	141.14
350.206	153.8
350.588	192.21
350.971	226.34
351.354	222.49
351.737	217.52
352.119	242.38
352.502	260.46
352.884	265.43
353.267	286.22
353.65	299.78
354.032	299.78
354.414	303.4
354.797	290.51
355.179	324.64
355.562	323.06
355.944	319.44
356.326	328.48
356.709	310.85
357.091	298.88
357.473	357.86
357.855	335.71
358.238	330.29
358.62	350.85
359.002	339.55
359.384	341.81
359.766	337.52
360.148	342.94
360.53	348.14
360.912	333
361.294	334.36
361.676	322.15
362.057	309.05
362.439	318.08
362.821	314.47
363.203	320.12
363.584	316.73
363.966	309.72
364.348	330.74
364.729	322.38
365.111	327.58
365.493	325.99
365.874	306.33
366.256	310.4
366.637	323.73
367.019	312.89
367.4	304.75
367.781	297.07
368.163	333.23
368.544	299.78
368.925	309.5
369.306	320.8
369.688	318.08
370.069	313.34
370.45	273.34
370.831	304.98
371.212	303.17
371.593	323.28
371.974	307.24
372.355	318.31
372.736	307.92
373.117	316.05
373.498	304.75
373.879	327.35
374.26	342.72
374.641	338.88
375.021	321.25
375.402	322.38
375.783	332.77
376.163	326.22
376.544	336.62
376.925	315.83
377.305	321.47
377.686	311.08
378.066	328.71
378.447	328.71
378.827	337.07
379.208	315.37
379.588	306.11
379.968	334.13
380.349	324.86
380.729	335.03
381.109	327.58
381.489	342.27
381.87	340.68
382.25	344.3
382.63	341.14
383.01	331.87
383.39	345.88
383.77	313.57
384.15	325.99
384.53	341.14
384.91	335.94
385.29	348.59
385.67	331.87
386.049	350.4
386.429	350.4
386.809	339.33
387.189	355.82
387.568	350.85
387.948	347.01
388.328	345.88
388.707	356.05
389.087	345.2
389.466	362.15
389.846	346.78
390.225	354.02
390.605	370.06
390.984	372.55
391.363	352.66
391.743	374.35
392.122	380.91
392.501	380.91
392.881	371.19
393.26	378.42
393.639	369.61
394.018	373
394.397	362.38
394.776	403.51
395.155	358.08
395.534	380.46
395.913	393.56
396.292	382.26
396.671	390.4
397.05	377.97
397.429	399.89
397.808	398.99
398.186	409.61
398.565	391.53
398.944	406.9
399.323	416.61
399.701	387.24
400.08	407.8
400.458	404.18
400.837	427.23
401.215	422.49
401.594	420.46
401.972	414.81
402.351	410.29
402.729	428.14
403.107	419.78
403.486	410.29
403.864	414.35
404.242	420.23
404.62	428.59
404.999	451.87
405.377	437.18
405.755	441.92
406.133	450.06
406.511	445.54
406.889	463.39
407.267	462.04
407.645	489.15
408.023	453
408.401	457.74
408.779	478.31
409.156	491.41
409.534	479.66
409.912	484.86
410.29	473.79
410.667	482.6
411.045	507.01
411.422	488.48
411.8	506.55
412.178	535.25
412.555	550.85
412.933	541.58
413.31	537.74
413.687	551.07
414.065	541.58
414.442	561.24
414.819	567.34
415.197	589.04
415.574	589.94
415.951	572.32
416.328	608.25
416.705	590.39
417.082	596.95
417.46	612.31
417.837	594.46
418.214	621.13
418.591	621.81
418.967	634.23
419.344	644.4
419.721	656.83
420.098	647.57
420.475	678.08
420.852	658.87
421.228	680.79
421.605	690.28
421.982	669.49
422.358	716.72
422.735	716.72
423.111	720.79
423.488	758.3
423.864	731.41
424.241	742.48
424.617	758.98
424.994	788.58
425.37	766.66
425.746	779.54
426.123	764.63
426.499	777.51
426.875	808.47
427.251	830.16
427.627	842.59
428.003	807.79
428.379	848.47
428.756	842.14
429.132	857.51
429.507	871.52
429.883	884.85
430.259	907.67
430.635	895.02
431.011	908.58
431.387	932.08
431.763	927.79
432.138	937.96
432.514	954.45
432.89	985.41
433.265	969.59
433.641	994.45
434.016	1012.08
434.392	988.8
434.767	1067.9
435.143	1042.59
435.518	1081.45
435.894	1073.32
436.269	1069.48
436.644	1090.27
437.02	1127.56
437.395	1132.07
437.77	1117.61
438.145	1138.18
438.52	1170.49
438.895	1139.76
439.271	1187.89
439.646	1211.17
440.021	1195.12
440.395	1235.12
440.77	1237.61
441.145	1223.6
441.52	1266.31
441.895	1239.87
442.27	1256.37
442.645	1251.62
443.019	1283.26
443.394	1287.78
443.769	1272.18
444.143	1290.26
444.518	1330.71
444.892	1316.7
445.267	1312.86
445.641	1324.39
446.016	1341.56
446.39	1320.32
446.764	1337.72
447.139	1362.58
447.513	1363.48
447.887	1368.45
448.262	1381.33
448.636	1368.68
449.01	1390.83
449.384	1407.32
449.758	1386.98
450.132	1438.51
450.506	1429.24
450.88	1427.89
451.254	1425.4
451.628	1460.88
452.002	1462.24
452.376	1455.91
452.75	1486.42
453.123	1468.11
453.497	1504.49
453.871	1535.23
454.244	1519.86
454.618	1527.32
454.992	1544.49
455.365	1553.98
455.739	1599.63
456.112	1617.94
456.486	1607.77
456.859	1615.9
457.232	1624.04
457.606	1643.02
457.979	1656.13
458.352	1662.91
458.725	1680.53
459.099	1714.88
459.472	1724.15
459.845	1722.79
460.218	1718.27
460.591	1749.69
460.964	1727.54
461.337	1769.8
461.71	1811.6
462.083	1815.9
462.456	1863.58
462.829	1792.17
463.201	1854.09
463.574	1857.25
463.947	1880.98
464.32	1907.87
464.692	1941.09
465.065	1899.96
465.438	1922.34
465.81	1977.7
466.183	1978.15
466.555	2036.91
466.928	2005.72
467.3	2031.49
467.672	2061.54
468.045	2101.31
468.417	2063.35
468.789	2062.45
469.161	2102.22
469.534	2146.74
469.906	2141.77
470.278	2186.28
470.65	2193.06
471.022	2270.58
471.394	2215.21
471.766	2280.52
472.138	2287.52
472.51	2329.33
472.882	2367.07
473.253	2331.59
473.625	2373.17
473.997	2412.49
474.369	2440.97
474.74	2474.64
475.112	2525.03
475.484	2537.69
475.855	2564.13
476.227	2559.16
476.598	2650.9
476.97	2643.9
477.341	2684.58
477.713	2720.51
478.084	2712.82
478.455	2785.82
478.827	2772.48
479.198	2856.32
479.569	2865.81
479.94	2899.94
480.311	2927.96
480.682	2931.58
481.053	3008.41
481.424	3065.36
481.795	3089.99
482.166	3080.27
482.537	3136.09
482.908	3139.48
483.279	3212.47
483.65	3208.86
484.021	3298.35
484.391	3330.21
484.762	3322.53
485.133	3341.06
485.503	3383.54
485.874	3439.81
486.244	3465.35
486.615	3501.28
486.985	3502.63
487.356	3571.56
487.726	3582.18
488.097	3667.6
488.467	3688.17
488.837	3697.21
489.207	3739.92
489.578	3791.89
489.948	3799.35
490.318	3856.52
490.688	3883.41
491.058	3916.86
491.428	3925.45
491.798	3957.76
492.168	4074.14
492.538	4036.18
492.908	4028.95
493.278	4066.46
493.648	4108.72
494.017	4159.57
494.387	4171.54
494.757	4228.26
495.126	4246.12
495.496	4191.88
495.866	4238.89
496.235	4264.2
496.605	4332.44
496.974	4328.15
497.344	4362.72
497.713	4359.79
498.082	4377.19
498.452	4445.43
498.821	4480.46
499.19	4437.3
499.559	4488.14
499.928	4518.43
500.298	4525.43
500.667	4559.33
501.036	4576.28
501.405	4571.98
501.774	4595.26
502.143	4610.4
502.512	4633.68
502.88	4671.19
503.249	4671.19
503.618	4668.7
503.987	4686.11
504.356	4710.74
504.724	4668.25
505.093	4698.76
505.462	4765.88
505.83	4725.88
506.199	4773.79
506.567	4822.83
506.936	4767.69
507.304	4858.08
507.672	4914.8
508.041	4875.71
508.409	4872.99
508.777	4968.13
509.145	4913.67
509.514	4932.65
509.882	4954.12
510.25	5007
510.618	4950.05
510.986	5008.58
511.354	5031.41
511.722	5048.13
512.09	5049.71
512.458	5048.58
512.826	5071.41
513.193	5060.56
513.561	5100.33
513.929	5118.18
514.297	5162.7
514.664	5138.3
515.032	5156.6
515.4	5198.18
515.767	5194.11
516.135	5179.43
516.502	5211.52
516.869	5252.19
517.237	5245.41
517.604	5192.08
517.972	5261.23
518.339	5286.32
518.706	5269.59
519.073	5304.39
519.44	5338.07
519.808	5367.9
520.175	5330.38
520.542	5332.19
520.909	5422.36
521.276	5339.87
521.643	5435.92
522.009	5428.23
522.376	5474.56
522.743	5496.25
523.11	5499.87
523.477	5540.77
523.843	5534.44
524.21	5543.48
524.577	5604.05
524.943	5571.96
525.31	5629.13
525.676	5656.25
526.043	5685.63
526.409	5706.64
526.776	5728.79
527.142	5725.17
527.508	5768.11
527.874	5771.27
528.241	5731.5
528.607	5807.66
528.973	5825.51
529.339	5837.04
529.705	5831.39
530.071	5909.35
530.437	5872.29
530.803	5970.59
531.169	5951.61
531.535	5935.79
531.901	5955.22
532.267	5980.08
532.632	5986.18
532.998	6016.47
533.364	5974.66
533.73	6052.85
534.095	6086.75
534.461	6074.54
534.826	6095.79
535.192	6106.18
535.557	6166.97
535.923	6152.06
536.288	6092.4
536.653	6133.75
537.019	6123.58
537.384	6148.67
537.749	6190.7
538.114	6184.37
538.479	6187.76
538.845	6199.96
539.21	6197.48
539.575	6202.9
539.94	6219.4
540.305	6272.28
540.67	6252.17
541.034	6290.58
541.399	6277.25
541.764	6268.89
542.129	6352.5
542.494	6390.24
542.858	6322.9
543.223	6397.92
543.587	6374.2
543.952	6399.05
544.316	6419.85
544.681	6397.25
545.045	6428.66
545.41	6433.86
545.774	6448.09
546.138	6428.88
546.503	6448.32
546.867	6476.34
547.231	6535.32
547.595	6615.09
547.959	6538.03
548.324	6510.69
548.688	6562.44
549.052	6524.7
549.416	6564.25
549.779	6528.99
550.143	6576.9
550.507	6615.77
550.871	6594.3
551.235	6610.57
551.599	6613.29
551.962	6629.11
552.326	6685.15
552.689	6670.91
553.053	6632.72
553.417	6639.73
553.78	6658.03
554.143	6676.11
554.507	6742.32
554.87	6780.97
555.234	6793.62
555.597	6779.84
555.96	6765.15
556.323	6794.52
556.686	6794.07
557.05	6864.13
557.413	6865.48
557.776	6910.45
558.139	6895.31
558.502	6890.57
558.865	6861.87
559.228	6945.93
559.59	6969.44
559.953	6928.08
560.316	6974.63
560.679	7003.78
561.041	7078.13
561.404	6991.58
561.767	7059.38
562.129	7066.38
562.492	7108.41
562.854	7103.9
563.217	7101.64
563.579	7150.45
563.941	7164.91
564.304	7222.31
564.666	7211.69
565.028	7211.01
565.39	7263.44
565.753	7306.6
566.115	7329.43
566.477	7322.42
566.839	7306.15
567.201	7390.89
567.563	7398.35
567.925	7430.89
568.287	7448.97
568.648	7419.37
569.01	7447.84
569.372	7524.9
569.734	7540.04
570.095	7550.89
570.457	7649.19
570.819	7632.02
571.18	7676.08
571.542	7634.05
571.903	7657.1
572.265	7750.21
572.626	7707.95
572.987	7819.36
573.349	7751.56
573.71	7839.69
574.071	7856.87
574.432	7885.12
574.794	7982.06
575.155	7951.78
575.516	7953.59
575.877	7976.19
576.238	8071.78
576.599	8025.23
576.96	8015.28
577.32	8142.06
577.681	8208.95
578.042	8256.86
578.403	8245.56
578.763	8287.37
579.124	8305.67
579.485	8397.19
579.845	8371.88
580.206	8439.45
580.566	8495.27
580.927	8514.48
581.287	8531.2
581.648	8598.32
582.008	8648.26
582.368	8669.73
582.728	8754.93
583.089	8769.39
583.449	8770.52
583.809	8904.53
584.169	8913.79
584.529	9007.35
584.889	9113.11
585.249	9039.89
585.609	9150.17
585.969	9121.7
586.329	9207.34
586.688	9296.15
587.048	9293.22
587.408	9399.65
587.768	9497.05
588.127	9643.94
588.487	9554
588.846	9669.93
589.206	9722.13
589.565	9722.58
589.925	9884.84
590.284	9893.65
590.643	9970.94
591.003	10044.38
591.362	10134.78
591.721	10161.89
592.08	10205.96
592.44	10252.29
592.799	10356.92
593.158	10409.57
593.517	10452.51
593.876	10498.16
594.235	10585.61
594.593	10583.13
594.952	10699.96
595.311	10690.02
595.67	10689.11
596.029	10951.48
596.387	10964.36
596.746	11014.98
597.104	11010.69
597.463	11165.71
597.822	11161.42
598.18	11240.51
598.538	11262.66
598.897	11357.79
599.255	11297.46
599.613	11624.23
599.972	11418.13
600.33	11573.38
600.688	11534.74
601.046	11739.93
601.404	11755.98
601.762	11764.34
602.12	11850.21
602.478	11867.61
602.836	11955.97
603.194	11910.55
603.552	11944.22
603.91	11962.75
604.268	12040.26
604.625	12105.35
604.983	12098.11
605.341	12070.77
605.698	12292.91
606.056	12281.84
606.413	12271.89
606.771	12368.16
607.128	12408.16
607.485	12301.5
607.843	12367.26
608.2	12459.01
608.557	12562.28
608.914	12533.36
609.272	12607.03
609.629	12585.33
609.986	12724.99
610.343	12689.74
610.7	12721.83
611.057	12741.04
611.414	12750.98
611.771	12776.06
612.127	12910.3
612.484	12923.63
612.841	12977.86
613.198	12961.59
613.554	12904.87
613.911	12998.66
614.267	13024.19
614.624	13074.13
614.98	13120.69
615.337	13139.22
615.693	13153.45
616.05	13131.53
616.406	13159.33
616.762	13167.24
617.118	13229.61
617.475	13162.04
617.831	13220.34
618.187	13269.16
618.543	13421.02
618.899	13378.76
619.255	13353.45
619.611	13346.44
619.967	13458.3
620.323	13402.49
620.678	13459.66
621.034	13382.83
621.39	13454.24
621.746	13468.47
622.101	13621.92
622.457	13424.41
622.812	13535.36
623.168	13550.96
623.523	13516.16
623.879	13600.9
624.234	13586.66
624.589	13545.99
624.945	13644.74
625.3	13679.99
625.655	13597.06
626.01	13702.82
626.365	13719.77
626.72	13690.61
627.075	13636.38
627.43	13607.68
627.785	13627.57
628.14	13742.59
628.495	13677.51
628.85	13660.11
629.205	13578.53
629.559	13714.57
629.914	13592.76
630.269	13649.71
630.623	13568.36
630.978	13524.52
631.332	13562.48
631.687	13658.75
632.041	13514.57
632.396	13557.06
632.75	13546.21
633.104	13585.76
633.459	13460.34
633.813	13447.91
634.167	13461.69
634.521	13452.65
634.875	13479.77
635.229	13593.67
635.583	13434.35
635.937	13406.1
636.291	13475.48
636.645	13405.2
636.999	13432.32
637.352	13440.45
637.706	13389.83
638.06	13416.27
638.413	13405.88
638.767	13366.78
639.121	13387.57
639.474	13307.12
639.828	13297.63
640.181	13265.09
640.534	13337.4
640.888	13321.36
641.241	13302.15
641.594	13290.17
641.947	13310.96
642.301	13254.69
642.654	13268.93
643.007	13365.43
643.36	13300.57
643.713	13200.91
644.066	13279.78
644.419	13229.16
644.771	13124.98
645.124	13021.71
645.477	13040.46
645.83	12939.9
646.182	12887.92
646.535	12834.37
646.888	12867.59
647.24	12789.85
647.593	12950.52
647.945	12904.42
648.298	12765.67
648.65	12779.9
649.002	12753.01
649.355	12880.24
649.707	12777.42
650.059	12933.8
650.411	12979.45
650.763	12991.88
651.115	13239.55
651.467	13100.35
651.819	13116.62
652.171	13148.03
652.523	13090.63
652.875	13067.13
653.227	13018.99
653.578	13130.18
653.93	13137.63
654.282	13068.03
654.633	13030.52
654.985	13059.44
655.337	13053.57
655.688	13062.83
656.039	13106.68
656.391	13018.54
656.742	13049.05
657.094	13147.35
657.445	13139.22
657.796	13190.97
658.147	13167.24
658.498	13061.93
658.849	13195.26
659.2	13121.14
659.551	13089.27
659.902	13261.25
660.253	13081.82
660.604	13274.35
660.955	13148.71
661.306	13178.54
661.656	13215.37
662.007	13218.31
662.358	13201.14
662.708	13195.94
663.059	13169.72
663.409	13115.71
663.76	13229.61
664.11	13248.14
664.461	13255.37
664.811	13267.35
665.161	13325.65
665.511	13262.38
665.862	13243.85
666.212	13242.49
666.562	13237.75
666.912	13262.83
667.262	13315.03
667.612	13187.35
667.962	13263.28
668.312	13213.34
668.662	13305.31
669.011	13248.37
669.361	13196.16
669.711	13240.23
670.06	13233
670.41	13164.3
670.76	13197.97
671.109	13214.02
671.459	13257.18
671.808	13301.47
672.157	13261.47
672.507	13106.68
672.856	13205.66
673.205	13110.29
673.554	13204.07
673.904	13088.37
674.253	13268.03
674.602	13151.19
674.951	12977.86
675.3	12829.62
675.649	13105.55
675.998	13073
676.346	13110.06
676.695	13120.01
677.044	13003.4
677.393	13120.01
677.741	13103.74
678.09	13083.17
678.438	12991.42
678.787	13138.09
679.135	13038.43
679.484	12875.95
679.832	12899.45
680.181	12825.33
680.529	12924.31
680.877	12872.11
681.225	12849.05
681.573	12872.11
681.922	12912.56
682.27	12784.65
682.618	12814.71
682.966	12703.75
683.314	12776.51
683.661	12698.55
684.009	12620.81
684.357	12639.57
684.705	12568.16
685.053	12658.55
685.4	12589.4
685.748	12588.72
686.095	12510.08
686.443	12531.55
686.79	12452
687.138	12467.14
687.485	12498.56
687.832	12407.48
688.18	12324.1
688.527	12343.31
688.874	12302.63
689.221	12312.12
689.568	12218.11
689.915	12197.32
690.262	12224.21
690.609	12093.14
690.956	12054.73
691.303	11989.19
691.65	12049.08
691.997	12013.6
692.344	11899.93
692.69	11909.42
693.037	11941.73
693.383	11799.14
693.73	11838.01
694.077	11793.04
694.423	11799.14
694.769	11718.46
695.116	11667.84
695.462	11684.34
695.808	11595.3
696.155	11603.89
696.501	11505.59
696.847	11539.71
697.193	11435.53
697.539	11445.48
697.885	11377.46
698.231	11318.7
698.577	11331.35
698.923	11280.06
699.269	11196.67
699.614	11139.95
699.96	11090.46
700.306	11121.87
700.651	11093.85
700.997	11059.05
701.342	10928.43
701.688	10955.55
702.033	10867.41
702.379	10838.26
702.724	10906.28
703.069	10862.44
703.415	10741.99
703.76	10687.3
704.105	10746.96
704.45	10664.93
704.795	10632.16
705.14	10584.03
705.485	10541.54
705.83	10516.01
706.175	10473.52
706.52	10498.83
706.865	10439.4
707.209	10419.29
707.554	10318.5
707.899	10337.93
708.243	10276.24
708.588	10233.98
708.932	10199.86
709.277	10207.09
709.621	10152.85
709.966	10165.74
710.31	10151.5
710.654	10054.33
710.998	10091.84
711.342	10050.94
711.687	10052.29
712.031	10096.58
712.375	9945.4
712.719	10019.75
713.063	9906.08
713.407	9976.59
713.75	9951.96
714.094	9946.08
714.438	9868.34
714.782	9851.85
715.125	9817.5
715.469	9852.98
715.812	9736.37
716.156	9735.69
716.499	9763.03
716.843	9738.4
717.186	9666.77
717.53	9699.76
717.873	9717.16
718.216	9712.19
718.559	9658.63
718.902	9581.8
719.246	9635.58
719.589	9505.87
719.932	9554.23
720.275	9634
720.617	9592.19
720.96	9592.42
721.303	9609.14
721.646	9657.27
721.989	9458.86
722.331	9545.64
722.674	9529.37
723.016	9498.86
723.359	9538.86
723.701	9495.24
724.044	9440.1
724.386	9445.75
724.729	9503.15
725.071	9412.99
725.413	9393.1
725.755	9388.81
726.097	9361.91
726.439	9311.52
726.782	9405.08
727.124	9464.96
727.465	9385.87
727.807	9349.03
728.149	9359.66
728.491	9338.19
728.833	9308.13
729.175	9295.02
729.516	9288.02
729.858	9298.41
730.199	9259.32
730.541	9288.92
730.882	9263.84
731.224	9341.35
731.565	9287.79
731.906	9385.87
732.248	9376.6
732.589	9347
732.93	9241.01
733.271	9290.05
733.612	9353.78
733.953	9345.87
734.294	9257.96
734.635	9229.49
734.976	9296.61
735.317	9275.14
735.658	9262.03
735.999	9294.8
736.339	9291.18
736.68	9270.62
737.021	9349.71
737.361	9262.26
737.702	9341.12
738.042	9313.55
738.383	9314.23
738.723	9348.58
739.063	9386.1
739.404	9434.23
739.744	9332.09
740.084	9377.73
740.424	9418.64
740.764	9418.64
741.104	9437.85
741.444	9419.31
741.784	9379.09
742.124	9484.85
742.464	9488.92
742.804	9472.65
743.143	9486.66
743.483	9527.79
743.823	9473.78
744.162	9522.81
744.502	9623.38
744.841	9635.81
745.181	9653.43
745.52	9674.67
745.86	9771.85
746.199	9752.64
746.538	9825.41
746.877	9852.07
747.216	9916.7
747.556	9893.2
747.895	9950.6
748.234	9975.01
748.573	9999.64
748.911	10129.58
749.25	10118.73
749.589	10176.81
749.928	10236.47
750.267	10331.83
750.605	10390.59
750.944	10387.88
751.283	10576.57
751.621	10631.49
751.96	10677.36
752.298	10825.15
752.636	10873.74
752.975	10902.89
753.313	11052.27
753.651	11220.62
753.989	11220.17
754.327	11278.93
754.666	11469.43
755.004	11546.26
755.342	11689.99
755.679	11831
756.017	11891.34
756.355	12074.16
756.693	12156.42
757.031	12378.33
757.368	12346.02
757.706	12508.72
758.044	12680.7
758.381	12736.29
758.719	12905.55
759.056	13082.04
759.394	13068.26
759.731	13210.4
760.068	13354.13
760.405	13448.14
760.743	13621.01
761.08	13836.6
761.417	13976.48
761.754	14031.4
