Data from hue_10_FLMS001491_49.txt Node
Date: Mon Feb 06 15:31:59 GMT 2017
User: dcchb
Spectrometer: FLMS00149
Trigger mode: 0
Integration Time (sec): 2.000000E-2
Scans to average: 10
Electric dark correction enabled: true
Nonlinearity correction enabled: false
Boxcar width: 0
XAxis mode: Wavelengths
Number of Pixels in Spectrum: 2048
>>>>>Begin Spectral Data<<<<<
341.393	-25.37
341.776	-25.37
342.16	-25.37
342.543	-55.2
342.927	-52.26
343.31	-80.28
343.693	-75.53
344.077	-54.29
344.46	-43.45
344.843	-66.72
345.226	-40.28
345.61	-13.84
345.993	-17.23
346.376	-8.42
346.759	-1.86
347.142	29.1
347.525	38.13
347.908	53.5
348.291	81.52
348.674	92.37
349.057	107.29
349.44	120.39
349.823	137.12
350.206	153.61
350.588	185.7
350.971	210.79
351.354	226.15
351.737	247.39
352.119	265.93
352.502	264.8
352.884	277.9
353.267	304.57
353.65	297.56
354.032	288.75
354.414	295.98
354.797	309.54
355.179	321.29
355.562	318.58
355.944	309.31
356.326	327.17
356.709	332.36
357.091	335.08
357.473	333.27
357.855	314.29
358.238	333.72
358.62	324.91
359.002	332.14
359.384	315.64
359.766	321.29
360.148	342.08
360.53	341.4
360.912	342.53
361.294	328.07
361.676	328.97
362.057	328.52
362.439	336.43
362.821	340.95
363.203	344.34
363.584	320.61
363.966	320.61
364.348	337.56
364.729	307.05
365.111	321.29
365.493	319.71
365.874	314.06
366.256	322.42
366.637	328.75
367.019	325.81
367.4	310.44
367.781	311.12
368.163	294.85
368.544	317
368.925	315.64
369.306	324.68
369.688	321.97
370.069	319.03
370.45	312.48
370.831	297.34
371.212	334.85
371.593	312.48
371.974	296.66
372.355	305.7
372.736	312.93
373.117	323.78
373.498	285.59
373.879	323.55
374.26	314.06
374.641	314.96
375.021	302.99
375.402	308.41
375.783	337.56
376.163	335.98
376.544	314.96
376.925	311.35
377.305	310.22
377.686	321.52
378.066	322.42
378.447	320.84
378.827	337.34
379.208	323.55
379.588	335.53
379.968	321.52
380.349	331.69
380.729	324.91
381.109	333.72
381.489	331.46
381.87	333.95
382.25	326.26
382.63	337.56
383.01	331.46
383.39	339.37
383.77	330.33
384.15	350.44
384.53	323.78
384.91	337.56
385.29	340.5
385.67	327.84
386.049	327.62
386.429	352.48
386.809	335.75
387.189	357.22
387.568	350.67
387.948	345.7
388.328	336.88
388.707	328.75
389.087	331.69
389.466	362.19
389.846	357
390.225	354.06
390.605	353.38
390.984	355.19
391.363	367.84
391.743	353.15
392.122	352.7
392.501	340.5
392.881	372.82
393.26	363.55
393.639	362.65
394.018	357.67
394.397	389.31
394.776	351.12
395.155	373.27
395.534	374.17
395.913	356.77
396.292	375.75
396.671	374.85
397.05	359.71
397.429	353.15
397.808	368.07
398.186	366.49
398.565	372.36
398.944	379.59
399.323	366.71
399.701	379.14
400.08	367.84
400.458	371.91
400.837	400.84
401.215	403.1
401.594	376.2
401.972	368.52
402.351	358.8
402.729	377.11
403.107	381.4
403.486	378.24
403.864	397.67
404.242	381.85
404.62	415.75
404.999	388.18
405.377	404
405.755	379.82
406.133	396.09
406.511	404.23
406.889	406.26
407.267	402.64
407.645	422.98
408.023	406.94
408.401	406.03
408.779	415.75
409.156	398.35
409.534	411.91
409.912	423.89
410.29	423.44
410.667	420.05
411.045	439.03
411.422	412.14
411.8	420.5
412.178	424.79
412.555	443.1
412.933	434.06
413.31	441.29
413.687	436.32
414.065	457.33
414.442	444.23
414.819	435.64
415.197	449.2
415.574	454.62
415.951	459.14
416.328	449.2
416.705	446.49
417.082	464.79
417.46	481.06
417.837	471.57
418.214	475.19
418.591	460.5
418.967	454.39
419.344	504.34
419.721	472.02
420.098	502.76
420.475	478.57
420.852	484
421.228	494.17
421.605	497.11
421.982	503.21
422.358	497.11
422.735	487.61
423.111	509.31
423.488	490.55
423.864	516.77
424.241	538.91
424.617	528.97
424.994	525.81
425.37	505.69
425.746	516.99
426.123	540.95
426.499	517.67
426.875	538.69
427.251	551.57
427.627	528.29
428.003	554.05
428.379	546.6
428.756	539.82
429.132	548.63
429.507	545.69
429.883	557.44
430.259	578.01
430.635	560.38
431.011	556.99
431.387	569.87
431.763	578.91
432.138	581.17
432.514	606.48
432.89	577.78
433.265	602.19
433.641	608.29
434.016	588.85
434.392	618.68
434.767	614.16
435.143	605.35
435.518	620.94
435.894	622.75
436.269	631.57
436.644	643.77
437.02	630.44
437.395	642.41
437.77	631.11
438.145	658.68
438.52	666.82
438.895	684.22
439.271	647.38
439.646	680.38
440.021	667.27
440.395	681.96
440.77	676.31
441.145	696.42
441.52	697.33
441.895	689.42
442.27	701.85
442.645	674.28
443.019	701.17
443.394	713.15
443.769	721.96
444.143	721.51
444.518	704.33
444.892	709.53
445.267	732.81
445.641	715.18
446.016	732.81
446.39	707.72
446.764	727.83
447.139	705.91
447.513	724.67
447.887	739.59
448.262	733.94
448.636	748.85
449.01	747.27
449.384	784.1
449.758	749.53
450.132	769.87
450.506	763.99
450.88	773.93
451.254	795.63
451.628	796.53
452.002	789.98
452.376	782.97
452.75	808.06
453.123	786.82
453.497	827.27
453.871	840.83
454.244	822.52
454.618	819.81
454.992	834.95
455.365	830.2
455.739	848.73
456.112	844.44
456.486	881.95
456.859	844.22
457.232	884.21
457.606	858
457.979	850.99
458.352	910.43
458.725	910.65
459.099	918.11
459.472	921.28
459.845	933.93
460.218	959.01
460.591	921.28
460.964	950.43
461.337	956.98
461.71	971.9
462.083	978.9
462.456	993.59
462.829	996.53
463.201	994.95
463.574	1040.14
463.947	1021.61
464.32	1040.59
464.692	1033.14
465.065	1037.88
465.438	1050.99
465.81	1078.56
466.183	1091.67
466.555	1113.81
466.928	1127.6
467.3	1114.49
467.672	1125.56
468.045	1143.42
468.417	1158.78
468.789	1172.57
469.161	1178.22
469.534	1186.8
469.906	1249.4
470.278	1239.91
470.65	1257.54
471.022	1296.63
471.394	1267.25
471.766	1307.25
472.138	1290.31
472.51	1336.18
472.882	1349.96
473.253	1376.86
473.625	1401.71
473.997	1427.25
474.369	1433.8
474.74	1413.47
475.112	1510.86
475.484	1483.75
475.855	1511.99
476.227	1535.95
476.598	1553.12
476.97	1601.03
477.341	1621.37
477.713	1634.02
478.084	1671.99
478.455	1702.5
478.827	1733.68
479.198	1751.76
479.569	1780.69
479.94	1821.14
480.311	1858.2
480.682	1879.67
481.053	1942.49
481.424	1955.15
481.795	1994.24
482.166	2006.9
482.537	2054.8
482.908	2074.24
483.279	2123.05
483.65	2177.06
484.021	2229.72
484.391	2272.88
484.762	2283.27
485.133	2296.15
485.503	2340.45
485.874	2354.91
486.244	2436.26
486.615	2480.78
486.985	2492.99
487.356	2588.8
487.726	2583.6
488.097	2659.76
488.467	2685.97
488.837	2712.41
489.207	2774.56
489.578	2788.57
489.948	2825.18
490.318	2877.16
490.688	2903.37
491.058	2964.61
491.428	2978.17
491.798	3035.8
492.168	3123.25
492.538	3105.4
492.908	3135.45
493.278	3184.72
493.648	3199.41
494.017	3258.61
494.387	3266.98
494.757	3326.86
495.126	3349.46
495.496	3394.2
495.866	3385.62
496.235	3379.52
496.605	3491.6
496.974	3483.02
497.344	3530.02
497.713	3550.36
498.082	3589
498.452	3602.33
498.821	3656.12
499.19	3706.96
499.559	3680.3
499.928	3719.39
500.298	3733.4
500.667	3758.04
501.036	3769.79
501.405	3827.41
501.774	3837.81
502.143	3868.32
502.512	3904.7
502.88	3887.98
503.249	3920.97
503.618	3940.63
503.987	3989.67
504.356	3983.57
504.724	4044.58
505.093	4059.05
505.462	4021.31
505.83	4038.93
506.199	4115.54
506.567	4141.53
506.936	4139.27
507.304	4198.93
507.672	4216.78
508.041	4203.45
508.409	4237.57
508.777	4266.72
509.145	4310.79
509.514	4324.12
509.882	4309.89
510.25	4327.74
510.618	4344.91
510.986	4381.98
511.354	4400.28
511.722	4357.8
512.09	4459.71
512.458	4393.95
512.826	4460.62
513.193	4480.28
513.561	4516.89
513.929	4553.5
514.297	4534.29
514.664	4580.39
515.032	4565.93
515.4	4541.29
515.767	4641.18
516.135	4620.61
516.502	4590.11
516.869	4685.02
517.237	4681.85
517.604	4653.83
517.972	4712.59
518.339	4675.53
518.706	4705.13
519.073	4736.54
519.44	4718.46
519.808	4804.79
520.175	4758.46
520.542	4824
520.909	4881.17
521.276	4798.01
521.643	4866.03
522.009	4937.67
522.376	4959.81
522.743	4912.81
523.11	4996.42
523.477	4981.96
523.843	4986.93
524.21	5093.37
524.577	5054.95
524.943	5077.1
525.31	5087.72
525.676	5099.24
526.043	5153.48
526.409	5212.24
526.776	5197.55
527.142	5271.9
527.508	5264.21
527.874	5305.11
528.241	5329.07
528.607	5341.72
528.973	5346.47
529.339	5423.98
529.705	5420.59
530.071	5422.85
530.437	5468.05
530.803	5510.76
531.169	5507.82
531.535	5542.17
531.901	5561.15
532.267	5560.93
532.632	5585.33
532.998	5648.61
533.364	5667.14
533.73	5679.12
534.095	5682.73
534.461	5790.53
534.826	5763.41
535.192	5808.38
535.557	5855.38
535.923	5831.43
536.288	5858.77
536.653	5886.79
537.019	5853.35
537.384	5892.44
537.749	5925.21
538.114	5922.73
538.479	5967.24
538.845	6039.11
539.21	5988.26
539.575	6007.24
539.94	6022.84
540.305	6122.72
540.67	6082.5
541.034	6116.84
541.399	6144.64
541.764	6161.59
542.129	6183.74
542.494	6217.41
542.858	6256.05
543.223	6184.41
543.587	6252.43
543.952	6291.76
544.316	6379.44
544.681	6402.49
545.045	6367.23
545.41	6430.51
545.774	6449.27
546.138	6422.83
546.503	6491.07
546.867	6509.38
547.231	6559.55
547.595	6567.91
547.959	6552.31
548.324	6579.21
548.688	6590.96
549.052	6639.09
549.416	6681.8
549.779	6683.84
550.143	6699.2
550.507	6799.54
550.871	6757.05
551.235	6770.39
551.599	6789.37
551.962	6764.29
552.326	6856.71
552.689	6865.07
553.053	6899.88
553.417	6929.7
553.78	6995.47
554.143	6969.03
554.507	7001.57
554.87	7033.66
555.234	7039.31
555.597	7009.25
555.96	7041.79
556.323	7110.72
556.686	7115.91
557.05	7117.72
557.413	7175.57
557.776	7188
558.139	7213.54
558.502	7243.59
558.865	7249.24
559.228	7313.65
559.59	7248.57
559.953	7312.07
560.316	7361.33
560.679	7318.17
561.041	7385.74
561.404	7409.01
561.767	7459.63
562.129	7429.58
562.492	7535.34
562.854	7522.46
563.217	7531.5
563.579	7568.78
563.941	7613.08
564.304	7650.14
564.666	7711.15
565.028	7654.66
565.39	7700.53
565.753	7756.58
566.115	7752.73
566.477	7831.6
566.839	7828.89
567.201	7804.94
567.563	7886.97
567.925	7898.72
568.287	7958.6
568.648	7963.35
569.01	7970.58
569.372	8048.55
569.734	7999.06
570.095	8048.32
570.457	8101.43
570.819	8198.82
571.18	8205.38
571.542	8245.38
571.903	8302.1
572.265	8309.33
572.626	8377.35
572.987	8374.64
573.349	8411.93
573.71	8502.32
574.071	8552.71
574.432	8583.45
574.794	8698.7
575.155	8650.11
575.516	8683.11
575.877	8774.4
576.238	8863.67
576.599	9000.16
576.96	8953.15
577.32	9081.06
577.681	9148.86
578.042	9280.83
578.403	9295.29
578.763	9394.72
579.124	9535.51
579.485	9654.38
579.845	9661.61
580.206	9810.98
580.566	9938.44
580.927	10087.36
581.287	10189.73
581.648	10277.19
582.008	10440.57
582.368	10575.03
582.728	10742.26
583.089	10972.31
583.449	11050.5
583.809	11221.8
584.169	11423.82
584.529	11521.9
584.889	11746.08
585.249	11921.21
585.609	12105.16
585.969	12383.12
586.329	12638.48
586.688	12818.82
587.048	13054.06
587.408	13225.36
587.768	13492.47
588.127	13763.65
588.487	13954.83
588.846	14296.29
589.206	14415.16
589.565	14753.91
589.925	15063.05
590.284	15337.39
590.643	15669.81
591.003	15887.44
591.362	16275.45
591.721	16552.05
592.08	16809.67
592.44	17260.28
592.799	17540.05
593.158	17820.94
593.517	18111.56
593.876	18423.87
594.235	18786.57
594.593	19056.39
594.952	19642.82
595.311	19659.99
595.67	20063.6
596.029	20516.24
596.387	20877.36
596.746	21199.84
597.104	21458.36
597.463	21763.21
597.822	22195.52
598.18	22479.8
598.538	22838.67
598.897	23182.38
599.255	23385.09
599.613	24097.61
599.972	24187.78
600.33	24552.74
600.688	24776.47
601.046	25294.19
601.404	25604.24
601.762	25899.83
602.12	26367.16
602.478	26713.82
602.836	26991.55
603.194	27025.67
603.552	27470.41
603.91	27773.68
604.268	28179.99
604.625	28345.64
604.983	28736.82
605.341	28850.94
605.698	29287.08
606.056	29631.03
606.413	29933.62
606.771	30235.98
607.128	30618.12
607.485	30556.43
607.843	31002.52
608.2	31377.65
608.557	31697.87
608.914	31865.09
609.272	32248.14
609.629	32630.95
609.986	32851.74
610.343	32950.72
610.7	33477.48
611.057	33537.82
611.414	33746.17
611.771	34021.65
612.127	34297.57
612.484	34393.62
612.841	34744.57
613.198	34835.19
613.554	35121.51
613.911	35313.37
614.267	35634.26
614.624	35732.79
614.98	35917.87
615.337	36313.34
615.693	36406.44
616.05	36593.78
616.406	36994.68
616.762	37000.1
617.118	37149.02
617.475	37183.15
617.831	37548.11
618.187	37672.17
618.543	37899.74
618.899	38232.84
619.255	38323.68
619.611	38268.99
619.967	38669.44
620.323	38730.68
620.678	38690
621.034	38844.12
621.39	38960.28
621.746	39123.43
622.101	39617.66
622.457	39352.13
622.812	39527.94
623.168	39723.64
623.523	39835.73
623.879	40038.66
624.234	39797.77
624.589	40219.45
624.945	40178.77
625.3	40398.66
625.655	40521.82
626.01	40531.76
626.365	40618.54
626.72	40723.62
627.075	40681.36
627.43	40886.33
627.785	40860.56
628.14	40970.62
628.495	41155.02
628.85	41075.93
629.205	41072.54
629.559	41163.38
629.914	41049.71
630.269	41227.11
630.623	41246.99
630.978	41147.34
631.332	41466.2
631.687	41605.4
632.041	41363.6
632.396	41524.5
632.75	41422.36
633.104	41536.48
633.459	41463.03
633.813	41440.44
634.167	41490.38
634.521	41442.47
634.875	41653.31
635.229	41490.38
635.583	41435.46
635.937	41438.63
636.291	41479.98
636.645	41538.29
636.999	41501.23
637.352	41696.02
637.706	41397.05
638.06	41663.71
638.413	41589.13
638.767	41565.18
639.121	41703.48
639.474	41424.17
639.828	41597.95
640.181	41555.69
640.534	41487.44
640.888	41547.78
641.241	41377.16
641.594	41443.6
641.947	41562.01
642.301	41343.94
642.654	41500.55
643.007	41577.38
643.36	41554.11
643.713	41572.86
644.066	41578.29
644.419	41527.89
644.771	41114.79
645.124	40690.17
645.477	40578.31
645.83	40525.43
646.182	40408.37
646.535	40153.69
646.888	40379.22
647.24	40150.07
647.593	40550.74
647.945	40271.2
648.298	40007.71
648.65	40005.45
649.002	40037.99
649.355	40155.95
649.707	40228.49
650.059	40366.79
650.411	40740.34
650.763	40731.3
651.115	41133.1
651.467	41152.99
651.819	41106.43
652.171	40912.09
652.523	40993.22
652.875	41106.43
653.227	40903.5
653.578	41166.54
653.93	40946.66
654.282	40851.75
654.633	40811.07
654.985	40759.1
655.337	40794.8
655.688	40767.46
656.039	40901.24
656.391	40613.11
656.742	40818.53
657.094	40837.51
657.445	40842.71
657.796	40803.84
658.147	40650.4
658.498	40571.53
658.849	40794.35
659.2	40814.46
659.551	40703.28
659.902	40745.76
660.253	40608.14
660.604	40705.54
660.955	40535.6
661.306	40733.34
661.656	40616.73
662.007	40605.43
662.358	40475.26
662.708	40660.34
663.059	40683.85
663.409	40305.32
663.76	40703.05
664.11	40618.31
664.461	40650.85
664.811	40562.27
665.161	40659.44
665.511	40518.2
665.862	40560.01
666.212	40642.72
666.562	40810.4
666.912	40555.49
667.262	40520.46
667.612	40612.21
667.962	40600.01
668.312	40449.73
668.662	40795.93
669.011	40495.83
669.361	40485.21
669.711	40407.92
670.06	40443.85
670.41	40392.55
670.76	40303.06
671.109	40409.95
671.459	40470.74
671.808	40328.6
672.157	40531.31
672.507	40169.28
672.856	40251.31
673.205	40245.66
673.554	40417.19
673.904	40220.13
674.253	40545.32
674.602	40389.16
674.951	39706.92
675.3	39503.99
675.649	40171.54
675.998	40036.4
676.346	40130.87
676.695	40261.48
677.044	40034.6
677.393	40017.87
677.741	40145.1
678.09	39986.46
678.438	39856.3
678.787	39957.99
679.135	39928.16
679.484	39608.85
679.832	39889.97
680.181	39663.31
680.529	39785.34
680.877	39661.05
681.225	39682.06
681.573	39819.24
681.922	39528.17
682.27	39394.84
682.618	39589.41
682.966	39352.81
683.314	39434.39
683.661	39280.04
684.009	39048.63
684.357	39154.39
684.705	39139.03
685.053	39068.07
685.4	39088.63
685.748	38910.11
686.095	38796.21
686.443	38662.2
686.79	38855.65
687.138	38826.49
687.485	38754.18
687.832	38686.61
688.18	38633.5
688.527	38458.59
688.874	38342.44
689.221	38415.88
689.568	38241.88
689.915	38200.07
690.262	38144.48
690.609	37966.18
690.956	37854.77
691.303	37945.61
691.65	37796.69
691.997	37650.93
692.344	37473.53
692.69	37545.4
693.037	37495.45
693.383	37250.94
693.73	37322.8
694.077	37098.63
694.423	37152.41
694.769	37004.85
695.116	36999.2
695.462	36915.81
695.808	36773.89
696.155	36768.47
696.501	36549.94
696.847	36438.76
697.193	36213.68
697.539	36545.65
697.885	36200.12
698.231	35986.57
698.577	36144.3
698.923	36019.56
699.269	35832.9
699.614	35670.64
699.96	35692.56
700.306	35723.52
700.651	35568.95
700.997	35384.78
701.342	35330.54
701.688	35432.46
702.033	35220.49
702.379	35255.51
702.724	35062.3
703.069	35072.92
703.415	34598.58
703.76	34632.71
704.105	34838.8
704.45	34644.46
704.795	34436.1
705.14	34375.54
705.485	34366.27
705.83	34242.21
706.175	34222.09
706.52	34122.44
706.865	34094.19
707.209	33966.28
707.554	33830.47
707.899	33895.32
708.243	33782.78
708.588	33755.21
708.932	33452.62
709.277	33339.86
709.621	33444.49
709.966	33307.77
710.31	33343.93
710.654	32974.44
710.998	33129.92
711.342	33098.73
711.687	32971.51
712.031	32986.65
712.375	32744.62
712.719	32956.59
713.063	32761.12
713.407	32764.96
713.75	32616.94
714.094	32605.64
714.438	32507.11
714.782	32369.04
715.125	32489.71
715.469	32380.34
715.812	32137.18
716.156	32084.07
716.499	32045.2
716.843	32195.93
717.186	32013.11
717.53	32110.29
717.873	32076.61
718.216	31983.96
718.559	31798.88
718.902	31541.71
719.246	31731.09
719.589	31612.9
719.932	31429.63
720.275	31385.11
720.617	31313.7
720.96	31367.93
721.303	31270.08
721.646	31354.37
721.989	31160.71
722.331	31297.65
722.674	31218.11
723.016	31146.7
723.359	31176.3
723.701	31078
724.044	30801.39
724.386	30675.52
724.729	30774.95
725.071	30850.43
725.413	30824.22
725.755	30580.38
726.097	30529.54
726.439	30373.38
726.782	30389.65
727.124	30601.62
727.465	30381.74
727.807	30253.61
728.149	30278.24
728.491	30208.41
728.833	30299.71
729.175	30135.42
729.516	30126.61
729.858	30143.56
730.199	30109.43
730.541	30078.93
730.882	29923.22
731.224	30019.27
731.565	29713.29
731.906	29880.51
732.248	29850.46
732.589	29710.35
732.93	29566.85
733.271	29707.18
733.612	29591.71
733.953	29671.93
734.294	29527.53
734.635	29490.69
734.976	29544.93
735.317	29228.78
735.658	29349.23
735.999	29454.08
736.339	29228.33
736.68	29363.47
737.021	29251.38
737.361	29162.11
737.702	29278.27
738.042	29042.8
738.383	29039.63
738.723	29144.49
739.063	28856.36
739.404	28931.61
739.744	28847.55
740.084	28767.1
740.424	28895.23
740.764	28820.65
741.104	28866.08
741.444	28688
741.784	28636.93
742.124	28685.29
742.464	28619.53
742.804	28501.57
743.143	28450.95
743.483	28448.24
743.823	28247.56
744.162	28328.24
744.502	28396.03
744.841	28305.64
745.181	28319.65
745.52	28170.05
745.86	28216.83
746.199	28055.03
746.538	28115.81
746.877	28163.04
747.216	28092.54
747.556	28100.45
747.895	28055.25
748.234	28029.49
748.573	27866.56
748.911	27851.41
749.25	27882.15
749.589	27751.3
749.928	27851.87
750.267	27731.19
750.605	27797.63
750.944	27683.06
751.283	27597.64
751.621	27653
751.96	27470.86
752.298	27455.04
752.636	27502.72
752.975	27342.28
753.313	27283.75
753.651	27382.73
753.989	27192.67
754.327	27089.63
754.666	26944.09
755.004	26985.67
755.342	27043.75
755.679	27010.31
756.017	26793.36
756.355	26852.34
756.693	26780.93
757.031	26888.95
757.368	26666.59
757.706	26649.86
758.044	26650.99
758.381	26661.84
758.719	26481.06
759.056	26461.85
759.394	26405.58
759.731	26191.8
760.068	26181.4
760.405	26121.74
760.743	25967.4
761.08	26048.98
