Data from hue_00_FLMS001491_33.txt Node
Date: Mon Feb 06 15:29:37 GMT 2017
User: dcchb
Spectrometer: FLMS00149
Trigger mode: 0
Integration Time (sec): 2.000000E-2
Scans to average: 10
Electric dark correction enabled: true
Nonlinearity correction enabled: false
Boxcar width: 0
XAxis mode: Wavelengths
Number of Pixels in Spectrum: 2048
>>>>>Begin Spectral Data<<<<<
341.393	10.65
341.776	10.65
342.16	10.65
342.543	-60.08
342.927	-43.13
343.31	-71.38
343.693	-55.34
344.077	-55.56
344.46	-51.95
344.843	-45.39
345.226	-41.33
345.61	-37.71
345.993	-35.23
346.376	-9.24
346.759	21.04
347.142	28.5
347.525	46.13
347.908	47.26
348.291	62.85
348.674	82.29
349.057	115.05
349.44	130.87
349.823	132
350.206	145.11
350.588	206.35
350.971	217.2
351.354	239.57
351.737	240.02
352.119	266.46
352.502	262.39
352.884	283.86
353.267	268.5
353.65	272.34
354.032	279.12
354.414	304.88
354.797	308.27
355.179	320.47
355.562	323.64
355.944	314.82
356.326	331.32
356.709	323.64
357.091	341.26
357.473	315.5
357.855	327.48
358.238	334.93
358.62	321.6
359.002	324.99
359.384	347.36
359.766	330.87
360.148	323.86
360.53	331.77
360.912	343.3
361.294	330.42
361.676	315.73
362.057	320.02
362.439	323.41
362.821	329.74
363.203	324.77
363.584	337.42
363.966	314.37
364.348	306.23
364.729	324.99
365.111	306.91
365.493	322.51
365.874	309.62
366.256	312.11
366.637	319.57
367.019	321.6
367.4	335.61
367.781	312.56
368.163	319.34
368.544	299.91
368.925	312.56
369.306	310.3
369.688	308.95
370.069	303.52
370.45	319.79
370.831	299.91
371.212	315.05
371.593	320.25
371.974	304.2
372.355	311.88
372.736	301.49
373.117	291.77
373.498	310.3
373.879	306.91
374.26	308.72
374.641	294.03
375.021	309.4
375.402	324.31
375.783	316.86
376.163	334.71
376.544	294.71
376.925	326.8
377.305	338.55
377.686	309.17
378.066	324.99
378.447	317.31
378.827	303.75
379.208	326.35
379.588	326.57
379.968	312.79
380.349	334.26
380.729	341.71
381.109	313.47
381.489	319.34
381.87	339.23
382.25	329.96
382.63	339.23
383.01	349.4
383.39	328.83
383.77	313.47
384.15	329.29
384.53	335.39
384.91	339.68
385.29	341.26
385.67	332.9
386.049	340.81
386.429	351.66
386.809	333.58
387.189	341.71
387.568	360.7
387.948	346.91
388.328	334.93
388.707	336.06
389.087	349.17
389.466	350.53
389.846	349.85
390.225	352.34
390.605	359.11
390.984	353.01
391.363	344.2
391.743	362.73
392.122	343.52
392.501	362.28
392.881	382.62
393.26	372.45
393.639	369.96
394.018	352.79
394.397	362.73
394.776	347.59
395.155	374.93
395.534	362.05
395.913	354.82
396.292	368.15
396.671	384.65
397.05	382.17
397.429	381.04
397.808	383.07
398.186	393.01
398.565	362.5
398.944	360.24
399.323	371.54
399.701	378.78
400.08	381.94
400.458	382.39
400.837	386.46
401.215	389.17
401.594	377.87
401.972	400.02
402.351	394.59
402.729	385.78
403.107	395.27
403.486	400.92
403.864	400.7
404.242	397.76
404.62	395.05
404.999	382.39
405.377	413.8
405.755	397.08
406.133	409.73
406.511	401.83
406.889	424.88
407.267	408.38
407.645	423.75
408.023	419.9
408.401	427.14
408.779	408.15
409.156	423.52
409.534	403.63
409.912	410.41
410.29	457.87
410.667	432.11
411.045	411.99
411.422	438.66
411.8	443.41
412.178	439.34
412.555	453.12
412.933	447.47
413.31	447.25
413.687	461.71
414.065	456.29
414.442	475.72
414.819	471.2
415.197	466.23
415.574	478.21
415.951	478.89
416.328	493.12
416.705	476.17
417.082	491.99
417.46	494.03
417.837	499.9
418.214	473.24
418.591	481.37
418.967	507.13
419.344	516.85
419.721	497.87
420.098	501.71
420.475	495.16
420.852	524.76
421.228	522.05
421.605	509.62
421.982	509.85
422.358	524.99
422.735	549.62
423.111	519.79
423.488	552.33
423.864	530.41
424.241	570.41
424.617	544.42
424.994	528.6
425.37	543.74
425.746	578.54
426.123	554.82
426.499	544.87
426.875	574.48
427.251	576.28
427.627	589.62
428.003	576.06
428.379	606.11
428.756	584.42
429.132	554.82
429.507	589.39
429.883	585.32
430.259	612.89
430.635	610.41
431.011	597.75
431.387	601.59
431.763	628.94
432.138	648.82
432.514	624.19
432.89	624.87
433.265	637.75
433.641	640.92
434.016	628.49
434.392	645.44
434.767	665.55
435.143	664.42
435.518	680.01
435.894	667.58
436.269	675.49
436.644	679.78
437.02	700.35
437.395	695.15
437.77	699.22
438.145	716.39
438.52	715.72
438.895	720.24
439.271	713
439.646	726.79
440.021	721.37
440.395	726.34
440.77	739.44
441.145	727.69
441.52	745.09
441.895	742.61
442.27	751.19
442.645	747.13
443.019	757.75
443.394	768.14
443.769	757.3
444.143	760.46
444.518	765.88
444.892	764.08
445.267	751.87
445.641	770.4
446.016	769.27
446.39	781.25
446.764	793.45
447.139	810.18
447.513	811.08
447.887	812.44
448.262	793.91
448.636	817.86
449.01	825.77
449.384	799.1
449.758	806.11
450.132	835.71
450.506	815.37
450.88	832.77
451.254	821.93
451.628	842.72
452.002	872.55
452.376	847.46
452.75	852.89
453.123	855.6
453.497	880.91
453.871	878.65
454.244	883.85
454.618	879.1
454.992	907.12
455.365	928.59
455.739	946.44
456.112	945.09
456.486	922.49
456.859	941.02
457.232	957.07
457.606	975.6
457.979	981.7
458.352	971.75
458.725	974.92
459.099	994.35
459.472	995.48
459.845	988.25
460.218	1030.96
460.591	1037.52
460.964	1026.67
461.337	1038.87
461.71	1061.24
462.083	1074.8
462.456	1062.83
462.829	1074.35
463.201	1122.71
463.574	1072.09
463.947	1091.07
464.32	1123.16
464.692	1150.05
465.065	1157.51
465.438	1151.41
465.81	1177.17
466.183	1167.91
466.555	1209.26
466.928	1217.85
467.3	1218.08
467.672	1237.28
468.045	1284.74
468.417	1256.94
468.789	1262.37
469.161	1291.75
469.534	1293.78
469.906	1328.13
470.278	1317.28
470.65	1352.31
471.022	1377.17
471.394	1388.47
471.766	1389.14
472.138	1450.39
472.51	1450.84
472.882	1473.21
473.253	1486.09
473.625	1510.72
473.997	1540.78
474.369	1543.94
474.74	1552.98
475.112	1595.01
475.484	1622.58
475.855	1652.41
476.227	1654.22
476.598	1690.38
476.97	1700.55
477.341	1766.99
477.713	1756.59
478.084	1776.03
478.455	1871.84
478.827	1888.11
479.198	1892.63
479.569	1894.89
479.94	1992.07
480.311	1996.81
480.682	2032.97
481.053	2091.27
481.424	2153.64
481.795	2145.73
482.166	2163.81
482.537	2213.3
482.908	2268.22
483.279	2296.47
483.65	2331.27
484.021	2381.89
484.391	2424.37
484.762	2398.16
485.133	2458.49
485.503	2484.26
485.874	2526.29
486.244	2615.55
486.615	2645.38
486.985	2686.51
487.356	2719.96
487.726	2736.68
488.097	2804.93
488.467	2800.18
488.837	2875.21
489.207	2904.13
489.578	2993.85
489.948	2960.63
490.318	3018.48
490.688	3039.95
491.058	3093.73
491.428	3124.24
491.798	3188.64
492.168	3241.3
492.538	3274.07
492.908	3268.64
493.278	3332.14
493.648	3326.27
494.017	3399.49
494.387	3428.41
494.757	3444.68
495.126	3504.79
495.496	3520.84
495.866	3541.63
496.235	3577.34
496.605	3627.73
496.974	3620.5
497.344	3662.08
497.713	3709.54
498.082	3727.39
498.452	3747.27
498.821	3740.49
499.19	3783.21
499.559	3781.17
499.928	3877.44
500.298	3888.97
500.667	3890.77
501.036	3900.94
501.405	3949.75
501.774	3977.55
502.143	3955.4
502.512	3990.88
502.88	4098
503.249	4056.87
503.618	4073.82
503.987	4134.83
504.356	4143.87
504.724	4150.65
505.093	4122.63
505.462	4189.07
505.83	4174.83
506.199	4211.67
506.567	4250.54
506.936	4229.3
507.304	4330.08
507.672	4320.82
508.041	4369.63
508.409	4321.72
508.777	4366.69
509.145	4397.65
509.514	4429.97
509.882	4439.69
510.25	4429.97
510.618	4462.74
510.986	4498.67
511.354	4517.2
511.722	4547.48
512.09	4554.26
512.458	4515.39
512.826	4570.76
513.193	4595.61
513.561	4581.6
513.929	4625.22
514.297	4637.65
514.664	4671.09
515.032	4709.73
515.4	4721.26
515.767	4701.6
516.135	4752.22
516.502	4721.03
516.869	4766.68
517.237	4754.71
517.604	4767.13
517.972	4808.26
518.339	4795.16
518.706	4843.97
519.073	4853.01
519.44	4873.57
519.808	4874.7
520.175	4915.61
520.542	4938.66
520.909	5015.26
521.276	4937.98
521.643	4995.38
522.009	5030.63
522.376	5048.03
522.743	5051.19
523.11	5079.67
523.477	5116.73
523.843	5141.36
524.21	5231.53
524.577	5204.64
524.943	5211.19
525.31	5225.43
525.676	5261.81
526.043	5239.21
526.409	5299.55
526.776	5344.07
527.142	5354.92
527.508	5397.17
527.874	5463.84
528.241	5422.03
528.607	5481.92
528.973	5505.42
529.339	5517.4
529.705	5519.66
530.071	5575.47
530.437	5573.89
530.803	5640.78
531.169	5712.65
531.535	5669.48
531.901	5711.29
532.267	5713.32
532.632	5739.31
532.998	5753.78
533.364	5782.7
533.73	5848.69
534.095	5862.47
534.461	5877.84
534.826	5871.06
535.192	5887.33
535.557	5952.87
535.923	5951.51
536.288	5974.33
536.653	6017.27
537.019	6053.65
537.384	6011.62
537.749	6105.4
538.114	6081.68
538.479	6091.17
538.845	6159.87
539.21	6128.45
539.575	6186.76
539.94	6210.03
540.305	6218.85
540.67	6227.44
541.034	6231.28
541.399	6291.16
541.764	6293.65
542.129	6365.74
542.494	6375.68
542.858	6413.19
543.223	6423.81
543.587	6446.86
543.952	6490.25
544.316	6507.2
544.681	6480.08
545.045	6508.78
545.41	6523.02
545.774	6622.68
546.138	6623.58
546.503	6636.24
546.867	6620.65
547.231	6708.33
547.595	6730.47
547.959	6695.45
548.324	6710.81
548.688	6742
549.052	6801.21
549.416	6901.99
549.779	6812.73
550.143	6856.57
550.507	6931.37
550.871	6941.09
551.235	6939.28
551.599	6990.35
551.962	7010.24
552.326	7021.54
552.689	7077.58
553.053	7110.8
553.417	7066.06
553.78	7152.61
554.143	7109.9
554.507	7131.37
554.87	7192.38
555.234	7201.87
555.597	7225.83
555.96	7233.96
556.323	7253.4
556.686	7269.22
557.05	7349.89
557.413	7369.33
557.776	7376.33
558.139	7412.04
558.502	7379.72
558.865	7444.8
559.228	7475.99
559.59	7493.84
559.953	7520.73
560.316	7584.91
560.679	7545.59
561.041	7601.41
561.404	7638.92
561.767	7654.06
562.129	7682.99
562.492	7736.1
562.854	7736.77
563.217	7672.37
563.579	7809.09
563.941	7829.43
564.304	7842.99
564.666	7840.73
565.028	7866.71
565.39	7917.79
565.753	7930.22
566.115	7972.02
566.477	7994.39
566.839	8058.8
567.201	8110.32
567.563	8016.31
567.925	8153.49
568.287	8102.41
568.648	8135.18
569.01	8200.72
569.372	8268.06
569.734	8269.64
570.095	8341.28
570.457	8334.27
570.819	8327.49
571.18	8408.17
571.542	8451.11
571.903	8422.41
572.265	8528.39
572.626	8536.75
572.987	8592.12
573.349	8681.61
573.71	8685
574.071	8755.05
574.432	8836.63
574.794	8914.82
575.155	8892
575.516	8975.84
575.877	9061.71
576.238	9123.18
576.599	9171.31
576.96	9154.82
577.32	9314.36
577.681	9403.85
578.042	9479.1
578.403	9530.85
578.763	9606.1
579.124	9741.69
579.485	9887
579.845	10032.76
580.206	10046.77
580.566	10181.23
580.927	10282.02
581.287	10406.53
581.648	10608.11
582.008	10681.1
582.368	10772.63
582.728	10945.05
583.089	11170.36
583.449	11241.31
583.809	11483.57
584.169	11665.48
584.529	11806.05
584.889	12034.06
585.249	12164.23
585.609	12383.21
585.969	12567.61
586.329	12786.58
586.688	13007.37
587.048	13274.71
587.408	13431.99
587.768	13667.47
588.127	13985.2
588.487	14100
588.846	14473.09
589.206	14616.14
589.565	14871.28
589.925	15254.32
590.284	15415.67
590.643	15754.87
591.003	16190.56
591.362	16315.08
591.721	16635.75
592.08	16980.6
592.44	17291.1
592.799	17588.72
593.158	17711.43
593.517	18137.4
593.876	18402.93
594.235	18705.07
594.593	18940.1
594.952	19436.13
595.311	19671.38
595.67	19898.94
596.029	20394.97
596.387	20719.94
596.746	21086.71
597.104	21263.65
597.463	21469.52
597.822	21975.72
598.18	22146.34
598.538	22398.99
598.897	22871.07
599.255	23038.07
599.613	23578.17
599.972	23779.74
600.33	24194.87
600.688	24324.13
601.046	24701.3
601.404	25150.78
601.762	25335.63
602.12	25688.17
602.478	25889.52
602.836	26176.06
603.194	26388.94
603.552	26753.45
603.91	26920.68
604.268	27425.3
604.625	27588.46
604.983	27949.12
605.341	28020.76
605.698	28390.69
606.056	28797.01
606.413	28849.21
606.771	29188.87
607.128	29505.69
607.485	29608.29
607.843	29837.66
608.2	30263.41
608.557	30576.17
608.914	30683.97
609.272	31066.78
609.629	31398.98
609.986	31570.5
610.343	31623.83
610.7	32031.95
611.057	32115.57
611.414	32295
611.771	32651.6
612.127	32827.19
612.484	33025.37
612.841	33201.64
613.198	33417.68
613.554	33637.11
613.911	34022.64
614.267	34135.18
614.624	34169.98
614.98	34468.27
615.337	34685.9
615.693	34802.05
616.05	34909.62
616.406	35199.33
616.762	35367.91
617.118	35386.89
617.475	35577.62
617.831	35827.11
618.187	36031.4
618.543	36215.35
618.899	36429.35
619.255	36631.38
619.611	36578.5
619.967	36747.31
620.323	36966.74
620.678	36974.42
621.034	37036.12
621.39	37234.08
621.746	37208.32
622.101	37642.65
622.457	37638.81
622.812	37682.2
623.168	37760.17
623.523	37892.14
623.879	38189.98
624.234	38066.37
624.589	38126.94
624.945	38119.25
625.3	38420.26
625.655	38518.34
626.01	38555.4
626.365	38573.93
626.72	38610.76
627.075	38757.65
627.43	38792.45
627.785	38837.2
628.14	38897.99
628.495	38962.62
628.85	38925.11
629.205	38930.76
629.559	39264.76
629.914	39172.33
630.269	39135.95
630.623	39153.58
630.978	39037.19
631.332	39342.95
631.687	39371.87
632.041	39347.92
632.396	39520.12
632.75	39384.08
633.104	39423.62
633.459	39284.42
633.813	39377.07
634.167	39397.41
634.521	39332.55
634.875	39520.12
635.229	39370.97
635.583	39411.42
635.937	39398.54
636.291	39417.97
636.645	39388.15
636.999	39425.66
637.352	39558.54
637.706	39332.78
638.06	39580.91
638.413	39442.61
638.767	39341.82
639.121	39581.36
639.474	39315.15
639.828	39476.28
640.181	39463.4
640.534	39519.89
640.888	39272.89
641.241	39245.78
641.594	39472.21
641.947	39459.33
642.301	39320.8
642.654	39400.8
643.007	39393.57
643.36	39245.32
643.713	39271.76
644.066	39538.42
644.419	39187.92
644.771	39047.59
645.124	38645.79
645.477	38564.66
645.83	38359.92
646.182	38202.64
646.535	38154.96
646.888	38362.86
647.24	38090.78
647.593	38230.66
647.945	38209.65
648.298	37988.63
648.65	38013.04
649.002	37966.71
649.355	38058.01
649.707	38080.61
650.059	38095.75
650.411	38731.21
650.763	38731.89
651.115	39049.85
651.467	38945.67
651.819	38952.9
652.171	38931.43
652.523	38868.16
652.875	38786.35
653.227	38720.82
653.578	39118.32
653.93	38804.21
654.282	38729.63
654.633	38694.83
654.985	38743.19
655.337	38696.64
655.688	38737.09
656.039	38842.4
656.391	38538
656.742	38537.55
657.094	38681.27
657.445	38845.33
657.796	38628.84
658.147	38533.48
658.498	38519.69
658.849	38719.01
659.2	38688.95
659.551	38681.05
659.902	38728.95
660.253	38589.52
660.604	38745.45
660.955	38473.14
661.306	38500.03
661.656	38596.3
662.007	38673.59
662.358	38498.45
662.708	38417.55
663.059	38516.08
663.409	38307.04
663.76	38677.2
664.11	38574.38
664.461	38627.49
664.811	38456.19
665.161	38553.59
665.511	38471.33
665.862	38583.87
666.212	38658.22
666.562	38662.74
666.912	38422.07
667.262	38461.39
667.612	38406.25
667.962	38530.99
668.312	38302.98
668.662	38573.93
669.011	38381.84
669.361	38398.57
669.711	38297.1
670.06	38400.6
670.41	38216.2
670.76	38240.15
671.109	38289.87
671.459	38354.95
671.808	38220.94
672.157	38319.02
672.507	38066.82
672.856	38078.58
673.205	38193.15
673.554	38304.78
673.904	38163.32
674.253	38350.88
674.602	38179.82
674.951	37755.65
675.3	37568.53
675.649	37971.91
675.998	37978.92
676.346	38065.02
676.695	38212.81
677.044	37801.29
677.393	37993.38
677.741	37976.66
678.09	38163.32
678.438	37883.33
678.787	37858.02
679.135	37900.95
679.484	37780.96
679.832	37782.31
680.181	37584.35
680.529	37786.61
680.877	37749.32
681.225	37606.05
681.573	37808.07
681.922	37570.11
682.27	37443.34
682.618	37571.92
682.966	37439.04
683.314	37446.73
683.661	37472.04
684.009	37103.91
684.357	36983.01
684.705	37130.35
685.053	37138.26
685.4	37121.99
685.748	36911.15
686.095	36971.49
686.443	36729.68
686.79	36697.14
687.138	36881.54
687.485	36694.88
687.832	36647.43
688.18	36646.07
688.527	36564.94
688.874	36418.96
689.221	36276.81
689.568	36345.51
689.915	36230.04
690.262	36137.61
690.609	36032.08
690.956	35881.34
691.303	35843.61
691.65	35739.43
691.997	35782.14
692.344	35648.36
692.69	35558.42
693.037	35527.91
693.383	35423.73
693.73	35429.15
694.077	35213.57
694.423	35153.23
694.769	34989.39
695.116	35084.3
695.462	34939.22
695.808	34881.37
696.155	35066
696.501	34697.65
696.847	34622.85
697.193	34360.48
697.539	34524.32
697.885	34306.02
698.231	34282.74
698.577	34130.43
698.923	34114.61
699.269	33932.47
699.614	33866.03
699.96	33769.54
700.306	33809.08
700.651	33668.52
700.997	33558.47
701.342	33548.07
701.688	33436.21
702.033	33394.18
702.379	33305.82
702.724	33274.63
703.069	33271.7
703.415	32925.26
703.76	32903.34
704.105	32882.55
704.45	32848.88
704.795	32712.39
705.14	32560.3
705.485	32650.02
705.83	32442.11
706.175	32549.91
706.52	32399.85
706.865	32344.04
707.209	32160.54
707.554	32093.87
707.899	32135.23
708.243	31996.02
708.588	32033.54
708.932	31837.16
709.277	31785.86
709.621	31786.54
709.966	31630.38
710.31	31611.63
710.654	31296.83
710.998	31384.51
711.342	31368.92
711.687	31403.95
712.031	31283.73
712.375	31239.66
712.719	31172.54
713.063	30998.99
713.407	31238.98
713.75	30970.51
714.094	30889.39
714.438	30875.15
714.782	30832.89
715.125	30670.86
715.469	30929.84
715.812	30610.3
716.156	30466.8
716.499	30469.51
716.843	30474.26
717.186	30275.16
717.53	30431.09
717.873	30364.65
718.216	30356.97
718.559	30260.02
718.902	30106.36
719.246	30142.96
719.589	29941.84
719.932	29854.61
720.275	29906.13
720.617	29902.52
720.96	29727.38
721.303	29801.28
721.646	29634.28
721.989	29655.75
722.331	29650.55
722.674	29550.66
723.016	29526.03
723.359	29499.14
723.701	29476.09
724.044	29240.62
724.386	29243.1
724.729	29379.14
725.071	29231.35
725.413	29266.38
725.755	29184.8
726.097	28967.18
726.439	28908.42
726.782	28901.19
727.124	28997.23
727.465	28877.91
727.807	28823.23
728.149	28780.29
728.491	28753.85
728.833	28839.04
729.175	28683.34
729.516	28675.66
729.858	28605.15
730.199	28707.07
730.541	28566.06
730.882	28528.09
731.224	28607.64
731.565	28277.02
731.906	28448.32
732.248	28469.56
732.589	28238.61
732.93	28103.02
733.271	28082
733.612	28169.91
733.953	28171.49
734.294	27995.9
734.635	28006.3
734.976	27974.66
735.317	27975.11
735.658	27855.12
735.999	27830.48
736.339	27809.92
736.68	27931.72
737.021	27762.46
737.361	27674.1
737.702	27797.04
738.042	27605.86
738.383	27557.04
738.723	27649.47
739.063	27505.52
739.404	27524.05
739.744	27543.48
740.084	27443.83
740.424	27313.66
740.764	27342.81
741.104	27307.33
741.444	27279.54
741.784	27110.5
742.124	27225.53
742.464	27134.91
742.804	27164.06
743.143	27101.01
743.483	27161.35
743.823	26923.39
744.162	26989.83
744.502	26993.89
744.841	26861.47
745.181	26906.89
745.52	26813.11
745.86	26876.16
746.199	26785.54
746.538	26663.73
746.877	26782.15
747.216	26739.89
747.556	26689.72
747.895	26591.65
748.234	26466.68
748.573	26417.41
748.911	26457.41
749.25	26383.97
749.589	26295.38
749.928	26378.54
750.267	26354.82
750.605	26266.68
750.944	26123.41
751.283	26090.87
751.621	26242.5
751.96	25994.6
752.298	25974.94
752.636	26074.14
752.975	25854.72
753.313	25833.7
753.651	25887.48
753.989	25715.74
754.327	25795.06
754.666	25547.38
755.004	25777.2
755.342	25655.62
755.679	25624.89
756.017	25429.64
756.355	25495.86
756.693	25267.16
757.031	25345.8
757.368	25316.65
757.706	25299.93
758.044	25190.55
758.381	25127.28
758.719	25161.4
759.056	25028.75
759.394	25061.97
759.731	24896.77
760.068	24858.81
760.405	24721.41
760.743	24700.62
