Data from hue_22_FLMS001491_00080.txt Node
Date: Tue Feb 07 17:10:39 GMT 2017
User: dcchb
Spectrometer: FLMS00149
Trigger mode: 0
Integration Time (sec): 2.000000E-2
Scans to average: 10
Electric dark correction enabled: true
Nonlinearity correction enabled: false
Boxcar width: 0
XAxis mode: Wavelengths
Number of Pixels in Spectrum: 2048
>>>>>Begin Spectral Data<<<<<
341.393	-24.51
341.776	-24.51
342.16	-24.51
342.543	-70.83
342.927	-88.68
343.31	-76.93
343.693	-58.63
344.077	-75.8
344.46	-70.83
344.843	-52.98
345.226	-36.71
345.61	-36.48
345.993	-31.74
346.376	-8.91
346.759	-1.23
347.142	35.38
347.525	52.33
347.908	64.31
348.291	73.35
348.674	92.78
349.057	132.1
349.44	116.96
349.823	140.24
350.206	138.65
350.588	215.49
350.971	205.32
351.354	216.39
351.737	227.24
352.119	246.22
352.502	267.24
352.884	256.39
353.267	273.57
353.65	299.33
354.032	295.49
354.414	300.46
354.797	311.53
355.179	333.9
355.562	318.76
355.944	321.93
356.326	325.77
356.709	340.23
357.091	337.29
357.473	327.58
357.855	344.52
358.238	316.73
358.62	329.61
359.002	351.53
359.384	347.46
359.766	350.17
360.148	330.29
360.53	340.91
360.912	333.23
361.294	337.29
361.676	330.97
362.057	324.41
362.439	327.8
362.821	332.77
363.203	324.41
363.584	316.73
363.966	308.82
364.348	311.31
364.729	319.89
365.111	297.97
365.493	302.27
365.874	310.4
366.256	316.5
366.637	322.83
367.019	321.47
367.4	309.72
367.781	303.17
368.163	305.2
368.544	304.07
368.925	323.73
369.306	329.61
369.688	312.89
370.069	312.21
370.45	324.64
370.831	330.29
371.212	319.44
371.593	314.92
371.974	309.27
372.355	304.98
372.736	299.1
373.117	321.7
373.498	304.98
373.879	315.83
374.26	293.68
374.641	302.27
375.021	316.95
375.402	297.52
375.783	327.58
376.163	330.06
376.544	335.26
376.925	315.6
377.305	309.72
377.686	319.44
378.066	324.64
378.447	338.65
378.827	322.15
379.208	332.32
379.588	332.55
379.968	326.45
380.349	352.66
380.729	348.37
381.109	337.97
381.489	332.77
381.87	348.82
382.25	304.53
382.63	335.71
383.01	342.04
383.39	328.25
383.77	347.69
384.15	342.04
384.53	343.85
384.91	347.69
385.29	353.56
385.67	339.78
386.049	343.85
386.429	344.3
386.809	361.47
387.189	336.62
387.568	340.23
387.948	374.35
388.328	366.67
388.707	352.89
389.087	328.03
389.466	344.07
389.846	372.77
390.225	365.54
390.605	343.39
390.984	355.82
391.363	366.45
391.743	381.13
392.122	353.56
392.501	359.67
392.881	356.28
393.26	337.97
393.639	360.8
394.018	380.91
394.397	355.82
394.776	352.66
395.155	393.11
395.534	357.41
395.913	370.06
396.292	369.83
396.671	387.46
397.05	370.51
397.429	361.7
397.808	363.73
398.186	375.03
398.565	374.58
398.944	386.56
399.323	389.27
399.701	373.68
400.08	376.16
400.458	385.43
400.837	381.81
401.215	394.02
401.594	401.92
401.972	399.66
402.351	418.65
402.729	409.61
403.107	403.96
403.486	381.81
403.864	416.39
404.242	405.99
404.62	409.16
404.999	404.18
405.377	409.83
405.755	405.77
406.133	400.57
406.511	412.55
406.889	420.46
407.267	429.95
407.645	413.22
408.023	422.49
408.401	445.54
408.779	437.18
409.156	419.33
409.534	432.21
409.912	435.37
410.29	447.12
410.667	427.69
411.045	448.7
411.422	431.3
411.8	446.67
412.178	464.07
412.555	477.85
412.933	459.78
413.31	464.52
413.687	476.05
414.065	447.57
414.442	476.27
414.819	463.62
415.197	461.13
415.574	488.02
415.951	476.95
416.328	497.29
416.705	488.7
417.082	484.86
417.46	470.85
417.837	493.22
418.214	481.24
418.591	495.03
418.967	497.52
419.344	493.22
419.721	501.13
420.098	494.35
420.475	520.57
420.852	497.06
421.228	493.9
421.605	484.41
421.982	516.5
422.358	510.62
422.735	525.54
423.111	532.09
423.488	529.15
423.864	529.6
424.241	559.21
424.617	529.15
424.994	549.27
425.37	556.5
425.746	537.97
426.123	564.41
426.499	560.79
426.875	569.6
427.251	552.43
427.627	552.88
428.003	554.69
428.379	578.87
428.756	585.42
429.132	594.69
429.507	572.54
429.883	582.94
430.259	592.43
430.635	591.07
431.011	620.45
431.387	607.57
431.763	591.07
432.138	628.59
432.514	624.97
432.89	622.71
433.265	632.43
433.641	638.08
434.016	633.33
434.392	652.31
434.767	671.75
435.143	666.55
435.518	673.1
435.894	692.99
436.269	666.55
436.644	672.2
437.02	691.86
437.395	693.44
437.77	723.05
438.145	702.93
438.52	728.92
438.895	714.91
439.271	729.37
439.646	731.41
440.021	719.88
440.395	723.5
440.77	726.44
441.145	719.43
441.52	725.08
441.895	743.38
442.27	747.68
442.645	754.68
443.019	739.54
443.394	772.54
443.769	763.27
444.143	767.79
444.518	784.51
444.892	742.03
445.267	775.25
445.641	781.58
446.016	789.26
446.39	787.9
446.764	819.99
447.139	790.39
447.513	794.23
447.887	806.43
448.262	810.73
448.636	817.96
449.01	823.83
449.384	824.29
449.758	862.93
450.132	819.54
450.506	844.85
450.88	838.07
451.254	838.07
451.628	869.03
452.002	848.69
452.376	897.28
452.75	888.24
453.123	904.28
453.497	888.69
453.871	896.37
454.244	912.65
454.618	927.33
454.992	911.06
455.365	945.64
455.739	956.71
456.112	955.36
456.486	932.76
456.859	961.01
457.232	989.93
457.606	986.54
457.979	990.38
458.352	1009.37
458.725	1012.08
459.099	1023.15
459.472	1031.74
459.845	1025.64
460.218	1036.48
460.591	1057.05
460.964	1058.18
461.337	1095.92
461.71	1104.96
462.083	1144.73
462.456	1097.5
462.829	1092.53
463.201	1129.14
463.574	1149.7
463.947	1157.84
464.32	1165.52
464.692	1166.2
465.065	1191.51
465.438	1199.19
465.81	1233.32
466.183	1227.44
466.555	1242.81
466.928	1267.44
467.3	1273.31
467.672	1271.51
468.045	1333.2
468.417	1300.43
468.789	1336.82
469.161	1357.15
469.534	1353.76
469.906	1399.19
470.278	1402.58
470.65	1415.23
471.022	1443.25
471.394	1472.18
471.766	1472.63
472.138	1484.83
472.51	1534.55
472.882	1550.82
473.253	1570.26
473.625	1597.37
473.997	1590.59
474.369	1647.99
474.74	1651.61
475.112	1703.59
475.484	1701.78
475.855	1751.49
476.227	1767.76
476.598	1808.67
476.97	1808.89
477.341	1860.19
477.713	1863.35
478.084	1921.21
478.455	1974.31
478.827	2016.12
479.198	2043.46
479.569	2041.43
479.94	2084.37
480.311	2124.59
480.682	2182.89
481.053	2222.67
481.424	2257.02
481.795	2305.83
482.166	2324.36
482.537	2341.08
482.908	2416.56
483.279	2441.87
483.65	2487.07
484.021	2571.13
484.391	2563.9
484.762	2584.47
485.133	2673.28
485.503	2667.63
485.874	2737.91
486.244	2764.8
486.615	2780.17
486.985	2874.85
487.356	2917.11
487.726	2963.21
488.097	3000.95
488.467	3023.78
488.837	3096.32
489.207	3155.07
489.578	3200.27
489.948	3215.64
490.318	3268.97
490.688	3277.56
491.058	3362.98
491.428	3408.63
491.798	3461.51
492.168	3533.82
492.538	3525.68
492.908	3572.46
493.278	3659.01
493.648	3666.92
494.017	3680.03
494.387	3740.14
494.757	3774.27
495.126	3850.2
495.496	3830.31
495.866	3831.21
496.235	3889.52
496.605	3941.94
496.974	3969.29
497.344	3984.43
497.713	4014.94
498.082	4059.91
498.452	4117.31
498.821	4133.58
499.19	4134.93
499.559	4158.89
499.928	4231.2
500.298	4237.08
500.667	4263.74
501.036	4271.65
501.405	4304.87
501.774	4362.5
502.143	4440.91
502.512	4422.16
502.88	4420.8
503.249	4437.98
503.618	4479.56
503.987	4455.83
504.356	4533.57
504.724	4587.35
505.093	4556.84
505.462	4597.29
505.83	4595.26
506.199	4625.09
506.567	4695.82
506.936	4731.75
507.304	4734.69
507.672	4776.27
508.041	4788.48
508.409	4790.74
508.777	4840.9
509.145	4914.35
509.514	4877.06
509.882	4922.03
510.25	4930.17
510.618	4991.63
510.986	4985.53
511.354	5011.97
511.722	5050.16
512.09	5078.86
512.458	5044.97
512.826	5071.63
513.193	5183.72
513.561	5122.03
513.929	5137.17
514.297	5211.52
514.664	5214.68
515.032	5215.13
515.4	5268.69
515.767	5299.2
516.135	5337.39
516.502	5316.82
516.869	5393.66
517.237	5416.03
517.604	5400.89
517.972	5433.2
518.339	5494.45
518.706	5432.3
519.073	5484.73
519.44	5521.56
519.808	5544.39
520.175	5525.41
520.542	5635.46
520.909	5595.46
521.276	5615.12
521.643	5660.54
522.009	5669.81
522.376	5725.17
522.743	5791.84
523.11	5750.03
523.477	5806.98
523.843	5833.87
524.21	5897.37
524.577	5919.97
524.943	5949.58
525.31	6020.08
525.676	6010.14
526.043	6046.52
526.409	6067.31
526.776	6098.95
527.142	6190.47
527.508	6208.55
527.874	6225.27
528.241	6251.04
528.607	6204.94
528.973	6325.61
529.339	6280.19
529.705	6329.9
530.071	6402.67
530.437	6487.64
530.803	6462.33
531.169	6517.02
531.535	6471.14
531.901	6526.74
532.267	6581.42
532.632	6550.69
532.998	6613.06
533.364	6663.45
533.73	6602.89
534.095	6698.26
534.461	6774.64
534.826	6788.2
535.192	6772.83
535.557	6854.18
535.923	6849.21
536.288	6890.12
536.653	6923.11
537.019	6862.55
537.384	6945.48
537.749	6979.83
538.114	7030.9
538.479	6990.45
538.845	7049.21
539.21	7054.18
539.575	7128.98
539.94	7124.91
540.305	7180.5
540.67	7222.76
541.034	7215.53
541.399	7236.1
541.764	7221.63
542.129	7310.22
542.494	7273.38
542.858	7322.65
543.223	7418.46
543.587	7419.82
543.952	7432.02
544.316	7441.74
544.681	7462.98
545.045	7479.7
545.41	7531.68
545.774	7544.34
546.138	7571.45
546.503	7575.52
546.867	7612.13
547.231	7654.16
547.595	7765.35
547.959	7723.77
548.324	7747.27
548.688	7754.05
549.052	7798.34
549.416	7797.66
549.779	7804.22
550.143	7871.11
550.507	7901.84
550.871	7973.25
551.235	7946.13
551.599	7999.24
551.962	8034.49
552.326	8064.55
552.689	8115.62
553.053	8058.22
553.417	8125.79
553.78	8223.87
554.143	8182.28
554.507	8185.45
554.87	8264.09
555.234	8291.66
555.597	8232.45
555.96	8316.52
556.323	8351.32
556.686	8341.38
557.05	8406.91
557.413	8427.02
557.776	8399.68
558.139	8509.51
558.502	8537.3
558.865	8452.56
559.228	8589.51
559.59	8553.12
559.953	8592.9
560.316	8676.74
560.679	8723.97
561.041	8760.57
561.404	8745.66
561.767	8844.64
562.129	8813
562.492	8851.65
562.854	8833.12
563.217	8791.08
563.579	8859.78
563.941	8964.19
564.304	9000.79
564.666	9036.5
565.028	9021.13
565.39	9081.02
565.753	9145.88
566.115	9130.06
566.477	9171.19
566.839	9173.9
567.201	9265.19
567.563	9256.61
567.925	9284.4
568.287	9337.51
568.648	9355.59
569.01	9416.6
569.372	9412.31
569.734	9464.96
570.095	9485.3
570.457	9569.59
570.819	9597.61
571.18	9649.59
571.542	9662.02
571.903	9659.76
572.265	9711.28
572.626	9827.89
572.987	9801.68
573.349	9881.9
573.71	9902.47
574.071	9995.12
574.432	10036.93
574.794	10226.52
575.155	10144.27
575.516	10146.53
575.877	10185.17
576.238	10335.45
576.599	10456.58
576.96	10455.45
577.32	10580.19
577.681	10621.54
578.042	10648.21
578.403	10782.89
578.763	10876.23
579.124	10982.44
579.485	11062.44
579.845	11175.43
580.206	11258.59
580.566	11302.2
580.927	11442.31
581.287	11624.23
581.648	11633.04
582.008	11887.95
582.368	11903.77
582.728	12091.79
583.089	12236.87
583.449	12346.02
583.809	12491.1
584.169	12732.67
584.529	12708.27
584.889	13008.37
585.249	13116.62
585.609	13337.4
585.969	13564.97
586.329	13738.97
586.688	13944.62
587.048	14128.12
587.408	14343.7
587.768	14634.09
588.127	14791.38
588.487	14940.3
588.846	15253.96
589.206	15438.59
589.565	15664.57
589.925	16076.31
590.284	16181.85
590.643	16515.17
591.003	16752
591.362	17149.96
591.721	17358.77
592.08	17655.48
592.44	17822.03
592.799	18276.71
593.158	18521.67
593.517	18816.13
593.876	19201.88
594.235	19366.17
594.593	19696.78
594.952	20022.88
595.311	20187.39
595.67	20652.24
596.029	20965.45
596.387	21294.71
596.746	21679.56
597.104	21760.23
597.463	22131.07
597.822	22608.35
598.18	22771.51
598.538	23076.36
598.897	23509.79
599.255	23602.44
599.613	24306.83
599.972	24325.59
600.33	24715.18
600.688	24916.31
601.046	25355.39
601.404	25632.45
601.762	25962.16
602.12	26411.18
602.478	26723.94
602.836	26966.2
603.194	27198.28
603.552	27492.06
603.91	27596.69
604.268	28079.16
604.625	28297.01
604.983	28594.18
605.341	28774.96
605.698	29245.69
606.056	29394.16
606.413	29635.96
606.771	30144.42
607.128	30386.67
607.485	30398.88
607.843	30819.43
608.2	31101.46
608.557	31448.34
608.914	31601.1
609.272	31975.78
609.629	32236.34
609.986	32465.04
610.343	32543.23
610.7	33009.43
611.057	33231.8
611.414	33331.68
611.771	33551.11
612.127	33904.09
612.484	34069.06
612.841	34290.07
613.198	34465.66
613.554	34636.28
613.911	35058.41
614.267	35143.38
614.624	35350.16
614.98	35541.11
615.337	35811.39
615.693	35943.14
616.05	36139.74
616.406	36465.83
616.762	36399.17
617.118	36552.84
617.475	36828.99
617.831	36998.48
618.187	37164.35
618.543	37389.88
618.899	37712.13
619.255	37758.68
619.611	37950.77
619.967	38155.96
620.323	38261.72
620.678	38297.2
621.034	38289.29
621.39	38473.47
621.746	38491.09
622.101	39140.79
622.457	38849.73
622.812	39014.02
623.168	39183.5
623.523	39251.3
623.879	39480.67
624.234	39422.14
624.589	39499.88
624.945	39661.68
625.3	39670.5
625.655	39884.05
626.01	40033.2
626.365	40129.92
626.72	39970.83
627.075	40059.41
627.43	40090.6
627.785	40050.37
628.14	40298.05
628.495	40333.98
628.85	40372.17
629.205	40272.06
629.559	40659.62
629.914	40543.92
630.269	40636.35
630.623	40546.63
630.978	40557.25
631.332	40837.47
631.687	40972.16
632.041	40807.42
632.396	40930.35
632.75	40810.35
633.104	40933.74
633.459	40637.48
633.813	40814.2
634.167	40881.76
634.521	40838.15
634.875	40903.68
635.229	40979.16
635.583	40793.86
635.937	40890.13
636.291	41012.38
636.645	40969.22
636.999	40959.95
637.352	41035.43
637.706	40804.25
638.06	41077.69
638.413	40913.18
638.767	40806.74
639.121	41014.87
639.474	40795.89
639.828	40853.29
640.181	40934.64
640.534	40957.47
640.888	40901.2
641.241	40778.04
641.594	40929.67
641.947	40930.8
642.301	40808.32
642.654	40785.72
643.007	40931.93
643.36	40947.07
643.713	40772.61
644.066	40977.58
644.419	40800.64
644.771	40380.99
645.124	40093.31
645.477	40082.01
645.83	39854.9
646.182	39764.96
646.535	39597.28
646.888	39760.21
647.24	39614
647.593	39801.79
647.945	39685.86
648.298	39458.52
648.65	39501.24
649.002	39494.68
649.355	39785.3
649.707	39582.82
650.059	39803.6
650.411	40226.87
650.763	40235.91
651.115	40640.19
651.467	40554.32
651.819	40396.58
652.171	40383.92
652.523	40374.66
652.875	40360.2
653.227	40260.09
653.578	40534.43
653.93	40496.69
654.282	40327.2
654.633	40065.51
654.985	40218.05
655.337	40329.46
655.688	40235
656.039	40442.23
656.391	40044.05
656.742	40196.81
657.094	40132.18
657.445	40355.68
657.796	40188.45
658.147	40141.67
658.498	40234.32
658.849	40414.21
659.2	40230.03
659.551	40274.32
659.902	40149.81
660.253	40111.16
660.604	40097.6
660.955	40031.84
661.306	40171.73
661.656	40159.3
662.007	40167.21
662.358	40082.69
662.708	40017.15
663.059	40113.2
663.409	39803.6
663.76	40166.98
664.11	40262.12
664.461	40239.07
664.811	40004.27
665.161	39965.63
665.511	39933.99
665.862	40001.56
666.212	40097.6
666.562	40108
666.912	40069.58
667.262	39948.46
667.612	39845.63
667.962	40053.99
668.312	40058.06
668.662	40088.34
669.011	40034.1
669.361	39943.03
669.711	39898.29
670.06	39959.98
670.41	39813.32
670.76	39737.84
671.109	39830.04
671.459	39902.35
671.808	39792.53
672.157	39954.78
672.507	39720.44
672.856	39681.12
673.205	39719.08
673.554	39716.82
673.904	39704.17
674.253	39842.02
674.602	39738.29
674.951	39401.8
675.3	38993.9
675.649	39672.3
675.998	39710.72
676.346	39606.09
676.695	39702.36
677.044	39423.27
677.393	39518.64
677.741	39606.54
678.09	39496.26
678.438	39487.22
678.787	39541.23
679.135	39531.07
679.484	39265.31
679.832	39452.88
680.181	39297.17
680.529	39211.75
680.877	39239.32
681.225	39075.48
681.573	39312.77
681.922	39037.52
682.27	38974.47
682.618	38964.75
682.966	38888.6
683.314	38942.61
683.661	38809.95
684.009	38769.73
684.357	38700.58
684.705	38664.2
685.053	38677.53
685.4	38633.46
685.748	38562.28
686.095	38382.39
686.443	38202.96
686.79	38176.52
687.138	38335.16
687.485	38353.92
687.832	38099.01
688.18	38189.86
688.527	37930.43
688.874	37871.67
689.221	37741.96
689.568	37526.82
689.915	37545.35
690.262	37608.4
690.609	37545.81
690.956	37302.65
691.303	37322.54
691.65	37079.15
691.997	37252.93
692.344	37028.76
692.69	36979.27
693.037	36948.31
693.383	36666.73
693.73	36834.19
694.077	36622.89
694.423	36584.48
694.769	36579.96
695.116	36509.22
695.462	36617.92
695.808	36289.79
696.155	36309
696.501	36052.74
696.847	36130.93
697.193	35912.63
697.539	36011.61
697.885	35807.1
698.231	35685.74
698.577	35589.02
698.923	35568.91
699.269	35431.06
699.614	35274.45
699.96	35258.18
700.306	35306.09
700.651	35117.17
700.997	35083.27
701.342	34932.32
701.688	34951.3
702.033	34728.48
702.379	34623.4
702.724	34603.51
703.069	34648.93
703.415	34282.39
703.76	34389.51
704.105	34347.25
704.45	34282.16
704.795	34135.95
705.14	33909.52
705.485	33989.74
705.83	33755.4
706.175	33851.21
706.52	33697.55
706.865	33606.48
707.209	33564.67
707.554	33578.91
707.899	33579.81
708.243	33375.29
708.588	33321.06
708.932	33050.33
709.277	33077.45
709.621	33079.26
709.966	32794.29
710.31	32937.57
710.654	32723.11
710.998	32764.92
711.342	32681.3
711.687	32598.59
712.031	32391.59
712.375	32398.15
712.719	32437.24
713.063	32357.02
713.407	32378.71
713.75	32217.81
714.094	32190.92
714.438	32086.52
714.782	32036.57
715.125	32020.53
715.469	32179.85
715.812	31945.28
716.156	31761.55
716.499	31786.41
716.843	31835
717.186	31569.69
717.53	31766.07
717.873	31729.46
718.216	31599.07
718.559	31411.96
718.902	31368.57
719.246	31333.54
719.589	31237.5
719.932	31185.3
720.275	31221.23
720.617	31217.39
720.96	31005.19
721.303	30957.05
721.646	31073.66
721.989	30840.9
722.331	30889.03
722.674	30844.29
723.016	30763.16
723.359	30682.94
723.701	30760.22
724.044	30588.7
724.386	30411.76
724.729	30551.64
725.071	30478.2
725.413	30421.47
725.755	30429.84
726.097	30150.75
726.439	30088.83
726.782	30180.58
727.124	30198.43
727.465	30047.25
727.807	30192.78
728.149	29999.34
728.491	30051.31
728.833	30107.36
729.175	29839.57
729.516	29856.52
729.858	29875.05
730.199	29918.44
730.541	29849.51
730.882	29744.2
731.224	29807.93
731.565	29701.72
731.906	29512.8
732.248	29623.3
732.589	29523.42
732.93	29329.07
733.271	29383.31
733.612	29314.61
733.953	29308.96
734.294	29192.13
734.635	29249.98
734.976	29251.56
735.317	29144.45
735.658	29100.83
735.999	29040.95
736.339	29073.49
736.68	29139.25
737.021	28967.28
737.361	28950.55
737.702	29091.79
738.042	28908.75
738.383	28835.08
738.723	28814.74
739.063	28800.05
739.404	28806.38
739.744	28729.77
740.084	28652.03
740.424	28653.84
740.764	28466.05
741.104	28595.31
741.444	28431.92
741.784	28530.68
742.124	28392.37
742.464	28371.58
742.804	28418.36
743.143	28308.76
743.483	28425.37
743.823	28099.95
744.162	28128.88
744.502	28190.35
744.841	28079.61
745.181	28235.09
745.52	28112.38
745.86	28072.61
746.199	28071.48
746.538	27879.17
746.877	27976.79
747.216	28042.1
747.556	27993.52
747.895	27947.41
748.234	27751.71
748.573	27713.75
748.911	27671.49
749.25	27681.43
749.589	27545.84
749.928	27706.52
750.267	27644.15
750.605	27559.4
750.944	27378.62
751.283	27376.58
751.621	27529.12
751.96	27155.35
752.298	27261.56
752.636	27353.76
752.975	27124.39
753.313	27084.61
753.651	27268.34
753.989	26965.97
754.327	26849.36
754.666	26890.95
755.004	26927.55
755.342	26883.71
755.679	26850.49
756.017	26768.91
756.355	26901.57
756.693	26657.05
757.031	26614.12
757.368	26586.55
757.706	26525.53
758.044	26370.28
758.381	26423.84
758.719	26317.85
759.056	26271.75
759.394	26234.24
759.731	26121.02
760.068	26082.38
