Data from hue_32_FLMS001491_00058.txt Node
Date: Tue Feb 07 17:23:37 GMT 2017
User: dcchb
Spectrometer: FLMS00149
Trigger mode: 0
Integration Time (sec): 2.000000E-2
Scans to average: 10
Electric dark correction enabled: true
Nonlinearity correction enabled: false
Boxcar width: 0
XAxis mode: Wavelengths
Number of Pixels in Spectrum: 2048
>>>>>Begin Spectral Data<<<<<
341.393	-21.06
341.776	-21.06
342.16	-21.06
342.543	-74.62
342.927	-76.2
343.31	-57.44
343.693	-61.51
344.077	-77.33
344.46	-47.95
344.843	-63.09
345.226	-30.78
345.61	-36.88
345.993	-34.39
346.376	15.55
346.759	8.32
347.142	11.03
347.525	43.57
347.908	62.1
348.291	84.93
348.674	66.85
349.057	117.02
349.44	124.93
349.823	148.2
350.206	179.39
350.588	181.42
350.971	221.87
351.354	214.87
351.737	256.22
352.119	261.87
352.502	259.84
352.884	262.32
353.267	289.22
353.65	292.61
354.032	295.54
354.414	313.62
354.797	319.95
355.179	341.87
355.562	338.93
355.944	344.13
356.326	337.35
356.709	342.1
357.091	328.99
357.473	358.37
357.855	342.55
358.238	349.55
358.62	336.45
359.002	353.62
359.384	312.49
359.766	329.89
360.148	346.62
360.53	357.01
360.912	342.1
361.294	354.75
361.676	331.7
362.057	346.62
362.439	319.05
362.821	326.05
363.203	337.58
363.584	330.8
363.966	320.63
364.348	329.44
364.729	333.73
365.111	325.15
365.493	328.08
365.874	325.37
366.256	332.38
366.637	321.76
367.019	319.95
367.4	321.31
367.781	301.64
368.163	335.77
368.544	305.03
368.925	326.28
369.306	340.06
369.688	317.92
370.069	307.52
370.45	324.24
370.831	333.28
371.212	314.53
371.593	319.72
371.974	328.31
372.355	301.64
372.736	342.77
373.117	340.29
373.498	326.05
373.879	334.19
374.26	321.31
374.641	340.97
375.021	313.85
375.402	322.89
375.783	347.97
376.163	346.62
376.544	337.8
376.925	328.31
377.305	330.34
377.686	340.29
378.066	338.48
378.447	328.08
378.827	348.2
379.208	340.97
379.588	345.26
379.968	335.99
380.349	321.53
380.729	333.06
381.109	343.68
381.489	341.64
381.87	325.15
382.25	337.35
382.63	320.18
383.01	327.41
383.39	347.75
383.77	331.25
384.15	355.2
384.53	365.15
384.91	335.09
385.29	377.35
385.67	368.08
386.049	354.75
386.429	346.62
386.809	345.03
387.189	358.82
387.568	361.98
387.948	353.17
388.328	369.44
388.707	371.7
389.087	360.4
389.466	373.96
389.846	379.61
390.225	384.13
390.605	370.34
390.984	360.63
391.363	365.37
391.743	379.38
392.122	399.95
392.501	367.86
392.881	385.94
393.26	383.68
393.639	394.3
394.018	360.63
394.397	390.46
394.776	373.06
395.155	399.72
395.534	378.48
395.913	390.68
396.292	385.26
396.671	390.46
397.05	381.87
397.429	413.28
397.808	387.52
398.186	379.61
398.565	386.84
398.944	381.19
399.323	410.57
399.701	404.47
400.08	386.61
400.458	425.48
400.837	417.57
401.215	401.75
401.594	393.85
401.972	413.96
402.351	411.02
402.729	426.84
403.107	445.82
403.486	433.39
403.864	422.09
404.242	403.79
404.62	438.59
404.999	442.88
405.377	446.05
405.755	437.69
406.133	433.84
406.511	434.52
406.889	416.22
407.267	454.86
407.645	436.56
408.023	450.79
408.401	415.99
408.779	436.33
409.156	435.88
409.534	443.34
409.912	475.2
410.29	466.61
410.667	464.58
411.045	449.44
411.422	455.54
411.8	466.39
412.178	474.97
412.555	452.15
412.933	488.53
413.31	498.25
413.687	498.93
414.065	485.14
414.442	500.96
414.819	475.43
415.197	489.44
415.574	497.12
415.951	516.55
416.328	502.54
416.705	520.4
417.082	503.9
417.46	518.14
417.837	508.87
418.214	510.45
418.591	518.59
418.967	519.04
419.344	516.33
419.721	544.58
420.098	546.16
420.475	539.15
420.852	536.89
421.228	561.52
421.605	526.95
421.982	536.89
422.358	524.24
422.735	548.42
423.111	541.64
423.488	555.42
423.864	553.16
424.241	580.96
424.617	571.92
424.994	553.62
425.37	569.21
425.746	570.79
426.123	572.15
426.499	578.02
426.875	575.54
427.251	607.4
427.627	574.63
428.003	596.1
428.379	619.38
428.756	606.95
429.132	646.49
429.507	618.92
429.883	630.68
430.259	643.78
430.635	644.91
431.011	645.36
431.387	634.07
431.763	653.27
432.138	643.1
432.514	663.67
432.89	660.73
433.265	652.82
433.641	678.13
434.016	665.25
434.392	694.85
434.767	702.76
435.143	694.18
435.518	685.82
435.894	701.41
436.269	716.77
436.644	706.83
437.02	732.14
437.395	730.79
437.77	728.3
438.145	721.29
438.52	741.86
438.895	754.29
439.271	743.89
439.646	769.2
440.021	779.6
440.395	759.94
440.77	771.91
441.145	769.65
441.52	770.56
441.895	778.02
442.27	787.96
442.645	788.41
443.019	780.5
443.394	792.93
443.769	793.84
444.143	792.93
444.518	810.56
444.892	818.47
445.267	816.89
445.641	808.75
446.016	830.22
446.39	840.39
446.764	826.15
447.139	841.97
447.513	831.35
447.887	863.21
448.262	857.11
448.636	855.98
449.01	865.25
449.384	859.37
449.758	866.38
450.132	860.95
450.506	909.76
450.88	896.66
451.254	903.89
451.628	883.78
452.002	919.93
452.376	912.93
452.75	891.01
453.123	941.85
453.497	917.22
453.871	946.15
454.244	967.84
454.618	952.93
454.992	987.05
455.365	961.06
455.739	985.92
456.112	1006.71
456.486	1005.13
456.859	1024.11
457.232	993.38
457.606	1022.08
457.979	1046.03
458.352	1089.19
458.725	1078.8
459.099	1082.64
459.472	1110.66
459.845	1095.97
460.218	1119.48
460.591	1120.15
460.964	1112.47
461.337	1152.02
461.71	1155.63
462.083	1175.75
462.456	1194.05
462.829	1186.14
463.201	1226.59
463.574	1208.74
463.947	1235.86
464.32	1263.2
464.692	1260.04
465.065	1262.3
465.438	1296.65
465.81	1309.3
466.183	1290.77
466.555	1342.07
466.928	1384.33
467.3	1363.76
467.672	1397.44
468.045	1389.07
468.417	1429.07
468.789	1455.06
469.161	1477.43
469.534	1470.88
469.906	1519.01
470.278	1520.14
470.65	1535.51
471.022	1568.28
471.394	1583.64
471.766	1608.5
472.138	1611.89
472.51	1659.35
472.882	1689.4
473.253	1713.81
473.625	1752.45
473.997	1817.08
474.369	1780.02
474.74	1854.82
475.112	1874.03
475.484	1936.63
475.855	1928.04
476.227	1963.3
476.598	2013.01
476.97	2074.03
477.341	2119.68
477.713	2164.87
478.084	2174.82
478.455	2260.24
478.827	2265.43
479.198	2351.76
479.569	2352.89
479.94	2437.41
480.311	2501.13
480.682	2524.64
481.053	2622.49
481.424	2699.1
481.795	2696.61
482.166	2777.29
482.537	2841.46
482.908	2925.98
483.279	2933.89
483.65	3009.6
484.021	3122.36
484.391	3196.71
484.762	3255.69
485.133	3289.59
485.503	3352.86
485.874	3442.8
486.244	3541.33
486.615	3607.77
486.985	3668.56
487.356	3794.21
487.726	3848.22
488.097	3923.47
488.467	3982.23
488.837	4115.78
489.207	4132.28
489.578	4253.63
489.948	4271.94
490.318	4368.66
490.688	4490.01
491.058	4549.44
491.428	4638.03
491.798	4715.54
492.168	4809.32
492.538	4836.44
492.908	4973.84
493.278	5060.39
493.648	5061.97
494.017	5171.12
494.387	5304
494.757	5322.08
495.126	5437.1
495.496	5467.38
495.866	5527.27
496.235	5656.08
496.605	5708.06
496.974	5813.82
497.344	5813.82
497.713	5937.43
498.082	5960.48
498.452	6079.12
498.821	6113.02
499.19	6172.68
499.559	6243.18
499.928	6360.69
500.298	6311.88
500.667	6451.09
501.036	6426.91
501.405	6577.86
501.774	6595.72
502.143	6677.75
502.512	6675.26
502.88	6793
503.249	6820.12
503.618	6883.39
503.987	6941.47
504.356	7000.9
504.724	7071.41
505.093	7142.14
505.462	7164.74
505.83	7239.09
506.199	7241.8
506.567	7363.61
506.936	7417.16
507.304	7473.66
507.672	7535.35
508.041	7597.27
508.409	7652.86
508.777	7741
509.145	7779.19
509.514	7745.74
509.882	7913.65
510.25	7835.01
510.618	7950.94
510.986	7962.23
511.354	8087.65
511.722	8205.84
512.09	8191.38
512.458	8239.06
512.826	8314.09
513.193	8370.13
513.561	8367.65
513.929	8427.98
514.297	8486.51
514.664	8491.71
515.032	8572.61
515.4	8606.06
515.767	8676.57
516.135	8672.72
516.502	8679.05
516.869	8796.79
517.237	8802.89
517.604	8788.88
517.972	8877.24
518.339	8948.87
518.706	8947.29
519.073	9038.82
519.44	9014.18
519.808	9172.82
520.175	9122.66
520.542	9246.04
520.909	9305.02
521.276	9239.94
521.643	9422.53
522.009	9408.3
522.376	9522.42
522.743	9576.65
523.11	9599.48
523.477	9694.17
523.843	9788.4
524.21	9846.03
524.577	9897.55
524.943	9951.11
525.31	9919.02
525.676	10069.07
526.043	10110.65
526.409	10155.85
526.776	10199.46
527.142	10317.88
527.508	10321.04
527.874	10367.82
528.241	10453.02
528.607	10520.13
528.973	10605.33
529.339	10557.42
529.705	10697.53
530.071	10810.52
530.437	10830.63
530.803	10851.42
531.169	10978.43
531.535	10930.97
531.901	10923.06
532.267	10992.21
532.632	11060.68
532.998	11145.2
533.364	11168.48
533.73	11211.87
534.095	11342.71
534.461	11346.33
534.826	11394.46
535.192	11486.66
535.557	11507.45
535.923	11493.44
536.288	11568.24
536.653	11623.15
537.019	11698.63
537.384	11659.99
537.749	11828.8
538.114	11780.66
538.479	11848.69
538.845	11865.86
539.21	11864.96
539.575	11965.52
539.94	11958.97
540.305	12118.96
540.67	12000.32
541.034	12190.82
541.399	12200.99
541.764	12293.42
542.129	12313.98
542.494	12353.08
542.858	12380.88
543.223	12441.21
543.587	12518.5
543.952	12540.42
544.316	12552.85
544.681	12586.52
545.045	12626.29
545.41	12738.83
545.774	12796.23
546.138	12845.72
546.503	12896.34
546.867	12921.88
547.231	13047.75
547.595	13038.71
547.959	13091.82
548.324	13074.19
548.688	13141.08
549.052	13146.5
549.416	13286.39
549.779	13247.97
550.143	13332.04
550.507	13412.94
550.871	13423.33
551.235	13450.9
551.599	13534.74
551.962	13555.53
552.326	13558.25
552.689	13681.86
553.053	13545.14
553.417	13613.61
553.78	13824.9
554.143	13736.55
554.507	13806.6
554.87	13895.86
555.234	13964.56
555.597	14025.13
555.96	13951.46
556.323	14107.61
556.686	14116.2
557.05	14241.62
557.413	14201.62
557.776	14320.49
558.139	14315.97
558.502	14391.22
558.865	14459.92
559.228	14442.74
559.59	14571.78
559.953	14636.86
560.316	14731.32
560.679	14682.96
561.041	14802.96
561.404	14836.18
561.767	15006.12
562.129	14815.84
562.492	15042.05
562.854	15014.03
563.217	15058.09
563.579	15053.57
563.941	15182.16
564.304	15273.68
564.666	15327.92
565.028	15357.97
565.39	15407.69
565.753	15459.21
566.115	15507.8
566.477	15484.75
566.839	15580.11
567.201	15666.44
567.563	15629.83
567.925	15786.66
568.287	15853.55
568.648	15897.62
569.01	15957.5
569.372	16092.87
569.734	16030.95
570.095	16259.42
570.457	16201.11
570.819	16301.45
571.18	16372.63
571.542	16527.88
571.903	16551.61
572.265	16534.89
572.626	16620.76
572.987	16754.55
573.349	16828.89
573.71	16907.08
574.071	17023.24
574.432	17077.93
574.794	17153.86
575.155	17205.15
575.516	17215.1
575.877	17370.57
576.238	17436.11
576.599	17619.83
576.96	17620.96
577.32	17750.9
577.681	17972.14
578.042	18051.69
578.403	18041.07
578.763	18262.98
579.124	18381.4
579.485	18496.87
579.845	18748.84
580.206	18871.1
580.566	18901.61
580.927	19171.2
581.287	19296.63
581.648	19338.66
582.008	19636.96
582.368	19733
582.728	20008.7
583.089	20125.53
583.449	20135.93
583.809	20454.56
584.169	20635.12
584.529	20757.83
584.889	21104.71
585.249	21137.48
585.609	21377.93
585.969	21634.42
586.329	21777.24
586.688	22107.85
587.048	22208.64
587.408	22416.54
587.768	22717.33
588.127	22880.71
588.487	23088.16
588.846	23540.58
589.206	23619.68
589.565	23889.27
589.925	24168.36
590.284	24419.2
590.643	24668.69
591.003	25018.28
591.362	25275.68
591.721	25501.66
592.08	25675.67
592.44	26009.44
592.799	26287.63
593.158	26600.84
593.517	26743.89
593.876	26979.81
594.235	27297.77
594.593	27534.37
594.952	27833.8
595.311	27940.47
595.67	28345.88
596.029	28726.21
596.387	28992.42
596.746	29182.02
597.104	29307.44
597.463	29569.35
597.822	29977.25
598.18	29960.98
598.538	30402.32
598.897	30804.12
599.255	30769.09
599.613	31387.38
599.972	31360.94
600.33	31703.98
600.688	31673.02
601.046	32102.39
601.404	32399.33
601.762	32555.49
602.12	32933.1
602.478	33047.9
602.836	33280.89
603.194	33354.79
603.552	33697.6
603.91	33616.25
604.268	34116.12
604.625	34138.95
604.983	34393.4
605.341	34539.61
605.698	34887.18
606.056	35041.52
606.413	35297.79
606.771	35590.89
607.128	35731.22
607.485	35686.25
607.843	35984.77
608.2	36304.54
608.557	36452.11
608.914	36528.26
609.272	36888.93
609.629	37068.81
609.986	37344.29
610.343	37138.19
610.7	37693.2
611.057	37762.81
611.414	37933.88
611.771	38028.11
612.127	38309.01
612.484	38347.88
612.841	38603.24
613.198	38576.34
613.554	38793.06
613.911	39072.6
614.267	39187.18
614.624	39106.95
614.98	39450.9
615.337	39626.49
615.693	39678.01
616.05	39759.36
616.406	40071.22
616.762	40078.9
617.118	40147.38
617.475	40339.69
617.831	40392.57
618.187	40556.63
618.543	40618.1
618.899	40991.65
619.255	40902.84
619.611	40869.62
619.967	41278.42
620.323	41259.66
620.678	41250.4
621.034	41118.42
621.39	41251.53
621.746	41412.2
622.101	41898.52
622.457	41637.28
622.812	41814.23
623.168	41862.59
623.523	41898.52
623.879	42111.84
624.234	41911.85
624.589	42134.67
624.945	42283.14
625.3	42296.92
625.655	42272.52
626.01	42488.78
626.365	42450.59
626.72	42509.12
627.075	42585.73
627.43	42519.52
627.785	42588.67
628.14	42670.47
628.495	42597.26
628.85	42710.47
629.205	42546.41
629.559	42898.49
629.914	42797.7
630.269	42828.66
630.623	42773.52
630.978	42544.83
631.332	42869.11
631.687	43088.99
632.041	42812.62
632.396	43030.69
632.75	42770.13
633.104	42900.3
633.459	42771.04
633.813	42729.46
634.167	42903.46
634.521	42818.27
634.875	42828.21
635.229	42898.26
635.583	42700.53
635.937	42860.3
636.291	42803.58
636.645	42808.78
636.999	42807.87
637.352	42788.89
637.706	42708.21
638.06	42906.85
638.413	42703.02
638.767	42644.26
639.121	42782.56
639.474	42572.62
639.828	42658.27
640.181	42680.42
640.534	42723.81
640.888	42480.42
641.241	42464.38
641.594	42407.2
641.947	42707.31
642.301	42505.96
642.654	42510.93
643.007	42595.45
643.36	42576.92
643.713	42412.18
644.066	42665.5
644.419	42453.53
644.771	42213.31
645.124	41870.95
645.477	41717.73
645.83	41534.01
646.182	41318.87
646.535	41237.29
646.888	41416.04
647.24	41209.72
647.593	41414.69
647.945	41392.09
648.298	41172.66
648.65	41052.89
649.002	41077.07
649.355	41220.12
649.707	41148.03
650.059	41448.13
650.411	41749.82
650.763	41876.82
651.115	42144.61
651.467	42033.65
651.819	41999.98
652.171	41966.54
652.523	41948.01
652.875	41804.73
653.227	41747.79
653.578	41998.63
653.93	41843.83
654.282	41765.87
654.633	41724.74
654.985	41822.13
655.337	41903.49
655.688	41797.5
656.039	41959.31
656.391	41705.98
656.742	41725.19
657.094	41745.98
657.445	41847.44
657.796	41868.46
658.147	41800.67
658.498	41750.27
658.849	41749.59
659.2	41751.85
659.551	41596.6
659.902	41800.67
660.253	41595.25
660.604	41722.93
660.955	41558.41
661.306	41758.18
661.656	41605.64
662.007	41656.04
662.358	41624.85
662.708	41646.55
663.059	41591.18
663.409	41236.16
663.76	41650.84
664.11	41583.27
664.461	41670.5
664.811	41782.14
665.161	41445.87
665.511	41433.22
665.862	41396.16
666.212	41698.97
666.562	41631.18
666.912	41496.49
667.262	41313.9
667.612	41462.6
667.962	41582.59
668.312	41429.83
668.662	41600.9
669.011	41433.44
669.361	41493.1
669.711	41463.95
670.06	41390.73
670.41	41430.28
670.76	41200.23
671.109	41505.08
671.459	41384.63
671.808	41337.63
672.157	41368.14
672.507	41098.54
672.856	41223.51
673.205	41274.13
673.554	41141.25
673.904	41068.48
674.253	41491.97
674.602	41256.05
674.951	40736.29
675.3	40662.62
675.649	41146.9
675.998	41165.88
676.346	41100.12
676.695	41338.76
677.044	41008.82
677.393	41140.34
677.741	41092.21
678.09	40986.22
678.438	40897.87
678.787	41043.17
679.135	40956.39
679.484	40742.16
679.832	40804.99
680.181	40620.13
680.529	40862.16
680.877	40741.71
681.225	40575.16
681.573	40911.65
681.922	40525.22
682.27	40347.15
682.618	40331.33
682.966	40426.24
683.314	40480.7
683.661	40333.81
684.009	40145.57
684.357	40159.81
684.705	40007.04
685.053	40103.08
685.4	40067.6
685.748	39914.61
686.095	39949.64
686.443	39755.75
686.79	39689.08
687.138	39805.46
687.485	39798.01
687.832	39624.45
688.18	39605.7
688.527	39201.41
688.874	39512.14
689.221	39352.14
689.568	39064.92
689.915	39065.6
690.262	39215.42
690.609	39039.16
690.956	38932.27
691.303	38734.31
691.65	38729.56
691.997	38621.54
692.344	38434.88
692.69	38422.22
693.037	38470.13
693.383	38087.09
693.73	38144.49
694.077	38093.65
694.423	38072.4
694.769	37975.23
695.116	37910.37
695.462	37938.62
695.808	37787.66
696.155	37881.22
696.501	37413.66
696.847	37589.7
697.193	37132.77
697.539	37459.09
697.885	37171.41
698.231	36989.04
698.577	36985.43
698.923	36878.54
699.269	36867.91
699.614	36678.77
699.96	36629.5
700.306	36619.79
700.651	36502.73
700.997	36330.75
701.342	36272.45
701.688	36269.51
702.033	36154.04
702.379	36107.93
702.724	36000.37
703.069	36000.14
703.415	35634.05
703.76	35662.3
704.105	35683.09
704.45	35596.54
704.795	35351.57
705.14	35331.01
705.485	35290.33
705.83	35077.23
706.175	35149.99
706.52	35089.88
706.865	34907.29
707.209	34936.89
707.554	34815.99
707.899	34907.74
708.243	34651.25
708.588	34689.89
708.932	34468.2
709.277	34296.23
709.621	34365.83
709.966	34405.61
710.31	34379.62
710.654	34024.83
710.998	34133.3
711.342	34150.25
711.687	34027.99
712.031	33814.44
712.375	33764.49
712.719	33743.03
713.063	33731.5
713.407	33768.79
713.75	33669.58
714.094	33508.23
714.438	33482.69
714.782	33434.11
715.125	33342.58
715.469	33295.13
715.812	33204.73
716.156	32911.41
716.499	32915.25
716.843	32976.72
717.186	32762.26
717.53	33042.7
717.873	33053.1
718.216	32899.43
718.559	32734.01
718.902	32562.72
719.246	32595.94
719.589	32461.93
719.932	32270.75
720.275	32401.82
720.617	32259.9
720.96	32211.99
721.303	32216.51
721.646	32339.67
721.989	31918.89
722.331	32141.71
722.674	32022.62
723.016	32024.65
723.359	32027.59
723.701	31909.4
724.044	31823.75
724.386	31621.27
724.729	31758.9
725.071	31637.32
725.413	31681.61
725.755	31537.66
726.097	31603.87
726.439	31285.24
726.782	31340.15
727.124	31564.55
727.465	31340.83
727.807	31353.26
728.149	31238.68
728.491	31244.11
728.833	31258.57
729.175	31151.23
729.516	31082.98
729.858	30959.6
730.199	31126.37
730.541	31030.33
730.882	30981.29
731.224	30894.96
731.565	30667.17
731.906	30724.35
732.248	30841.86
732.589	30596.67
732.93	30535.65
733.271	30595.31
733.612	30652.94
733.953	30441.87
734.294	30571.58
734.635	30323.91
734.976	30453.62
735.317	30273.29
735.658	30368.65
735.999	30326.62
736.339	30251.82
736.68	30238.71
737.021	30061.54
737.361	29876.23
737.702	30036.91
738.042	29958.04
738.383	30019.28
738.723	29994.88
739.063	29815.67
739.404	29922.79
739.744	29856.8
740.084	29775.22
740.424	29722.11
740.764	29678.73
741.104	29787.2
741.444	29602.8
741.784	29493.42
742.124	29539.29
742.464	29445.74
742.804	29547.43
743.143	29402.8
743.483	29317.83
743.823	29326.64
744.162	29198.29
744.502	29351.5
744.841	29191.73
745.181	29361.9
745.52	29113.99
745.86	29130.94
746.199	29126.2
746.538	29052.98
746.877	29122.36
747.216	28973.21
747.556	28937.5
747.895	28873.1
748.234	28819.76
748.573	28736.38
748.911	28785.42
749.25	28794.45
749.589	28585.42
749.928	28678.07
750.267	28753.55
750.605	28595.14
750.944	28569.83
751.283	28364.41
751.621	28477.4
751.96	28349.04
752.298	28328.7
752.636	28336.16
752.975	28193.57
753.313	28123.06
753.651	28179.1
753.989	28052.78
754.327	28001.26
754.666	27695.05
755.004	27908.38
755.342	27910.18
755.679	27880.35
756.017	27722.84
756.355	27881.48
756.693	27603.07
757.031	27721.04
757.368	27616.86
