Data from hue_150_FLMS001491_00093.txt Node
Date: Tue Feb 07 16:54:47 GMT 2017
User: dcchb
Spectrometer: FLMS00149
Trigger mode: 0
Integration Time (sec): 2.000000E-2
Scans to average: 10
Electric dark correction enabled: true
Nonlinearity correction enabled: false
Boxcar width: 0
XAxis mode: Wavelengths
Number of Pixels in Spectrum: 2048
>>>>>Begin Spectral Data<<<<<
341.393	-11.41
341.776	-11.41
342.16	-11.41
342.543	-73.78
342.927	-86.89
343.31	-59.77
343.693	-69.72
344.077	-78.08
344.46	-68.13
344.843	-62.03
345.226	-24.97
345.61	-33.56
345.993	-9.15
346.376	-3.05
346.759	2.15
347.142	17.06
347.525	46.67
347.908	74.01
348.291	69.26
348.674	87.57
349.057	111.75
349.44	137.96
349.823	171.18
350.206	152.43
350.588	180.67
350.971	201.69
351.354	232.42
351.737	245.08
352.119	245.53
352.502	258.86
352.884	259.77
353.267	274.46
353.65	298.64
354.032	314.46
354.414	308.35
354.797	306.77
355.179	315.13
355.562	321.46
355.944	318.3
356.326	316.49
356.709	341.12
357.091	333.44
357.473	334.34
357.855	331.86
358.238	339.99
358.62	352.19
359.002	344.28
359.384	339.77
359.766	354
360.148	325.3
360.53	318.75
360.912	324.85
361.294	347.9
361.676	343.15
362.057	343.15
362.439	315.13
362.821	318.75
363.203	327.79
363.584	310.84
363.966	322.82
364.348	346.09
364.729	325.98
365.111	304.96
365.493	311.29
365.874	320.33
366.256	319.43
366.637	329.82
367.019	281.46
367.4	292.31
367.781	328.47
368.163	323.72
368.544	316.04
368.925	304.06
369.306	321.23
369.688	311.97
370.069	323.27
370.45	316.26
370.831	311.29
371.212	323.27
371.593	316.49
371.974	307.22
372.355	313.78
372.736	313.55
373.117	347
373.498	322.14
373.879	336.38
374.26	293.66
374.641	325.08
375.021	326.88
375.402	315.58
375.783	321.91
376.163	327.79
376.544	332.53
376.925	306.32
377.305	327.79
377.686	310.39
378.066	326.88
378.447	324.85
378.827	336.38
379.208	327.11
379.588	334.57
379.968	329.82
380.349	343.15
380.729	311.97
381.109	328.47
381.489	328.69
381.87	340.67
382.25	334.34
382.63	340.44
383.01	331.18
383.39	334.12
383.77	335.7
384.15	314.68
384.53	321.46
384.91	329.82
385.29	341.57
385.67	357.62
386.049	294.79
386.429	356.04
386.809	335.25
387.189	351.06
387.568	355.13
387.948	336.15
388.328	345.64
388.707	347.9
389.087	350.84
389.466	343.61
389.846	344.51
390.225	357.84
390.605	352.65
390.984	361.69
391.363	367.11
391.743	371.4
392.122	367.79
392.501	375.92
392.881	362.59
393.26	365.75
393.639	367.79
394.018	361.23
394.397	365.53
394.776	365.3
395.155	374.11
395.534	358.3
395.913	393.32
396.292	366.21
396.671	356.71
397.05	371.18
397.429	349.26
397.808	383.15
398.186	386.77
398.565	365.98
398.944	384.74
399.323	377.96
399.701	387.67
400.08	374.11
400.458	392.65
400.837	396.71
401.215	364.62
401.594	375.92
401.972	391.52
402.351	405.07
402.729	419.76
403.107	385.41
403.486	393.1
403.864	406.43
404.242	396.49
404.62	412.08
404.999	406.2
405.377	385.19
405.755	422.93
406.133	414.34
406.511	408.92
406.889	407.33
407.267	429.71
407.645	396.26
408.023	425.41
408.401	431.97
408.779	425.64
409.156	443.94
409.534	426.32
409.912	405.07
410.29	440.55
410.667	415.24
411.045	428.58
411.422	447.78
411.8	452.76
412.178	441.01
412.555	464.51
412.933	455.24
413.31	435.58
413.687	450.27
414.065	453.89
414.442	456.15
414.819	476.26
415.197	476.26
415.574	477.39
415.951	467.9
416.328	477.84
416.705	476.48
417.082	466.09
417.46	456.15
417.837	474.45
418.214	473.09
418.591	496.15
418.967	520.55
419.344	495.02
419.721	476.03
420.098	489.59
420.475	492.08
420.852	495.47
421.228	498.86
421.605	512.64
421.982	509.25
422.358	534.79
422.735	521.46
423.111	514.68
423.488	530.49
423.864	518.52
424.241	539.53
424.617	545.86
424.994	516.26
425.37	547.44
425.746	526.65
426.123	530.95
426.499	556.26
426.875	539.99
427.251	560.1
427.627	567.56
428.003	559.87
428.379	545.86
428.756	565.75
429.132	590.83
429.507	602.81
429.883	609.14
430.259	594.67
430.635	593.32
431.011	592.41
431.387	606.65
431.763	613.2
432.138	605.97
432.514	622.47
432.89	614.33
433.265	642.36
433.641	639.87
434.016	612.3
434.392	647.55
434.767	639.42
435.143	659.3
435.518	658.85
435.894	677.61
436.269	685.74
436.644	679.19
437.02	683.48
437.395	681.45
437.77	694.78
438.145	691.62
438.52	696.82
438.895	720.55
439.271	693.43
439.646	728
440.021	741.34
440.395	728.23
440.77	735.46
441.145	724.39
441.52	764.16
441.895	731.17
442.27	768.68
442.645	743.82
443.019	744.5
443.394	754.9
443.769	773.43
444.143	765.06
444.518	764.61
444.892	763.48
445.267	791.5
445.641	789.92
446.016	800.32
446.39	792.86
446.764	820.43
447.139	804.16
447.513	804.16
447.887	804.61
448.262	810.49
448.636	822.69
449.01	840.99
449.384	839.19
449.758	859.53
450.132	855.91
450.506	862.01
450.88	874.21
451.254	860.43
451.628	872.18
452.002	882.12
452.376	906.08
452.75	883.93
453.123	920.77
453.497	916.93
453.871	899.98
454.244	916.02
454.618	927.55
454.992	964.38
455.365	960.31
455.739	971.39
456.112	984.49
456.486	964.61
456.859	1006.19
457.232	1032.63
457.606	1026.3
457.979	1013.19
458.352	1066.75
458.725	1038.05
459.099	1078.28
459.472	1073.98
459.845	1087.77
460.218	1118.95
460.591	1106.07
460.964	1133.64
461.337	1113.08
461.71	1154.88
462.083	1168.22
462.456	1188.56
462.829	1184.94
463.201	1199.4
463.574	1194.21
463.947	1238.05
464.32	1238.27
464.692	1264.49
465.065	1295.9
465.438	1270.81
465.81	1305.16
466.183	1315.11
466.555	1357.59
466.928	1388.55
467.3	1383.58
467.672	1413.41
468.045	1451.83
468.417	1459.51
468.789	1494.76
469.161	1470.58
469.534	1506.06
469.906	1562.11
470.278	1568.21
470.65	1623.12
471.022	1635.55
471.394	1664.25
471.766	1679.39
472.138	1714.19
472.51	1779.95
472.882	1784.7
473.253	1825.15
473.625	1837.35
473.997	1920.06
474.369	1973.17
474.74	1972.49
475.112	1989.44
475.484	2065.37
475.855	2085.26
476.227	2154.63
476.598	2202.99
476.97	2290.67
477.341	2327.06
477.713	2405.47
478.084	2431.24
478.455	2541.52
478.827	2562.31
479.198	2659.7
479.569	2700.83
479.94	2797.1
480.311	2845.24
480.682	2936.98
481.053	2995.74
481.424	3123.42
481.795	3170.65
482.166	3297.88
482.537	3334.49
482.908	3473.02
483.279	3553.24
483.65	3641.15
484.021	3711.43
484.391	3828.03
484.762	3898.54
485.133	3988.93
485.503	4052.21
485.874	4247.68
486.244	4276.61
486.615	4465.76
486.985	4533.78
487.356	4689.48
487.726	4777.61
488.097	4895.13
488.467	4977.38
488.837	5144.16
489.207	5211.05
489.578	5360.2
489.948	5551.15
490.318	5683.35
490.688	5689.91
491.058	5871.15
491.428	5980.07
491.798	6081.54
492.168	6285.82
492.538	6409.44
492.908	6524.01
493.278	6612.37
493.648	6708.64
494.017	6837.67
494.387	6936.2
494.757	7084.67
495.126	7219.36
495.496	7277.89
495.866	7358.11
496.235	7511.1
496.605	7624.77
496.974	7768.5
497.344	7876.97
497.713	8006.23
498.082	8116.28
498.452	8243.96
498.821	8292.55
499.19	8383.62
499.559	8482.38
499.928	8567.8
500.298	8650.96
500.667	8808.02
501.036	8805.31
501.405	8894.12
501.774	9019.99
502.143	9081
502.512	9192.87
502.88	9240.1
503.249	9265.18
503.618	9372.52
503.987	9570.93
504.356	9616.81
504.724	9671.95
505.093	9751.72
505.462	9747.43
505.83	9800.08
506.199	9906.97
506.567	10035.1
506.936	10024.03
507.304	10189.9
507.672	10234.65
508.041	10217.25
508.409	10330.91
508.777	10464.24
509.145	10449.33
509.514	10435.09
509.882	10500.18
510.25	10593.73
510.618	10667.4
510.986	10690
511.354	10837.12
511.722	10901.3
512.09	10915.53
512.458	10918.7
512.826	11018.81
513.193	10990.56
513.561	10954.85
513.929	11122.76
514.297	11170.67
514.664	11207.28
515.032	11216.77
515.4	11248.18
515.767	11285.92
516.135	11324.34
516.502	11203.43
516.869	11519.81
517.237	11422.86
517.604	11419.7
517.972	11544.89
518.339	11469.87
518.706	11573.14
519.073	11479.13
519.44	11564.78
519.808	11632.12
520.175	11643.2
520.542	11707.15
520.909	11727.26
521.276	11625.12
521.643	11742.18
522.009	11786.92
522.376	11841.38
522.743	11771.78
523.11	11872.34
523.477	11835.06
523.843	11887.71
524.21	12056.75
524.577	12092.9
524.943	12005
525.31	12044.54
525.676	12142.84
526.043	12154.14
526.409	12157.99
526.776	12199.79
527.142	12143.75
527.508	12194.14
527.874	12221.49
528.241	12188.72
528.607	12169.28
528.973	12319.56
529.339	12121.83
529.705	12361.14
530.071	12226.23
530.437	12306
530.803	12263.07
531.169	12300.35
531.535	12221.26
531.901	12187.59
532.267	12187.36
532.632	12247.25
532.998	12273.91
533.364	12158.44
533.73	12222.39
534.095	12220.81
534.461	12228.04
534.826	12233.01
535.192	12182.39
535.557	12186.01
535.923	12091.09
536.288	12082.28
536.653	12074.82
537.019	12030.98
537.384	11979.46
537.749	11966.13
538.114	11990.53
538.479	11942.62
538.845	11903.98
539.21	11894.04
539.575	11905.11
539.94	11889.07
540.305	11837.54
540.67	11730.65
541.034	11811.33
541.399	11762.06
541.764	11692.46
542.129	11677.32
542.494	11712.35
542.858	11571.56
543.223	11579.47
543.587	11602.97
543.952	11534.27
544.316	11526.36
544.681	11393.71
545.045	11456.99
545.41	11372.24
545.774	11430.09
546.138	11338.8
546.503	11330.21
546.867	11287.27
547.231	11264.68
547.595	11267.61
547.959	11189.88
548.324	11169.08
548.688	11108.52
549.052	11127.5
549.416	11136.09
549.779	10998.47
550.143	10985.36
550.507	10985.13
550.871	11026.49
551.235	10932.93
551.599	10936.32
551.962	10882.31
552.326	10862.88
552.689	10855.42
553.053	10817.46
553.417	10738.81
553.78	10895.42
554.143	10816.78
554.507	10773.16
554.87	10805.7
555.234	10822.43
555.597	10628.76
555.96	10678.93
556.323	10658.14
556.686	10596.9
557.05	10664.69
557.413	10632.6
557.776	10617.91
558.139	10618.82
558.502	10581.98
558.865	10582.43
559.228	10585.6
559.59	10600.06
559.953	10616.78
560.316	10652.94
560.679	10631.25
561.041	10572.72
561.404	10631.92
561.767	10628.76
562.129	10511.25
562.492	10618.14
562.854	10561.87
563.217	10599.38
563.579	10480.06
563.941	10637.8
564.304	10620.62
564.666	10651.36
565.028	10627.86
565.39	10734.07
565.753	10651.36
566.115	10683.9
566.477	10631.7
566.839	10668.99
567.201	10725.93
567.563	10664.69
567.925	10771.36
568.287	10737.46
568.648	10695.88
569.01	10745.82
569.372	10698.81
569.734	10698.36
570.095	10797.57
570.457	10717.8
570.819	10799.83
571.18	10765.48
571.542	10816.78
571.903	10768.19
572.265	10775.87
572.626	10754.63
572.987	10882.09
573.349	10776.78
573.71	10824.69
574.071	10821.52
574.432	10784.69
574.794	10866.27
575.155	10782.2
575.516	10807.96
575.877	10900.84
576.238	10791.47
576.599	10939.49
576.96	10889.09
577.32	10859.71
577.681	10990.33
578.042	10926.15
578.403	10859.04
578.763	10934.29
579.124	10861.3
579.485	10955.76
579.845	10934.51
580.206	10859.49
580.566	10833.5
580.927	10824.69
581.287	10867.62
581.648	10798.02
582.008	10915.98
582.368	10902.65
582.728	10808.87
583.089	10895.65
583.449	10835.31
583.809	10824.46
584.169	10834.4
584.529	10800.73
584.889	10837.79
585.249	10852.71
585.609	10777
585.969	10778.13
586.329	10701.98
586.688	10798.47
587.048	10755.31
587.408	10755.54
587.768	10757.12
588.127	10756.89
588.487	10725.48
588.846	10786.72
589.206	10678.25
589.565	10685.26
589.925	10777.68
590.284	10675.31
590.643	10716.67
591.003	10691.81
591.362	10741.98
591.721	10696.55
592.08	10642.32
592.44	10640.51
592.799	10673.05
593.158	10636.44
593.517	10679.83
593.876	10637.12
594.235	10642.32
594.593	10684.35
594.952	10667.18
595.311	10635.99
595.67	10624.69
596.029	10680.74
596.387	10700.62
596.746	10695.2
597.104	10640.74
597.463	10570.68
597.822	10610.46
598.18	10583.56
598.538	10569.55
598.897	10644.35
599.255	10575.43
599.613	10690.68
599.972	10590.79
600.33	10579.95
600.688	10604.58
601.046	10584.69
601.404	10676.89
601.762	10644.58
602.12	10682.77
602.478	10610.91
602.836	10621.98
603.194	10634.41
603.552	10615.43
603.91	10633.05
604.268	10624.01
604.625	10557.12
604.983	10637.35
605.341	10555.54
605.698	10603.9
606.056	10626.95
606.413	10577.24
606.771	10675.09
607.128	10677.8
607.485	10605.94
607.843	10542.43
608.2	10654.75
608.557	10652.26
608.914	10549.21
609.272	10703.79
609.629	10674.41
609.986	10696.33
610.343	10663.34
610.7	10642.09
611.057	10706.72
611.414	10681.87
611.771	10632.83
612.127	10800.73
612.484	10750.11
612.841	10719.61
613.198	10681.19
613.554	10732.26
613.911	10697.68
614.267	10773.62
614.624	10721.41
614.98	10778.36
615.337	10833.95
615.693	10781.98
616.05	10710.79
616.406	10879.15
616.762	10799.83
617.118	10823.11
617.475	10752.82
617.831	10842.54
618.187	10809.55
618.543	10832.6
618.899	10904.69
619.255	10888.87
619.611	10857
619.967	10920.96
620.323	10966.6
620.678	10905.59
621.034	10829.88
621.39	10849.77
621.746	10901.3
622.101	10954.63
622.457	10853.16
622.812	10874.63
623.168	10914.4
623.523	10867.62
623.879	11004.34
624.234	10834.18
624.589	10859.71
624.945	10875.99
625.3	10925.25
625.655	10820.85
626.01	10882.54
626.365	10903.56
626.72	10849.32
627.075	10857.45
627.43	10936.32
627.785	10842.31
628.14	10891.58
628.495	10910.79
628.85	10883.22
629.205	10797.8
629.559	10828.53
629.914	10770.9
630.269	10829.88
630.623	10792.15
630.978	10774.97
631.332	10830.11
631.687	10792.15
632.041	10755.31
632.396	10803.22
632.75	10714.86
633.104	10751.24
633.459	10686.39
633.813	10720.96
634.167	10740.17
634.521	10761.41
634.875	10679.38
635.229	10670.79
635.583	10674.86
635.937	10658.14
636.291	10583.11
636.645	10641.42
636.999	10647.74
637.352	10657.46
637.706	10618.82
638.06	10642.09
638.413	10629.66
638.767	10598.25
639.121	10602.09
639.474	10512.38
639.828	10506.28
640.181	10510.35
640.534	10539.04
640.888	10478.03
641.241	10454.75
641.594	10422.21
641.947	10474.64
642.301	10482.55
642.654	10428.31
643.007	10451.14
643.36	10463.79
643.713	10466.73
644.066	10434.64
644.419	10345.6
644.771	10280.52
645.124	10242.33
645.477	10209.11
645.83	10188.09
646.182	10169.11
646.535	10119.39
646.888	10087.31
647.24	10039.85
647.593	10109.45
647.945	10101.54
648.298	10059.51
648.65	10011.83
649.002	10037.36
649.355	10072.39
649.707	10099.51
650.059	10110.36
650.411	10231.93
650.763	10294.08
651.115	10298.83
651.467	10283.23
651.819	10297.47
652.171	10297.47
652.523	10297.7
652.875	10319.62
653.227	10267.87
653.578	10410.91
653.93	10292.72
654.282	10290.24
654.633	10213.18
654.985	10316.68
655.337	10202.33
655.688	10350.8
656.039	10363.91
656.391	10252.05
656.742	10304.47
657.094	10316.45
657.445	10351.93
657.796	10348.09
658.147	10301.76
658.498	10325.49
658.849	10334.76
659.2	10297.92
659.551	10218.83
659.902	10322.55
660.253	10280.07
660.604	10361.87
660.955	10301.54
661.306	10305.15
661.656	10348.09
662.007	10348.54
662.358	10330.01
662.708	10380.41
663.059	10363
663.409	10280.29
663.76	10382.44
664.11	10412.49
664.461	10355.32
664.811	10332.5
665.161	10331.59
665.511	10309.22
665.862	10390.57
666.212	10378.37
666.562	10432.16
666.912	10397.81
667.262	10373.63
667.612	10249.79
667.962	10330.01
668.312	10297.47
668.662	10329.56
669.011	10354.87
669.361	10355.77
669.711	10346.06
670.06	10286.85
670.41	10308.77
670.76	10259.73
671.109	10337.92
671.459	10303.34
671.808	10376.11
672.157	10296.34
672.507	10171.37
672.856	10248.43
673.205	10294.53
673.554	10311.03
673.904	10251.37
674.253	10299.96
674.602	10274.19
674.951	10066.97
675.3	10029.91
675.649	10213.63
675.998	10222.44
676.346	10194.42
676.695	10280.97
677.044	10178.83
677.393	10186.74
677.741	10241.43
678.09	10157.59
678.438	10132.28
678.787	10152.61
679.135	10137.7
679.484	10051.6
679.832	10151.71
680.181	10050.92
680.529	10063.35
680.877	9988.1
681.225	10012.51
681.573	10046.18
681.922	9982.22
682.27	9962.56
682.618	9943.81
682.966	9980.19
683.314	10054.54
683.661	9989
684.009	9950.13
684.357	9872.4
684.705	9841.89
685.053	9872.85
685.4	9822.45
685.748	9737.71
686.095	9784.04
686.443	9802.12
686.79	9688.9
687.138	9734.32
687.485	9732.74
687.832	9707.43
688.18	9653.19
688.527	9573.65
688.874	9555.12
689.221	9521.22
689.568	9562.35
689.915	9539.07
690.262	9483.93
690.609	9552.63
690.956	9477.15
691.303	9442.12
691.65	9345.63
691.997	9429.92
692.344	9335.23
692.69	9301.56
693.037	9298.63
693.383	9214.11
693.73	9175.69
694.077	9163.71
694.423	9202.13
694.769	9080.1
695.116	9105.64
695.462	9019.99
695.808	9033.32
696.155	9046.65
696.501	8980.67
696.847	8939.54
697.193	8878.07
697.539	8922.59
697.885	8839.88
698.231	8795.59
698.577	8824.29
698.923	8764.4
699.269	8756.04
699.614	8660
699.96	8656.83
700.306	8646.89
700.651	8577.74
700.997	8565.31
701.342	8554.24
701.688	8523.96
702.033	8496.39
702.379	8515.37
702.724	8415.03
703.069	8419.78
703.415	8334.58
703.76	8311.08
704.105	8356.5
704.45	8397.41
704.795	8304.53
705.14	8183.17
705.485	8237.41
705.83	8172.78
706.175	8270.4
706.52	8191.99
706.865	8195.38
707.209	8160.12
707.554	8097.08
707.899	8083.74
708.243	8010.3
708.588	8058.43
708.932	7950.19
709.277	7919
709.621	7903.41
709.966	7913.58
710.31	7941.15
710.654	7791.77
710.998	7844.88
711.342	7852.11
711.687	7841.71
712.031	7736.86
712.375	7784.54
712.719	7786.8
713.063	7779.8
713.407	7784.99
713.75	7713.81
714.094	7727.59
714.438	7605.34
714.782	7688.05
715.125	7621.61
715.469	7662.28
715.812	7558.56
716.156	7624.09
716.499	7591.1
716.843	7606.69
717.186	7552.91
717.53	7538.9
717.873	7515.4
718.216	7537.54
718.559	7462.52
718.902	7446.7
719.246	7476.3
719.589	7465.23
719.932	7478.56
720.275	7473.59
720.617	7414.16
720.96	7402.4
721.303	7398.56
721.646	7406.25
721.989	7393.59
722.331	7417.32
722.674	7441.05
723.016	7454.83
723.359	7348.85
723.701	7358.79
724.044	7324.89
724.386	7404.44
724.729	7366.92
725.071	7361.05
725.413	7303.88
725.755	7356.3
726.097	7351.78
726.439	7267.27
726.782	7284.67
727.124	7321.95
727.465	7332.58
727.807	7288.96
728.149	7260.94
728.491	7237.21
728.833	7287.6
729.175	7284.22
729.516	7287.38
729.858	7267.04
730.199	7251
730.541	7251.67
730.882	7281.5
731.224	7333.25
731.565	7272.46
731.906	7323.76
732.248	7287.6
732.589	7283.99
732.93	7257.55
733.271	7256.65
733.612	7214.61
733.953	7325.57
734.294	7281.96
734.635	7261.39
734.976	7268.4
735.317	7211.45
735.658	7246.93
735.999	7322.86
736.339	7246.48
736.68	7238.11
737.021	7276.76
737.361	7259.36
737.702	7286.93
738.042	7335.97
738.383	7245.57
738.723	7314.27
739.063	7295.74
739.404	7323.99
739.744	7321.95
740.084	7292.35
740.424	7347.49
740.764	7401.27
741.104	7362.41
741.444	7370.09
741.784	7307.04
742.124	7402.18
742.464	7366.47
742.804	7444.44
743.143	7404.21
743.483	7504.77
743.823	7419.8
744.162	7487.6
744.502	7565.56
744.841	7590.65
745.181	7611.66
745.52	7563.76
745.86	7606.01
746.199	7698.67
746.538	7695.73
746.877	7713.58
747.216	7880.13
747.556	7908.38
747.895	7942.05
748.234	7869.06
748.573	7918.55
748.911	8034.7
749.25	8068.83
749.589	8132.78
749.928	8206.45
750.267	8248.94
750.605	8323.74
750.944	8384.53
751.283	8383.85
751.621	8533.45
751.96	8623.84
752.298	8752.88
752.636	8735.02
752.975	8853.21
753.313	8913.78
753.651	9085.75
753.989	9134.79
754.327	9214.79
754.666	9293.65
755.004	9469.47
755.342	9638.05
755.679	9678.28
756.017	9742.46
756.355	9991.71
756.693	10033.3
757.031	10173.86
757.368	10278.71
757.706	10455.21
758.044	10544.24
758.381	10742.88
758.719	10881.41
759.056	11044.79
759.394	11149.42
759.731	11220.83
760.068	11414.95
760.405	11529.98
760.743	11613.82
