Data from hue_180_FLMS001491_00082.txt Node
Date: Tue Feb 07 16:47:35 GMT 2017
User: dcchb
Spectrometer: FLMS00149
Trigger mode: 0
Integration Time (sec): 2.000000E-2
Scans to average: 10
Electric dark correction enabled: true
Nonlinearity correction enabled: false
Boxcar width: 0
XAxis mode: Wavelengths
Number of Pixels in Spectrum: 2048
>>>>>Begin Spectral Data<<<<<
341.393	-21.1
341.776	-21.1
342.16	-21.1
342.543	-49.12
342.927	-48.22
343.31	-74.89
343.693	-67.43
344.077	-60.42
344.46	-46.64
344.843	-54.77
345.226	-43.25
345.61	-33.53
345.993	-44.6
346.376	-3.93
346.759	-7.09
347.142	33.36
347.525	51.44
347.908	54.6
348.291	65.45
348.674	121.49
349.057	110.19
349.44	124.43
349.823	160.81
350.206	171.21
350.588	208.27
350.971	214.15
351.354	211.66
351.737	219.8
352.119	264.09
352.502	248.5
352.884	265.9
353.267	272.9
353.65	300.02
354.032	331.66
354.414	302.05
354.797	316.29
355.179	321.04
355.562	320.58
355.944	336.86
356.326	335.05
356.709	342.96
357.091	336.63
357.473	339.79
357.855	338.21
358.238	353.35
358.62	339.79
359.002	332.79
359.384	331.21
359.766	349.96
360.148	346.35
360.53	335.95
360.912	333.24
361.294	333.01
361.676	337.31
362.057	329.4
362.439	321.94
362.821	324.65
363.203	335.73
363.584	313.81
363.966	314.94
364.348	297.99
364.729	328.49
365.111	324.65
365.493	316.52
365.874	327.82
366.256	308.83
366.637	312.68
367.019	319.91
367.4	315.39
367.781	332.11
368.163	312.45
368.544	305.44
368.925	345.44
369.306	321.26
369.688	314.26
370.069	321.26
370.45	316.52
370.831	321.04
371.212	323.97
371.593	312.68
371.974	315.84
372.355	315.61
372.736	329.62
373.117	312.9
373.498	311.55
373.879	307.25
374.26	308.38
374.641	319.91
375.021	322.39
375.402	316.07
375.783	324.2
376.163	332.56
376.544	322.84
376.925	319.91
377.305	321.49
377.686	317.87
378.066	310.19
378.447	318.32
378.827	304.77
379.208	311.77
379.588	342.05
379.968	313.81
380.349	326.01
380.729	336.86
381.109	326.01
381.489	340.02
381.87	324.43
382.25	349.06
382.63	342.51
383.01	346.35
383.39	351.32
383.77	340.7
384.15	330.08
384.53	323.3
384.91	357.42
385.29	345.44
385.67	354.48
386.049	366.91
386.429	353.58
386.809	348.83
387.189	362.84
387.568	361.71
387.948	349.51
388.328	369.17
388.707	368.95
389.087	344.09
389.466	370.08
389.846	350.64
390.225	362.62
390.605	371.43
390.984	352.67
391.363	350.41
391.743	366.01
392.122	361.04
392.501	388.15
392.881	371.43
393.26	403.97
393.639	366.46
394.018	381.37
394.397	362.84
394.776	384.99
395.155	356.29
395.534	376.4
395.913	393.58
396.292	376.18
396.671	390.41
397.05	396.29
397.429	394.93
397.808	409.4
398.186	396.06
398.565	407.59
398.944	410.75
399.323	385.22
399.701	406.23
400.08	414.37
400.458	397.87
400.837	404.65
401.215	413.01
401.594	416.63
401.972	410.75
402.351	429.73
402.729	420.24
403.107	437.42
403.486	421.83
403.864	433.8
404.242	432.9
404.62	437.87
404.999	424.31
405.377	427.02
405.755	437.64
406.133	448.72
406.511	459.79
406.889	456.85
407.267	477.19
407.645	476.29
408.023	471.32
408.401	459.56
408.779	480.35
409.156	482.84
409.534	485.78
409.912	512.22
410.29	502.73
410.667	511.09
411.045	512.9
411.422	506.57
411.8	534.82
412.178	531.43
412.555	531.88
412.933	550.64
413.31	540.47
413.687	556.28
414.065	582.72
414.442	577.08
414.819	584.53
415.197	599.45
415.574	606.45
415.951	610.75
416.328	608.26
416.705	617.3
417.082	641.25
417.46	636.51
417.837	629.96
418.214	641.03
418.591	654.81
418.967	647.13
419.344	646.9
419.721	662.72
420.098	672.21
420.475	676.06
420.852	686.45
421.228	717.18
421.605	728.48
421.982	738.43
422.358	735.72
422.735	758.31
423.111	764.87
423.488	795.37
423.864	759.22
424.241	810.74
424.617	805.54
424.994	825.66
425.37	817.29
425.746	806.9
426.123	837.86
426.499	848.93
426.875	871.98
427.251	874.02
427.627	907.91
428.003	906.78
428.379	894.58
428.756	908.59
429.132	926.67
429.507	936.61
429.883	956.73
430.259	966.67
430.635	968.03
431.011	969.38
431.387	985.43
431.763	1019.1
432.138	1015.03
432.514	1044.63
432.89	1047.8
433.265	1069.72
433.641	1102.03
434.016	1106.33
434.392	1112.65
434.767	1130.73
435.143	1150.62
435.518	1155.14
435.894	1193.78
436.269	1213.44
436.644	1215.02
437.02	1262.93
437.395	1241.01
437.77	1271.75
438.145	1292.76
438.52	1313.1
438.895	1328.47
439.271	1324.63
439.646	1357.85
440.021	1354.46
440.395	1375.7
440.77	1392.42
441.145	1420.67
441.52	1432.19
441.895	1436.71
442.27	1454.11
442.645	1495.02
443.019	1464.96
443.394	1515.81
443.769	1516.71
444.143	1506.09
444.518	1537.5
444.892	1568.46
445.267	1576.37
445.641	1592.19
446.016	1601.91
446.39	1593.09
446.764	1592.87
447.139	1604.17
447.513	1626.31
447.887	1674
448.262	1653.88
448.636	1664.05
449.01	1689.14
449.384	1719.87
449.758	1717.84
450.132	1721.9
450.506	1755.35
450.88	1784.28
451.254	1770.94
451.628	1794.9
452.002	1796.93
452.376	1830.38
452.75	1811.39
453.123	1850.04
453.497	1925.06
453.871	1912.63
454.244	1952.41
454.618	1943.82
454.992	1966.19
455.365	1994.89
455.739	2051.61
456.112	2064.27
456.486	2084.38
456.859	2097.26
457.232	2112.18
457.606	2125.06
457.979	2175.68
458.352	2230.14
458.725	2264.49
459.099	2265.62
459.472	2305.17
459.845	2313.75
460.218	2338.38
460.591	2381.55
460.964	2386.52
461.337	2450.25
461.71	2463.81
462.083	2495.67
462.456	2484.6
462.829	2545.16
463.201	2607.53
463.574	2628.55
463.947	2646.85
464.32	2680.52
464.692	2680.52
465.065	2750.58
465.438	2776.79
465.81	2821.54
466.183	2883.68
466.555	2930.01
466.928	2951.93
467.3	2947.18
467.672	2995.54
468.045	3105.37
468.417	3094.07
468.789	3131.13
469.161	3169.55
469.534	3197.35
469.906	3316.89
470.278	3323.44
470.65	3393.27
471.022	3452.93
471.394	3500.16
471.766	3539.94
472.138	3599.37
472.51	3662.87
472.882	3730.44
473.253	3800.27
473.625	3852.02
473.997	3908.06
474.369	3969.75
474.74	4011.11
475.112	4091.33
475.484	4169.52
475.855	4317.99
476.227	4290.65
476.598	4398.9
476.97	4464.88
477.341	4586.01
477.713	4625.1
478.084	4640.7
478.455	4807.7
478.827	4920.24
479.198	5028.94
479.569	5038.43
479.94	5190.06
480.311	5243.62
480.682	5391.86
481.053	5496.04
481.424	5630.73
481.795	5693.55
482.166	5740.78
482.537	5850.16
482.908	6024.16
483.279	6098.96
483.65	6154.78
484.021	6350.48
484.391	6346.87
484.762	6498.05
485.133	6570.14
485.503	6690.13
485.874	6806.29
486.244	6906.4
486.615	7064.81
486.985	7177.58
487.356	7293.73
487.726	7359.95
488.097	7584.35
488.467	7592.48
488.837	7719.03
489.207	7895.75
489.578	7939.82
489.948	8013.04
490.318	8189.3
490.688	8191.11
491.058	8403.54
491.428	8399.47
491.798	8600.37
492.168	8713.36
492.538	8783.19
492.908	8845.11
493.278	8963.3
493.648	9038.1
494.017	9169.84
494.387	9270.63
494.757	9326.22
495.126	9412.32
495.496	9483.06
495.866	9466.33
496.235	9648.48
496.605	9694.58
496.974	9781.58
497.344	9827
497.713	9945.19
498.082	9986.32
498.452	10076.71
498.821	10091.85
499.19	10143.38
499.559	10208.01
499.928	10249.36
500.298	10351.06
500.667	10364.39
501.036	10440.09
501.405	10495.01
501.774	10482.8
502.143	10600.09
502.512	10633.76
502.88	10660.65
503.249	10706.3
503.618	10776.58
503.987	10829.91
504.356	10888.89
504.724	10946.52
505.093	10946.29
505.462	10953.3
505.83	10999.17
506.199	11142.67
506.567	11203.91
506.936	11158.72
507.304	11269.45
507.672	11310.13
508.041	11263.57
508.409	11366.62
508.777	11446.85
509.145	11446.85
509.514	11428.99
509.882	11439.61
510.25	11521.42
510.618	11531.82
510.986	11544.7
511.354	11661.53
511.722	11618.59
512.09	11735.88
512.458	11714.41
512.826	11809.77
513.193	11763.45
513.561	11763
513.929	11855.65
514.297	11843.9
514.664	11928.42
515.032	11911.92
515.4	11950.56
515.767	12000.05
516.135	12004.57
516.502	11872.6
516.869	12104.68
517.237	12097
517.604	12014.97
517.972	12088.18
518.339	12129.77
518.706	12108.3
519.073	12049.09
519.44	12171.35
519.808	12339.93
520.175	12202.08
520.542	12302.87
520.909	12307.84
521.276	12299.25
521.643	12332.02
522.009	12300.38
522.376	12344
522.743	12379.25
523.11	12403.43
523.477	12511.68
523.843	12443.2
524.21	12534.27
524.577	12500.6
524.943	12528.17
525.31	12532.24
525.676	12607.49
526.043	12620.83
526.409	12565.69
526.776	12563.43
527.142	12624.89
527.508	12666.7
527.874	12609.98
528.241	12665.57
528.607	12638.68
528.973	12717.77
529.339	12583.09
529.705	12716.64
530.071	12683.65
530.437	12552.35
530.803	12703.99
531.169	12675.29
531.535	12535.63
531.901	12565.69
532.267	12513.71
532.632	12501.06
532.998	12575.4
533.364	12504.22
533.73	12536.76
534.095	12497.67
534.461	12432.13
534.826	12442.75
535.192	12422.64
535.557	12500.15
535.923	12357.1
536.288	12356.65
536.653	12315.52
537.019	12226.26
537.384	12272.36
537.749	12142.19
538.114	12162.99
538.479	12106.26
538.845	12129.77
539.21	11937
539.575	11937.68
539.94	11981.07
540.305	11943.33
540.67	11840.73
541.034	11814.97
541.399	11794.41
541.764	11742.43
542.129	11721.64
542.494	11621.08
542.858	11591.47
543.223	11604.13
543.587	11542.44
543.952	11419.95
544.316	11449.11
544.681	11377.92
545.045	11324.59
545.41	11431.25
545.774	11247.76
546.138	11315.78
546.503	11264.93
546.867	11193.07
547.231	11177.93
547.595	11092.05
547.959	11041.88
548.324	10960.08
548.688	10952.62
549.052	10900.19
549.416	10873.08
549.779	10873.08
550.143	10755.11
550.507	10780.87
550.871	10744.94
551.235	10717.37
551.599	10690.26
551.962	10650.26
552.326	10579.52
552.689	10636.02
553.053	10499.98
553.417	10439.19
553.78	10511.28
554.143	10396.7
554.507	10400.09
554.87	10333.65
555.234	10462.47
555.597	10296.82
555.96	10293.66
556.323	10246.43
556.686	10283.26
557.05	10201
557.413	10219.53
557.776	10175.01
558.139	10150.16
558.502	10178.18
558.865	10169.37
559.228	10087.11
559.59	10093.44
559.953	10121.91
560.316	10106.77
560.679	10089.59
561.041	9980.9
561.404	10071.74
561.767	10059.76
562.129	10022.02
562.492	10049.59
562.854	9957.17
563.217	9968.69
563.579	9946.55
563.941	9971.86
564.304	9979.77
564.666	9977.05
565.028	9998.3
565.39	9926.21
565.753	9939.77
566.115	9971.4
566.477	9923.04
566.839	10031.97
567.201	9989.48
567.563	9903.61
567.925	9996.04
568.287	9998.97
568.648	9966.88
569.01	9997.84
569.372	10012.08
569.734	9896.6
570.095	9981.12
570.457	9963.04
570.819	9962.14
571.18	9945.42
571.542	10032.19
571.903	9961.01
572.265	10038.3
572.626	9973.21
572.987	9969.6
573.349	9973.66
573.71	9980.9
574.071	9990.39
574.432	10035.36
574.794	9990.16
575.155	10006.43
575.516	9958.98
575.877	9950.61
576.238	10034
576.599	10029.03
576.96	9944.06
577.32	9970.27
577.681	10008.92
578.042	9968.47
578.403	10026.09
578.763	9958.07
579.124	9953.55
579.485	9966.66
579.845	9997.17
580.206	9995.36
580.566	9947.9
580.927	9953.1
581.287	10062.48
581.648	9897.06
582.008	9978.41
582.368	9942.48
582.728	9888.69
583.089	9962.37
583.449	9846.44
583.809	9866.55
584.169	9864.51
584.529	9867.68
584.889	9939.77
585.249	9828.81
585.609	9883.72
585.969	9822.03
586.329	9786.1
586.688	9839.43
587.048	9869.49
587.408	9807.79
587.768	9774.8
588.127	9759.88
588.487	9753.56
588.846	9817.74
589.206	9766.21
589.565	9711.07
589.925	9764.63
590.284	9721.47
590.643	9713.78
591.003	9741.81
591.362	9766.66
591.721	9667.01
592.08	9734.57
592.44	9670.17
592.799	9673.79
593.158	9659.77
593.517	9668.59
593.876	9599.44
594.235	9688.02
594.593	9635.37
594.952	9594.24
595.311	9628.59
595.67	9657.51
596.029	9623.84
596.387	9600.57
596.746	9682.37
597.104	9623.17
597.463	9542.26
597.822	9667.23
598.18	9569.83
598.538	9577.52
598.897	9608.93
599.255	9534.13
599.613	9614.8
599.972	9580.23
600.33	9574.58
600.688	9571.64
601.046	9528.48
601.404	9611.64
601.762	9575.03
602.12	9532.55
602.478	9585.88
602.836	9557.86
603.194	9564.18
603.552	9489.38
603.91	9481.02
604.268	9547.23
604.625	9450.97
604.983	9572.32
605.341	9474.47
605.698	9528.93
606.056	9568.48
606.413	9584.3
606.771	9574.35
607.128	9568.03
607.485	9457.07
607.843	9553.34
608.2	9590.4
608.557	9575.48
608.914	9515.82
609.272	9588.82
609.629	9642.37
609.986	9695.48
610.343	9581.58
610.7	9625.42
611.057	9639.89
611.414	9610.28
611.771	9564.86
612.127	9658.19
612.484	9605.09
612.841	9611.87
613.198	9565.31
613.554	9533
613.911	9634.24
614.267	9618.65
614.624	9617.06
614.98	9632.66
615.337	9647.35
615.693	9592.21
616.05	9671.3
616.406	9730.73
616.762	9677.4
617.118	9701.13
617.475	9652.99
617.831	9720.11
618.187	9704.52
618.543	9727.8
618.899	9736.61
619.255	9680.79
619.611	9728.92
619.967	9734.57
620.323	9804.63
620.678	9721.24
621.034	9687.57
621.39	9707
621.746	9648.25
622.101	9792.65
622.457	9667.01
622.812	9700.23
623.168	9762.14
623.523	9716.27
623.879	9797.85
624.234	9705.65
624.589	9692.54
624.945	9769.6
625.3	9698.64
625.655	9720.56
626.01	9743.61
626.365	9754.46
626.72	9710.62
627.075	9617.06
627.43	9671.3
627.785	9698.87
628.14	9732.99
628.495	9681.02
628.85	9620
629.205	9584.3
629.559	9663.16
629.914	9629.27
630.269	9636.05
630.623	9614.58
630.978	9647.8
631.332	9611.41
631.687	9657.97
632.041	9587.46
632.396	9639.21
632.75	9472.43
633.104	9540.23
633.459	9470.85
633.813	9498.2
634.167	9500.46
634.521	9530.06
634.875	9507.91
635.229	9495.71
635.583	9430.63
635.937	9525.77
636.291	9402.83
636.645	9410.97
636.999	9412.1
637.352	9396.05
637.706	9419.1
638.06	9434.47
638.413	9387.01
638.767	9347.01
639.121	9410.06
639.474	9301.82
639.828	9344.53
640.181	9385.66
640.534	9380.23
640.888	9249.16
641.241	9309.73
641.594	9277.41
641.947	9312.21
642.301	9308.6
642.654	9231.99
643.007	9318.77
643.36	9327.13
643.713	9223.4
644.066	9241.48
644.419	9164.65
644.771	9204.42
645.124	9081.26
645.477	9122.39
645.83	9005.55
646.182	8937.99
646.535	8974.82
646.888	9023.86
647.24	8897.08
647.593	8973.92
647.945	8994.03
648.298	8929.62
648.65	8933.47
649.002	8873.35
649.355	8953.58
649.707	8940.47
650.059	8947.7
650.411	9110.41
650.763	9146.57
651.115	9211.42
651.467	9180.24
651.819	9170.3
652.171	9208.03
652.523	9131.88
652.875	9167.36
653.227	9145.21
653.578	9177.08
653.93	9107.02
654.282	9145.21
654.633	9124.87
654.985	9136.62
655.337	9173.46
655.688	9205.55
656.039	9229.96
656.391	9095.04
656.742	9116.51
657.094	9118.77
657.445	9193.12
657.796	9174.14
658.147	9108.38
658.498	9144.99
658.849	9248.26
659.2	9148.83
659.551	9146.12
659.902	9192.22
660.253	9159
660.604	9244.64
660.955	9175.72
661.306	9271.08
661.656	9232.44
662.007	9260.24
662.358	9247.36
662.708	9286.68
663.059	9219.79
663.409	9109.51
663.76	9257.75
664.11	9255.94
664.461	9300.01
664.811	9315.83
665.161	9282.84
665.511	9231.54
665.862	9258.43
666.212	9205.32
666.562	9245.32
666.912	9208.94
667.262	9264.08
667.612	9259.78
667.962	9285.77
668.312	9164.42
668.662	9267.69
669.011	9251.65
669.361	9249.39
669.711	9260.69
670.06	9236.06
670.41	9251.2
670.76	9161.93
671.109	9253.91
671.459	9288.71
671.808	9186.11
672.157	9265.43
672.507	9166.91
672.856	9127.13
673.205	9177.3
673.554	9215.04
673.904	9183.18
674.253	9227.92
674.602	9142.5
674.951	9008.49
675.3	9001.71
675.649	9104.31
675.998	9111.31
676.346	9158.32
676.695	9087.36
677.044	9078.55
677.393	9092.33
677.741	9048.04
678.09	9074.03
678.438	9072.9
678.787	9065.21
679.135	9027.93
679.484	9002.39
679.832	9005.55
680.181	8993.35
680.529	8977.53
680.877	8960.58
681.225	8914.71
681.573	8963.75
681.922	8901.38
682.27	8866.35
682.618	8891.66
682.966	8864.54
683.314	8865.9
683.661	8841.04
684.009	8757.88
684.357	8779.12
684.705	8767.37
685.053	8814.6
685.4	8673.13
685.748	8721.95
686.095	8691.21
686.443	8668.61
686.79	8629.74
687.138	8638.33
687.485	8594.04
687.832	8581.16
688.18	8613.47
688.527	8559.46
688.874	8548.39
689.221	8510.2
689.568	8485.12
689.915	8458
690.262	8474.49
690.609	8396.3
690.956	8390.2
691.303	8401.5
691.65	8254.16
691.997	8265.91
692.344	8251.45
692.69	8234.95
693.037	8213.71
693.383	8168.97
693.73	8199.47
694.077	8141.62
694.423	8140.72
694.769	8130.32
695.116	8111.34
695.462	8065.92
695.808	8021.85
696.155	7971.91
696.501	7922.64
696.847	7936.66
697.193	7899.14
697.539	7896.66
697.885	7804
698.231	7775.76
698.577	7775.53
698.923	7724.23
699.269	7681.75
699.614	7682.88
699.96	7593.84
700.306	7617.57
700.651	7610.34
700.997	7604.01
701.342	7512.71
701.688	7502.32
702.033	7489.66
702.379	7539.15
702.724	7397.69
703.069	7473.84
703.415	7365.6
703.76	7364.02
704.105	7370.57
704.45	7321.53
704.795	7305.49
705.14	7294.41
705.485	7253.28
705.83	7180.74
706.175	7197.47
706.52	7201.76
706.865	7165.83
707.209	7149.11
707.554	7083.8
707.899	7116.56
708.243	7088.77
708.588	7034.98
708.932	7026.17
709.277	6984.59
709.621	6975.55
709.966	6950.47
710.31	6951.82
710.654	6896.91
710.998	6927.64
711.342	6851.49
711.687	6807.65
712.031	6832.96
712.375	6804.48
712.719	6851.49
713.063	6853.07
713.407	6848.1
713.75	6740.3
714.094	6745.95
714.438	6702.11
714.782	6767.65
715.125	6705.73
715.469	6774.43
715.812	6703.24
716.156	6666.41
716.499	6695.33
716.843	6666.18
717.186	6655.79
717.53	6646.75
717.873	6643.58
718.216	6656.46
718.559	6614.2
718.902	6599.97
719.246	6557.26
719.589	6568.1
719.932	6556.13
720.275	6532.62
720.617	6537.82
720.96	6556.8
721.303	6557.03
721.646	6535.34
721.989	6503.25
722.331	6538.27
722.674	6512.29
723.016	6530.37
723.359	6503.47
723.701	6495.11
724.044	6478.84
724.386	6439.97
724.729	6468.22
725.071	6422.12
725.413	6463.47
725.755	6461.44
726.097	6477.03
726.439	6392.29
726.782	6354.32
727.124	6439.07
727.465	6415.57
727.807	6393.65
728.149	6433.19
728.491	6449.69
728.833	6402.91
729.175	6350.26
729.516	6438.84
729.858	6360.2
730.199	6419.18
730.541	6383.48
730.882	6378.05
731.224	6440.88
731.565	6422.35
731.906	6410.37
732.248	6390.93
732.589	6384.61
732.93	6384.83
733.271	6384.83
733.612	6443.81
733.953	6461.44
734.294	6399.3
734.635	6377.6
734.976	6442.01
735.317	6366.75
735.658	6384.38
735.999	6461.44
736.339	6434.32
736.68	6469.58
737.021	6505.51
737.361	6420.31
737.702	6527.88
738.042	6527.43
738.383	6442.91
738.723	6489.24
739.063	6457.6
739.404	6475.45
739.744	6514.77
740.084	6516.58
740.424	6541.89
740.764	6500.31
741.104	6532.17
741.444	6546.86
741.784	6519.07
742.124	6554.55
742.464	6581.44
742.804	6633.87
743.143	6592.28
743.483	6611.72
743.823	6633.19
744.162	6683.81
744.502	6691.04
744.841	6706.18
745.181	6789.34
745.52	6797.7
745.86	6877.02
746.199	6837.02
746.538	6900.3
746.877	6925.38
747.216	7025.04
747.556	7094.19
747.895	7143.68
748.234	7126.06
748.573	7155.66
748.911	7236.34
749.25	7243.79
749.589	7360.85
749.928	7381.64
750.267	7502.54
750.605	7560.17
750.944	7638.13
751.283	7692.14
751.621	7781.63
751.96	7857.56
752.298	7935.3
752.636	8058.23
752.975	8110.89
753.313	8174.62
753.651	8347.49
753.989	8411.9
754.327	8539.35
754.666	8638.78
755.004	8722.85
755.342	8867.03
755.679	9052.56
756.017	9097.53
756.355	9281.48
756.693	9393.34
757.031	9558.99
757.368	9651.86
757.706	9805.53
758.044	9921.46
758.381	10163.94
758.719	10269.7
759.056	10433.54
759.394	10526.87
759.731	10705.17
760.068	10895
760.405	10997.37
760.743	11185.84
761.08	11347.41
761.417	11474.87
761.754	11659.72
762.091	11879.15
762.428	12048.86
762.765	12128.86
763.102	12430.1
763.438	12442.53
763.775	12635.06
764.112	12828.96
764.449	13096.07
764.785	13154.15
765.122	13224.88
765.458	13344.2
765.795	13559.78
