Data from hue_320_FLMS001491_58.txt Node
Date: Mon Feb 06 15:47:24 GMT 2017
User: dcchb
Spectrometer: FLMS00149
Trigger mode: 0
Integration Time (sec): 2.000000E-2
Scans to average: 10
Electric dark correction enabled: true
Nonlinearity correction enabled: false
Boxcar width: 0
XAxis mode: Wavelengths
Number of Pixels in Spectrum: 2048
>>>>>Begin Spectral Data<<<<<
341.393	-6.6
341.776	-6.6
342.16	-6.6
342.543	-59.7
342.927	-50.66
343.31	-73.49
343.693	-62.87
344.077	-56.99
344.46	-50.44
344.843	-48.63
345.226	-41.4
345.61	-24.9
345.993	-44.56
346.376	4.03
346.759	1.09
347.142	17.81
347.525	44.93
347.908	80.41
348.291	70.01
348.674	77.92
349.057	107.07
349.44	121.31
349.823	130.35
350.206	170.57
350.588	194.75
350.971	209.22
351.354	217.81
351.737	240.63
352.119	235.21
352.502	289.44
352.884	262.32
353.267	258.48
353.65	297.35
354.032	326.28
354.414	304.81
354.797	318.14
355.179	307.29
355.562	324.24
355.944	325.82
356.326	331.7
356.709	351.59
357.091	315.2
357.473	322.89
357.855	347.97
358.238	339.16
358.62	329.89
359.002	355.65
359.384	335.77
359.766	329.44
360.148	304.13
360.53	350.68
360.912	330.8
361.294	335.54
361.676	318.59
362.057	328.54
362.439	323.11
362.821	318.59
363.203	345.49
363.584	342.32
363.966	313.4
364.348	326.05
364.729	330.57
365.111	309.55
365.493	313.62
365.874	310.01
366.256	316.56
366.637	312.94
367.019	333.96
367.4	334.19
367.781	331.25
368.163	309.78
368.544	313.4
368.925	287.18
369.306	323.79
369.688	328.08
370.069	304.81
370.45	304.36
370.831	311.36
371.212	311.59
371.593	280.18
371.974	310.91
372.355	308.65
372.736	327.41
373.117	322.89
373.498	313.17
373.879	311.36
374.26	307.29
374.641	313.17
375.021	296
375.402	323.79
375.783	309.78
376.163	339.38
376.544	333.51
376.925	324.24
377.305	331.25
377.686	327.86
378.066	325.82
378.447	328.76
378.827	338.25
379.208	331.93
379.588	337.35
379.968	327.63
380.349	340.51
380.729	327.18
381.109	335.77
381.489	327.63
381.87	343.23
382.25	346.62
382.63	315.43
383.01	339.16
383.39	335.99
383.77	332.15
384.15	344.36
384.53	317.01
384.91	336.67
385.29	353.62
385.67	364.47
386.049	352.49
386.429	359.27
386.809	347.97
387.189	357.69
387.568	378.7
387.948	343.23
388.328	353.85
388.707	363.56
389.087	355.2
389.466	333.73
389.846	355.2
390.225	378.25
390.605	366.73
390.984	334.19
391.363	345.94
391.743	363.34
392.122	370.8
392.501	367.86
392.881	368.99
393.26	352.26
393.639	376.9
394.018	369.89
394.397	385.71
394.776	402.21
395.155	376.9
395.534	379.61
395.913	393.39
396.292	372.38
396.671	392.26
397.05	362.89
397.429	405.82
397.808	378.25
398.186	385.03
398.565	379.83
398.944	387.97
399.323	420.29
399.701	421.19
400.08	416.67
400.458	411.92
400.837	394.07
401.215	412.15
401.594	382.09
401.972	420.96
402.351	442.66
402.729	414.18
403.107	424.13
403.486	432.04
403.864	421.64
404.242	424.35
404.62	445.37
404.999	420.96
405.377	430.23
405.755	449.44
406.133	440.85
406.511	423.68
406.889	451.02
407.267	432.49
407.645	442.66
408.023	440.17
408.401	457.8
408.779	461.87
409.156	447.18
409.534	480.17
409.912	469.78
410.29	468.65
410.667	464.58
411.045	481.53
411.422	469.78
411.8	491.24
412.178	502.54
412.555	505.71
412.933	493.05
413.31	535.99
413.687	536.21
414.065	533.5
414.442	543.9
414.819	560.39
415.197	553.16
415.574	563.11
415.951	557.46
416.328	576.89
416.705	590.9
417.082	568.08
417.46	572.6
417.837	600.62
418.214	582.09
418.591	588.42
418.967	619.6
419.344	595.42
419.721	621.86
420.098	641.97
420.475	637.23
420.852	631.81
421.228	624.8
421.605	664.12
421.982	644.46
422.358	683.33
422.735	669.32
423.111	691.46
423.488	710.45
423.864	693.27
424.241	700.5
424.617	715.87
424.994	719.94
425.37	698.7
425.746	722.2
426.123	741.18
426.499	735.53
426.875	744.57
427.251	753.16
427.627	742.09
428.003	746.38
428.379	774.17
428.756	789.09
429.132	790.67
429.507	799.71
429.883	786.38
430.259	800.61
430.635	802.2
431.011	819.37
431.387	833.16
431.763	853.04
432.138	881.52
432.514	885.13
432.89	853.49
433.265	888.75
433.641	859.82
434.016	888.3
434.392	910.44
434.767	939.14
435.143	912.48
435.518	921.52
435.894	948.18
436.269	954.28
436.644	947.28
437.02	988.63
437.395	971.01
437.77	985.69
438.145	999.48
438.52	989.54
438.895	1023.66
439.271	1017.11
439.646	1041.96
440.021	1049.42
440.395	1039.48
440.77	1044.22
441.145	1043.77
441.52	1051
441.895	1071.34
442.27	1060.04
442.645	1073.6
443.019	1098.69
443.394	1041.74
443.769	1100.04
444.143	1086.26
444.518	1121.28
444.892	1086.71
445.267	1082.87
445.641	1106.14
446.016	1102.08
446.39	1136.88
446.764	1153.6
447.139	1106.6
447.513	1135.52
447.887	1157.67
448.262	1129.65
448.636	1143.88
449.01	1138.23
449.384	1185.92
449.758	1163.32
450.132	1159.93
450.506	1168.51
450.88	1178.46
451.254	1173.71
451.628	1194.95
452.002	1199.02
452.376	1235.18
452.75	1192.47
453.123	1208.97
453.497	1233.82
453.871	1274.05
454.244	1258.46
454.618	1253.71
454.992	1281.05
455.365	1263.43
455.739	1284.22
456.112	1306.36
456.486	1309.53
456.859	1306.59
457.232	1327.15
457.606	1304.33
457.979	1325.35
458.352	1385.46
458.725	1390.66
459.099	1379.36
459.472	1388.85
459.845	1411.9
460.218	1420.94
460.591	1413.48
460.964	1420.03
461.337	1432.91
461.71	1487.15
462.083	1481.5
462.456	1484.21
462.829	1451.9
463.201	1504.1
463.574	1500.26
463.947	1531.22
464.32	1548.62
464.692	1564.44
465.065	1562.4
465.438	1562.18
465.81	1582.74
466.183	1585.45
466.555	1601.5
466.928	1643.08
467.3	1635.17
467.672	1647.82
468.045	1691.44
468.417	1660.7
468.789	1688.05
469.161	1674.26
469.534	1697.54
469.906	1700.03
470.278	1733.92
470.65	1796.97
471.022	1764.21
471.394	1803.53
471.766	1854.37
472.138	1840.81
472.51	1884.2
472.882	1882.62
473.253	1896.63
473.625	1904.77
473.997	1940.25
474.369	1963.52
474.74	1969.4
475.112	1990.41
475.484	2038.55
475.855	2046.01
476.227	2062.05
476.598	2100.24
476.97	2095.95
477.341	2167.81
477.713	2167.58
478.084	2166.68
478.455	2234.7
478.827	2240.58
479.198	2323.74
479.569	2314.25
479.94	2330.07
480.311	2367.35
480.682	2408.93
481.053	2416.62
481.424	2439.22
481.795	2480.34
482.166	2496.16
482.537	2559.66
482.908	2535.71
483.279	2592.21
483.65	2615.26
484.021	2657.97
484.391	2695.03
484.762	2735.7
485.133	2711.75
485.503	2747.68
485.874	2777.96
486.244	2817.06
486.615	2846.21
486.985	2897.96
487.356	2908.81
487.726	2937.51
488.097	2947.9
488.467	2997.84
488.837	3068.8
489.207	3033.55
489.578	3065.87
489.948	3159.42
490.318	3171.63
490.688	3152.87
491.058	3188.57
491.428	3245.52
491.798	3251.17
492.168	3322.36
492.538	3282.58
492.908	3352.19
493.278	3378.63
493.648	3402.35
494.017	3409.13
494.387	3433.31
494.757	3460.43
495.126	3470.15
495.496	3480.32
495.866	3514.67
496.235	3537.04
496.605	3566.64
496.974	3599.86
497.344	3601.22
497.713	3640.09
498.082	3632.4
498.452	3642.35
498.821	3654.55
499.19	3680.76
499.559	3708.33
499.928	3747.66
500.298	3770.03
500.667	3764.6
501.036	3782.01
501.405	3828.56
501.774	3792.63
502.143	3829.69
502.512	3876.24
502.88	3888.67
503.249	3874.43
503.618	3848.67
503.987	3897.03
504.356	3935.9
504.724	3974.32
505.093	3952.85
505.462	3976.58
505.83	3929.35
506.199	3965.28
506.567	4047.53
506.936	4059.74
507.304	4098.15
507.672	4033.98
508.041	4076.46
508.409	4111.04
508.777	4102.9
509.145	4112.17
509.514	4119.17
509.882	4144.26
510.25	4132.73
510.618	4153.97
510.986	4158.49
511.354	4213.86
511.722	4226.06
512.09	4257.47
512.458	4250.47
512.826	4291.6
513.193	4296.34
513.561	4302.44
513.929	4358.71
514.297	4360.52
514.664	4314.19
515.032	4332.95
515.4	4355.78
515.767	4374.76
516.135	4411.82
516.502	4347.87
516.869	4442.33
517.237	4459.28
517.604	4484.59
517.972	4511.48
518.339	4447.3
518.706	4487.3
519.073	4531.36
519.44	4457.24
519.808	4514.64
520.175	4535.66
520.542	4564.58
520.909	4576.79
521.276	4593.96
521.643	4610.23
522.009	4632.15
522.376	4651.81
522.743	4719.16
523.11	4719.61
523.477	4726.16
523.843	4752.15
524.21	4764.58
524.577	4791.7
524.943	4840.06
525.31	4841.19
525.676	4851.81
526.043	4899.49
526.409	4934.97
526.776	4923.44
527.142	4920.28
527.508	5002.54
527.874	4985.59
528.241	5030.79
528.607	4994.18
528.973	5065.14
529.339	5027.85
529.705	5142.65
530.071	5117.11
530.437	5105.13
530.803	5136.32
531.169	5176.77
531.535	5231.91
531.901	5242.08
532.267	5288.86
532.632	5284.56
532.998	5286.6
533.364	5277.56
533.73	5356.88
534.095	5302.87
534.461	5354.85
534.826	5435.75
535.192	5425.13
535.557	5473.71
535.923	5531.11
536.288	5487.27
536.653	5553.26
537.019	5548.06
537.384	5527.95
537.749	5593.48
538.114	5581.96
538.479	5589.64
538.845	5652.46
539.21	5625.8
539.575	5658.11
539.94	5703.99
540.305	5795.29
540.67	5745.8
541.034	5769.75
541.399	5816.08
541.764	5736.53
542.129	5830.09
542.494	5886.13
542.858	5903.53
543.223	5884.1
543.587	5969.74
543.952	5977.88
544.316	5965
544.681	5938.56
545.045	6012.91
545.41	6085
545.774	6116.18
546.138	6059.23
546.503	6137.65
546.867	6152.56
547.231	6140.14
547.595	6184.65
547.959	6220.59
548.324	6179.91
548.688	6224.65
549.052	6311.2
549.416	6315.95
549.779	6298.1
550.143	6320.24
550.507	6321.83
550.871	6392.11
551.235	6348.72
551.599	6425.78
551.962	6461.26
552.326	6469.17
552.689	6448.83
553.053	6498.77
553.417	6501.03
553.78	6555.49
554.143	6529.05
554.507	6576.51
554.87	6553.91
555.234	6627.81
555.597	6632.78
555.96	6672.32
556.323	6687.01
556.686	6701.7
557.05	6721.14
557.413	6729.05
557.776	6696.73
558.139	6836.16
558.502	6840.23
558.865	6813.56
559.228	6917.52
559.59	6828.03
559.953	6843.39
560.316	6977.85
560.679	6919.78
561.041	6926.56
561.404	7038.42
561.767	7025.08
562.129	7003.39
562.492	7057.63
562.854	7073.22
563.217	7084.07
563.579	7113.44
563.941	7141.24
564.304	7157.96
564.666	7166.77
565.028	7182.37
565.39	7215.81
565.753	7207.23
566.115	7309.14
566.477	7322.48
566.839	7337.62
567.201	7373.1
567.563	7405.64
567.925	7417.39
568.287	7411.29
568.648	7449.93
569.01	7518.18
569.372	7557.5
569.734	7521.79
570.095	7613.09
570.457	7607.44
570.819	7665.74
571.18	7647.67
571.542	7752.97
571.903	7706.42
572.265	7809.92
572.626	7794.33
572.987	7849.47
573.349	7871.62
573.71	7951.39
574.071	7965.4
574.432	8010.37
574.794	8136.69
575.155	8156.58
575.516	8183.02
575.877	8222.57
576.238	8271.83
576.599	8385.95
576.96	8391.83
577.32	8498.72
577.681	8585.72
578.042	8681.09
578.403	8703.01
578.763	8819.61
579.124	8965.15
579.485	9039.49
579.845	9127.18
580.206	9170.56
580.566	9329.88
580.927	9405.36
581.287	9604.22
581.648	9642.64
582.008	9803.99
582.368	9979.58
582.728	10148.17
583.089	10197.88
583.449	10390.87
583.809	10541.38
584.169	10704.08
584.529	10823.4
584.889	11140.91
585.249	11232.43
585.609	11391.97
585.969	11584.51
586.329	11807.33
586.688	12041.67
587.048	12275.79
587.408	12420.42
587.768	12661.77
588.127	12897.25
588.487	13163
588.846	13365.93
589.206	13590.56
589.565	13807.28
589.925	14149.87
590.284	14305.12
590.643	14645.45
591.003	14943.29
591.362	15183.97
591.721	15493.11
592.08	15705.08
592.44	15985.3
592.799	16282.02
593.158	16490.15
593.517	16895.56
593.876	17187.75
594.235	17427.52
594.593	17717.46
594.952	18018.01
595.311	18223.21
595.67	18510.88
596.029	18948.84
596.387	19288.72
596.746	19620.01
597.104	19792.66
597.463	20092.54
597.822	20475.35
598.18	20591.28
598.538	20838.73
598.897	21370.7
599.255	21515.32
599.613	22092.94
599.972	22144.46
600.33	22529.31
600.688	22685.46
601.046	23130.87
601.404	23422.84
601.762	23610.86
602.12	24021.25
602.478	24303.5
602.836	24567.67
603.194	24714.34
603.552	24959.3
603.91	25192.52
604.268	25575.78
604.625	25717.02
604.983	25997.24
605.341	26307.97
605.698	26633.38
606.056	26881.74
606.413	27164.67
606.771	27405.56
607.128	27658.44
607.485	27820.47
607.843	27975.04
608.2	28438.08
608.557	28658.87
608.914	28711.97
609.272	29103.6
609.629	29366.42
609.986	29704.26
610.343	29611.83
610.7	30158.94
611.057	30301.08
611.414	30430.57
611.771	30695.2
612.127	30865.36
612.484	31126.37
612.841	31143.55
613.198	31387.83
613.554	31550.77
613.911	31888.61
614.267	32091.32
614.624	32113.46
614.98	32394.13
615.337	32622.6
615.693	32833.22
616.05	32809.72
616.406	33222.81
616.762	33155.24
617.118	33412.86
617.475	33441.34
617.831	33757.26
618.187	33775.79
618.543	34086.29
618.899	34364.7
619.255	34376.45
619.611	34376.45
619.967	34649.44
620.323	34784.13
620.678	34768.99
621.034	34933.95
621.39	35019.38
621.746	35047.62
622.101	35652.81
622.457	35436.99
622.812	35605.35
623.168	35704.78
623.523	35690.77
623.879	35999.01
624.234	35827.49
624.589	36121.49
624.945	36180.7
625.3	36229.97
625.655	36220.7
626.01	36286.69
626.365	36472.9
626.72	36474.25
627.075	36616.62
627.43	36591.31
627.785	36678.54
628.14	36889.61
628.495	36871.3
628.85	36808.03
629.205	36780.46
629.559	37099.55
629.914	36901.59
630.269	37063.62
630.623	37025.65
630.978	37061.81
631.332	37134.8
631.687	37358.3
632.041	37145.65
632.396	37363.72
632.75	37218.64
633.104	37299.77
633.459	37053.9
633.813	37315.13
634.167	37182.71
634.521	37231.3
634.875	37412.99
635.229	37353.78
635.583	37135.93
635.937	37353.78
636.291	37236.49
636.645	37381.57
636.999	37339.09
637.352	37453.66
637.706	37257.96
638.06	37431.74
638.413	37435.81
638.767	37354.46
639.121	37346.32
639.474	37207.34
639.828	37189.49
640.181	37280.79
640.534	37407.56
640.888	37212.31
641.241	37272.65
641.594	37323.27
641.947	37379.09
642.301	37268.58
642.654	37392.42
643.007	37387.45
643.36	37292.31
643.713	37179.77
644.066	37344.06
644.419	37225.65
644.771	36865.43
645.124	36700.01
645.477	36497.53
645.83	36458.43
646.182	36232.68
646.535	36107.93
646.888	36164.2
647.24	36056.86
647.593	36403.75
647.945	36252.79
648.298	35984.32
648.65	36047.37
649.002	35979.8
649.355	36081.72
649.707	36048.95
650.059	36289.85
650.411	36644.19
650.763	36653.46
651.115	36982.04
651.467	36867.69
651.819	37002.6
652.171	36827.92
652.523	36766.45
652.875	36847.58
653.227	36602.61
653.578	37011.87
653.93	36883.73
654.282	36599
654.633	36619.79
654.985	36586.34
655.337	36668.37
655.688	36701.59
656.039	36907.46
656.391	36368.72
656.742	36485.1
657.094	36554.48
657.445	36711.76
657.796	36768.93
658.147	36609.16
658.498	36667.92
658.849	36711.76
659.2	36628.15
659.551	36588.83
659.902	36673.12
660.253	36579.56
660.604	36613.91
660.955	36487.13
661.306	36680.35
661.656	36587.7
662.007	36570.52
662.358	36540.47
662.708	36538.88
663.059	36433.35
663.409	36351.32
663.76	36512.44
664.11	36501.82
664.461	36570.52
664.811	36606.23
665.161	36429.96
665.511	36416.85
665.862	36416.85
666.212	36578.66
666.562	36537.75
666.912	36357.19
667.262	36417.76
667.612	36339.79
667.962	36407.59
668.312	36305.44
668.662	36556.28
669.011	36412.33
669.361	36368.04
669.711	36430.64
670.06	36225.9
670.41	36298.89
670.76	36187.03
671.109	36473.12
671.459	36262.51
671.808	36305.44
672.157	36383.86
672.507	36123.3
672.856	36012.8
673.205	36261.83
673.554	36266.8
673.904	36145.67
674.253	36384.54
674.602	36300.25
674.951	35700.04
675.3	35440.16
675.649	36025.68
675.998	36065.9
676.346	36116.75
676.695	36157.65
677.044	35932.57
677.393	36053.92
677.741	36003.08
678.09	36019.58
678.438	35867.26
678.787	36074.72
679.135	36003.08
679.484	35705.46
679.832	35888.28
680.181	35620.49
680.529	35796.53
680.877	35704.56
681.225	35628.4
681.573	35822.97
681.922	35555.18
682.27	35503.88
682.618	35478.12
682.966	35383.43
683.314	35508.63
683.661	35341.85
684.009	35126.94
684.357	35025.7
684.705	35084.46
685.053	35084.01
685.4	35084.46
685.748	34838.82
686.095	34971.47
686.443	34877.23
686.79	34698.25
687.138	34762.66
687.485	34921.53
687.832	34740.29
688.18	34641.31
688.527	34451.03
688.874	34451.03
689.221	34414.42
689.568	34478.6
689.915	34239.06
690.262	34314.31
690.609	34123.58
690.956	34185.73
691.303	34031.61
691.65	33972.85
691.997	34115.67
692.344	33736.47
692.69	33594.33
693.037	33652.18
693.383	33456.71
693.73	33634.1
694.077	33477.04
694.423	33338.52
694.769	33420.77
695.116	33343.49
695.462	33154.11
695.808	32896.27
696.155	33097.62
696.501	32924.52
696.847	32891.52
697.193	32658.31
697.539	32697.63
697.885	32527.46
698.231	32512.1
698.577	32476.62
698.923	32364.3
699.269	32297.41
699.614	32227.13
699.96	31930.19
700.306	31993.24
700.651	32018.1
700.997	31836.18
701.342	31673.48
701.688	31784.88
702.033	31695.4
702.379	31503.99
702.724	31543.99
703.069	31565
703.415	31245.24
703.76	31249.98
704.105	31245.46
704.45	31299.93
704.795	30983.78
705.14	30913.72
705.485	30937.9
705.83	30836.66
706.175	30822.42
706.52	30676.44
706.865	30722.99
707.209	30622.2
707.554	30436.22
707.899	30569.32
708.243	30375.2
708.588	30360.52
708.932	30127.98
709.277	30121.43
709.621	30175.89
709.966	29956.46
710.31	30108.32
710.654	29753.75
710.998	29859.51
711.342	29881.66
711.687	29798.27
712.031	29729.12
712.375	29499.97
712.719	29511.72
713.063	29518.96
713.407	29588.78
713.75	29451.61
714.094	29372.29
714.438	29208.23
714.782	29311.96
715.125	29045.97
715.469	29034.45
715.812	28992.19
716.156	28796.04
716.499	28893.66
716.843	28837.17
717.186	28618.41
717.53	28961.91
717.873	28811.18
718.216	28756.94
718.559	28627
718.902	28361.7
719.246	28472.88
719.589	28496.84
719.932	28325.99
720.275	28439.66
720.617	28213.68
720.96	28277.63
721.303	28150.4
721.646	28182.27
721.989	27982.72
722.331	28088.94
722.674	28047.81
723.016	28045.77
723.359	27897.53
723.701	27989.96
724.044	27761.49
724.386	27675.39
724.729	27757.19
725.071	27697.53
725.413	27818.89
725.755	27605.11
726.097	27585
726.439	27417.09
726.782	27460.93
727.124	27579.57
727.465	27496.41
727.807	27355.62
728.149	27327.6
728.491	27230.2
728.833	27291.22
729.175	27234.95
729.516	27052.35
729.858	27015.52
730.199	27155.4
730.541	27142.75
730.882	27016.65
731.224	27110.88
731.565	26945.01
731.906	26910.44
732.248	26918.35
732.589	26803.32
732.93	26801.96
733.271	26707.05
733.612	26793.6
733.953	26748.41
734.294	26490.79
734.635	26506.15
734.976	26656.88
735.317	26357.46
735.658	26489.66
735.999	26481.75
736.339	26439.49
736.68	26438.81
737.021	26362.65
737.361	26222.32
737.702	26351.58
738.042	26210.12
738.383	26116.79
738.723	26190.91
739.063	26191.81
739.404	26110.23
739.744	25919.5
740.084	25903.01
740.424	25976.9
740.764	25941.87
741.104	25907.98
741.444	25794.08
741.784	25737.13
742.124	25745.04
742.464	25709.11
742.804	25769.45
743.143	25552.28
743.483	25723.12
743.823	25646.29
744.162	25479.06
744.502	25593.86
744.841	25543.69
745.181	25550.7
745.52	25445.62
745.86	25451.04
746.199	25437.48
746.538	25371.49
746.877	25348.44
747.216	25314.09
747.556	25131.73
747.895	25187.77
748.234	25082.69
748.573	24983.03
748.911	25108
749.25	25015.12
749.589	24936.7
749.928	24894.44
750.267	24907.78
750.605	24816.03
750.944	24782.81
751.283	24675.02
751.621	24720.44
751.96	24687.9
752.298	24673.43
752.636	24558.86
752.975	24478.18
753.313	24487.22
753.651	24589.59
753.989	24329.94
754.327	24375.59
754.666	24215.14
755.004	24264.18
755.342	24336.49
755.679	24221.47
756.017	24089.04
756.355	24091.08
756.693	23941.02
757.031	23961.36
757.368	23832.1
757.706	23829.39
758.044	23773.57
758.381	23839.56
758.719	23565.21
759.056	23645.89
759.394	23528.6
759.731	23460.58
760.068	23431.66
