Data from hue_34_FLMS001491_00071.txt Node
Date: Tue Feb 07 17:26:06 GMT 2017
User: dcchb
Spectrometer: FLMS00149
Trigger mode: 0
Integration Time (sec): 2.000000E-2
Scans to average: 10
Electric dark correction enabled: true
Nonlinearity correction enabled: false
Boxcar width: 0
XAxis mode: Wavelengths
Number of Pixels in Spectrum: 2048
>>>>>Begin Spectral Data<<<<<
341.393	-10.52
341.776	-10.52
342.16	-10.52
342.543	-56.85
342.927	-52.33
343.31	-47.81
343.693	-66.34
344.077	-99.79
344.46	-58.43
344.843	-48.49
345.226	-43.06
345.61	-41.03
345.993	-15.27
346.376	-16.62
346.759	8.23
347.142	48.23
347.525	47.33
347.908	50.72
348.291	75.35
348.674	84.84
349.057	122.13
349.44	111.06
349.823	142.47
350.206	161
350.588	200.55
350.971	236.93
351.354	253.43
351.737	252.75
352.119	260.66
352.502	256.14
352.884	290.26
353.267	283.48
353.65	314.21
354.032	291.62
354.414	316.93
354.797	305.63
355.179	343.82
355.562	331.84
355.944	356.7
356.326	329.36
356.709	346.08
357.091	303.59
357.473	346.08
357.855	346.08
358.238	348.11
358.62	353.31
359.002	346.53
359.384	345.17
359.766	347.21
360.148	339.07
360.53	324.16
360.912	356.93
361.294	339.75
361.676	349.92
362.057	328.68
362.439	361.9
362.821	327.55
363.203	326.19
363.584	351.73
363.966	327.1
364.348	329.81
364.729	334.78
365.111	343.59
365.493	332.75
365.874	326.19
366.256	329.36
366.637	315.12
367.019	313.54
367.4	318.96
367.781	328.68
368.163	327.77
368.544	311.05
368.925	327.32
369.306	314.67
369.688	311.96
370.069	303.59
370.45	345.85
370.831	337.49
371.212	315.12
371.593	324.61
371.974	328.23
372.355	322.12
372.736	323.93
373.117	313.76
373.498	321.9
373.879	312.86
374.26	327.55
374.641	312.86
375.021	328.9
375.402	345.63
375.783	327.1
376.163	341.56
376.544	339.52
376.925	322.8
377.305	332.52
377.686	318.06
378.066	318.96
378.447	311.96
378.827	338.4
379.208	333.2
379.588	309.7
379.968	359.19
380.349	335.46
380.729	337.27
381.109	338.17
381.489	344.72
381.87	348.11
382.25	333.2
382.63	333.65
383.01	359.19
383.39	342.24
383.77	343.37
384.15	346.3
384.53	364.16
384.91	352.18
385.29	350.82
385.67	353.31
386.049	347.66
386.429	362.58
386.809	363.48
387.189	376.36
387.568	368.9
387.948	363.25
388.328	372.74
388.707	345.63
389.087	352.86
389.466	346.3
389.846	377.49
390.225	382.69
390.605	356.93
390.984	382.01
391.363	363.48
391.743	360.54
392.122	385.17
392.501	381.11
392.881	426.75
393.26	378.85
393.639	384.5
394.018	368.68
394.397	397.15
394.776	370.03
395.155	404.61
395.534	377.49
395.913	395.79
396.292	417.26
396.671	398.51
397.05	395.57
397.429	399.41
397.808	382.91
398.186	373.42
398.565	396.25
398.944	400.54
399.323	393.99
399.701	400.99
400.08	422.91
400.458	415.23
400.837	413.87
401.215	424.95
401.594	431.95
401.972	418.17
402.351	423.14
402.729	404.61
403.107	426.98
403.486	420.88
403.864	427.66
404.242	420.2
404.62	447.32
404.999	431.73
405.377	441.67
405.755	440.77
406.133	421.33
406.511	437.38
406.889	436.02
407.267	428.34
407.645	430.37
408.023	448.9
408.401	448.45
408.779	440.09
409.156	476.02
409.534	459.75
409.912	465.4
410.29	463.36
410.667	481.22
411.045	437.15
411.422	446.64
411.8	444.15
412.178	464.95
412.555	463.14
412.933	476.02
413.31	475.34
413.687	472.85
414.065	483.25
414.442	496.13
414.819	502.23
415.197	500.88
415.574	503.59
415.951	493.19
416.328	504.94
416.705	508.56
417.082	515.79
417.46	487.09
417.837	513.76
418.214	505.62
418.591	498.84
418.967	509.46
419.344	515.79
419.721	527.32
420.098	542.23
420.475	524.38
420.852	527.09
421.228	518.5
421.605	544.94
421.982	564.6
422.358	541.78
422.735	539.07
423.111	550.82
423.488	556.69
423.864	586.3
424.241	578.84
424.617	569.8
424.994	568.45
425.37	566.64
425.746	570.48
426.123	586.75
426.499	574.55
426.875	589.69
427.251	591.27
427.627	604.83
428.003	626.75
428.379	608.9
428.756	613.64
429.132	615.68
429.507	625.62
429.883	645.51
430.259	640.31
430.635	656.8
431.011	626.3
431.387	626.07
431.763	669.23
432.138	647.31
432.514	658.84
432.89	669.69
433.265	676.69
433.641	665.17
434.016	716.01
434.392	673.98
434.767	694.77
435.143	664.94
435.518	720.31
435.894	710.81
436.269	700.42
436.644	732.06
437.02	713.3
437.395	735.9
437.77	748.33
438.145	756.24
438.52	752.62
438.895	743.81
439.271	743.13
439.646	758.5
440.021	766.63
440.395	780.64
440.77	758.95
441.145	777.25
441.52	788.55
441.895	795.78
442.27	819.51
442.645	783.58
443.019	773.86
443.394	801.66
443.769	809.12
444.143	800.98
444.518	829.46
444.892	800.3
445.267	822.22
445.641	850.7
446.016	793.52
446.39	831.49
446.764	851.38
447.139	837.82
447.513	884.82
447.887	848.21
448.262	838.49
448.636	855.9
449.01	855.44
449.384	881.88
449.758	876.46
450.132	869.68
450.506	898.15
450.88	884.37
451.254	903.13
451.628	898.61
452.002	923.92
452.376	966.63
452.75	937.93
453.123	955.55
453.497	949.45
453.871	949.45
454.244	965.72
454.618	959.17
454.992	963.24
455.365	993.29
455.739	979.28
456.112	1040.3
456.486	1021.99
456.859	1009.11
457.232	1063.8
457.606	1041.2
457.979	1061.77
458.352	1083.91
458.725	1094.99
459.099	1083.01
459.472	1109
459.845	1113.06
460.218	1107.41
460.591	1133.63
460.964	1146.06
461.337	1152.84
461.71	1192.16
462.083	1198.26
462.456	1182.44
462.829	1222.21
463.201	1213.17
463.574	1216.11
463.947	1238.03
464.32	1254.3
464.692	1280.52
465.065	1312.38
465.438	1280.29
465.81	1331.14
466.183	1336.56
466.555	1380.85
466.928	1395.54
467.3	1369.78
467.672	1386.28
468.045	1409.1
468.417	1424.92
468.789	1443.22
469.161	1484.58
469.534	1506.95
469.906	1522.77
470.278	1567.97
470.65	1570.68
471.022	1613.16
471.394	1639.15
471.766	1668.76
472.138	1678.47
472.51	1724.12
472.882	1755.53
473.253	1756.44
473.625	1820.62
473.997	1842.54
474.369	1880.73
474.74	1905.13
475.112	1943.55
475.484	1960.27
475.855	2023.32
476.227	2061.29
476.598	2129.99
476.97	2177.89
477.341	2218.57
477.713	2248.18
478.084	2275.97
478.455	2329.08
478.827	2382.64
479.198	2473.48
479.569	2516.64
479.94	2575.17
480.311	2647.71
480.682	2736.07
481.053	2795.28
481.424	2856.07
481.795	2885.9
482.166	2952.79
482.537	3042.05
482.908	3096.74
483.279	3153.01
483.65	3283.4
484.021	3357.75
484.391	3426.9
484.762	3506.45
485.133	3522.49
485.503	3642.26
485.874	3764.07
486.244	3812.2
486.615	3931.75
486.985	4004.06
487.356	4059.43
487.726	4165.19
488.097	4279.53
488.467	4342.13
488.837	4459.64
489.207	4507.32
489.578	4681.78
489.948	4770.59
490.318	4837.94
490.688	4889.01
491.058	4986.18
491.428	5098.5
491.798	5187.08
492.168	5318.38
492.538	5398.6
492.908	5449
493.278	5577.81
493.648	5627.07
494.017	5710.91
494.387	5834.3
494.757	5911.36
495.126	6044.91
495.496	6000.17
495.866	6152.71
496.235	6250.33
496.605	6322.19
496.974	6418.01
497.344	6472.02
497.713	6535.07
498.082	6656.42
498.452	6774.16
498.821	6803.54
499.19	6888.73
499.559	6959.46
499.928	7008.73
500.298	7051.44
500.667	7154.04
501.036	7188.61
501.405	7343.86
501.774	7273.13
502.143	7440.36
502.512	7470.18
502.88	7578.43
503.249	7611.42
503.618	7691.42
503.987	7734.81
504.356	7853
504.724	7901.36
505.093	7939.1
505.462	8003.96
505.83	8051.19
506.199	8195.14
506.567	8252.99
506.936	8222.48
507.304	8309.71
507.672	8468.35
508.041	8479.65
508.409	8528.01
508.777	8582.02
509.145	8674.9
509.514	8721.9
509.882	8825.18
510.25	8763.48
510.618	8858.17
510.986	8866.76
511.354	8998.73
511.722	9092.29
512.09	9153.98
512.458	9104.94
512.826	9243.7
513.193	9299.52
513.561	9284.15
513.929	9358.95
514.297	9480.53
514.664	9512.39
515.032	9545.84
515.4	9622.44
515.767	9707.41
516.135	9727.53
516.502	9694.99
516.869	9867.41
517.237	9900.18
517.604	9889.78
517.972	9955.32
518.339	10032.15
518.706	10036.9
519.073	10027.63
519.44	10094.75
519.808	10254.52
520.175	10220.85
520.542	10345.82
520.909	10349.88
521.276	10359.83
521.643	10501.52
522.009	10590.78
522.376	10616.32
522.743	10694.73
523.11	10786.26
523.477	10874.62
523.843	10883.43
524.21	11057.21
524.577	11103.54
524.943	11165.68
525.31	11194.15
525.676	11262.4
526.043	11394.6
526.409	11353.25
526.776	11444.32
527.142	11562.05
527.508	11600.25
527.874	11633.24
528.241	11677.53
528.607	11677.98
528.973	11860.35
529.339	11791.43
529.705	11978.09
530.071	12097.63
530.437	12147.12
530.803	12193.68
531.169	12257.86
531.535	12219.89
531.901	12236.16
532.267	12308.93
532.632	12409.72
532.998	12558.41
533.364	12597.96
533.73	12611.74
534.095	12700.33
534.461	12763.83
534.826	12791.63
535.192	12930.38
535.557	12975.58
535.923	12982.58
536.288	13037.04
536.653	13071.17
537.019	13052.41
537.384	13153.88
537.749	13197.27
538.114	13201.79
538.479	13299.86
538.845	13304.38
539.21	13382.8
539.575	13410.14
539.94	13439.52
540.305	13547.99
540.67	13546.18
541.034	13647.88
541.399	13633.64
541.764	13656.91
542.129	13799.28
542.494	13770.36
542.858	13848.1
543.223	13964.7
543.587	14051.25
543.952	14051.25
544.316	14100.29
544.681	14100.07
545.045	14158.37
545.41	14237.46
545.774	14272.94
546.138	14284.02
546.503	14387.29
546.867	14466.39
547.231	14536.67
547.595	14547.74
547.959	14678.81
548.324	14630.67
548.688	14645.82
549.052	14771.46
549.416	14828.18
549.779	14859.14
550.143	14843.32
550.507	14893.27
550.871	14916.09
551.235	15027.27
551.599	15173.94
551.962	15201.51
552.326	15201.28
552.689	15286.25
553.053	15317.89
553.417	15291
553.78	15432.46
554.143	15406.93
554.507	15491.22
554.87	15594.94
555.234	15621.16
555.597	15625.68
555.96	15671.33
556.323	15727.82
556.686	15740.02
557.05	15936.63
557.413	15946.12
557.776	15928.49
558.139	16073.12
558.502	16130.97
558.865	16107.47
559.228	16283.74
559.59	16263.4
559.953	16296.17
560.316	16476.73
560.679	16461.13
561.041	16581.81
561.404	16641.47
561.767	16785.65
562.129	16657.06
562.492	16827.9
562.854	16867.45
563.217	16803.95
563.579	16911.74
563.941	17006.88
564.304	17054.34
564.666	17107.67
565.028	17211.62
565.39	17235.13
565.753	17463.37
566.115	17345.86
566.477	17474.22
566.839	17564.61
567.201	17607.09
567.563	17709.69
567.925	17743.36
568.287	17847.09
568.648	17727.09
569.01	17923.02
569.372	18081.43
569.734	17956.46
570.095	18122.11
570.457	18120.75
570.819	18254.76
571.18	18295.44
571.542	18417.69
571.903	18425.83
572.265	18528.65
572.626	18579.5
572.987	18719.83
573.349	18817.91
573.71	18845.93
574.071	18982.88
574.432	18971.58
574.794	19160.5
575.155	19198.01
575.516	19273.49
575.877	19385.8
576.238	19507.16
576.599	19694.04
576.96	19749.64
577.32	19798.9
577.681	19948.05
578.042	20141.04
578.403	20162.05
578.763	20363.63
579.124	20459.22
579.485	20706.67
579.845	20877.74
580.206	20929.94
580.566	21055.59
580.927	21198.19
581.287	21418.07
581.648	21452.19
582.008	21857.38
582.368	21966.3
582.728	22088.78
583.089	22235.22
583.449	22394.76
583.809	22501.2
584.169	22844.02
584.529	22907.52
584.889	23439.71
585.249	23440.84
585.609	23610.55
585.969	23879.92
586.329	24059.58
586.688	24260.7
587.048	24452.11
587.408	24570.98
587.768	24893.46
588.127	25117.18
588.487	25302.71
588.846	25776.37
589.206	25837.39
589.565	26045.97
589.925	26500.65
590.284	26523.02
590.643	26850.92
591.003	27176.11
591.362	27477.57
591.721	27664.91
592.08	27916.88
592.44	28248.85
592.799	28476.64
593.158	28712.11
593.517	28922.28
593.876	29215.83
594.235	29360
594.593	29709.15
594.952	29952.08
595.311	30021.91
595.67	30400.43
596.029	30780.76
596.387	31057.14
596.746	31204.7
597.104	31348.43
597.463	31597.46
597.822	31915.64
598.18	32079.48
598.538	32275.18
598.897	32778.9
599.255	32569.41
599.613	33300.24
599.972	33362.16
600.33	33721.7
600.688	33727.8
601.046	34078.3
601.404	34262.02
601.762	34432.19
602.12	34688.9
602.478	34981.55
602.836	35135.67
603.194	35170.25
603.552	35417.47
603.91	35447.3
604.268	35805.71
604.625	36014.52
604.983	36322.08
605.341	36313.72
605.698	36553.94
606.056	36862.86
606.413	36911.67
606.771	37144.66
607.128	37466.91
607.485	37452.9
607.843	37563.4
608.2	38018.99
608.557	38035.93
608.914	38089.04
609.272	38384.63
609.629	38548.69
609.986	38914.56
610.343	38731.51
610.7	39157.04
611.057	39164.04
611.414	39268.22
611.771	39585.5
612.127	39867.75
612.484	39818.03
612.841	39970.57
613.198	40004.7
613.554	40302.77
613.911	40475.42
614.267	40544.8
614.624	40747.28
614.98	40827.95
615.337	41094.16
615.693	40897.55
616.05	41071.11
616.406	41361.05
616.762	41314.94
617.118	41351.1
617.475	41517.2
617.831	41673.13
618.187	41725.56
618.543	41990.63
618.899	42145.21
619.255	42180.23
619.611	42116.28
619.967	42399.21
620.323	42424.29
620.678	42440.34
621.034	42330.96
621.39	42441.02
621.746	42497.74
622.101	43056.37
622.457	42875.81
622.812	42910.38
623.168	43024.05
623.523	43087.78
623.879	43399.41
624.234	43160.09
624.589	43304.27
624.945	43397.83
625.3	43424.04
625.655	43516.69
626.01	43587.65
626.365	43624.71
626.72	43512.18
627.075	43619.97
627.43	43646.18
627.785	43679.63
628.14	43810.25
628.495	43760.98
628.85	43689.12
629.205	43702.68
629.559	44073.74
629.914	43742.9
630.269	43849.12
630.623	43765.5
630.978	43728.21
631.332	43988.32
631.687	44049.79
632.041	43976.57
632.396	44141.09
632.75	43755.78
633.104	43992.39
633.459	43856.35
633.813	43931.83
634.167	43841.43
634.521	43961.65
634.875	44004.82
635.229	43989
635.583	43659.97
635.937	43789.91
636.291	43767.76
636.645	43838.27
636.999	43771.38
637.352	43892.96
637.706	43728.44
638.06	43929.11
638.413	43826.97
638.767	43702.45
639.121	43901.09
639.474	43629.01
639.828	43689.8
640.181	43751.94
640.534	43720.53
640.888	43736.58
641.241	43470.37
641.594	43478.28
641.947	43738.38
642.301	43521.44
642.654	43647.76
643.007	43613.42
643.36	43613.87
643.713	43486.87
644.066	43730.47
644.419	43431.27
644.771	43120.1
645.124	42619.77
645.477	42773.89
645.83	42307.46
646.182	42379.78
646.535	42236.73
646.888	42217.52
647.24	42100.91
647.593	42335.48
647.945	42262.26
648.298	42108.37
648.65	42013.91
649.002	42004.19
649.355	42134.36
649.707	42132.1
650.059	42269.95
650.411	42716.49
650.763	42899.76
651.115	43231.96
651.467	43039.19
651.819	43112.86
652.171	42871.97
652.523	42872.19
652.875	42952.19
653.227	42683.72
653.578	43025.63
653.93	42877.39
654.282	42743.38
654.633	42732.76
654.985	42743.16
655.337	42819.76
655.688	42843.49
656.039	43034.45
656.391	42594.23
656.742	42629.71
657.094	42622.71
657.445	42982.47
657.796	42750.39
658.147	42732.76
658.498	42699.99
658.849	42738.41
659.2	42631.07
659.551	42537.74
659.902	42667
660.253	42593.33
660.604	42684.63
660.955	42458.19
661.306	42621.8
661.656	42562.6
662.007	42648.24
662.358	42440.79
662.708	42689.82
663.059	42552.43
663.409	42354.92
663.76	42682.37
664.11	42567.79
664.461	42635.59
664.811	42592.2
665.161	42535.7
665.511	42412.77
665.862	42513.33
666.212	42492.77
666.562	42474.01
666.912	42373.45
667.262	42308.82
667.612	42470.17
667.962	42449.15
668.312	42552.43
668.662	42611.63
669.011	42444.41
669.361	42354.01
669.711	42363.28
670.06	42342.49
670.41	42385.43
670.76	42307.46
671.109	42482.82
671.459	42286.9
671.808	42301.13
672.157	42409.61
672.507	42015.72
672.856	42113.57
673.205	42245.99
673.554	42251.64
673.904	42191.31
674.253	42170.74
674.602	42148.6
674.951	41635.84
675.3	41420.93
675.649	42094.36
675.998	42012.33
676.346	41990.18
676.695	42138.2
677.044	41955.38
677.393	41947.02
677.741	42102.04
678.09	41782.5
678.438	41816.85
678.787	41920.35
679.135	41956.28
679.484	41707.25
679.832	41789.96
680.181	41639
680.529	41715.84
680.877	41601.04
681.225	41548.61
681.573	41865.44
681.922	41459.8
682.27	41373.25
682.618	41524.2
682.966	41415.28
683.314	41402.17
683.661	41168.96
684.009	41180.49
684.357	41054.16
684.705	40928.97
685.053	40996.99
685.4	40960.6
685.748	40744.79
686.095	40704.34
686.443	40558.81
686.79	40721.29
687.138	40646.26
687.485	40610.1
687.832	40487.85
688.18	40607.17
688.527	40421.41
688.874	40322.43
689.221	40227.52
689.568	40211.47
689.915	40015.54
690.262	40039.5
690.609	39863.01
690.956	39800.86
691.303	39822.55
691.65	39590.02
691.997	39583.46
692.344	39436.12
692.69	39371.49
693.037	39271.61
693.383	39015.12
693.73	39190.48
694.077	38946.65
694.423	39055.12
694.769	38845.63
695.116	38805.86
695.462	38724.05
695.808	38820.32
696.155	38795.01
696.501	38476.15
696.847	38477.96
697.193	38193.44
697.539	38268.25
697.885	38107.8
698.231	37790.07
698.577	37911.64
698.923	37893.11
699.269	37782.38
699.614	37599.79
699.96	37522.5
700.306	37557.53
700.651	37355.73
700.997	37131.33
701.342	37177.88
701.688	37008.17
702.033	36985.34
702.379	36988.28
702.724	36865.57
703.069	36779.24
703.415	36594.16
703.76	36583.32
704.105	36626.48
704.45	36535.18
704.795	36187.85
705.14	36171.58
705.485	36216.32
705.83	36121.18
706.175	36040.06
706.52	35886.84
706.865	35797.35
707.209	35808.2
707.554	35666.73
707.899	35729.33
708.243	35476.91
708.588	35478.04
708.932	35301.09
709.277	35199.4
709.621	35361.65
709.966	35019.29
710.31	35160.3
710.654	34841.44
710.998	34907.43
711.342	34904.49
711.687	34851.39
712.031	34672.63
712.375	34572.98
712.719	34650.49
713.063	34427.67
713.407	34686.19
713.75	34413.43
714.094	34398.06
714.438	34287.11
714.782	34333.89
715.125	34124.17
715.469	34083.72
715.812	34011.63
716.156	33868.13
716.499	33809.38
716.843	33811.87
717.186	33697.29
717.53	33863.62
717.873	33726.22
718.216	33706.11
718.559	33621.81
718.902	33220.69
719.246	33407.36
719.589	33318.09
719.932	33156.29
720.275	33227.7
720.617	33096.86
720.96	33076.29
721.303	33114.71
721.646	33135.95
721.989	32849.18
722.331	32992.9
722.674	32803.98
723.016	32900.7
723.359	32877.2
723.701	32852.57
724.044	32599.24
724.386	32469.08
724.729	32653.48
725.071	32424.78
725.413	32545.23
725.755	32313.83
726.097	32201.51
726.439	32299.36
726.782	32170.78
727.124	32351.56
727.465	32050.78
727.807	32119.03
728.149	32017.79
728.491	31947.96
728.833	31968.75
729.175	31899.83
729.516	31833.39
729.858	31866.83
730.199	31868.19
730.541	31737.34
730.882	31680.85
731.224	31811.24
731.565	31610.34
731.906	31629.32
732.248	31568.08
732.589	31239.28
732.93	31279.28
733.271	31216.45
733.612	31423.23
733.953	31312.04
734.294	31230.01
734.635	31018.72
734.976	31235.21
735.317	31001.32
735.658	31070.02
735.999	31004.03
736.339	30966.06
736.68	31086.97
737.021	30923.58
737.361	30704.38
737.702	30924.26
738.042	30659.18
738.383	30693.08
738.723	30757.03
739.063	30669.8
739.404	30626.41
739.744	30544.15
740.084	30560.43
740.424	30556.58
740.764	30440.2
741.104	30475.91
741.444	30216.25
741.784	30230.49
742.124	30307.78
742.464	30179.42
742.804	30166.31
743.143	30035.02
743.483	30134
743.823	29832.31
744.162	29901.69
744.502	30066.43
744.841	29897.39
745.181	30014
745.52	29939.88
745.86	29995.02
746.199	29900.1
746.538	29784.17
746.877	29862.36
747.216	29728.81
747.556	29618.08
747.895	29650.84
748.234	29433.22
748.573	29558.87
748.911	29441.81
749.25	29520.45
749.589	29302.15
749.928	29325.43
750.267	29320.68
750.605	29180.35
750.944	29144.19
751.283	29039.11
751.621	29102.84
751.96	28861.71
752.298	28865.1
752.636	28935.38
752.975	28792.79
753.313	28693.36
753.651	28764.77
753.989	28570.2
754.327	28675.5
754.666	28408.62
755.004	28479.8
755.342	28476.86
755.679	28419.92
756.017	28317.32
756.355	28332.46
756.693	28202.52
757.031	28282.52
757.368	28050.89
