Data from hue_10_FLMS001491_73.txt Node
Date: Mon Feb 06 15:32:31 GMT 2017
User: dcchb
Spectrometer: FLMS00149
Trigger mode: 0
Integration Time (sec): 2.000000E-2
Scans to average: 10
Electric dark correction enabled: true
Nonlinearity correction enabled: false
Boxcar width: 0
XAxis mode: Wavelengths
Number of Pixels in Spectrum: 2048
>>>>>Begin Spectral Data<<<<<
341.393	-19.01
341.776	-19.01
342.16	-19.01
342.543	-56.07
342.927	-52
343.31	-67.15
343.693	-77.99
344.077	-69.86
344.46	-54.26
344.843	-40.48
345.226	-37.54
345.61	-52.91
345.993	-1.84
346.376	-12.01
346.759	8.79
347.142	28.67
347.525	42.91
347.908	47.43
348.291	80.65
348.674	99.18
349.057	106.41
349.44	132.85
349.823	136.69
350.206	167.65
350.588	186.41
350.971	215.79
351.354	206.75
351.737	249.46
352.119	246.74
352.502	265.73
352.884	281.09
353.267	295.33
353.65	302.79
354.032	298.04
354.414	293.75
354.797	310.47
355.179	339.4
355.562	324.48
355.944	336.23
356.326	338.95
356.709	315.67
357.091	356.12
357.473	344.82
357.855	343.01
358.238	360.87
358.62	338.49
359.002	335.78
359.384	353.18
359.766	350.7
360.148	350.25
360.53	351.15
360.912	328.1
361.294	348.66
361.676	324.93
362.057	328.32
362.439	356.12
362.821	321.77
363.203	347.76
363.584	358.83
363.966	321.55
364.348	321.55
364.729	335.1
365.111	311.83
365.493	319.29
365.874	300.75
366.256	329.91
366.637	308.21
367.019	310.7
367.4	325.61
367.781	314.77
368.163	307.99
368.544	314.31
368.925	316.35
369.306	336.46
369.688	317.25
370.069	309.79
370.45	322.22
370.831	324.48
371.212	330.58
371.593	321.55
371.974	303.01
372.355	309.12
372.736	319.74
373.117	354.76
373.498	316.35
373.879	330.58
374.26	323.35
374.641	315.67
375.021	311.83
375.402	308.44
375.783	310.47
376.163	324.93
376.544	319.74
376.925	311.15
377.305	336.69
377.686	307.08
378.066	318.61
378.447	340.3
378.827	326.74
379.208	334.65
379.588	327.87
379.968	328.55
380.349	333.07
380.729	335.33
381.109	317.93
381.489	337.14
381.87	320.19
382.25	334.2
382.63	329.91
383.01	341.21
383.39	328.55
383.77	346.4
384.15	356.12
384.53	336.46
384.91	326.06
385.29	337.14
385.67	337.36
386.049	368.1
386.429	336.69
386.809	354.99
387.189	346.18
387.568	338.95
387.948	347.53
388.328	342.34
388.707	333.97
389.087	367.87
389.466	359.28
389.846	360.41
390.225	357.93
390.605	358.61
390.984	332.84
391.363	341.21
391.743	354.31
392.122	373.75
392.501	355.89
392.881	374.2
393.26	364.93
393.639	344.6
394.018	340.98
394.397	353.18
394.776	375.78
395.155	367.65
395.534	379.62
395.913	352.28
396.292	350.25
396.671	392.73
397.05	365.84
397.429	378.04
397.808	385.5
398.186	376.01
398.565	364.03
398.944	360.64
399.323	370.36
399.701	364.03
400.08	364.71
400.458	384.59
400.837	386.85
401.215	397.48
401.594	369.68
401.972	394.31
402.351	376.01
402.729	386.63
403.107	388.44
403.486	411.94
403.864	395.44
404.242	388.89
404.62	379.17
404.999	392.5
405.377	402.9
405.755	375.56
406.133	396.57
406.511	395.44
406.889	418.72
407.267	432.28
407.645	402.22
408.023	411.49
408.401	416.46
408.779	394.99
409.156	420.3
409.534	408.1
409.912	421.43
410.29	425.72
410.667	401.32
411.045	421.2
411.422	421.43
411.8	396.8
412.178	417.59
412.555	451.26
412.933	428.44
413.31	431.15
413.687	421.43
414.065	414.65
414.442	455.33
414.819	429.79
415.197	438.38
415.574	436.34
415.951	444.93
416.328	465.27
416.705	426.85
417.082	447.19
417.46	416.68
417.837	454.2
418.214	461.43
418.591	454.42
418.967	454.88
419.344	468.66
419.721	460.07
420.098	451.71
420.475	459.85
420.852	474.31
421.228	485.61
421.605	456.23
421.982	472.95
422.358	466.4
422.735	484.03
423.111	477.7
423.488	485.83
423.864	469.34
424.241	493.52
424.617	483.12
424.994	497.81
425.37	524.93
425.746	493.07
426.123	507.98
426.499	490.35
426.875	486.29
427.251	503.01
427.627	495.55
428.003	499.85
428.379	504.14
428.756	509.79
429.132	504.37
429.507	538.49
429.883	511.37
430.259	529.9
430.635	532.84
431.011	528.32
431.387	542.78
431.763	530.35
432.138	536.45
432.514	552.5
432.89	549.34
433.265	573.74
433.641	567.19
434.016	542.1
434.392	559.96
434.767	566.74
435.143	580.52
435.518	587.75
435.894	596.11
436.269	580.52
436.644	612.39
437.02	604.25
437.395	592.27
437.77	591.37
438.145	622.33
438.52	615.1
438.895	613.74
439.271	600.63
439.646	626.4
440.021	633.18
440.395	611.26
440.77	631.82
441.145	637.02
441.52	636.79
441.895	631.37
442.27	637.47
442.645	630.46
443.019	655.1
443.394	638.83
443.769	648.54
444.143	633.4
444.518	656.9
444.892	657.58
445.267	650.58
445.641	676.79
446.016	644.47
446.39	669.11
446.764	673.4
447.139	652.61
447.513	664.59
447.887	680.41
448.262	667.3
448.636	658.49
449.01	698.03
449.384	697.35
449.758	670.69
450.132	717.92
450.506	695.32
450.88	689.9
451.254	721.76
451.628	691.7
452.002	712.5
452.376	719.73
452.75	717.02
453.123	727.41
453.497	689.45
453.871	718.82
454.244	738.26
454.618	740.97
454.992	742.55
455.365	763.57
455.739	757.24
456.112	766.96
456.486	766.05
456.859	792.27
457.232	785.26
457.606	794.08
457.979	805.6
458.352	817.8
458.725	812.61
459.099	815.32
459.472	813.51
459.845	828.65
460.218	832.72
460.591	839.27
460.964	841.76
461.337	839.95
461.71	854.86
462.083	878.82
462.456	881.08
462.829	844.92
463.201	901.19
463.574	885.6
463.947	915.43
464.32	936.67
464.692	935.54
465.065	932.38
465.438	939.61
465.81	978.7
466.183	964.92
466.555	944.35
466.928	985.93
467.3	992.04
467.672	987.06
468.045	1009.21
468.417	1011.47
468.789	991.81
469.161	1037.01
469.534	1069.1
469.906	1055.31
470.278	1072.26
470.65	1068.64
471.022	1096.21
471.394	1103.22
471.766	1125.59
472.138	1150.9
472.51	1167.4
472.882	1201.3
473.253	1207.17
473.625	1210.79
473.997	1244.23
474.369	1264.8
474.74	1281.29
475.112	1280.16
475.484	1313.61
475.855	1321.97
476.227	1365.81
476.598	1391.8
476.97	1434.51
477.341	1436.77
477.713	1451.23
478.084	1468.86
478.455	1503.89
478.827	1545.47
479.198	1571.46
479.569	1608.07
479.94	1619.14
480.311	1626.82
480.682	1697.78
481.053	1743.2
481.424	1777.55
481.795	1779.13
482.166	1844.67
482.537	1853.03
482.908	1888.51
483.279	1913.14
483.65	1961.73
484.021	2009.64
484.391	2020.71
484.762	2055.74
485.133	2091.44
485.503	2127.6
485.874	2161.72
486.244	2156.07
486.615	2220.48
486.985	2267.48
487.356	2301.61
487.726	2339.35
488.097	2400.59
488.467	2422.96
488.837	2451.88
489.207	2495.73
489.578	2541.37
489.948	2539.79
490.318	2606.46
490.688	2622.95
491.058	2676.29
491.428	2740.24
491.798	2740.24
492.168	2793.8
492.538	2830.86
492.908	2864.3
493.278	2943.85
493.648	2922.38
494.017	2989.27
494.387	3003.51
494.757	3032.21
495.126	3060.91
495.496	3109.72
495.866	3120.57
496.235	3172.32
496.605	3181.36
496.974	3183.39
497.344	3240.56
497.713	3270.17
498.082	3309.72
498.452	3364.18
498.821	3364.86
499.19	3337.96
499.559	3420.67
499.928	3420.9
500.298	3419.32
500.667	3531.63
501.036	3458.41
501.405	3537.73
501.774	3525.3
502.143	3562.36
502.512	3551.29
502.88	3617.28
503.249	3619.31
503.618	3665.64
503.987	3651.4
504.356	3672.64
504.724	3692.98
505.093	3672.42
505.462	3732.53
505.83	3758.97
506.199	3807.33
506.567	3807.33
506.936	3800.1
507.304	3847.1
507.672	3861.34
508.041	3863.6
508.409	3851.85
508.777	3911.28
509.145	3914.67
509.514	3980.66
509.882	3968.91
510.25	3988.79
510.618	3982.47
510.986	3976.36
511.354	4027.66
511.722	4065.63
512.09	4067.66
512.458	4029.92
512.826	4085.29
513.193	4072.63
513.561	4073.08
513.929	4129.35
514.297	4123.71
514.664	4154.44
515.032	4167.77
515.4	4133.87
515.767	4184.72
516.135	4157.6
516.502	4179.75
516.869	4229.92
517.237	4245.06
517.604	4217.49
517.972	4280.54
518.339	4292.97
518.706	4275.34
519.073	4292.29
519.44	4283.93
519.808	4337.71
520.175	4235.57
520.542	4337.26
520.909	4324.83
521.276	4326.41
521.643	4361.44
522.009	4411.16
522.376	4407.31
522.743	4372.06
523.11	4428.1
523.477	4481.21
523.843	4517.59
524.21	4539.06
524.577	4547.65
524.943	4553.75
525.31	4579.29
525.676	4611.83
526.043	4577.25
526.409	4612.96
526.776	4671.71
527.142	4661.32
527.508	4676.23
527.874	4680.75
528.241	4717.14
528.607	4737.25
528.973	4775.44
529.339	4813.18
529.705	4820.18
530.071	4819.05
530.437	4824.48
530.803	4855.89
531.169	4900.18
531.535	4881.2
531.901	4971.37
532.267	4942.67
532.632	4951.48
532.998	4969.11
533.364	4955.55
533.73	4993.96
534.095	5013.4
534.461	5090.46
534.826	5073.74
535.192	5089.33
535.557	5081.65
535.923	5102.89
536.288	5141.98
536.653	5180.17
537.019	5194.41
537.384	5202.55
537.749	5251.81
538.114	5228.31
538.479	5235.77
538.845	5298.14
539.21	5269.89
539.575	5260.4
539.94	5318.25
540.305	5351.92
540.67	5286.16
541.034	5410.22
541.399	5410
541.764	5396.21
542.129	5458.13
542.494	5557.79
542.858	5505.82
543.223	5534.06
543.587	5572.71
543.952	5545.59
544.316	5589.88
544.681	5611.35
545.045	5633.72
545.41	5655.64
545.774	5707.84
546.138	5758.24
546.503	5681.18
546.867	5759.82
547.231	5812.02
547.595	5759.37
547.959	5798.24
548.324	5794.62
548.688	5830.1
549.052	5879.59
549.416	5893.6
549.779	5922.98
550.143	5943.54
550.507	5940.38
550.871	5951.91
551.235	5985.13
551.599	5996.42
551.962	6023.99
552.326	6010.66
552.689	6103.77
553.053	6055.18
553.417	6100.6
553.78	6174.27
554.143	6104.22
554.507	6150.77
554.87	6178.11
555.234	6246.81
555.597	6182.63
555.96	6224.21
556.323	6245.68
556.686	6275.96
557.05	6295.63
557.413	6284.33
557.776	6309.41
558.139	6338.34
558.502	6352.35
558.865	6404.55
559.228	6346.25
559.59	6461.5
559.953	6398.9
560.316	6458.56
560.679	6432.34
561.041	6513.02
561.404	6546.92
561.767	6512.57
562.129	6514.15
562.492	6566.8
562.854	6585.56
563.217	6572.91
563.579	6594.15
563.941	6668.05
564.304	6655.62
564.666	6724.77
565.028	6673.92
565.39	6750.98
565.753	6721.83
566.115	6734.71
566.477	6821.49
566.839	6830.07
567.201	6863.52
567.563	6844.99
567.925	6892.45
568.287	6922.28
568.648	6936.74
569.01	6956.62
569.372	6976.51
569.734	7008.15
570.095	7107.58
570.457	7119.56
570.819	7093.12
571.18	7075.72
571.542	7181.7
571.903	7227.8
572.265	7282.72
572.626	7284.98
572.987	7280.01
573.349	7344.64
573.71	7424.86
574.071	7425.77
574.432	7542.15
574.794	7605.65
575.155	7678.64
575.516	7683.16
575.877	7772.65
576.238	7838.18
576.599	7928.58
576.96	7975.58
577.32	8062.81
577.681	8131.06
578.042	8256.25
578.403	8288.12
578.763	8451.05
579.124	8491.05
579.485	8594.1
579.845	8752.51
580.206	8794.99
580.566	8968.78
580.927	9137.36
581.287	9277.69
581.648	9334.42
582.008	9569.44
582.368	9676.33
582.728	9870.67
583.089	9948.18
583.449	10200.16
583.809	10406.93
584.169	10558.56
584.529	10808.5
584.889	11148.38
585.249	11185.89
585.609	11482.83
585.969	11703.39
586.329	11916.49
586.688	12145.87
587.048	12449.81
587.408	12711.28
587.768	12967.99
588.127	13242.56
588.487	13437.13
588.846	13888.87
589.206	14047.29
589.565	14367.73
589.925	14718
590.284	14914.61
590.643	15350.08
591.003	15629.62
591.362	16019.66
591.721	16391.86
592.08	16677.05
592.44	17054.66
592.799	17421.89
593.158	17757.47
593.517	18164.69
593.876	18450.33
594.235	18821.62
594.593	19148.17
594.952	19608.04
595.311	19818.21
595.67	20260.91
596.029	20764.85
596.387	21174.33
596.746	21457.49
597.104	21791.04
597.463	22185.83
597.822	22563.9
598.18	22805.93
598.538	23233.71
598.897	23769.06
599.255	23849.51
599.613	24658.98
599.972	24788.47
600.33	25293.54
600.688	25462.58
601.046	25861.89
601.404	26449.67
601.762	26629.78
602.12	27033.84
602.478	27462.53
602.836	27847.83
603.194	28023.42
603.552	28539.56
603.91	28704.3
604.268	29116.04
604.625	29398.52
604.983	29764.16
605.341	30016.13
605.698	30443.24
606.056	30876.9
606.413	31001.64
606.771	31475.75
607.128	31811.34
607.485	31938.57
607.843	32165.45
608.2	32735.61
608.557	33132.89
608.914	33188.03
609.272	33644.06
609.629	33949.36
609.986	34359.07
610.343	34533.98
610.7	34986.85
611.057	35133.51
611.414	35398.59
611.771	35605.14
612.127	35987.73
612.484	36125.12
612.841	36426.36
613.198	36536.41
613.554	36803.52
613.911	37271.53
614.267	37337.75
614.624	37510.4
614.98	37813.67
615.337	38101.34
615.693	38272.64
616.05	38396.93
616.406	38807.54
616.762	38784.94
617.118	38998.95
617.475	39259.05
617.831	39374.53
618.187	39579.72
618.543	39832.6
618.899	40211.34
619.255	40283.88
619.611	40203.89
619.967	40711.44
620.323	40862.17
620.678	40903.98
621.034	40972.68
621.39	41124.09
621.746	41139
622.101	41786.67
622.457	41471.65
622.812	41713.68
623.168	41826.22
623.523	41926.55
623.879	42139.88
624.234	42045.87
624.589	42273.21
624.945	42503.94
625.3	42545.07
625.655	42499.19
626.01	42658.96
626.365	42736.25
626.72	42832.74
627.075	42965.4
627.43	42957.94
627.785	42961.55
628.14	43266.18
628.495	43234.32
628.85	43277.7
629.205	43197.48
629.559	43683.12
629.914	43464.82
630.269	43611.25
630.623	43516.12
630.978	43494.87
631.332	43790.46
631.687	43862.55
632.041	43640.63
632.396	43832.27
632.75	43673.4
633.104	43935.09
633.459	43614.87
633.813	43791.59
634.167	43749.1
634.521	43853.06
634.875	43969.66
635.229	43750.23
635.583	43767.18
635.937	43776
636.291	43874.98
636.645	43919.27
636.999	43818.71
637.352	43987.29
637.706	43763.57
638.06	43951.36
638.413	43908.87
638.767	43936.9
639.121	43939.61
639.474	43719.95
639.828	43758.82
640.181	43959.04
640.534	43944.58
640.888	43815.32
641.241	43699.84
641.594	43797.24
641.947	43988.42
642.301	43810.57
642.654	43859.84
643.007	43921.08
643.36	43837.24
643.713	43852.83
644.066	43907.29
644.419	43587.07
644.771	43520.18
645.124	43088.56
645.477	43129.69
645.83	42776.25
646.182	42611.73
646.535	42651.51
646.888	42708.23
647.24	42618.74
647.593	42728.11
647.945	42631.85
648.298	42522.92
648.65	42399.99
649.002	42459.87
649.355	42536.48
649.707	42543.26
650.059	42646.76
650.411	43190.7
650.763	43202.68
651.115	43465.72
651.467	43389.11
651.819	43569
652.171	43384.59
652.523	43332.84
652.875	43269.34
653.227	43146.18
653.578	43380.3
653.93	43333.3
654.282	43142.57
654.633	43177.59
654.985	43311.38
655.337	43357.02
655.688	43215.33
656.039	43404.71
656.391	42960.88
656.742	43179.85
657.094	43012.4
657.445	43282.68
657.796	43162.68
658.147	43081.78
658.498	43054.88
658.849	43151.15
659.2	43159.29
659.551	43012.17
659.902	43084.94
660.253	43132.4
660.604	43113.19
660.955	42902.8
661.306	42901.67
661.656	42944.38
662.007	42917.94
662.358	43030.25
662.708	42952.51
663.059	42964.72
663.409	42829.13
663.76	42954.77
664.11	42984.6
664.461	43020.76
664.811	42893.08
665.161	42980.76
665.511	42926.07
665.862	42929.92
666.212	43049.46
666.562	43058.73
666.912	42905.06
667.262	42762.24
667.612	42839.07
667.962	42965.62
668.312	42807.43
668.662	42985.73
669.011	42925.85
669.361	42881.56
669.711	42761.79
670.06	42696.7
670.41	42658.96
670.76	42695.8
671.109	42820.31
671.459	42649.92
671.808	42771.05
672.157	42734.89
672.507	42544.84
672.856	42640.21
673.205	42629.81
673.554	42657.83
673.904	42579.87
674.253	42703.93
674.602	42587.1
674.951	42029.6
675.3	41793.45
675.649	42610.6
675.998	42541
676.346	42492.41
676.695	42672.07
677.044	42256.71
677.393	42478.4
677.741	42382.81
678.09	42433.21
678.438	42255.81
678.787	42335.58
679.135	42312.31
679.484	42035.02
679.832	42206.55
680.181	42100.11
680.529	42094.68
680.877	41945.08
681.225	42064.63
681.573	42092.88
681.922	41855.82
682.27	41898.08
682.618	41763.39
682.966	41606.11
683.314	41799.32
683.661	41658.09
684.009	41551.42
684.357	41451.76
684.705	41351.43
685.053	41413.8
685.4	41247.02
685.748	41236.4
686.095	41105.33
686.443	41006.8
686.79	40870.31
687.138	40934.04
687.485	41089.96
687.832	40837.77
688.18	41015.62
688.527	40633.48
688.874	40662.86
689.221	40531.11
689.568	40530.88
689.915	40451.34
690.262	40455.18
690.609	40279.14
690.956	40155.75
691.303	40163.21
691.65	40036.66
691.997	40001.86
692.344	39805.03
692.69	39745.82
693.037	39827.4
693.383	39438.48
693.73	39563.68
694.077	39407.75
694.423	39332.04
694.769	39184.7
695.116	39222.22
695.462	39144.03
695.808	38925.5
696.155	39053.63
696.501	38697.94
696.847	38739.97
697.193	38576.81
697.539	38603.02
697.885	38366.19
698.231	38278.51
698.577	38354.9
698.923	38287.1
699.269	38017.5
699.614	37831.75
699.96	37786.1
700.306	37779.77
700.651	37648.93
700.997	37514.69
701.342	37364.64
701.688	37407.35
702.033	37368.48
702.379	37373
702.724	37155.15
703.069	37247.13
703.415	36790.87
703.76	36738.67
704.105	36824.54
704.45	36774.15
704.795	36536.64
705.14	36371.22
705.485	36470.2
705.83	36252.8
706.175	36364.89
706.52	36204.9
706.865	36064.56
707.209	36012.58
707.554	36058.23
707.899	36066.14
708.243	35886.49
708.588	35839.03
708.932	35599.04
709.277	35670.45
709.621	35609.43
709.966	35379.38
710.31	35403.11
710.654	35151.14
710.998	35151.82
711.342	35117.69
711.687	35110.69
712.031	34903.69
712.375	34644.71
712.719	34952.95
713.063	34780.98
713.407	34890.58
713.75	34598.16
714.094	34841.32
714.438	34579.4
714.782	34464.6
715.125	34323.14
715.469	34450.14
715.812	34109.13
716.156	34006.08
716.499	34062.8
716.843	34124.95
717.186	33934.22
717.53	34150.71
717.873	34047.44
718.216	33973.09
718.559	33696.26
718.902	33467.11
719.246	33677.28
719.589	33542.82
719.932	33451.75
720.275	33406.78
720.617	33361.35
720.96	33223.73
721.303	33290.17
721.646	33390.28
721.989	33170.17
722.331	33213.56
722.674	33095.15
723.016	33244.97
723.359	33146.67
723.701	33154.35
724.044	32823.29
724.386	32668.27
724.729	32797.08
725.071	32738.09
725.413	32663.97
725.755	32677.3
726.097	32539.23
726.439	32265.11
726.782	32424.43
727.124	32579.45
727.465	32349.18
727.807	32297.43
728.149	32216.53
728.491	32235.06
728.833	32339.23
729.175	32138.56
729.516	32070.54
729.858	31972.46
730.199	32038.68
730.541	31885.24
730.882	31678.01
731.224	31963.2
731.565	31722.3
731.906	31859.02
732.248	31755.07
732.589	31618.12
732.93	31511.91
733.271	31592.14
733.612	31556.88
733.953	31512.36
734.294	31349.66
734.635	31262.65
734.976	31319.6
735.317	31213.39
735.658	31099.04
735.999	31127.74
736.339	31096.1
736.68	31160.28
737.021	31151.47
737.361	30872.38
737.702	30995.99
738.042	31013.62
738.383	30915.32
738.723	30946.73
739.063	30741.76
739.404	30920.74
739.744	30774.3
740.084	30657.7
740.424	30645.27
740.764	30763
741.104	30646.4
741.444	30502.9
741.784	30473.29
742.124	30428.32
742.464	30433.97
742.804	30235.56
743.143	30194.21
743.483	30181.78
743.823	30079.18
744.162	30245.5
744.502	30090.03
744.841	30083.47
745.181	30174.09
745.52	29954.66
745.86	29981.33
746.199	29892.29
746.538	29885.74
746.877	29917.6
747.216	29774.56
747.556	29744.95
747.895	29789.47
748.234	29751.28
748.573	29608.01
748.911	29601.23
749.25	29460.67
749.589	29301.8
749.928	29421.12
750.267	29339.99
750.605	29417.73
750.944	29392.87
751.283	29086.89
751.621	29210.05
751.96	29085.08
752.298	29065.42
752.636	29056.61
752.975	28856.16
753.313	28838.76
753.651	28970.06
753.989	28775.71
754.327	28707.24
754.666	28711.99
755.004	28664.98
755.342	28624.76
755.679	28479.67
756.017	28402.16
756.355	28419.11
756.693	28333.01
757.031	28337.76
757.368	28148.38
757.706	28098.89
758.044	28036.75
758.381	28151.55
758.719	28005.79
759.056	27907.49
759.394	27863.87
759.731	27813.48
760.068	27743.88
760.405	27668.4
760.743	27479.48
761.08	27574.39
761.417	27492.81
761.754	27364
