Data from hue_130_FLMS001491_00069.txt Node
Date: Tue Feb 07 16:57:56 GMT 2017
User: dcchb
Spectrometer: FLMS00149
Trigger mode: 0
Integration Time (sec): 2.000000E-2
Scans to average: 10
Electric dark correction enabled: true
Nonlinearity correction enabled: false
Boxcar width: 0
XAxis mode: Wavelengths
Number of Pixels in Spectrum: 2048
>>>>>Begin Spectral Data<<<<<
341.393	-7.1
341.776	-7.1
342.16	-7.1
342.543	-52.75
342.927	-57.72
343.31	-81.23
343.693	-79.19
344.077	-78.51
344.46	-63.6
344.843	-54.11
345.226	-44.62
345.61	-21.34
345.993	-20.21
346.376	1.03
346.759	2.84
347.142	34.48
347.525	48.04
347.908	66.34
348.291	82.61
348.674	96.62
349.057	110.86
349.44	125.32
349.823	142.04
350.206	159.9
350.588	215.04
350.971	223.17
351.354	228.14
351.737	235.15
352.119	239.22
352.502	225.43
352.884	288.26
353.267	262.27
353.65	285.54
354.032	281.25
354.414	289.16
354.797	306.79
355.179	330.06
355.562	296.84
355.944	332.55
356.326	328.71
356.709	305.66
357.091	349.04
357.473	354.92
357.855	334.58
358.238	330.51
358.62	355.37
359.002	326.9
359.384	340.46
359.766	339.78
360.148	348.14
360.53	329.61
360.912	323.51
361.294	338.2
361.676	323.96
362.057	324.41
362.439	312.44
362.821	340.01
363.203	322.6
363.584	315.83
363.966	301.81
364.348	313.57
364.729	328.03
365.111	330.06
365.493	320.57
365.874	306.79
366.256	306.33
366.637	307.69
367.019	333
367.4	317.18
367.781	292.77
368.163	307.92
368.544	295.49
368.925	311.31
369.306	326.22
369.688	312.21
370.069	309.27
370.45	299.1
370.831	297.29
371.212	301.59
371.593	303.62
371.974	298.42
372.355	318.31
372.736	298.2
373.117	304.98
373.498	321.02
373.879	300.23
374.26	327.58
374.641	298.42
375.021	302.04
375.402	321.25
375.783	321.25
376.163	331.19
376.544	329.61
376.925	325.77
377.305	330.74
377.686	321.93
378.066	322.6
378.447	333.68
378.827	335.26
379.208	333.45
379.588	345.65
379.968	318.08
380.349	330.97
380.729	314.47
381.109	316.73
381.489	316.5
381.87	331.19
382.25	358.08
382.63	333.45
383.01	342.49
383.39	348.37
383.77	336.62
384.15	321.47
384.53	358.54
384.91	341.36
385.29	371.42
385.67	350.63
386.049	350.17
386.429	361.47
386.809	358.54
387.189	362.15
387.568	364.64
387.948	368.93
388.328	355.15
388.707	382.49
389.087	363.73
389.466	353.79
389.846	367.8
390.225	352.89
390.605	353.11
390.984	367.58
391.363	344.3
391.743	371.19
392.122	384.52
392.501	371.64
392.881	367.58
393.26	373.45
393.639	377.07
394.018	373.45
394.397	396.5
394.776	395.37
395.155	391.08
395.534	393.79
395.913	406.22
396.292	388.14
396.671	387.01
397.05	378.42
397.429	376.16
397.808	388.14
398.186	391.53
398.565	384.52
398.944	390.63
399.323	405.54
399.701	408.48
400.08	395.37
400.458	399.21
400.837	390.17
401.215	405.77
401.594	397.4
401.972	415.26
402.351	416.61
402.729	412.09
403.107	428.14
403.486	427.01
403.864	413
404.242	441.92
404.62	415.03
404.999	468.14
405.377	437.18
405.755	435.37
406.133	435.37
406.511	432.43
406.889	430.4
407.267	452.54
407.645	453.22
408.023	459.55
408.401	472.43
408.779	457.29
409.156	453.45
409.534	442.83
409.912	458.19
410.29	478.76
410.667	475.37
411.045	474.24
411.422	451.64
411.8	479.89
412.178	493.45
412.555	514.46
412.933	483.73
413.31	495.71
413.687	519.89
414.065	518.31
414.442	511.75
414.819	519.89
415.197	500.68
415.574	541.81
415.951	511.98
416.328	514.46
416.705	527.34
417.082	512.88
417.46	541.58
417.837	514.46
418.214	542.26
418.591	542.26
418.967	563.95
419.344	566.89
419.721	564.41
420.098	558.98
420.475	558.76
420.852	562.15
421.228	556.04
421.605	563.95
421.982	588.81
422.358	576.38
422.735	584.97
423.111	564.41
423.488	594.24
423.864	573.67
424.241	609.83
424.617	604.86
424.994	597.4
425.37	624.97
425.746	622.71
426.123	603.95
426.499	600.11
426.875	636.04
427.251	626.1
427.627	637.85
428.003	641.24
428.379	668.36
428.756	621.81
429.132	652.54
429.507	672.65
429.883	662.26
430.259	700.45
430.635	701.35
431.011	711.97
431.387	687.79
431.763	714.23
432.138	694.57
432.514	714.68
432.89	703.39
433.265	721.92
433.641	729.6
434.016	707.45
434.392	750.39
434.767	751.07
435.143	766.66
435.518	756.94
435.894	768.02
436.269	766.21
436.644	782.48
437.02	789.26
437.395	778.19
437.77	797.39
438.145	777.51
438.52	791.29
438.895	790.61
439.271	794.46
439.646	851.86
440.021	848.01
440.395	838.52
440.77	838.98
441.145	863.16
441.52	853.89
441.895	872.65
442.27	869.93
442.645	874.45
443.019	874.23
443.394	865.87
443.769	899.09
444.143	878.3
444.518	896.15
444.892	899.99
445.267	937.28
445.641	900.89
446.016	928.69
446.39	941.35
446.764	928.24
447.139	939.99
447.513	942.02
447.887	976.6
448.262	951.74
448.636	936.6
449.01	965.53
449.384	998.07
449.758	972.08
450.132	997.62
450.506	1005.52
450.88	984.96
451.254	1024.28
451.628	1020.89
452.002	1009.37
452.376	1042.13
452.75	1034.45
453.123	1082.36
453.497	1057.73
453.871	1060.89
454.244	1065.86
454.618	1080.55
454.992	1112.41
455.365	1118.52
455.739	1139.98
456.112	1158.74
456.486	1176.37
456.859	1179.98
457.232	1195.58
457.606	1195.58
457.979	1204.62
458.352	1231.51
458.725	1265.63
459.099	1244.39
459.472	1275.8
459.845	1289.36
460.218	1302.01
460.591	1292.75
460.964	1311.96
461.337	1353.31
461.71	1387.66
462.083	1388.57
462.456	1369.13
462.829	1402.12
463.201	1424.95
463.574	1413.88
463.947	1485.29
464.32	1504.27
464.692	1525.74
465.065	1527.77
465.438	1562.57
465.81	1586.07
466.183	1593.31
466.555	1626.3
466.928	1658.16
467.3	1643.7
467.672	1650.93
468.045	1709.01
468.417	1726.18
468.789	1732.96
469.161	1795.11
469.534	1777.26
469.906	1846.63
470.278	1874.43
470.65	1890.02
471.022	1943.8
471.394	1991.94
471.766	2006.63
472.138	2048.66
472.51	2126.62
472.882	2129.34
473.253	2134.99
473.625	2221.76
473.997	2236
474.369	2278.26
474.74	2311.25
475.112	2411.36
475.484	2456.56
475.855	2480.51
476.227	2561.87
476.598	2639.61
476.97	2720.51
477.341	2736.78
477.713	2827.85
478.084	2921.18
478.455	2959.15
478.827	3037.34
479.198	3110.33
479.569	3199.37
479.94	3301.06
480.311	3363.43
480.682	3487.72
481.053	3540.82
481.424	3649.97
481.795	3733.36
482.166	3799.58
482.537	3958.67
482.908	4049.51
483.279	4140.81
483.65	4261.26
484.021	4385.55
484.391	4480.69
484.762	4547.58
485.133	4677.74
485.503	4783.5
485.874	4914.35
486.244	5037.96
486.615	5171.29
486.985	5247.9
487.356	5444.5
487.726	5543.03
488.097	5710.71
488.467	5836.13
488.837	6009.23
489.207	6106.18
489.578	6274.99
489.948	6378.72
490.318	6525.15
490.688	6601.31
491.058	6818.93
491.428	6895.99
491.798	7067.51
492.168	7230.67
492.538	7385.92
492.908	7561.96
493.278	7706.59
493.648	7827.04
494.017	7987.71
494.387	8011.89
494.757	8267.71
495.126	8374.82
495.496	8416.63
495.866	8662.95
496.235	8763.96
496.605	8836.5
496.974	8981.59
497.344	9096.61
497.713	9229.49
498.082	9342.25
498.452	9565.75
498.821	9601.91
499.19	9652.98
499.559	9848.46
499.928	9932.52
500.298	10128
500.667	10185.4
501.036	10260.42
501.405	10326.86
501.774	10391.94
502.143	10586.74
502.512	10628.55
502.88	10763.01
503.249	10818.37
503.618	10926.85
503.987	11013.17
504.356	11109.21
504.724	11172.49
505.093	11215.88
505.462	11417.91
505.83	11398.25
506.199	11510.11
506.567	11719.82
506.936	11699.48
507.304	11812.25
507.672	11903.54
508.041	11954.62
508.409	12069.19
508.777	12160.71
509.145	12249.3
509.514	12260.37
509.882	12409.97
510.25	12366.13
510.618	12446.35
510.986	12517.99
511.354	12604.09
511.722	12723.18
512.09	12811.09
512.458	12788.04
512.826	12941.26
513.193	12969.73
513.561	13013.34
513.929	13040.69
514.297	13109.61
514.664	13145.32
515.032	13212.44
515.4	13248.59
515.767	13372.43
516.135	13382.37
516.502	13334.01
516.869	13491.52
517.237	13548.47
517.604	13415.14
517.972	13621.92
518.339	13631.86
518.706	13805.87
519.073	13706.21
519.44	13712.76
519.808	13828.46
520.175	13822.14
520.542	13963.38
520.909	14017.84
521.276	13960.66
521.643	14114.11
522.009	14164.05
522.376	14102.36
522.743	14075.46
523.11	14257.61
523.477	14279.53
523.843	14277.72
524.21	14390.48
524.577	14399.52
524.943	14444.95
525.31	14464.38
525.676	14554.32
526.043	14631.61
526.409	14594.09
526.776	14768.55
527.142	14670.02
527.508	14748.89
527.874	14736.69
528.241	14873.86
528.607	14750.93
528.973	14873.18
529.339	14800.19
529.705	14917.25
530.071	14944.82
530.437	14960.19
530.803	15000.41
531.169	15000.18
531.535	14915.22
531.901	14879.28
532.267	14900.3
532.632	14974.65
532.998	14916.12
533.364	14944.37
533.73	14919.06
534.095	14977.59
534.461	14981.65
534.826	14967.19
535.192	14964.03
535.557	15060.97
535.923	14854.88
536.288	14876.35
536.653	14918.15
537.019	14782.79
537.384	14907.98
537.749	14828.44
538.114	14750.93
538.479	14718.16
538.845	14832.96
539.21	14684.94
539.575	14728.78
539.94	14691.04
540.305	14792.73
540.67	14695.33
541.034	14686.75
541.399	14682.23
541.764	14677.03
542.129	14653.53
542.494	14521.78
542.858	14513.19
543.223	14550.48
543.587	14498.28
543.952	14489.24
544.316	14414.89
544.681	14352.52
545.045	14344.61
545.41	14493.53
545.774	14378.05
546.138	14302.12
546.503	14253.54
546.867	14197.49
547.231	14324.95
547.595	14233.43
547.959	14195.69
548.324	14237.04
548.688	14131.05
549.052	14122.69
549.416	14075.24
549.779	14068.91
550.143	14033.2
550.507	14044.73
550.871	14016.03
551.235	13895.13
551.599	14012.19
551.962	13939.87
552.326	13916.37
552.689	13949.14
553.053	13863.04
553.417	13859.42
553.78	13935.58
554.143	13837.28
554.507	13877.5
554.87	13808.58
555.234	13931.06
555.597	13741.23
555.96	13780.78
556.323	13803.61
556.686	13732.65
557.05	13732.2
557.413	13761.8
557.776	13756.15
558.139	13815.13
558.502	13759.77
558.865	13699.43
559.228	13728.13
559.59	13759.99
559.953	13740.33
560.316	13858.97
560.679	13834.79
561.041	13894.68
561.404	13852.64
561.767	13868.91
562.129	13827.33
562.492	13836.83
562.854	13829.59
563.217	13742.14
563.579	13830.72
563.941	13904.85
564.304	13917.73
564.666	13914.56
565.028	13853.32
565.39	13930.16
565.753	13960.66
566.115	13995.24
566.477	13985.3
566.839	14000.66
567.201	14068.01
567.563	14116.37
567.925	14121.79
568.287	14066.65
568.648	14017.84
569.01	14130.83
569.372	14166.31
569.734	14144.39
570.095	14160.43
570.457	14215.57
570.819	14229.13
571.18	14234.78
571.542	14282.24
571.903	14241.56
572.265	14340.99
572.626	14402.91
572.987	14346.64
573.349	14289.02
573.71	14307.32
574.071	14341.67
574.432	14371.05
574.794	14552.06
575.155	14387.32
575.516	14365.17
575.877	14434.78
576.238	14462.35
576.599	14489.92
576.96	14399.97
577.32	14443.14
577.681	14511.61
578.042	14508.67
578.403	14466.87
578.763	14510.93
579.124	14449.46
579.485	14504.15
579.845	14525.85
580.206	14450.59
580.566	14495.79
580.927	14510.03
581.287	14510.25
581.648	14520.42
582.008	14489.92
582.368	14522.68
582.728	14518.62
583.089	14499.41
583.449	14501.67
583.809	14419.18
584.169	14583.47
584.529	14422.12
584.889	14628.67
585.249	14503.25
585.609	14396.81
585.969	14522.23
586.329	14380.31
586.688	14418.28
587.048	14410.37
587.408	14341.44
587.768	14387.77
588.127	14355
588.487	14364.5
588.846	14419.41
589.206	14296.93
589.565	14304.84
589.925	14383.03
590.284	14255.12
590.643	14333.54
591.003	14356.13
591.362	14322.91
591.721	14301.9
592.08	14297.38
592.44	14351.61
592.799	14340.54
593.158	14249.7
593.517	14281.11
593.876	14265.97
594.235	14264.38
594.593	14358.17
594.952	14362.24
595.311	14235.91
595.67	14189.58
596.029	14262.35
596.387	14272.07
596.746	14349.35
597.104	14249.7
597.463	14214.67
597.822	14220.77
598.18	14219.41
598.538	14168.34
598.897	14273.65
599.255	14220.09
599.613	14277.04
599.972	14253.54
600.33	14263.25
600.688	14136.7
601.046	14263.71
601.404	14312.29
601.762	14256.7
602.12	14308.9
602.478	14265.97
602.836	14348.9
603.194	14219.19
603.552	14238.62
603.91	14201.11
604.268	14296.02
604.625	14236.14
604.983	14224.16
605.341	14179.42
605.698	14339.64
606.056	14210.6
606.413	14259.19
606.771	14364.72
607.128	14371.27
607.485	14181.9
607.843	14254.67
608.2	14400.65
608.557	14292.18
608.914	14337.38
609.272	14436.36
609.629	14423.7
609.986	14414.44
610.343	14389.35
610.7	14475.9
611.057	14518.62
611.414	14364.5
611.771	14395
612.127	14556.81
612.484	14495.57
612.841	14549.12
613.198	14472.74
613.554	14536.47
613.911	14490.82
614.267	14585.51
614.624	14522.68
614.98	14512.29
615.337	14625.05
615.693	14524.49
616.05	14544.15
616.406	14652.62
616.762	14597.94
617.118	14545.51
617.475	14523.81
617.831	14629.35
618.187	14644.49
618.543	14660.08
618.899	14707.09
619.255	14707.76
619.611	14696.92
619.967	14742.34
620.323	14802.68
620.678	14644.04
621.034	14688.33
621.39	14660.08
621.746	14641.78
622.101	14770.36
622.457	14680.42
622.812	14698.05
623.168	14803.81
623.523	14682.9
623.879	14778.5
624.234	14801.32
624.589	14696.69
624.945	14672.96
625.3	14764.71
625.655	14731.94
626.01	14755.67
626.365	14689.46
626.72	14705.5
627.075	14687.42
627.43	14645.62
627.785	14660.76
628.14	14706.41
628.495	14713.19
628.85	14747.31
629.205	14678.61
629.559	14665.28
629.914	14609.46
630.269	14619.63
630.623	14633.41
630.978	14576.69
631.332	14672.74
631.687	14569.46
632.041	14486.98
632.396	14543.02
632.75	14451.72
633.104	14590.7
633.459	14419.86
633.813	14505.28
634.167	14439.07
634.521	14457.15
634.875	14380.09
635.229	14434.78
635.583	14403.14
635.937	14444.27
636.291	14364.95
636.645	14331.95
636.999	14338.28
637.352	14411.27
637.706	14258.96
638.06	14365.85
638.413	14327.89
638.767	14290.82
639.121	14355.46
639.474	14153.88
639.828	14167.44
640.181	14245.4
640.534	14157.95
640.888	14163.82
641.241	14125.41
641.594	14173.31
641.947	14240.66
642.301	14138.51
642.654	14187.55
643.007	14189.58
643.36	14128.12
643.713	14059.64
644.066	14119.08
644.419	14017.39
644.771	13980.78
645.124	13848.35
645.477	13741.23
645.83	13716.6
646.182	13656.27
646.535	13646.77
646.888	13589.6
647.24	13510.05
647.593	13625.76
647.945	13649.49
648.298	13518.64
648.65	13578.75
649.002	13613.78
649.355	13622.59
649.707	13597.28
650.059	13716.15
650.411	13807.22
650.763	13820.55
651.115	13938.97
651.467	13974.67
651.819	13832.31
652.171	13803.38
652.523	13849.71
652.875	13877.95
653.227	13823.72
653.578	13900.33
653.93	13880.21
654.282	13766.32
654.633	13794.34
654.985	13780.1
655.337	13836.6
655.688	13864.17
656.039	13920.89
656.391	13764.06
656.742	13807
657.094	13822.81
657.445	13932.64
657.796	13882.25
658.147	13856.49
658.498	13879.76
658.849	13925.41
659.2	13838.86
659.551	13902.36
659.902	13969.25
660.253	13894.45
660.604	13905.07
660.955	13915.02
661.306	13827.79
661.656	13875.24
662.007	13933.09
662.358	13967.22
662.708	13924.73
663.059	13936.03
663.409	13814.45
663.76	13948.23
664.11	13916.15
664.461	13933.77
664.811	13929.48
665.161	13905.98
665.511	13837.5
665.862	13927.44
666.212	14013.54
666.562	13920.21
666.912	13921.34
667.262	13921.79
667.612	13940.78
667.962	13910.95
668.312	13899.2
668.662	13903.26
669.011	13890.84
669.361	13923.15
669.711	13923.6
670.06	13877.28
670.41	13844.73
670.76	13828.46
671.109	13859.42
671.459	13863.49
671.808	13753.21
672.157	13878.86
672.507	13800.44
672.856	13708.69
673.205	13802.48
673.554	13876.82
673.904	13731.97
674.253	13929.03
674.602	13782.36
674.951	13640.67
675.3	13541.92
675.649	13717.05
675.998	13742.36
676.346	13738.3
676.695	13715.92
677.044	13673.67
677.393	13744.62
677.741	13693.1
678.09	13587.11
678.438	13599.77
678.787	13729.48
679.135	13616.94
679.484	13539.66
679.832	13629.83
680.181	13440.68
680.529	13527.46
680.877	13433.67
681.225	13517.74
681.573	13442.49
681.922	13382.15
682.27	13429.6
682.618	13401.13
682.966	13387.35
683.314	13317.74
683.661	13313.45
684.009	13244.52
684.357	13254.92
684.705	13229.38
685.053	13256.95
685.4	13253.11
685.748	13143.74
686.095	13141.93
686.443	13060.57
686.79	13060.35
687.138	13117.3
687.485	13042.04
687.832	12997.98
688.18	13012.44
688.527	12946.91
688.874	12900.13
689.221	12925.21
689.568	12844.76
689.915	12743.97
690.262	12785.33
690.609	12785.33
690.956	12686.8
691.303	12753.01
691.65	12548.72
691.997	12646.8
692.344	12521.15
692.69	12476.18
693.037	12437.99
693.383	12364.1
693.73	12415.62
694.077	12342.18
694.423	12256.08
694.769	12293.14
695.116	12258.11
695.462	12213.37
695.808	12203.42
696.155	12260.14
696.501	12052.24
696.847	12033.93
697.193	11930.89
697.539	12051.79
697.885	11921.17
698.231	11902.19
698.577	11843.43
698.923	11859.7
699.269	11772.02
699.614	11679.37
699.96	11711.68
700.306	11635.53
700.651	11559.37
700.997	11559.15
701.342	11492.93
701.688	11521.41
702.033	11468.53
702.379	11384.91
702.724	11365.48
703.069	11387.85
703.415	11217.01
703.76	11293.39
704.105	11241.41
704.45	11235.76
704.795	11143.79
705.14	11157.12
705.485	11104.47
705.83	11114.86
706.175	11128.65
706.52	10994.41
706.865	10938.82
707.209	10947.41
707.554	10913.29
707.899	10912.16
708.243	10877.13
708.588	10804.36
708.932	10731.6
709.277	10775.66
709.621	10718.94
709.966	10644.14
710.31	10720.07
710.654	10587.42
710.998	10610.02
711.342	10686.85
711.687	10611.15
712.031	10583.8
712.375	10478.27
712.719	10510.59
713.063	10473.98
713.407	10514.88
713.75	10424.49
714.094	10399.4
714.438	10402.11
714.782	10378.39
715.125	10401.66
715.469	10317.82
715.812	10366.86
716.156	10358.05
716.499	10237.15
716.843	10309.91
717.186	10171.39
717.53	10289.57
717.873	10203.93
718.216	10198.5
718.559	10179.75
718.902	10130.03
719.246	10139.07
719.589	10141.1
719.932	10072.18
720.275	10086.64
720.617	10049.81
720.96	10042.12
721.303	10026.98
721.646	10050.71
721.989	10022.01
722.331	10044.83
722.674	9974.78
723.016	9913.99
723.359	9956.93
723.701	9967.77
724.044	9932.07
724.386	9896.59
724.729	9949.47
725.071	9965.74
725.413	9974.1
725.755	9935.91
726.097	9847.33
726.439	9834.44
726.782	9811.39
727.124	9783.37
727.465	9759.19
727.807	9788.57
728.149	9841
728.491	9823.6
728.833	9828.8
729.175	9823.37
729.516	9750.38
729.858	9704.28
730.199	9750.15
730.541	9834.22
730.882	9692.08
731.224	9775.24
731.565	9724.39
731.906	9713.32
732.248	9735.01
732.589	9658.18
732.93	9664.51
733.271	9725.75
733.612	9765.07
733.953	9723.94
734.294	9778.4
734.635	9711.51
734.976	9668.57
735.317	9679.42
735.658	9685.75
735.999	9668.57
736.339	9678.29
736.68	9705.86
737.021	9655.69
737.361	9639.2
737.702	9722.58
738.042	9651.85
738.383	9768.23
738.723	9771.62
739.063	9744.73
739.404	9783.6
739.744	9752.41
740.084	9717.84
740.424	9766.42
740.764	9811.85
741.104	9822.69
741.444	9813.2
741.784	9815.01
742.124	9838.06
742.464	9809.13
742.804	9841.9
743.143	9881.22
743.483	9906.99
743.823	9858.85
744.162	9909.02
744.502	9903.6
744.841	9946.08
745.181	9998.73
745.52	10037.38
745.86	10077.6
746.199	10116.47
746.538	10069.92
746.877	10173.19
747.216	10257.48
747.556	10233.98
747.895	10303.81
748.234	10331.15
748.573	10370.7
748.911	10446.86
749.25	10464.26
749.589	10491.83
749.928	10591.26
750.267	10638.94
750.605	10719.39
750.944	10859.95
751.283	10826.51
751.621	10914.19
751.96	11081.42
752.298	11177.01
752.636	11235.99
752.975	11276.89
753.313	11332.48
753.651	11474.18
753.989	11603.21
754.327	11731.8
754.666	11797.11
755.004	11934.05
755.342	12033.48
755.679	12174.5
756.017	12353.7
756.355	12416.52
756.693	12561.15
757.031	12671.21
