Data from hue_32_FLMS001491_00015.txt Node
Date: Tue Feb 07 17:22:58 GMT 2017
User: dcchb
Spectrometer: FLMS00149
Trigger mode: 0
Integration Time (sec): 2.000000E-2
Scans to average: 10
Electric dark correction enabled: true
Nonlinearity correction enabled: false
Boxcar width: 0
XAxis mode: Wavelengths
Number of Pixels in Spectrum: 2048
>>>>>Begin Spectral Data<<<<<
341.393	4.56
341.776	4.56
342.16	4.56
342.543	-63.68
342.927	-58.26
343.31	-79.28
343.693	-65.49
344.077	-55.1
344.46	-56.23
344.843	-57.81
345.226	-41.54
345.61	-41.09
345.993	-20.3
346.376	6.6
346.759	13.15
347.142	44.79
347.525	25.13
347.908	48.18
348.291	76.42
348.674	90.21
349.057	112.36
349.44	127.72
349.823	141.96
350.206	190.55
350.588	205.46
350.971	231.45
351.354	217.66
351.737	249.75
352.119	265.8
352.502	275.29
352.884	292.46
353.267	274.84
353.65	297.89
354.032	284.55
354.414	331.79
354.797	329.75
355.179	319.13
355.562	325.91
355.944	337.21
356.326	328.4
356.709	338.11
357.091	337.21
357.473	353.93
357.855	340.15
358.238	332.46
358.62	344.89
359.002	354.38
359.384	360.26
359.766	335.4
360.148	352.58
360.53	343.99
360.912	334.72
361.294	324.33
361.676	353.48
362.057	345.8
362.439	342.41
362.821	325.46
363.203	327.04
363.584	332.91
363.966	336.3
364.348	349.64
364.729	322.52
365.111	320.03
365.493	351.67
365.874	313.03
366.256	322.07
366.637	321.62
367.019	311.45
367.4	303.54
367.781	318
368.163	343.54
368.544	325.46
368.925	315.51
369.306	337.89
369.688	315.74
370.069	302.41
370.45	327.04
370.831	327.72
371.212	341.28
371.593	323.88
371.974	313.71
372.355	334.5
372.736	320.94
373.117	307.38
373.498	333.59
373.879	320.26
374.26	321.39
374.641	331.11
375.021	325.23
375.402	336.08
375.783	349.41
376.163	328.62
376.544	325.01
376.925	337.43
377.305	345.57
377.686	315.74
378.066	339.69
378.447	315.97
378.827	334.5
379.208	346.93
379.588	354.84
379.968	349.41
380.349	325.46
380.729	329.98
381.109	345.12
381.489	343.54
381.87	358.45
382.25	347.38
382.63	339.47
383.01	354.61
383.39	362.52
383.77	352.8
384.15	363.65
384.53	360.94
384.91	351.45
385.29	357.32
385.67	361.39
386.049	366.36
386.429	358
386.809	379.02
387.189	348.73
387.568	357.1
387.948	349.41
388.328	348.06
388.707	367.72
389.087	360.71
389.466	368.62
389.846	379.69
390.225	373.37
390.605	382.41
390.984	380.6
391.363	383.54
391.743	379.47
392.122	383.54
392.501	384.21
392.881	389.86
393.26	369.3
393.639	375.63
394.018	407.72
394.397	391.9
394.776	390.31
395.155	394.61
395.534	389.64
395.913	391.44
396.292	412.91
396.671	406.13
397.05	410.2
397.429	371.56
397.808	380.82
398.186	388.05
398.565	405
398.944	398.9
399.323	398.68
399.701	411.11
400.08	411.56
400.458	412.91
400.837	395.29
401.215	403.65
401.594	426.47
401.972	405.46
402.351	431.9
402.729	403.65
403.107	430.99
403.486	424.44
403.864	419.92
404.242	430.09
404.62	443.19
404.999	428.73
405.377	424.21
405.755	404.78
406.133	431.22
406.511	442.06
406.889	426.25
407.267	456.98
407.645	430.99
408.023	438.67
408.401	452.01
408.779	448.62
409.156	457.88
409.534	449.97
409.912	466.47
410.29	449.97
410.667	459.47
411.045	458.56
411.422	463.53
411.8	491.1
412.178	477.77
412.555	475.51
412.933	478.9
413.31	485.68
413.687	475.96
414.065	486.81
414.442	510.09
414.819	484.78
415.197	513.25
415.574	485.45
415.951	503.31
416.328	481.16
416.705	508.5
417.082	519.8
417.46	517.32
417.837	518.67
418.214	526.36
418.591	523.19
418.967	519.8
419.344	518.67
419.721	536.07
420.098	538.33
420.475	534.94
420.852	538.56
421.228	554.6
421.605	528.62
421.982	541.95
422.358	560.25
422.735	560.03
423.111	575.62
423.488	557.09
423.864	563.42
424.241	581.27
424.617	583.98
424.994	569.07
425.37	571.55
425.746	578.56
426.123	587.82
426.499	572
426.875	588.05
427.251	603.19
427.627	595.73
428.003	591.89
428.379	595.28
428.756	618.78
429.132	615.39
429.507	635.96
429.883	637.77
430.259	628.5
430.635	618.11
431.011	645.68
431.387	651.55
431.763	654.04
432.138	664.21
432.514	647.48
432.89	663.75
433.265	686.8
433.641	670.53
434.016	698.78
434.392	688.16
434.767	673.92
435.143	712.34
435.518	716.86
435.894	714.83
436.269	710.31
436.644	729.29
437.02	726.8
437.395	730.87
437.77	720.02
438.145	736.29
438.52	759.34
438.895	760.02
439.271	757.76
439.646	744.43
440.021	773.13
440.395	779.68
440.77	762.96
441.145	781.26
441.52	795.05
441.895	786.01
442.27	820.59
442.645	780.13
443.019	794.37
443.394	795.05
443.769	783.07
444.143	819.68
444.518	814.71
444.892	827.82
445.267	817.87
445.641	818.33
446.016	836.86
446.39	831.21
446.764	830.75
447.139	819.68
447.513	870.75
447.887	836.18
448.262	836.18
448.636	868.04
449.01	861.04
449.384	883.63
449.758	869.62
450.132	876.4
450.506	882.28
450.88	901.71
451.254	871.21
451.628	890.64
452.002	936.74
452.376	924.31
452.75	923.63
453.123	926.57
453.497	940.58
453.871	956.85
454.244	959.57
454.618	971.99
454.992	984.65
455.365	996.17
455.739	1013.58
456.112	1007.93
456.486	1008.15
456.859	1003.86
457.232	1034.59
457.606	1041.82
457.979	1044.31
458.352	1058.55
458.725	1069.39
459.099	1064.87
459.472	1089.05
459.845	1142.39
460.218	1128.37
460.591	1116.17
460.964	1144.42
461.337	1146
461.71	1171.99
462.083	1207.92
462.456	1185.1
462.829	1183.97
463.201	1211.54
463.574	1195.49
463.947	1235.26
464.32	1252.21
464.692	1256.73
465.065	1270.29
465.438	1310.74
465.81	1309.61
466.183	1328.14
466.555	1356.84
466.928	1364.07
467.3	1360.68
467.672	1399.55
468.045	1394.58
468.417	1437.07
468.789	1463.51
469.161	1428.93
469.534	1469.38
469.906	1514.35
470.278	1542.37
470.65	1562.71
471.022	1576.27
471.394	1601.81
471.766	1649.26
472.138	1625.08
472.51	1662.82
472.882	1663.05
473.253	1748.02
473.625	1750.28
473.997	1807.45
474.369	1821.46
474.74	1820.11
475.112	1873.21
475.484	1933.55
475.855	1952.76
476.227	1987.11
476.598	2040.21
476.97	2096.03
477.341	2130.61
477.713	2144.39
478.084	2212.19
478.455	2256.71
478.827	2284.5
479.198	2369.25
479.569	2380.32
479.94	2458.51
480.311	2476.36
480.682	2578.51
481.053	2633.42
481.424	2673.42
481.795	2768.11
482.166	2802.45
482.537	2846.75
482.908	2923.58
483.279	2984.14
483.65	3076.57
484.021	3160.41
484.391	3233.86
484.762	3263.69
485.133	3363.57
485.503	3427.07
485.874	3533.73
486.244	3563.34
486.615	3640.62
486.985	3674.07
487.356	3787.74
487.726	3847.85
488.097	4002.2
488.467	4010.33
488.837	4126.26
489.207	4200.61
489.578	4296.43
489.948	4372.13
490.318	4480.83
490.688	4533.03
491.058	4581.16
491.428	4668.39
491.798	4757.21
492.168	4887.6
492.538	4923.08
492.908	5045.33
493.278	5156.74
493.648	5195.61
494.017	5258.89
494.387	5326.46
494.757	5443.74
495.126	5471.31
495.496	5507.47
495.866	5631.76
496.235	5692.55
496.605	5801.7
496.974	5873.33
497.344	5930.28
497.713	5964.63
498.082	6057.74
498.452	6161.69
498.821	6201.24
499.19	6271.29
499.559	6326.2
499.928	6398.52
500.298	6451.85
500.667	6577.27
501.036	6562.81
501.405	6657.72
501.774	6731.16
502.143	6776.14
502.512	6791.05
502.88	6920.99
503.249	6936.36
503.618	6977.26
503.987	6980.2
504.356	7100.65
504.724	7189.91
505.093	7175.22
505.462	7190.81
505.83	7263.81
506.199	7305.16
506.567	7582.22
506.936	7484.82
507.304	7552.61
507.672	7605.27
508.041	7629.9
508.409	7714.87
508.777	7816.11
509.145	7883.45
509.514	7837.8
509.882	7971.58
510.25	7970
510.618	7985.37
510.986	8064.92
511.354	8138.81
511.722	8196.89
512.09	8292.71
512.458	8274.4
512.826	8333.16
513.193	8405.92
513.561	8439.82
513.929	8467.39
514.297	8521.63
514.664	8580.61
515.032	8623.09
515.4	8730.43
515.767	8730.21
516.135	8769.08
516.502	8672.36
516.869	8911.67
517.237	8938.56
517.604	8850.43
517.972	9010.43
518.339	9091.55
518.706	9088.84
519.073	9132.68
519.44	9162.06
519.808	9296.07
520.175	9212.91
520.542	9372
520.909	9369.51
521.276	9344.66
521.643	9469.17
522.009	9548.72
522.376	9574.93
522.743	9630.3
523.11	9703.52
523.477	9759.33
523.843	9780.58
524.21	9959.55
524.577	10009.5
524.943	9983.73
525.31	10127.23
525.676	10150.74
526.043	10216.95
526.409	10231.86
526.776	10281.13
527.142	10289.72
527.508	10400.67
527.874	10468.24
528.241	10541.91
528.607	10555.92
528.973	10705.52
529.339	10723.6
529.705	10742.81
530.071	10845.18
530.437	10830.27
530.803	10948.23
531.169	11009.7
531.535	11023.03
531.901	11093.31
532.267	11210.37
532.632	11247.43
532.998	11222.12
533.364	11266.19
533.73	11293.53
534.095	11416.24
534.461	11483.81
534.826	11537.59
535.192	11631.37
535.557	11506.41
535.923	11605.16
536.288	11685.61
536.653	11710.69
537.019	11692.84
537.384	11750.69
537.749	11805.61
538.114	11905.27
538.479	11914.31
538.845	11987.75
539.21	11963.57
539.575	12048.77
539.94	12088.76
540.305	12208.08
540.67	12133.28
541.034	12239.27
541.399	12229.55
541.764	12374.41
542.129	12402.2
542.494	12441.07
542.858	12510.45
543.223	12544.8
543.587	12585.93
543.952	12556.77
544.316	12626.6
544.681	12697.11
545.045	12761.29
545.41	12885.58
545.774	12919.93
546.138	12875.64
546.503	13001.28
546.867	13032.47
547.231	13030.66
547.595	13091.45
547.959	13154.27
548.324	13185.23
548.688	13200.15
549.052	13231.78
549.416	13274.5
549.779	13332.8
550.143	13434.94
550.507	13496.18
550.871	13481.72
551.235	13495.05
551.599	13655.05
551.962	13592.68
552.326	13727.59
552.689	13753.81
553.053	13691.21
553.417	13808.94
553.78	13922.39
554.143	13814.37
554.507	13985.66
554.87	13984.31
555.234	14104.08
555.597	13991.76
555.96	14115.15
556.323	14156.05
556.686	14220.01
557.05	14249.84
557.413	14312.21
557.776	14344.3
558.139	14411.19
558.502	14442.83
558.865	14436.05
559.228	14617.51
559.59	14610.51
559.953	14624.52
560.316	14803.04
560.679	14799.43
561.041	14882.81
561.404	14852.99
561.767	15042.81
562.129	14958.52
562.492	15073.09
562.854	15049.59
563.217	15054.11
563.579	15144.73
563.941	15311.5
564.304	15347.44
564.666	15410.71
565.028	15384.04
565.39	15363.93
565.753	15523.25
566.115	15524.15
566.477	15628.11
566.839	15669.23
567.201	15749.46
567.563	15729.35
567.925	15900.64
568.287	15856.12
568.648	15908.32
569.01	16055.89
569.372	16191.48
569.734	16125.04
570.095	16206.4
570.457	16305.6
570.819	16337.24
571.18	16352.38
571.542	16546.73
571.903	16485.71
572.265	16661.3
572.626	16614.52
572.987	16821.97
573.349	16797.11
573.71	16849.77
574.071	17072.14
574.432	17067.39
574.794	17300.38
575.155	17254.96
575.516	17303.09
575.877	17471.22
576.238	17522.29
576.599	17696.75
576.96	17737.2
577.32	17803.42
577.681	17909.85
578.042	18107.14
578.403	18186
578.763	18266
579.124	18523.4
579.485	18651.53
579.845	18839.1
580.206	18933.56
580.566	19018.3
580.927	19204.51
581.287	19486.76
581.648	19517.04
582.008	19724.95
582.368	19828.67
582.728	20090.81
583.089	20291.26
583.449	20378.04
583.809	20594.76
584.169	20812.38
584.529	20927.85
584.889	21350.67
585.249	21447.61
585.609	21637.21
585.969	21907.94
586.329	22005.11
586.688	22444.65
587.048	22548.6
587.408	22789.5
587.768	22983.84
588.127	23140
588.487	23522.81
588.846	23828.79
589.206	23873.76
589.565	24154.21
589.925	24632.39
590.284	24691.14
590.643	25032.38
591.003	25273.05
591.362	25656.99
591.721	25870.55
592.08	26168.39
592.44	26409.52
592.799	26743.07
593.158	26973.12
593.517	27274.58
593.876	27568.58
594.235	27680.44
594.593	28119.75
594.952	28320.88
595.311	28512.06
595.67	28873.86
596.029	29212.16
596.387	29525.82
596.746	29825.02
597.104	29840.84
597.463	30074.73
597.822	30600.82
598.18	30717.2
598.538	31005.78
598.897	31248.26
599.255	31371.87
599.613	31980.44
599.972	32000.56
600.33	32375.24
600.688	32489.81
601.046	32866.75
601.404	33109.68
601.762	33365.27
602.12	33677.35
602.478	33893.39
602.836	33987.62
603.194	34114.85
603.552	34394.39
603.91	34449.76
604.268	34787.83
604.625	34864.44
604.983	35390.3
605.341	35280.24
605.698	35599.33
606.056	35999.55
606.413	35990.06
606.771	36414.68
607.128	36574.22
607.485	36696.25
607.843	36805.18
608.2	37246.97
608.557	37369
608.914	37467.31
609.272	37684.02
609.629	37972.38
609.986	38185.93
610.343	38226.83
610.7	38656.2
611.057	38658.01
611.414	38860.72
611.771	38985.46
612.127	39326.47
612.484	39408.27
612.841	39525.33
613.198	39640.81
613.554	39767.58
613.911	40010.74
614.267	40099.55
614.624	40179.78
614.98	40325.08
615.337	40542.93
615.693	40696.83
616.05	40666.77
616.406	41031.05
616.762	40874.9
617.118	41142.46
617.475	41287.09
617.831	41429.91
618.187	41560.98
618.543	41739.96
618.899	41911.48
619.255	41890.69
619.611	42007.75
619.967	42173.4
620.323	42242.77
620.678	42197.12
621.034	42277.57
621.39	42341.98
621.746	42291.81
622.101	42859.93
622.457	42700.39
622.812	42815.41
623.168	43044.79
623.523	42942.19
623.879	43204.33
624.234	42996.88
624.589	43178.57
624.945	43395.29
625.3	43370.88
625.655	43435.74
626.01	43354.83
626.365	43589.86
626.72	43483.42
627.075	43585.56
627.43	43598.67
627.785	43671.44
628.14	43646.8
628.495	43767.48
628.85	43784.88
629.205	43603.19
629.559	43980.58
629.914	43757.31
630.269	43896.29
630.623	43748.72
630.978	43682.51
631.332	44005.66
631.687	44127.47
632.041	43955.5
632.396	43905.33
632.75	43938.1
633.104	43880.24
633.459	43852
633.813	43774.48
634.167	43887.93
634.521	43907.36
634.875	43948.49
635.229	43843.64
635.583	43701.94
635.937	43775.84
636.291	43808.38
636.645	43859.23
636.999	43713.02
637.352	43977.87
637.706	43601.61
638.06	43858.55
638.413	43810.42
638.767	43745.11
639.121	43937.87
639.474	43738.1
639.828	43817.2
640.181	43727.25
640.534	43776.52
640.888	43654.71
641.241	43560.93
641.594	43604.32
641.947	43763.41
642.301	43641.15
642.654	43587.14
643.007	43521.61
643.36	43486.13
643.713	43508.5
644.066	43703.3
644.419	43397.32
644.771	43333.14
645.124	42783.55
645.477	42753.72
645.83	42551.69
646.182	42570.45
646.535	42295.2
646.888	42403.22
647.24	42149.89
647.593	42460.62
647.945	42293.17
648.298	42206.84
648.65	42057.92
649.002	42130.01
649.355	42221.31
649.707	42273.96
650.059	42419.04
650.411	42850.44
650.763	42883.43
651.115	43292.92
651.467	43024.45
651.819	43041.62
652.171	43106.48
652.523	42928.18
652.875	42979.7
653.227	42896.54
653.578	43146.93
653.93	43049.98
654.282	42985.8
654.633	42747.62
654.985	42862.87
655.337	42874.85
655.688	42800.5
656.039	42920.95
656.391	42677.34
656.742	42815.19
657.094	42759.14
657.445	42948.07
657.796	42721.4
658.147	42742.42
658.498	42716.89
658.849	42751.23
659.2	42671.91
659.551	42582.43
659.902	42796.88
660.253	42552.14
660.604	42705.81
660.955	42459.72
661.306	42728.86
661.656	42725.47
662.007	42703.78
662.358	42635.08
662.708	42591.01
663.059	42779.71
663.409	42395.31
663.76	42605.25
664.11	42677.79
664.461	42648.19
664.811	42718.92
665.161	42548.53
665.511	42534.74
665.862	42626.27
666.212	42586.27
666.562	42680.5
666.912	42564.8
667.262	42401.87
667.612	42516.44
667.962	42534.97
668.312	42451.81
668.662	42652.93
669.011	42417.01
669.361	42435.31
669.711	42524.12
670.06	42359.83
670.41	42316.9
670.76	42275.99
671.109	42496.33
671.459	42301.98
671.808	42329.55
672.157	42485.93
672.507	42075.55
672.856	42213.62
673.205	42095.21
673.554	42337.01
673.904	42229.21
674.253	42403.22
674.602	42348.76
674.951	41836.68
675.3	41518.05
675.649	42235.77
675.998	42006.4
676.346	42131.36
676.695	42166.17
677.044	42043.46
677.393	42057.24
677.741	42038.03
678.09	41988.99
678.438	41931.6
678.787	41984.48
679.135	42015.66
679.484	41698.16
679.832	41814.99
680.181	41759.85
680.529	41751.49
680.877	41685.5
681.225	41516.92
681.573	41841.88
681.922	41532.28
682.27	41434.43
682.618	41385.85
682.966	41328.45
683.314	41519.85
683.661	41299.07
684.009	41240.99
684.357	41108.11
684.705	41090.49
685.053	41024.95
685.4	40934.33
685.748	40861.11
686.095	40890.27
686.443	40631.06
686.79	40647.56
687.138	40832.19
687.485	40773.66
687.832	40519.65
688.18	40536.38
688.527	40419.54
688.874	40384.74
689.221	40303.16
689.568	39995.37
689.915	40046.67
690.262	40076.73
690.609	39865.21
690.956	39803.74
691.303	39818.66
691.65	39698.21
691.997	39707.02
692.344	39401.27
692.69	39356.3
693.037	39339.35
693.383	39100.71
693.73	39334.15
694.077	39143.42
694.423	38984.1
694.769	38841.73
695.116	38728.29
695.462	38788.63
695.808	38714.28
696.155	38855.29
696.501	38553.83
696.847	38434.29
697.193	38065.71
697.539	38355.19
697.885	38154.07
698.231	37966.95
698.577	38033.17
698.923	38011.7
699.269	37680.63
699.614	37568.32
699.96	37534.65
700.306	37498.04
700.651	37405.39
700.997	37157.94
701.342	37160.65
701.688	37202
702.033	36932.4
702.379	37114.77
702.724	36977.83
703.069	36934.44
703.415	36479.08
703.76	36543.26
704.105	36580.1
704.45	36470.27
704.795	36282.93
705.14	36278.64
705.485	36173.55
705.83	35955.48
706.175	36054.46
706.52	35841.36
706.865	35791.87
707.209	35644.98
707.554	35603.85
707.899	35649.73
708.243	35536.51
708.588	35481.82
708.932	35329.06
709.277	35231.66
709.621	35360.47
709.966	35042.06
710.31	35130.87
710.654	34923.64
710.998	34874.83
711.342	34859.92
711.687	34905.34
712.031	34561.62
712.375	34567.72
712.719	34665.35
713.063	34593.26
713.407	34676.87
713.75	34380.16
714.094	34342.19
714.438	34132.48
714.782	34395.07
715.125	34023.78
715.469	34080.73
715.812	34095.87
716.156	33791.7
716.499	33819.04
716.843	33789.21
717.186	33639.16
717.53	33812.49
717.873	33850.45
718.216	33711.92
718.559	33604.58
718.902	33391.93
719.246	33433.51
719.589	33370.01
719.932	33239.62
720.275	33345.15
720.617	33130.47
720.96	33099.96
721.303	33064.94
721.646	33143.8
721.989	32820.2
722.331	32948.33
722.674	32963.47
723.016	32944.03
723.359	32856.58
723.701	32918.72
724.044	32652.29
724.386	32358.74
724.729	32638.05
725.071	32515.57
725.413	32583.82
725.755	32481.45
726.097	32326.42
726.439	32266.99
726.782	32161.46
727.124	32291.17
727.465	32100.89
727.807	32097.96
728.149	32053.44
728.491	32122.14
728.833	32106.77
729.175	31880.56
729.516	31687.8
729.858	31758.3
730.199	31798.08
730.541	31762.37
730.882	31783.16
731.224	31875.81
731.565	31498.65
731.906	31562.38
732.248	31600.12
732.589	31405.54
732.93	31251.2
733.271	31156.51
733.612	31366.68
733.953	31355.15
734.294	31217.75
734.635	31238.09
734.976	31204.42
735.317	31003.29
735.658	30999.91
735.999	31073.58
736.339	30994.71
736.68	31056.17
737.021	30927.59
737.361	30807.37
737.702	30853.69
738.042	30847.59
738.383	30768.5
738.723	30777.99
739.063	30689.18
739.404	30606.02
739.744	30603.98
740.084	30546.58
740.424	30517.43
740.764	30402.18
741.104	30596.75
741.444	30352.69
741.784	30330.32
742.124	30266.14
742.464	30297.32
742.804	30192.92
743.143	30262.75
743.483	30164.45
743.823	30003.32
744.162	29937.56
744.502	30024.56
744.841	29933.04
745.181	29833.83
745.52	29883.55
745.86	29808.98
746.199	29866.6
746.538	29760.84
746.877	29878.8
747.216	29814.85
747.556	29681.3
747.895	29715.87
748.234	29608.53
748.573	29549.55
748.911	29437.23
749.25	29391.36
749.589	29364.47
749.928	29409.66
750.267	29498.48
750.605	29293.06
750.944	29215.55
751.283	29105.04
751.621	29337.35
751.96	29070.69
752.298	29106.85
752.636	29011.48
752.975	28871.15
753.313	28831.15
753.651	28894.88
753.989	28740.76
754.327	28646.75
754.666	28607.43
755.004	28639.74
755.342	28697.82
755.679	28652.62
756.017	28369.24
756.355	28471.84
756.693	28183.03
757.031	28324.5
757.368	28142.58
757.706	28092.41
