Data from hue_310_FLMS001491_36.txt Node
Date: Mon Feb 06 15:49:36 GMT 2017
User: dcchb
Spectrometer: FLMS00149
Trigger mode: 0
Integration Time (sec): 2.000000E-2
Scans to average: 10
Electric dark correction enabled: true
Nonlinearity correction enabled: false
Boxcar width: 0
XAxis mode: Wavelengths
Number of Pixels in Spectrum: 2048
>>>>>Begin Spectral Data<<<<<
341.393	-8.7
341.776	-8.7
342.16	-8.7
342.543	-53.44
342.927	-50.06
343.31	-58.64
343.693	-85.31
344.077	-60
344.46	-71.07
344.843	-43.5
345.226	-45.76
345.61	-21.13
345.993	-24.29
346.376	2.15
346.759	26.55
347.142	20.23
347.525	51.64
347.908	44.18
348.291	78.98
348.674	71.07
349.057	114.91
349.44	135.02
349.823	147.91
350.206	169.6
350.588	181.35
350.971	217.96
351.354	226.77
351.737	238.3
352.119	248.92
352.502	257.73
352.884	268.81
353.267	290.5
353.65	285.08
354.032	308.58
354.414	290.95
354.797	308.81
355.179	319.43
355.562	327.56
355.944	338.86
356.326	328.24
356.709	330.5
357.091	335.92
357.473	348.8
357.855	328.24
358.238	330.05
358.62	340.89
359.002	336.6
359.384	360.33
359.766	350.61
360.148	337.28
360.53	357.39
360.912	334.34
361.294	324.85
361.676	325.08
362.057	331.18
362.439	328.69
362.821	341.8
363.203	323.04
363.584	328.24
363.966	328.69
364.348	316.26
364.729	304.51
365.111	308.58
365.493	321.23
365.874	301.8
366.256	326.43
366.637	315.58
367.019	307.68
367.4	313.1
367.781	300.22
368.163	324.85
368.544	316.26
368.925	327.56
369.306	319.2
369.688	300.9
370.069	325.75
370.45	299.31
370.831	317.17
371.212	315.13
371.593	292.53
371.974	321.01
372.355	310.16
372.736	309.71
373.117	319.88
373.498	328.92
373.879	318.75
374.26	334.12
374.641	311.74
375.021	326.21
375.402	307.45
375.783	318.07
376.163	318.75
376.544	316.94
376.925	332.31
377.305	330.73
377.686	312.2
378.066	316.49
378.447	352.19
378.827	335.47
379.208	337.28
379.588	330.73
379.968	338.18
380.349	358.75
380.729	347.22
381.109	333.66
381.489	314.91
381.87	344.74
382.25	342.25
382.63	322.59
383.01	348.13
383.39	333.89
383.77	352.19
384.15	337.28
384.53	334.79
384.91	371.63
385.29	344.74
385.67	359.65
386.049	351.97
386.429	336.38
386.809	332.08
387.189	347
387.568	384.74
387.948	347
388.328	363.04
388.707	353.78
389.087	343.83
389.466	349.93
389.846	365.3
390.225	364.62
390.605	368.92
390.984	361.69
391.363	374.11
391.743	379.09
392.122	351.52
392.501	353.55
392.881	364.4
393.26	361.69
393.639	370.05
394.018	376.15
394.397	378.18
394.776	371.4
395.155	391.52
395.534	385.64
395.913	368.01
396.292	373.89
396.671	402.14
397.05	367.79
397.429	402.36
397.808	387
398.186	369.59
398.565	400.1
398.944	405.53
399.323	401.91
399.701	407.79
400.08	384.51
400.458	403.49
400.837	402.14
401.215	383.15
401.594	411.63
401.972	408.01
402.351	394.23
402.729	420.67
403.107	407.33
403.486	407.33
403.864	422.47
404.242	395.81
404.62	438.97
404.999	422.47
405.377	431.06
405.755	424.06
406.133	437.84
406.511	452.08
406.889	447.11
407.267	460.21
407.645	440.1
408.023	455.69
408.401	445.98
408.779	455.92
409.156	473.55
409.534	452.08
409.912	464.73
410.29	487.78
410.667	502.92
411.045	485.98
411.422	489.37
411.8	507.67
412.178	486.43
412.555	532.3
412.933	546.54
413.31	532.08
413.687	547.44
414.065	545.18
414.442	535.69
414.819	550.38
415.197	545.64
415.574	574.79
415.951	553.54
416.328	566.43
416.705	589.7
417.082	593.54
417.46	613.66
417.837	630.83
418.214	612.75
418.591	628.57
418.967	636.25
419.344	639.19
419.721	637.61
420.098	642.13
420.475	643.71
420.852	650.94
421.228	668.12
421.605	682.13
421.982	678.74
422.358	690.26
422.735	719.19
423.111	709.92
423.488	730.49
423.864	714.44
424.241	706.08
424.617	734.1
424.994	764.84
425.37	731.17
425.746	752.41
426.123	776.59
426.499	764.16
426.875	767.1
427.251	789.24
427.627	800.32
428.003	797.38
428.379	787.89
428.756	801.9
429.132	841.9
429.507	829.7
429.883	852.07
430.259	863.14
430.635	870.6
431.011	867.43
431.387	880.99
431.763	895
432.138	916.47
432.514	903.82
432.89	914.89
433.265	883.93
433.641	958.05
434.016	938.17
434.392	971.84
434.767	982.69
435.143	957.6
435.518	982.23
435.894	1011.16
436.269	1010.26
436.644	1040.09
437.02	1035.79
437.395	1042.57
437.77	1066.53
438.145	1044.61
438.52	1061.33
438.895	1067.88
439.271	1067.2
439.646	1090.93
440.021	1116.47
440.395	1101.33
440.77	1099.52
441.145	1123.7
441.52	1134.09
441.895	1150.82
442.27	1130.7
442.645	1122.57
443.019	1147.43
443.394	1149.01
443.769	1183.36
444.143	1145.39
444.518	1180.42
444.892	1152.17
445.267	1158.73
445.641	1169.12
446.016	1188.1
446.39	1193.08
446.764	1191.72
447.139	1195.11
447.513	1204.6
447.887	1201.66
448.262	1216.13
448.636	1215.22
449.01	1240.76
449.384	1214.54
449.758	1226.97
450.132	1223.36
450.506	1255.9
450.88	1226.07
451.254	1215.22
451.628	1230.14
452.002	1259.97
452.376	1256.8
452.75	1266.29
453.123	1283.24
453.497	1300.19
453.871	1278.27
454.244	1306.07
454.618	1312.17
454.992	1323.47
455.365	1342.22
455.739	1337.25
456.112	1342.45
456.486	1344.94
456.859	1376.12
457.232	1371.6
457.606	1386.97
457.979	1371.38
458.352	1413.64
458.725	1406.86
459.099	1424.71
459.472	1454.99
459.845	1462.22
460.218	1461.77
460.591	1473.07
460.964	1461.32
461.337	1494.99
461.71	1493.41
462.083	1502.22
462.456	1496.34
462.829	1520.75
463.201	1539.06
463.574	1537.7
463.947	1537.47
464.32	1550.81
464.692	1580.18
465.065	1608.66
465.438	1582.22
465.81	1632.61
466.183	1620.64
466.555	1658.37
466.928	1655.66
467.3	1690.46
467.672	1674.42
468.045	1702.44
468.417	1727.98
468.789	1728.88
469.161	1735.21
469.534	1729.56
469.906	1750.12
470.278	1779.28
470.65	1799.39
471.022	1791.48
471.394	1792.83
471.766	1825.38
472.138	1852.72
472.51	1874.41
472.882	1914.19
473.253	1868.31
473.625	1904.47
473.997	1945.82
474.369	1955.99
474.74	1954.19
475.112	1969.78
475.484	2006.16
475.855	2007.52
476.227	2035.54
476.598	2066.95
476.97	2078.48
477.341	2099.27
477.713	2140.85
478.084	2101.75
478.455	2188.76
478.827	2200.96
479.198	2216.78
479.569	2226.95
479.94	2251.13
480.311	2253.84
480.682	2305.82
481.053	2341.07
481.424	2333.84
481.795	2374.06
482.166	2406.38
482.537	2425.36
482.908	2466.04
483.279	2465.58
483.65	2485.02
484.021	2531.12
484.391	2577.45
484.762	2550.33
485.133	2583.55
485.503	2575.86
485.874	2613.15
486.244	2666.03
486.615	2688.86
486.985	2686.14
487.356	2737.89
487.726	2748.74
488.097	2775.18
488.467	2787.38
488.837	2814.73
489.207	2874.61
489.578	2891.34
489.948	2894.5
490.318	2895.63
490.688	2943.99
491.058	2974.72
491.428	2993.03
491.798	3025.12
492.168	3080.26
492.538	3055.63
492.908	3120.26
493.278	3149.41
493.648	3115.29
494.017	3163.42
494.387	3114.83
494.757	3174.72
495.126	3155.51
495.496	3194.15
495.866	3225.56
496.235	3236.19
496.605	3312.34
496.974	3302.63
497.344	3280.03
497.713	3276.41
498.082	3313.25
498.452	3305.56
498.821	3333.58
499.19	3407.71
499.559	3388.27
499.928	3415.84
500.298	3399.12
500.667	3419.91
501.036	3441.15
501.405	3428.27
501.774	3436.86
502.143	3493.13
502.512	3483.19
502.88	3490.87
503.249	3488.61
503.618	3520.7
503.987	3528.38
504.356	3554.14
504.724	3535.61
505.093	3541.49
505.462	3578.78
505.83	3612
506.199	3621.49
506.567	3588.49
506.936	3598.89
507.304	3661.03
507.672	3670.52
508.041	3674.59
508.409	3664.2
508.777	3714.37
509.145	3682.28
509.514	3705.1
509.882	3693.8
510.25	3713.91
510.618	3690.64
510.986	3735.83
511.354	3781.71
511.722	3802.95
512.09	3848.6
512.458	3788.94
512.826	3731.09
513.193	3820.58
513.561	3811.31
513.929	3841.82
514.297	3856.73
514.664	3859.22
515.032	3865.77
515.4	3883.17
515.767	3888.15
516.135	3888.6
516.502	3862.16
516.869	3923.63
517.237	3914.59
517.604	3923.4
517.972	3943.29
518.339	3941.25
518.706	3979.22
519.073	3967.01
519.44	3951.65
519.808	3978.54
520.175	3945.55
520.542	3996.84
520.909	4033.45
521.276	3995.04
521.643	4002.49
522.009	4065.09
522.376	4073.23
522.743	4081.36
523.11	4135.15
523.477	4135.37
523.843	4122.94
524.21	4196.39
524.577	4168.36
524.943	4207.23
525.31	4221.7
525.676	4189.16
526.043	4221.7
526.409	4262.6
526.776	4287.23
527.142	4275.03
527.508	4341.24
527.874	4304.41
528.241	4353.22
528.607	4353.44
528.973	4399.77
529.339	4409.26
529.705	4472.09
530.071	4441.58
530.437	4494.01
530.803	4477.51
531.169	4513.89
531.535	4515.02
531.901	4540.56
532.267	4514.12
532.632	4559.09
532.998	4593.21
533.364	4585.3
533.73	4577.62
534.095	4660.78
534.461	4692.19
534.826	4700.55
535.192	4696.94
535.557	4728.58
535.923	4749.82
536.288	4775.58
536.653	4765.64
537.019	4769.71
537.384	4768.35
537.749	4823.26
538.114	4809.25
538.479	4853.54
538.845	4886.76
539.21	4892.64
539.575	4943.03
539.94	4961.11
540.305	4987.33
540.67	4985.07
541.034	5002.24
541.399	5011.73
541.764	5023.71
542.129	5054.67
542.494	5072.75
542.858	5077.49
543.223	5053.99
543.587	5150.49
543.952	5072.07
544.316	5181.45
544.681	5152.97
545.045	5236.13
545.41	5205.85
545.774	5265.29
546.138	5235
546.503	5269.35
546.867	5249.92
547.231	5358.84
547.595	5321.1
547.959	5430.7
548.324	5383.25
548.688	5391.61
549.052	5340.09
549.416	5420.54
549.779	5435.22
550.143	5440.42
550.507	5506.41
550.871	5526.75
551.235	5497.6
551.599	5539.4
551.962	5542.11
552.326	5590.93
552.689	5584.82
553.053	5612.62
553.417	5620.76
553.78	5645.39
554.143	5657.14
554.507	5632.28
554.87	5670.47
555.234	5726.97
555.597	5692.39
555.96	5784.82
556.323	5748.66
556.686	5700.75
557.05	5777.81
557.413	5773.75
557.776	5769.68
558.139	5807.42
558.502	5799.28
558.865	5802.22
559.228	5839.28
559.59	5844.03
559.953	5826.85
560.316	5969
560.679	5931.03
561.041	5945.27
561.404	5999.5
561.767	6085.83
562.129	6026.85
562.492	6071.59
562.854	6014.19
563.217	6077.92
563.579	6087.18
563.941	6106.17
564.304	6131.93
564.666	6160.63
565.028	6194.98
565.39	6251.47
565.753	6283.11
566.115	6223
566.477	6290.8
566.839	6316.33
567.201	6348.65
567.563	6302.77
567.925	6358.59
568.287	6351.58
568.648	6333.28
569.01	6416.22
569.372	6478.81
569.734	6433.16
570.095	6530.34
570.457	6552.94
570.819	6559.71
571.18	6545.03
571.542	6591.35
571.903	6653.72
572.265	6700.28
572.626	6651.01
572.987	6750.9
573.349	6765.36
573.71	6818.01
574.071	6847.84
574.432	6916.99
574.794	6966.03
575.155	7032.7
575.516	7000.38
575.877	7134.61
576.238	7111.11
576.599	7215.06
576.96	7201.05
577.32	7364.21
577.681	7382.07
578.042	7502.51
578.403	7495.06
578.763	7603.53
579.124	7634.49
579.485	7788.83
579.845	7937.08
580.206	8036.29
580.566	8163.06
580.927	8172.55
581.287	8375.03
581.648	8468.82
582.008	8616.16
582.368	8695.25
582.728	8851.63
583.089	9001.46
583.449	9232.64
583.809	9298.4
584.169	9471.28
584.529	9611.16
584.889	9858.84
585.249	9925.73
585.609	10130.24
585.969	10429.22
586.329	10578.14
586.688	10722.09
587.048	11032.14
587.408	11120.27
587.768	11408.63
588.127	11570.43
588.487	11894.94
588.846	12076.18
589.206	12291.54
589.565	12611.08
589.925	12804.52
590.284	13105.53
590.643	13382.36
591.003	13606.31
591.362	13916.58
591.721	14126.97
592.08	14429.79
592.44	14744.36
592.799	14896.9
593.158	15323.33
593.517	15507.73
593.876	15841.5
594.235	16203.75
594.593	16389.51
594.952	16696.62
595.311	16924.19
595.67	17323.95
596.029	17697.73
596.387	18009.58
596.746	18322.34
597.104	18546.29
597.463	18854.08
597.822	19091.81
598.18	19428.3
598.538	19682.99
598.897	20074.61
599.255	20246.13
599.613	20713.47
599.972	20862.84
600.33	21346.67
600.688	21564.07
601.046	21769.94
601.404	22168.57
601.762	22384.61
602.12	22736.69
602.478	22989.79
602.836	23318.37
603.194	23361.31
603.552	23664.8
603.91	23886.94
604.268	24348.17
604.625	24451.45
604.983	24888.27
605.341	24948.84
605.698	25381.37
606.056	25634.02
606.413	25797.85
606.771	26006.43
607.128	26359.87
607.485	26564.39
607.843	26751.05
608.2	27020.87
608.557	27390.58
608.914	27423.12
609.272	27868.53
609.629	27948.53
609.986	28224.91
610.343	28426.48
610.7	28797.1
611.057	28900.14
611.414	29040.03
611.771	29249.97
612.127	29446.34
612.484	29648.37
612.841	29914.13
613.198	29941.92
613.554	30159.09
613.911	30416.94
614.267	30586.65
614.624	30773.09
614.98	30932.18
615.337	31267.54
615.693	31280.87
616.05	31467.08
616.406	31688.32
616.762	31732.16
617.118	31947.07
617.475	32014.41
617.831	32289.89
618.187	32407.17
618.543	32598.35
618.899	32886.03
619.255	32912.02
619.611	33005.35
619.967	33163.76
620.323	33244.89
620.678	33294.38
621.034	33430.87
621.39	33555.84
621.746	33541.6
622.101	33902.27
622.457	33921.71
622.812	34172.32
623.168	34137.29
623.523	34257.52
623.879	34320.34
624.234	34285.77
624.589	34497.06
624.945	34505.42
625.3	34636.72
625.655	34795.13
626.01	34806.88
626.365	34862.47
626.72	34978.18
627.075	35016.59
627.43	35048.46
627.785	34999.64
628.14	35110.83
628.495	35194.44
628.85	35213.65
629.205	35243.48
629.559	35596.92
629.914	35318.96
630.269	35549.69
630.623	35487.32
630.978	35460.42
631.332	35533.64
631.687	35737.25
632.041	35588.56
632.396	35718.5
632.75	35622.91
633.104	35754.88
633.459	35652.73
633.813	35664.71
634.167	35653.64
634.521	35617.71
634.875	35814.76
635.229	35930.69
635.583	35699.74
635.937	35740.42
636.291	35667.88
636.645	35842.11
636.999	35675.79
637.352	35831.26
637.706	35649.8
638.06	35833.52
638.413	35615.67
638.767	35600.98
639.121	35935.67
639.474	35561.21
639.828	35680.3
640.181	35720.3
640.534	35711.26
640.888	35732.05
641.241	35567.31
641.594	35681.21
641.947	35704.94
642.301	35696.12
642.654	35708.1
643.007	35702.23
643.36	35703.81
643.713	35626.52
644.066	35771.15
644.419	35518.73
644.771	35433.31
645.124	35130.71
645.477	34962.13
645.83	34706.55
646.182	34673.1
646.535	34582.25
646.888	34604.4
647.24	34548.58
647.593	34696.83
647.945	34728.01
648.298	34577.28
648.65	34462.71
649.002	34357.4
649.355	34522.82
649.707	34454.35
650.059	34707.45
650.411	34925.07
650.763	35097.95
651.115	35485.73
651.467	35309.69
651.819	35290.26
652.171	35238.28
652.523	35219.3
652.875	35185.63
653.227	35087.78
653.578	35375
653.93	35199.41
654.282	35137.49
654.633	35023.82
654.985	35109.92
655.337	35208.9
655.688	35149.25
656.039	35233.31
656.391	34967.33
656.742	35082.58
657.094	35060.66
657.445	35108.57
657.796	35086.42
658.147	35001.23
658.498	35103.37
658.849	35065.41
659.2	35066.76
659.551	34870.83
659.902	35088.68
660.253	34949.25
660.604	35052.07
660.955	34822.7
661.306	34946.31
661.656	34865.86
662.007	35013.43
662.358	34982.24
662.708	34977.72
663.059	34945.63
663.409	34830.61
663.76	34977.27
664.11	35077.83
664.461	34992.87
664.811	34949.7
665.161	34922.81
665.511	34887.11
665.862	34924.17
666.212	34919.19
666.562	35013.66
666.912	34905.41
667.262	34922.36
667.612	34897.5
667.962	34858.41
668.312	34952.41
668.662	35016.82
669.011	34954.45
669.361	34733.21
669.711	34791.97
670.06	34742.93
670.41	34740.22
670.76	34728.69
671.109	34843.72
671.459	34788.35
671.808	34709.03
672.157	34742.7
672.507	34606.66
672.856	34597.62
673.205	34677.62
673.554	34672.42
673.904	34543.39
674.253	34725.53
674.602	34770.5
674.951	34112.21
675.3	33900.24
675.649	34598.98
675.998	34466.33
676.346	34648.69
676.695	34577.96
677.044	34448.02
677.393	34376.38
677.741	34450.28
678.09	34375.93
678.438	34288.02
678.787	34412.32
679.135	34414.35
679.484	34194.24
679.832	34427.91
680.181	34081.93
680.529	34235.37
680.877	34147.46
681.225	34077.18
681.573	34364.86
681.922	33993.34
682.27	33968.94
682.618	34014.59
682.966	33851.43
683.314	33942.05
683.661	33828.15
684.009	33668.83
684.357	33633.35
684.705	33721.94
685.053	33688.94
685.4	33632
685.748	33401.04
686.095	33331.89
686.443	33356.52
686.79	33286.92
687.138	33404.66
687.485	33268.62
687.832	33153.82
688.18	33207.38
688.527	33072.46
688.874	33112.24
689.221	32969.87
689.568	32960.15
689.915	32912.92
690.262	32930.32
690.609	32820.49
690.956	32633.61
691.303	32565.36
691.65	32492.82
691.997	32544.79
692.344	32264.58
692.69	32165.82
693.037	32191.36
693.383	32019.16
693.73	32286.72
694.077	31936.22
694.423	31931.7
694.769	31817.58
695.116	31641.54
695.462	31699.39
695.808	31644.7
696.155	31628.66
696.501	31323.13
696.847	31439.96
697.193	31072.97
697.539	31370.14
697.885	31022.8
698.231	30948
698.577	31044.27
698.923	31007.89
699.269	30783.03
699.614	30665.75
699.96	30588.01
700.306	30654
700.651	30482.48
700.997	30352.31
701.342	30373.33
701.688	30358.41
702.033	30264.4
702.379	30153.9
702.724	30062.6
703.069	30193.67
703.415	29857.63
703.76	29869.38
704.105	29839.55
704.45	29834.36
704.795	29717.52
705.14	29424.42
705.485	29590.3
705.83	29319.79
706.175	29615.61
706.52	29365.67
706.865	29239.12
707.209	29293.58
707.554	29133.81
707.899	29153.47
708.243	29053.59
708.588	28874.16
708.932	28878.45
709.277	28768.85
709.621	28763.42
709.966	28639.59
710.31	28792.35
710.654	28468.74
710.998	28425.81
711.342	28587.61
711.687	28386.94
712.031	28319.14
712.375	28249.31
712.719	28275.75
713.063	28238.92
713.407	28278.24
713.75	27969.55
714.094	27992.15
714.438	27984.24
714.782	27943.56
715.125	27737.24
715.469	27881.64
715.812	27772.94
716.156	27560.74
716.499	27580.63
716.843	27559.61
717.186	27500.41
717.53	27728.88
717.873	27570.46
718.216	27545.15
718.559	27345.83
718.902	27193.07
719.246	27264.93
719.589	27090.93
719.932	27177.93
720.275	27026.75
720.617	27039.18
720.96	27019.06
721.303	27014.77
721.646	27008.67
721.989	26731.39
722.331	26966.41
722.674	26789.01
723.016	26807.54
723.359	26644.16
723.701	26817.71
724.044	26601
724.386	26409.81
724.729	26612.52
725.071	26562.13
725.413	26479.87
725.755	26501.11
726.097	26255.92
726.439	26212.31
726.782	26260.67
727.124	26284.62
727.465	26166.88
727.807	26138.63
728.149	26145.64
728.491	26034.46
728.833	26115.81
729.175	26027.68
729.516	25921.92
729.858	25853.9
730.199	25813.22
730.541	25950.84
730.882	25749.94
731.224	26008.69
731.565	25671.3
731.906	25718.53
732.248	25761.24
732.589	25545.2
732.93	25588.14
733.271	25520.12
733.612	25666.1
733.953	25571.42
734.294	25548.82
734.635	25344.76
734.976	25437.41
735.317	25310.18
735.658	25370.97
735.999	25345.89
736.339	25220.01
736.68	25323.74
737.021	25120.36
737.361	25023.86
737.702	25304.98
738.042	25019.12
738.383	25064.31
738.723	25139.11
739.063	24958.78
739.404	24974.15
739.744	24902.28
740.084	24752
740.424	24861.61
740.764	24778.9
741.104	24818.22
741.444	24735.28
741.784	24721.5
742.124	24626.36
742.464	24654.15
742.804	24562.63
743.143	24620.03
743.483	24438.11
743.823	24492.8
744.162	24324.67
744.502	24322.19
744.841	24242.19
745.181	24318.34
745.52	24238.57
745.86	24321.96
746.199	24269.31
746.538	24202.19
746.877	24230.21
747.216	24209.65
747.556	24161.06
747.895	24099.82
748.234	24057.79
748.573	23948.64
748.911	23872.25
749.25	23930.78
749.589	23830.22
749.928	23857.79
750.267	23861.86
750.605	23699.38
750.944	23758.13
751.283	23680.17
751.621	23703.67
751.96	23499.83
752.298	23534.18
752.636	23500.96
752.975	23359.05
753.313	23318.14
753.651	23513.39
753.989	23210.58
754.327	23246.51
754.666	23169.22
755.004	23228.88
755.342	23068.66
755.679	23070.69
756.017	22954.54
756.355	23000.86
756.693	23011.03
757.031	22934.65
757.368	22752.06
757.706	22637.48
758.044	22736.46
758.381	22773.07
758.719	22634.55
759.056	22706.18
759.394	22565.62
759.731	22416.7
760.068	22456.7
