Data from hue_140_FLMS001491_00088.txt Node
Date: Tue Feb 07 16:56:32 GMT 2017
User: dcchb
Spectrometer: FLMS00149
Trigger mode: 0
Integration Time (sec): 2.000000E-2
Scans to average: 10
Electric dark correction enabled: true
Nonlinearity correction enabled: false
Boxcar width: 0
XAxis mode: Wavelengths
Number of Pixels in Spectrum: 2048
>>>>>Begin Spectral Data<<<<<
341.393	-33.02
341.776	-33.02
342.16	-33.02
342.543	-71.44
342.927	-69.86
343.31	-72.12
343.693	-94.04
344.077	-66.24
344.46	-62.17
344.843	-48.61
345.226	-42.74
345.61	-50.87
345.993	-10.42
346.376	8.56
346.759	37.48
347.142	23.25
347.525	41.1
347.908	49.01
348.291	70.03
348.674	110.25
349.057	107.54
349.44	113.64
349.823	141.66
350.206	166.97
350.588	183.92
350.971	209.01
351.354	239.74
351.737	246.29
352.119	250.59
352.502	276.8
352.884	268.21
353.267	297.82
353.65	304.37
354.032	298.95
354.414	297.82
354.797	297.82
355.179	328.1
355.562	322.68
355.944	317.03
356.326	345.73
356.709	356.12
357.091	318.38
357.473	345.27
357.855	339.85
358.238	336.23
358.62	326.29
359.002	331.71
359.384	360.41
359.766	336.91
360.148	333.75
360.53	361.77
360.912	350.92
361.294	370.58
361.676	312.28
362.057	316.57
362.439	335.56
362.821	346.86
363.203	319.51
363.584	326.29
363.966	326.52
364.348	331.71
364.729	326.97
365.111	332.84
365.493	324.71
365.874	322.9
366.256	323.81
366.637	343.01
367.019	299.4
367.4	304.82
367.781	318.16
368.163	321.32
368.544	327.65
368.925	314.77
369.306	322
369.688	300.98
370.069	307.76
370.45	324.26
370.831	290.13
371.212	324.03
371.593	333.52
371.974	310.47
372.355	330.13
372.736	292.62
373.117	299.17
373.498	316.12
373.879	312.28
374.26	317.48
374.641	323.81
375.021	315.9
375.402	322
375.783	314.31
376.163	321.55
376.544	324.93
376.925	347.99
377.305	320.42
377.686	317.25
378.066	317.93
378.447	346.63
378.827	327.42
379.208	335.1
379.588	327.87
379.968	314.99
380.349	328.32
380.729	323.58
381.109	341.66
381.489	302.56
381.87	330.58
382.25	342.11
382.63	335.78
383.01	357.25
383.39	327.42
383.77	318.83
384.15	343.24
384.53	338.95
384.91	348.89
385.29	348.89
385.67	352.5
386.049	363.58
386.429	352.96
386.809	350.02
387.189	342.11
387.568	359.51
387.948	355.67
388.328	347.53
388.707	340.98
389.087	361.09
389.466	354.54
389.846	355.89
390.225	386.4
390.605	369.45
390.984	367.42
391.363	357.7
391.743	373.75
392.122	357.48
392.501	369.91
392.881	349.79
393.26	365.16
393.639	367.87
394.018	367.19
394.397	366.97
394.776	387.98
395.155	394.99
395.534	382.79
395.913	389.57
396.292	382.33
396.671	379.4
397.05	365.84
397.429	376.69
397.808	393.18
398.186	389.79
398.565	384.37
398.944	376.23
399.323	371.49
399.701	375.1
400.08	399.96
400.458	390.24
400.837	388.44
401.215	406.06
401.594	418.72
401.972	397.25
402.351	402.67
402.729	405.16
403.107	393.18
403.486	419.85
403.864	400.19
404.242	400.87
404.62	419.17
404.999	413.07
405.377	410.81
405.755	441.54
406.133	412.62
406.511	424.59
406.889	410.58
407.267	415.78
407.645	452.84
408.023	417.14
408.401	447.87
408.779	434.76
409.156	439.73
409.534	460.52
409.912	430.47
410.29	435.21
410.667	444.25
411.045	443.58
411.422	460.3
411.8	430.47
412.178	461.65
412.555	495.1
412.933	471.37
413.31	466.4
413.687	466.17
414.065	463.24
414.442	477.02
414.819	478.6
415.197	466.4
415.574	496.91
415.951	497.59
416.328	484.03
416.705	483.35
417.082	496
417.46	497.81
417.837	505.95
418.214	490.81
418.591	496
418.967	515.89
419.344	524.48
419.721	522.9
420.098	540.07
420.475	544.36
420.852	509.11
421.228	509.79
421.605	507.08
421.982	543.01
422.358	538.49
422.735	521.09
423.111	520.64
423.488	537.58
423.864	552.95
424.241	536.23
424.617	561.99
424.994	569.22
425.37	541.43
425.746	558.6
426.123	549.79
426.499	564.93
426.875	568.32
427.251	595.89
427.627	566.28
428.003	586.62
428.379	620.52
428.756	608.09
429.132	592.05
429.507	611.26
429.883	614.19
430.259	640.18
430.635	619.16
431.011	647.41
431.387	639.5
431.763	651.93
432.138	628.2
432.514	644.47
432.89	676.34
433.265	654.19
433.641	651.71
434.016	672.95
434.392	677.24
434.767	666.85
435.143	669.33
435.518	667.75
435.894	689.9
436.269	734.87
436.644	692.38
437.02	705.04
437.395	698.48
437.77	718.6
438.145	726.73
438.52	742.1
438.895	759.73
439.271	725.83
439.646	780.97
440.021	742.1
440.395	766.51
440.77	738.26
441.145	752.72
441.52	749.33
441.895	786.62
442.27	777.8
442.645	784.36
443.019	812.15
443.394	785.26
443.769	792.95
444.143	801.08
444.518	811.93
444.892	812.15
445.267	817.13
445.641	830.23
446.016	831.81
446.39	821.42
446.764	848.31
447.139	844.47
447.513	839.5
447.887	861.19
448.262	861.19
448.636	841.76
449.01	858.71
449.384	879.95
449.758	890.57
450.132	880.17
450.506	906.61
450.88	898.48
451.254	876.33
451.628	896.67
452.002	916.78
452.376	933.73
452.75	932.6
453.123	926.95
453.497	936.9
453.871	939.61
454.244	969.44
454.618	977.57
454.992	999.49
455.365	975.99
455.739	1012.15
456.112	1030.45
456.486	1037.91
456.859	1061.41
457.232	1067.51
457.606	1053.96
457.979	1094.86
458.352	1106.84
458.725	1122.43
459.099	1131.24
459.472	1120.85
459.845	1154.52
460.218	1137.57
460.591	1164.91
460.964	1178.25
461.337	1202.2
461.71	1195.19
462.083	1218.92
462.456	1230
462.829	1262.54
463.201	1260.96
463.574	1251.46
463.947	1274.51
464.32	1308.86
464.692	1335.3
465.065	1340.73
465.438	1356.09
465.81	1381.63
466.183	1388.64
466.555	1428.86
466.928	1458.01
467.3	1451.23
467.672	1489.88
468.045	1517.9
468.417	1531.91
468.789	1551.57
469.161	1556.09
469.534	1570.33
469.906	1641.28
470.278	1653.49
470.65	1688.51
471.022	1705.92
471.394	1722.64
471.766	1759.47
472.138	1820.49
472.51	1828.85
472.882	1871.56
473.253	1913.14
473.625	1941.16
473.997	2022.97
474.369	2029.52
474.74	2054.38
475.112	2108.16
475.484	2163.98
475.855	2240.59
476.227	2279.23
476.598	2332.11
476.97	2356.97
477.341	2426.12
477.713	2490.53
478.084	2535.95
478.455	2625.89
478.827	2707.7
479.198	2774.36
479.569	2797.41
479.94	2953.34
480.311	2963.51
480.682	3077.63
481.053	3176.16
481.424	3235.37
481.795	3329.6
482.166	3403.5
482.537	3459.32
482.908	3549.71
483.279	3689.82
483.65	3822.7
484.021	3906.99
484.391	4033.76
484.762	4079.19
485.133	4191.95
485.503	4247.32
485.874	4398.95
486.244	4523.02
486.615	4591.72
486.985	4754.65
487.356	4885.27
487.726	5011.82
488.097	5104.02
488.467	5216.56
488.837	5350.11
489.207	5483.9
489.578	5590.79
489.948	5776.09
490.318	5859.03
490.688	5887.73
491.058	6044.78
491.428	6210.43
491.798	6369.75
492.168	6529.07
492.538	6618.78
492.908	6757.31
493.278	6871.2
493.648	6987.36
494.017	7098.99
494.387	7267.13
494.757	7432.77
495.126	7467.12
495.496	7578.98
495.866	7623.27
496.235	7857.17
496.605	7936.26
496.974	8085.18
497.344	8212.64
497.713	8268
498.082	8435.46
498.452	8553.19
498.821	8634.55
499.19	8662.79
499.559	8879.74
499.928	8976.01
500.298	9014.88
500.667	9152.73
501.036	9169.9
501.405	9321.53
501.774	9262.1
502.143	9414.64
502.512	9560.62
502.88	9662.09
503.249	9645.82
503.618	9744.12
503.987	9883.55
504.356	9958.81
504.724	10011.91
505.093	10064.57
505.462	10204.45
505.83	10258.46
506.199	10305.46
506.567	10476.98
506.936	10506.14
507.304	10534.61
507.672	10700.26
508.041	10710.2
508.409	10691.44
508.777	10830.2
509.145	10875.84
509.514	10937.99
509.882	11032.68
510.25	11065.9
510.618	11127.14
510.986	11187.25
511.354	11183.41
511.722	11286.23
512.09	11389.28
512.458	11405.77
512.826	11422.04
513.193	11491.65
513.561	11482.16
513.929	11549.05
514.297	11686.67
514.664	11645.09
515.032	11766.22
515.4	11754.01
515.767	11856.61
516.135	11919.21
516.502	11800.11
516.869	11933.67
517.237	11929.6
517.604	11899.32
517.972	12016.15
518.339	12090.95
518.706	12092.76
519.073	12004.4
519.44	12116.04
519.808	12219.09
520.175	12171.18
520.542	12326.2
520.909	12223.38
521.276	12296.15
521.643	12351.96
522.009	12434.22
522.376	12419.53
522.743	12405.97
523.11	12526.65
523.477	12584.27
523.843	12548.57
524.21	12621.11
524.577	12715.34
524.943	12660.88
525.31	12700.43
525.676	12857.03
526.043	12738.17
526.409	12817.04
526.776	12831.95
527.142	12845.51
527.508	12954.66
527.874	12938.39
528.241	12895.68
528.607	12902.91
528.973	12896.36
529.339	12951.95
529.705	12900.65
530.071	13002.57
530.437	12959.86
530.803	12974.55
531.169	13001.21
531.535	13025.62
531.901	13015.22
532.267	12861.33
532.632	13076.46
532.998	12988.1
533.364	12927.54
533.73	12961.44
534.095	12999.63
534.461	12948.56
534.826	12993.53
535.192	12987.65
535.557	13006.64
535.923	12960.53
536.288	12924.15
536.653	12848.45
537.019	12771.84
537.384	12810.93
537.749	12784.95
538.114	12719.41
538.479	12658.62
538.845	12672.63
539.21	12645.29
539.575	12591.28
539.94	12584.73
540.305	12660.88
540.67	12616.59
541.034	12564.39
541.399	12526.2
541.764	12491.39
542.129	12456.59
542.494	12426.31
542.858	12420.21
543.223	12386.54
543.587	12416.82
543.952	12268.35
544.316	12315.58
544.681	12253.43
545.045	12221.12
545.41	12285.75
545.774	12143.83
546.138	12179.76
546.503	12140.9
546.867	12064.74
547.231	12114.68
547.595	12085.3
547.959	12076.94
548.324	12062.03
548.688	12009.37
549.052	11984.52
549.416	11906.78
549.779	11867
550.143	11896.16
550.507	11926.66
550.871	11802.6
551.235	11754.46
551.599	11846.67
551.962	11843.95
552.326	11687.57
552.689	11808.02
553.053	11664.75
553.417	11660
553.78	11735.26
554.143	11597.41
554.507	11631.76
554.87	11566.9
555.234	11715.14
555.597	11529.39
555.96	11617.97
556.323	11586.11
556.686	11597.18
557.05	11543.62
557.413	11561.25
557.776	11497.75
558.139	11547.69
558.502	11525.32
558.865	11450.97
559.228	11518.76
559.59	11498.65
559.953	11486.68
560.316	11581.36
560.679	11521.93
561.041	11576.16
561.404	11516.28
561.767	11558.31
562.129	11491.87
562.492	11547.24
562.854	11440.57
563.217	11502.04
563.579	11485.77
563.941	11606.22
564.304	11507.01
564.666	11655.03
565.028	11615.03
565.39	11657.74
565.753	11643.28
566.115	11641.47
566.477	11668.37
566.839	11656.61
567.201	11727.8
567.563	11619.33
567.925	11707.46
568.287	11652.09
568.648	11673.34
569.01	11633.79
569.372	11773
569.734	11673.79
570.095	11685.09
570.457	11717.18
570.819	11775.03
571.18	11780
571.542	11808.7
571.903	11782.71
572.265	11775.71
572.626	11846.44
572.987	11839.66
573.349	11894.35
573.71	11811.41
574.071	11839.21
574.432	11846.89
574.794	11946.78
575.155	11909.04
575.516	11835.59
575.877	11902.94
576.238	11825.65
576.599	11943.16
576.96	11891.41
577.32	11924.18
577.681	11912.65
578.042	11981.13
578.403	11866.78
578.763	11946.55
579.124	11948.36
579.485	11939.09
579.845	11920.79
580.206	11892.54
580.566	11927.34
580.927	11938.87
581.287	11980.67
581.648	11845.99
582.008	11982.26
582.368	11890.51
582.728	11936.83
583.089	11954.46
583.449	11982.71
583.809	11891.86
584.169	11870.85
584.529	11863.84
584.889	11944.97
585.249	11862.94
585.609	11925.99
585.969	11850.06
586.329	11804.63
586.688	11891.41
587.048	11829.27
587.408	11786.1
587.768	11878.76
588.127	11817.97
588.487	11746.33
588.846	11893.22
589.206	11794.69
589.565	11773
589.925	11823.16
590.284	11754.69
590.643	11854.8
591.003	11755.59
591.362	11784.29
591.721	11718.08
592.08	11706.1
592.44	11766.67
592.799	11763.28
593.158	11720.79
593.517	11704.52
593.876	11740
594.235	11754.46
594.593	11745.2
594.952	11725.09
595.311	11728.7
595.67	11710.17
596.029	11736.39
596.387	11778.87
596.746	11762.6
597.104	11667.91
597.463	11657.74
597.822	11684.41
598.18	11659.78
598.538	11641.93
598.897	11745.65
599.255	11655.71
599.613	11769.15
599.972	11666.56
600.33	11691.64
600.688	11603.06
601.046	11697.74
601.404	11759.21
601.762	11741.13
602.12	11767.35
602.478	11738.65
602.836	11715.14
603.194	11656.39
603.552	11648.03
603.91	11656.39
604.268	11694.35
604.625	11638.31
604.983	11661.13
605.341	11598.99
605.698	11612.55
606.056	11676.73
606.413	11737.74
606.771	11682.38
607.128	11743.62
607.485	11688.7
607.843	11740.45
608.2	11711.75
608.557	11774.58
608.914	11651.87
609.272	11744.75
609.629	11712.66
609.986	11795.14
610.343	11751.08
610.7	11841.92
611.057	11766.44
611.414	11844.18
611.771	11804.63
612.127	11850.28
612.484	11815.25
612.841	11860.45
613.198	11791.98
613.554	11790.17
613.911	11855.03
614.267	11837.63
614.624	11821.58
614.98	11883.73
615.337	11909.26
615.693	11872.2
616.05	11860
616.406	11988.13
616.762	11909.94
617.118	11930.73
617.475	11914.01
617.831	11918.53
618.187	11980.45
618.543	11900
618.899	12024.51
619.255	12021.58
619.611	11972.99
619.967	12045.76
620.323	12087.11
620.678	11983.84
621.034	11975.93
621.39	12018.19
621.746	11972.31
622.101	12070.39
622.457	11922.37
622.812	12011.86
623.168	12082.37
623.523	11984.97
623.879	12053.44
624.234	11918.75
624.589	12053.89
624.945	11996.04
625.3	12013.89
625.655	11995.81
626.01	12060.9
626.365	12028.81
626.72	11955.82
627.075	12012.54
627.43	11998.3
627.785	11993.55
628.14	12011.18
628.495	11974.12
628.85	12011.41
629.205	11990.62
629.559	11956.27
629.914	12034.68
630.269	12014.35
630.623	11919.66
630.978	11905.2
631.332	11902.48
631.687	11949.71
632.041	11904.97
632.396	11922.37
632.75	11871.98
633.104	11958.08
633.459	11836.95
633.813	11751.08
634.167	11858.42
634.521	11834.24
634.875	11777.52
635.229	11771.41
635.583	11840.56
635.937	11736.84
636.291	11731.19
636.645	11696.39
636.999	11713.11
637.352	11727.57
637.706	11610.97
638.06	11735.26
638.413	11664.07
638.767	11669.72
639.121	11632.21
639.474	11560.8
639.828	11566.22
640.181	11589.5
640.534	11603.96
640.888	11600.12
641.241	11426.79
641.594	11572.1
641.947	11573.45
642.301	11490.52
642.654	11521.93
643.007	11580.68
643.36	11580.46
643.713	11524.41
644.066	11523.06
644.419	11401.03
644.771	11353.8
645.124	11287.13
645.477	11259.56
645.83	11248.72
646.182	11157.19
646.535	11135.72
646.888	11151.54
647.24	11152.67
647.593	11187.7
647.945	11222.73
648.298	11062.28
648.65	11051.21
649.002	11103.63
649.355	11105.67
649.707	11127.14
650.059	11093.24
650.411	11325.55
650.763	11355.83
651.115	11412.33
651.467	11446.9
651.819	11347.47
652.171	11379.33
652.523	11343.85
652.875	11319.67
653.227	11285.32
653.578	11384.98
653.93	11272.44
654.282	11266.79
654.633	11310.63
654.985	11317.41
655.337	11338.2
655.688	11322.16
656.039	11465.21
656.391	11272.22
656.742	11278.32
657.094	11257.75
657.445	11426.79
657.796	11371.2
658.147	11314.02
658.498	11322.84
658.849	11447.13
659.2	11323.97
659.551	11332.56
659.902	11431.76
660.253	11342.27
660.604	11323.52
660.955	11335.49
661.306	11337.75
661.656	11358.77
662.007	11376.17
662.358	11351.09
662.708	11361.93
663.059	11331.88
663.409	11309.5
663.76	11414.59
664.11	11464.3
664.461	11571.42
664.811	11381.59
665.161	11459.78
665.511	11380.92
665.862	11429.73
666.212	11460.69
666.562	11385.66
666.912	11320.58
667.262	11408.49
667.612	11396.51
667.962	11464.98
668.312	11414.59
668.662	11455.72
669.011	11390.63
669.361	11413.23
669.711	11356.74
670.06	11384.98
670.41	11325.55
670.76	11307.47
671.109	11399.22
671.459	11330.75
671.808	11346.79
672.157	11339.79
672.507	11305.66
672.856	11252.33
673.205	11275.16
673.554	11282.39
673.904	11306.12
674.253	11271.99
674.602	11346.11
674.951	11069.96
675.3	11079.68
675.649	11302.73
675.998	11295.04
676.346	11251.43
676.695	11313.57
677.044	11165.1
677.393	11239.22
677.741	11267.92
678.09	11196.29
678.438	11138.89
678.787	11174.37
679.135	11109.28
679.484	11063.41
679.832	11093.47
680.181	11062.73
680.529	11095.5
680.877	11032.22
681.225	11025.67
681.573	11048.95
681.922	10996.52
682.27	10964.43
682.618	10942.06
682.966	10893.7
683.314	10985.22
683.661	10916.97
684.009	10879.01
684.357	10834.72
684.705	10924.43
685.053	10836.07
685.4	10841.49
685.748	10796.75
686.095	10798.56
686.443	10668.84
686.79	10711.1
687.138	10678.34
687.485	10749.75
687.832	10598.34
688.18	10647.6
688.527	10552.46
688.874	10573.03
689.221	10535.97
689.568	10520.15
689.915	10449.87
690.262	10518.11
690.609	10478.34
690.956	10327.16
691.303	10282.19
691.65	10334.62
691.997	10281.06
692.344	10239.25
692.69	10200.16
693.037	10123.32
693.383	10077.45
693.73	10162.19
694.077	10064.57
694.423	10087.39
694.769	10055.53
695.116	9956.55
695.462	9941.41
695.808	9928.07
696.155	9937.79
696.501	9876.55
696.847	9869.77
697.193	9824.35
697.539	9822.99
697.885	9729.43
698.231	9620.06
698.577	9735.76
698.923	9671.81
699.269	9535.77
699.614	9524.47
699.96	9561.08
700.306	9534.18
700.651	9416.9
700.997	9378.93
701.342	9427.75
701.688	9340.07
702.033	9282.21
702.379	9349.1
702.724	9291.7
703.069	9277.24
703.415	9204.93
703.76	9165.38
704.105	9229.56
704.45	9109.56
704.795	9045.38
705.14	9093.97
705.485	9025.72
705.83	9046.29
706.175	9073.86
706.52	9025.27
706.865	9036.12
707.209	8895.56
707.554	8903.01
707.899	8945.27
708.243	8846.52
708.588	8823.47
708.932	8732.4
709.277	8715
709.621	8796.35
709.966	8664.38
710.31	8689.23
710.654	8619.18
710.998	8598.39
711.342	8635.22
711.687	8605.4
712.031	8573.98
712.375	8528.56
712.719	8559.07
713.063	8540.76
713.407	8559.07
713.75	8492.4
714.094	8437.49
714.438	8421.45
714.782	8443.59
715.125	8450.82
715.469	8468.22
715.812	8431.39
716.156	8407.66
716.499	8380.09
716.843	8402.69
717.186	8344.39
717.53	8419.19
717.873	8355.23
718.216	8371.96
718.559	8265.29
718.902	8234.78
719.246	8274.56
719.589	8262.13
719.932	8182.58
720.275	8242.47
720.617	8220.32
720.96	8217.16
721.303	8182.81
721.646	8202.69
721.989	8245.18
722.331	8204.73
722.674	8225.74
723.016	8191.85
723.359	8188.01
723.701	8202.69
724.044	8182.13
724.386	8137.61
724.729	8148.23
725.071	8111.85
725.413	8141.9
725.755	8070.49
726.097	8062.58
726.439	8045.86
726.782	8055.35
727.124	8143.71
727.465	8084.73
727.807	8037.5
728.149	8070.72
728.491	8045.86
728.833	8032.98
729.175	7963.38
729.516	8034.79
729.858	7995.69
730.199	8065.52
730.541	7962.93
730.882	8051.96
731.224	7990.04
731.565	7999.76
731.906	8009.7
732.248	8041.79
732.589	8002.93
732.93	7934.68
733.271	7926.77
733.612	8028.01
733.953	7984.85
734.294	7916.6
734.635	7958.18
734.976	7893.78
735.317	7964.06
735.658	7962.25
735.999	7971.06
736.339	7906.43
736.68	8009.7
737.021	7891.74
737.361	7908.01
737.702	8040.21
738.042	7948.01
738.383	8025.52
738.723	8037.05
739.063	8017.39
739.404	7983.49
739.744	8101
740.084	8036.14
740.424	8065.97
740.764	8071.62
741.104	8116.37
741.444	8061.45
741.784	8055.35
742.124	8136.25
742.464	8108.23
742.804	8087.22
743.143	8150.94
743.483	8165.41
743.823	8182.36
744.162	8177.16
744.502	8306.19
744.841	8246.53
745.181	8278.62
745.52	8293.09
745.86	8286.08
746.199	8398.62
746.538	8366.76
746.877	8417.6
747.216	8505.51
747.556	8498.28
747.895	8591.38
748.234	8660.76
748.573	8602.23
748.911	8666.18
749.25	8765.17
749.589	8789.57
749.928	8930.36
750.267	8993.63
750.605	8982.79
750.944	9082.67
751.283	9112.05
751.621	9213.51
751.96	9306.39
752.298	9354.53
752.636	9449.67
752.975	9498.71
753.313	9625.93
753.651	9751.58
753.989	9760.85
754.327	9937.11
754.666	9982.53
755.004	10115.64
755.342	10260.94
755.679	10344.56
756.017	10413.48
756.355	10563.76
756.693	10707.71
757.031	10889.18
757.368	10963.75
757.706	11113.8
758.044	11236.29
758.381	11448.03
758.719	11587.69
759.056	11688.25
759.394	11834.46
759.731	11908.81
760.068	12094.57
