Data from hue_200_FLMS001491_00014.txt Node
Date: Tue Feb 07 16:42:53 GMT 2017
User: dcchb
Spectrometer: FLMS00149
Trigger mode: 0
Integration Time (sec): 2.000000E-2
Scans to average: 10
Electric dark correction enabled: true
Nonlinearity correction enabled: false
Boxcar width: 0
XAxis mode: Wavelengths
Number of Pixels in Spectrum: 2048
>>>>>Begin Spectral Data<<<<<
341.393	-13.94
341.776	-13.94
342.16	-13.94
342.543	-48.97
342.927	-62.3
343.31	-53.26
343.693	-52.36
344.077	-71.34
344.46	-87.61
344.843	-48.06
345.226	-39.48
345.61	-32.02
345.993	-13.49
346.376	2.1
346.759	10.01
347.142	21.76
347.525	40.75
347.908	58.15
348.291	76.68
348.674	85.72
349.057	102.44
349.44	144.7
349.823	152.16
350.206	144.7
350.588	192.38
350.971	206.17
351.354	228.54
351.737	241.19
352.119	246.84
352.502	260.63
352.884	273.74
353.267	295.2
353.65	300.18
354.032	314.86
354.414	307.86
354.797	325.71
355.179	320.74
355.562	315.77
355.944	334.53
356.326	353.51
356.709	325.94
357.091	340.4
357.473	345.6
357.855	334.53
358.238	330.23
358.62	333.17
359.002	349.89
359.384	328.2
359.766	338.14
360.148	330.23
360.53	346.95
360.912	346.95
361.294	320.29
361.676	327.52
362.057	343.11
362.439	317.12
362.821	304.47
363.203	313.73
363.584	338.82
363.966	313.28
364.348	344.47
364.729	330.01
365.111	312.38
365.493	327.97
365.874	304.7
366.256	317.58
366.637	312.38
367.019	329.1
367.4	344.24
367.781	327.29
368.163	328.88
368.544	299.72
368.925	301.53
369.306	329.55
369.688	308.54
370.069	324.81
370.45	304.7
370.831	306.73
371.212	299.5
371.593	315.77
371.974	332.49
372.355	312.38
372.736	329.78
373.117	318.25
373.498	313.51
373.879	306.5
374.26	294.07
374.641	312.83
375.021	303.34
375.402	313.06
375.783	310.8
376.163	293.62
376.544	325.94
376.925	334.53
377.305	305.83
377.686	330.01
378.066	323.23
378.447	338.59
378.827	332.04
379.208	316.67
379.588	330.68
379.968	327.29
380.349	333.85
380.729	341.3
381.109	351.47
381.489	333.62
381.87	332.27
382.25	358.93
382.63	334.98
383.01	334.07
383.39	351.93
383.77	332.94
384.15	335.88
384.53	351.7
384.91	345.37
385.29	345.82
385.67	359.16
386.049	362.32
386.429	363.68
386.809	348.54
387.189	342.66
387.568	347.63
387.948	354.86
388.328	361.64
388.707	365.94
389.087	379.72
389.466	347.18
389.846	358.93
390.225	365.94
390.605	352.15
390.984	350.57
391.363	377.69
391.743	383.34
392.122	387.41
392.501	372.26
392.881	390.57
393.26	367.07
393.639	384.92
394.018	392.83
394.397	394.18
394.776	381.98
395.155	393.73
395.534	391.02
395.913	402.77
396.292	395.77
396.671	428.76
397.05	380.17
397.429	388.53
397.808	415.65
398.186	397.8
398.565	411.81
398.944	410.23
399.323	406.84
399.701	393.05
400.08	401.19
400.458	427.18
400.837	406.61
401.215	416.1
401.594	420.17
401.972	434.64
402.351	447.29
402.729	430.12
403.107	400.96
403.486	430.12
403.864	440.06
404.242	438.7
404.62	455.2
404.999	427.63
405.377	451.36
405.755	451.36
406.133	464.47
406.511	456.33
406.889	484.13
407.267	473.05
407.645	451.81
408.023	512.15
408.401	521.41
408.779	502.88
409.156	498.36
409.534	486.61
409.912	509.44
410.29	537.68
410.667	521.86
411.045	549.43
411.422	573.16
411.8	558.93
412.178	572.03
412.555	586.27
412.933	580.39
413.31	590.34
413.687	618.59
414.065	613.39
414.442	626.95
414.819	636.21
415.197	639.6
415.574	646.16
415.951	668.75
416.328	663.78
416.705	656.55
417.082	675.08
417.46	684.8
417.837	713.95
418.214	720.96
418.591	729.32
418.967	734.74
419.344	748.98
419.721	781.52
420.098	751.92
420.475	785.36
420.852	804.34
421.228	789.65
421.605	797.79
421.982	835.75
422.358	853.61
422.735	887.5
423.111	841.4
423.488	879.82
423.864	901.74
424.241	919.59
424.617	924.79
424.994	954.4
425.37	965.69
425.746	972.7
426.123	988.75
426.499	1011.57
426.875	1032.36
427.251	1038.01
427.627	1043.88
428.003	1092.92
428.379	1082.3
428.756	1086.14
429.132	1104.67
429.507	1148.51
429.883	1146.26
430.259	1159.36
430.635	1167.5
431.011	1167.95
431.387	1187.84
431.763	1221.06
432.138	1214.5
432.514	1257.21
432.89	1252.92
433.265	1318.45
433.641	1304.22
434.016	1348.51
434.392	1363.42
434.767	1368.17
435.143	1411.78
435.518	1448.85
435.894	1427.83
436.269	1507.6
436.644	1523.42
437.02	1541.27
437.395	1550.54
437.77	1594.6
438.145	1621.04
438.52	1628.73
438.895	1658.56
439.271	1674.83
439.646	1726.35
440.021	1753.7
440.395	1776.97
440.77	1750.99
441.145	1794.37
441.52	1840.7
441.895	1845.22
442.27	1884.31
442.645	1911.88
443.019	1943.97
443.394	1919.34
443.769	1959.12
444.143	1946.01
444.518	2009.28
444.892	2013.35
445.267	2054.03
445.641	2037.31
446.016	2063.29
446.39	2099
446.764	2114.59
447.139	2103.07
447.513	2127.25
447.887	2122.27
448.262	2166.79
448.636	2171.54
449.01	2227.36
449.384	2225.32
449.758	2226.68
450.132	2308.26
450.506	2282.27
450.88	2316.39
451.254	2292.89
451.628	2348.94
452.002	2369.73
452.376	2395.94
452.75	2381.25
453.123	2441.36
453.497	2439.55
453.871	2510.97
454.244	2531.98
454.618	2550.96
454.992	2534.02
455.365	2565.65
455.739	2625.99
456.112	2647.91
456.486	2694.92
456.859	2699.89
457.232	2755.25
457.606	2802.71
457.979	2785.31
458.352	2868.02
458.725	2913.67
459.099	2913.44
459.472	2950.73
459.845	2981.24
460.218	3004.06
460.591	3016.26
460.964	3009.26
461.337	3120.44
461.71	3131.74
462.083	3236.82
462.456	3199.99
462.829	3234.79
463.201	3286.99
463.574	3275.46
463.947	3371.06
464.32	3408.57
464.692	3453.77
465.065	3458.51
465.438	3517.72
465.81	3561.56
466.183	3589.81
466.555	3655.12
466.928	3655.57
467.3	3682.69
467.672	3744.83
468.045	3805.17
468.417	3848.11
468.789	3905.73
469.161	3917.03
469.534	3972.4
469.906	4103.47
470.278	4098.95
470.65	4104.14
471.022	4202.67
471.394	4295.32
471.766	4301.2
472.138	4375.1
472.51	4461.65
472.882	4492.16
473.253	4553.62
473.625	4587.52
473.997	4747.06
474.369	4724.01
474.74	4790.68
475.112	4887.4
475.484	4947.74
475.855	5001.97
476.227	5048.3
476.598	5174.85
476.97	5203.78
477.341	5303.43
477.713	5368.29
478.084	5406.03
478.455	5519.02
478.827	5537.1
479.198	5709.75
479.569	5756.76
479.94	5838.34
480.311	5951.55
480.682	6050.76
481.053	6240.36
481.424	6242.39
481.795	6295.05
482.166	6413.24
482.537	6457.08
482.908	6603.29
483.279	6654.81
483.65	6712.89
484.021	6915.59
484.391	6835.82
484.762	6996.5
485.133	7076.49
485.503	7071.52
485.874	7253.89
486.244	7339.09
486.615	7483.49
486.985	7495.92
487.356	7593.32
487.726	7661.11
488.097	7764.39
488.467	7808.9
488.837	8054.1
489.207	8098.39
489.578	8146.75
489.948	8187.88
490.318	8347.42
490.688	8352.62
491.058	8492.73
491.428	8498.38
491.798	8532.05
492.168	8796
492.538	8732.04
492.908	8888.42
493.278	8903.11
493.648	8976.11
494.017	9047.06
494.387	9040.51
494.757	9178.13
495.126	9256.32
495.496	9287.96
495.866	9345.59
496.235	9370.45
496.605	9434.62
496.974	9471.46
497.344	9588.75
497.713	9565.47
498.082	9680.49
498.452	9694.05
498.821	9777.89
499.19	9798.68
499.559	9849.53
499.928	9856.76
500.298	9896.08
500.667	9961.16
501.036	9919.81
501.405	10042.97
501.774	9984.67
502.143	10087.71
502.512	10072.35
502.88	10224.21
503.249	10179.01
503.618	10200.48
503.987	10246.58
504.356	10242.97
504.724	10285
505.093	10328.39
505.462	10352.11
505.83	10384.43
506.199	10413.81
506.567	10560.47
506.936	10476.86
507.304	10634.82
507.672	10644.08
508.041	10557.08
508.409	10739.68
508.777	10631.43
509.145	10819.22
509.514	10717.75
509.882	10745.32
510.25	10734.25
510.618	10778.77
510.986	10797.3
511.354	10786
511.722	10951.65
512.09	10974.7
512.458	10877.52
512.826	10921.14
513.193	10927.92
513.561	10998.2
513.929	11003.85
514.297	11079.78
514.664	11065.77
515.032	11094.92
515.4	11167.01
515.767	11146.22
516.135	11108.03
516.502	11088.37
516.869	11294.01
517.237	11169.27
517.604	11131.08
517.972	11245.2
518.339	11159.78
518.706	11211.3
519.073	11239.32
519.44	11260.34
519.808	11328.13
520.175	11212.88
520.542	11310.06
520.909	11323.61
521.276	11327.68
521.643	11368.59
522.009	11387.57
522.376	11390.73
522.743	11416.27
523.11	11447.91
523.477	11450.39
523.843	11457.17
524.21	11591.4
524.577	11499.66
524.943	11510.95
525.31	11539.65
525.676	11550.5
526.043	11575.13
526.409	11591.86
526.776	11630.5
527.142	11628.92
527.508	11619.65
527.874	11639.99
528.241	11586.21
528.607	11626.21
528.973	11632.53
529.339	11534
529.705	11594.79
530.071	11586.66
530.437	11514.8
530.803	11589.82
531.169	11616.49
531.535	11473.44
531.901	11517.06
532.267	11456.04
532.632	11524.51
532.998	11477.96
533.364	11397.29
533.73	11496.72
534.095	11511.86
534.461	11409.04
534.826	11403.84
535.192	11392.54
535.557	11360.68
535.923	11328.81
536.288	11274.8
536.653	11274.35
537.019	11160.46
537.384	11218.31
537.749	11169.04
538.114	11033.45
538.479	11120.23
538.845	11108.25
539.21	11026.9
539.575	11055.15
539.94	10975.38
540.305	10958.2
540.67	10927.47
541.034	10834.59
541.399	10839.79
541.764	10748.26
542.129	10721.82
542.494	10712.78
542.858	10685.89
543.223	10621.94
543.587	10609.28
543.952	10551.88
544.316	10563.86
544.681	10400.02
545.045	10502.39
545.41	10447.03
545.774	10387.82
546.138	10306.92
546.503	10309.63
546.867	10226.69
547.231	10298.56
547.595	10193.02
547.959	10148.28
548.324	10105.34
548.688	10043.2
549.052	10060.82
549.416	10026.7
549.779	9988.51
550.143	9943.31
550.507	9944.89
550.871	9867.61
551.235	9809.76
551.599	9778.57
551.962	9743.54
552.326	9737.67
552.689	9714.39
553.053	9677.1
553.417	9593.04
553.78	9652.02
554.143	9550.55
554.507	9641.63
554.87	9593.49
555.234	9616.99
555.597	9476.21
555.96	9526.6
556.323	9384.68
556.686	9372.93
557.05	9429.43
557.413	9426.04
557.776	9373.16
558.139	9403.89
558.502	9287.74
558.865	9309.2
559.228	9303.78
559.59	9298.58
559.953	9244.12
560.316	9300.17
560.679	9306.72
561.041	9248.87
561.404	9287.28
561.767	9238.47
562.129	9217.68
562.492	9246.38
562.854	9203.9
563.217	9158.93
563.579	9186.04
563.941	9175.2
564.304	9213.61
564.666	9260.84
565.028	9182.43
565.39	9180.85
565.753	9216.55
566.115	9209.32
566.477	9188.3
566.839	9189.43
567.201	9243.22
567.563	9240.73
567.925	9206.38
568.287	9155.31
568.648	9183.78
569.01	9186.27
569.372	9207.51
569.734	9177
570.095	9239.83
570.457	9180.39
570.819	9194.41
571.18	9209.09
571.542	9235.99
571.903	9183.11
572.265	9209.09
572.626	9255.87
572.987	9240.28
573.349	9259.94
573.71	9217.68
574.071	9227.85
574.432	9271.69
574.794	9276.89
575.155	9215.87
575.516	9205.03
575.877	9216.1
576.238	9223.78
576.599	9247.96
576.96	9277.57
577.32	9186.27
577.681	9291.8
578.042	9257.68
578.403	9275.53
578.763	9231.92
579.124	9251.58
579.485	9322.54
579.845	9281.86
580.206	9282.31
580.566	9228.53
580.927	9252.26
581.287	9222.88
581.648	9193.05
582.008	9341.29
582.368	9256.1
582.728	9261.52
583.089	9219.26
583.449	9217
583.809	9238.25
584.169	9207.96
584.529	9202.77
584.889	9250.22
585.249	9176.55
585.609	9220.39
585.969	9222.2
586.329	9215.2
586.688	9198.02
587.048	9175.87
587.408	9187.85
587.768	9171.35
588.127	9151.69
588.487	9162.54
588.846	9177.68
589.206	9152.37
589.565	9155.99
589.925	9092.49
590.284	9142.88
590.643	9101.3
591.003	9147.63
591.362	9134.75
591.721	9133.39
592.08	9074.86
592.44	9130.68
592.799	9156.89
593.158	9059.72
593.517	9003
593.876	9105.59
594.235	9021.3
594.593	9072.37
594.952	9073.28
595.311	9038.48
595.67	9040.06
596.029	9104.46
596.387	9052.71
596.746	9068.98
597.104	8995.99
597.463	9030.79
597.822	8984.24
598.18	9014.3
598.538	8966.39
598.897	9040.96
599.255	8975.43
599.613	9038.7
599.972	9046.39
600.33	8985.37
600.688	8938.82
601.046	8955.32
601.404	9060.17
601.762	9029.89
602.12	9066.72
602.478	9058.36
602.836	9001.42
603.194	8950.12
603.552	9008.65
603.91	8942.43
604.268	8978.82
604.625	8948.31
604.983	9043.22
605.341	8964.81
605.698	8990.57
606.056	9010.46
606.413	9021.75
606.771	9061.98
607.128	9010.23
607.485	8955.99
607.843	8997.12
608.2	8998.48
608.557	9045.03
608.914	9024.92
609.272	9143.78
609.629	9049.78
609.986	9066.5
610.343	9027.86
610.7	9142.2
611.057	9078.48
611.414	9057.69
611.771	9075.54
612.127	9084.58
612.484	9129.77
612.841	9114.63
613.198	9078.02
613.554	9005.48
613.911	9106.72
614.267	9098.36
614.624	9137.23
614.98	9053.39
615.337	9111.24
615.693	9167.29
616.05	9135.42
616.406	9186.04
616.762	9171.35
617.118	9126.16
617.475	9170
617.831	9160.28
618.187	9130.23
618.543	9136.55
618.899	9223.78
619.255	9162.09
619.611	9195.31
619.967	9139.72
620.323	9216.1
620.678	9173.16
621.034	9174.07
621.39	9152.6
621.746	9104.46
622.101	9254.29
622.457	9206.16
622.812	9162.09
623.168	9210.22
623.523	9141.98
623.879	9186.27
624.234	9064.24
624.589	9249.77
624.945	9134.29
625.3	9220.62
625.655	9121.19
626.01	9149.89
626.365	9203.22
626.72	9210.22
627.075	9149.21
627.43	9167.97
627.785	9119.6
628.14	9137.91
628.495	9144.46
628.85	9130
629.205	9112.6
629.559	9111.47
629.914	9090
630.269	9121.64
630.623	9155.08
630.978	9093.16
631.332	9101.98
631.687	9120.28
632.041	9019.27
632.396	9110.34
632.75	8993.96
633.104	9051.81
633.459	8974.75
633.813	8972.94
634.167	8995.54
634.521	8946.5
634.875	8970.68
635.229	8981.76
635.583	8885.71
635.937	8946.05
636.291	8903.11
636.645	8904.02
636.999	8887.29
637.352	8899.95
637.706	8922.77
638.06	8882.77
638.413	8839.16
638.767	8866.05
639.121	8797.13
639.474	8807.3
639.828	8737.47
640.181	8825.6
640.534	8729.78
640.888	8765.26
641.241	8701.08
641.594	8743.8
641.947	8774.98
642.301	8737.47
642.654	8707.41
643.007	8782.21
643.36	8711.25
643.713	8689.56
644.066	8764.36
644.419	8666.51
644.771	8632.84
645.124	8565.5
645.477	8568.43
645.83	8493.18
646.182	8402.56
646.535	8402.11
646.888	8389
647.24	8450.47
647.593	8439.17
647.945	8443.01
648.298	8401.66
648.65	8359.17
649.002	8414.76
649.355	8457.48
649.707	8362.79
650.059	8476.68
650.411	8538.6
650.763	8561.88
651.115	8618.83
651.467	8654.76
651.819	8647.07
652.171	8583.57
652.523	8613.63
652.875	8591.71
653.227	8617.47
653.578	8617.47
653.93	8591.94
654.282	8630.13
654.633	8578.38
654.985	8601.2
655.337	8598.94
655.688	8626.74
656.039	8673.97
656.391	8551.48
656.742	8567.53
657.094	8553.52
657.445	8636.91
657.796	8573.63
658.147	8590.58
658.498	8652.95
658.849	8651.59
659.2	8614.31
659.551	8592.39
659.902	8739.05
660.253	8693.4
660.604	8642.56
660.955	8604.36
661.306	8680.07
661.656	8639.39
662.007	8706.96
662.358	8725.26
662.708	8666.96
663.059	8607.98
663.409	8564.59
663.76	8710.12
664.11	8713.29
664.461	8706.06
664.811	8683.68
665.161	8785.6
665.511	8678.71
665.862	8732.72
666.212	8680.07
666.562	8742.44
666.912	8703.12
667.262	8650.01
667.612	8746.06
667.962	8687.98
668.312	8762.1
668.662	8718.71
669.011	8727.52
669.361	8740.41
669.711	8716.9
670.06	8736.34
670.41	8711.03
670.76	8648.2
671.109	8721.2
671.459	8623.12
671.808	8650.92
672.157	8683.01
672.507	8605.49
672.856	8583.12
673.205	8652.95
673.554	8611.82
673.904	8546.74
674.253	8604.36
674.602	8598.26
674.951	8508.32
675.3	8474.2
675.649	8589.22
675.998	8609.79
676.346	8574.31
676.695	8581.54
677.044	8579.05
677.393	8549.68
677.741	8527.76
678.09	8495.44
678.438	8457.48
678.787	8440.53
679.135	8532.73
679.484	8457.48
679.832	8490.24
680.181	8429.91
680.529	8374.77
680.877	8427.42
681.225	8389.68
681.573	8476.23
681.922	8342.45
682.27	8353.52
682.618	8413.18
682.966	8322.34
683.314	8293.86
683.661	8324.82
684.009	8219.06
684.357	8285.28
684.705	8220.65
685.053	8254.32
685.4	8226.97
685.748	8182.23
686.095	8165.96
686.443	8151.95
686.79	8117.82
687.138	8170.03
687.485	8170.48
687.832	8069.01
688.18	8046.19
688.527	8016.36
688.874	8043.02
689.221	7971.39
689.568	7970.71
689.915	7952.18
690.262	7970.48
690.609	7919.86
690.956	7920.09
691.303	7771.17
691.65	7809.13
691.997	7791.28
692.344	7736.82
692.69	7703.6
693.037	7724.39
693.383	7723.94
693.73	7642.36
694.077	7619.53
694.423	7595.8
694.769	7581.11
695.116	7539.53
695.462	7604.62
695.808	7490.27
696.155	7488.01
696.501	7438.07
696.847	7419.54
697.193	7407.56
697.539	7428.8
697.885	7296.38
698.231	7310.16
698.577	7327.56
698.923	7297.28
699.269	7223.16
699.614	7228.13
699.96	7182.48
700.306	7164.63
700.651	7122.82
700.997	7116.27
701.342	7076.49
701.688	7059.55
702.033	7054.35
702.379	7017.29
702.724	6976.84
703.069	7014.12
703.415	6904.52
703.76	6874.24
704.105	6921.47
704.45	6842.83
704.795	6880.12
705.14	6796.28
705.485	6841.92
705.83	6722.61
706.175	6725.54
706.52	6777.07
706.865	6667.47
707.209	6672.21
707.554	6693
707.899	6619.11
708.243	6576.39
708.588	6640.8
708.932	6552.89
709.277	6597.64
709.621	6629.27
709.966	6533.91
710.31	6556.06
710.654	6479.22
710.998	6480.8
711.342	6448.49
711.687	6455.72
712.031	6435.61
712.375	6402.39
712.719	6431.31
713.063	6424.53
713.407	6423.4
713.75	6374.14
714.094	6404.42
714.438	6364.42
714.782	6328.27
715.125	6311.54
715.469	6367.13
715.812	6264.09
716.156	6306.35
716.499	6227.25
716.843	6264.54
717.186	6238.1
717.53	6257.31
717.873	6298.44
718.216	6289.4
718.559	6173.92
718.902	6166.91
719.246	6176.41
719.589	6162.85
719.932	6125.33
720.275	6172.34
720.617	6141.38
720.96	6093.92
721.303	6131.43
721.646	6145.45
721.989	6044.66
722.331	6116.97
722.674	6069.97
723.016	6143.86
723.359	6131.21
723.701	6127.82
724.044	6106.58
724.386	6087.82
724.729	6127.14
725.071	6063.19
725.413	6062.06
725.755	6045.56
726.097	6042.4
726.439	6100.48
726.782	6073.81
727.124	6057.31
727.465	6052.11
727.807	6003.75
728.149	6060.48
728.491	6038.33
728.833	6027.93
729.175	6032.23
729.516	5995.17
729.858	5992.91
730.199	6022.74
730.541	6006.69
730.882	5988.16
731.224	6062.96
731.565	6022.96
731.906	6014.6
732.248	6057.76
732.589	6025.45
732.93	5986.13
733.271	6039.69
733.612	5963.53
733.953	5989.29
734.294	5984.55
734.635	6037.2
734.976	6048.05
735.317	5991.1
735.658	6031.32
735.999	6048.73
736.339	6018.44
736.68	6035.62
737.021	6052.79
737.361	6013.92
737.702	6026.35
738.042	6042.4
738.383	6066.35
738.723	6105.45
739.063	6074.71
739.404	6086.24
739.744	6045.11
740.084	6038.33
740.424	6111.32
740.764	6126.69
741.104	6124.43
741.444	6161.04
741.784	6155.16
742.124	6175.5
742.464	6236.06
742.804	6217.76
743.143	6199.46
743.483	6260.24
743.823	6221.83
744.162	6254.82
744.502	6330.07
744.841	6382.95
745.181	6445.55
745.52	6429.51
745.86	6429.05
746.199	6497.75
746.538	6468.6
746.877	6571.88
747.216	6632.66
747.556	6620.01
747.895	6657.97
748.234	6745.2
748.573	6818.42
748.911	6815.48
749.25	6902.26
749.589	6876.95
749.928	6994.91
750.267	7064.74
750.605	7139.09
750.944	7234.68
751.283	7230.39
751.621	7343.61
751.96	7423.15
752.298	7537.05
752.636	7608.68
752.975	7697.27
753.313	7809.36
753.651	7894.55
753.989	8005.28
754.327	8057.94
754.666	8194.66
755.004	8317.82
755.342	8438.27
755.679	8609.79
756.017	8677.13
756.355	8872.15
756.693	8922.32
757.031	9156.44
757.368	9250.22
757.706	9380.16
758.044	9464.91
758.381	9645.92
758.719	9775.63
759.056	9986.25
759.394	10131.1
759.731	10212.23
760.068	10491.55
760.405	10583.3
760.743	10747.81
761.08	11010.4
761.417	11064.64
761.754	11227.57
762.091	11360.45
762.428	11565.42
762.765	11689.25
763.102	11989.81
763.438	12073.65
763.775	12235
764.112	12373.08
764.449	12620.3
764.785	12813.74
765.122	12847.87
765.458	12996.79
765.795	13234.52
766.131	13375.76
766.467	13550.9
