Data from hue_340_FLMS001491_53.txt Node
Date: Mon Feb 06 15:43:18 GMT 2017
User: dcchb
Spectrometer: FLMS00149
Trigger mode: 0
Integration Time (sec): 2.000000E-2
Scans to average: 10
Electric dark correction enabled: true
Nonlinearity correction enabled: false
Boxcar width: 0
XAxis mode: Wavelengths
Number of Pixels in Spectrum: 2048
>>>>>Begin Spectral Data<<<<<
341.393	-9.05
341.776	-9.05
342.16	-9.05
342.543	-63.52
342.927	-59.67
343.31	-86.57
343.693	-62.39
344.077	-60.8
344.46	-72.33
344.843	-57.87
345.226	-33.23
345.61	-28.04
345.993	-2.5
346.376	6.09
346.759	-2.05
347.142	31.85
347.525	25.52
347.908	66.65
348.291	88.35
348.674	90.15
349.057	97.16
349.44	128.34
349.823	156.82
350.206	199.98
350.588	189.81
350.971	218.51
351.354	230.71
351.737	231.17
352.119	249.24
352.502	248.34
352.884	275.46
353.267	282.92
353.65	298.74
354.032	314.1
354.414	314.78
354.797	319.98
355.179	313.88
355.562	310.03
355.944	321.79
356.326	335.8
356.709	333.99
357.091	351.62
357.473	344.61
357.855	335.12
358.238	336.47
358.62	322.46
359.002	341.22
359.384	343.25
359.766	343.48
360.148	353.65
360.53	345.29
360.912	368.34
361.294	345.29
361.676	336.93
362.057	348.23
362.439	316.14
362.821	331.5
363.203	322.24
363.584	326.98
363.966	315.23
364.348	334.89
364.729	322.46
365.111	310.94
365.493	311.39
365.874	321.56
366.256	321.11
366.637	317.94
367.019	324.05
367.4	298.06
367.781	291.5
368.163	297.61
368.544	306.64
368.925	322.01
369.306	319.07
369.688	299.41
370.069	331.95
370.45	313.88
370.831	303.48
371.212	308.23
371.593	308.45
371.974	328.56
372.355	311.84
372.736	338.06
373.117	327.66
373.498	286.31
373.879	308.23
374.26	320.88
374.641	334.67
375.021	345.51
375.402	351.39
375.783	334.44
376.163	324.72
376.544	314.33
376.925	330.37
377.305	311.62
377.686	333.31
378.066	318.62
378.447	343.48
378.827	328.34
379.208	324.5
379.588	338.28
379.968	337.6
380.349	331.5
380.729	332.18
381.109	338.73
381.489	335.34
381.87	336.93
382.25	324.05
382.63	338.06
383.01	336.7
383.39	329.69
383.77	340.09
384.15	323.37
384.53	341.22
384.91	339.41
385.29	349.36
385.67	354.33
386.049	351.62
386.429	353.87
386.809	361.78
387.189	357.94
387.568	351.16
387.948	359.98
388.328	350.94
388.707	359.52
389.087	348.68
389.466	361.33
389.846	369.92
390.225	359.98
390.605	354.1
390.984	357.49
391.363	349.13
391.743	359.07
392.122	343.25
392.501	358.17
392.881	352.29
393.26	356.81
393.639	362.24
394.018	374.67
394.397	352.97
394.776	390.03
395.155	387.09
395.534	369.24
395.913	379.64
396.292	371.95
396.671	357.72
397.05	370.37
397.429	371.95
397.808	384.16
398.186	384.61
398.565	387.77
398.944	379.18
399.323	391.16
399.701	379.64
400.08	389.58
400.458	386.64
400.837	403.59
401.215	383.25
401.594	390.03
401.972	419.86
402.351	404.72
402.729	394.33
403.107	399.3
403.486	415.57
403.864	402.24
404.242	391.39
404.62	404.72
404.999	402.01
405.377	412.4
405.755	401.33
406.133	405.17
406.511	406.08
406.889	432.97
407.267	440.65
407.645	423.25
408.023	435.68
408.401	436.58
408.779	456.92
409.156	440.65
409.534	454.66
409.912	445.4
410.29	458.73
410.667	456.7
411.045	446.75
411.422	445.85
411.8	471.39
412.178	457.15
412.555	463.93
412.933	457.37
413.31	492.4
413.687	467.09
414.065	459.41
414.442	514.77
414.819	499.41
415.197	507.09
415.574	498.73
415.951	529.24
416.328	523.36
416.705	523.81
417.082	543.02
417.46	530.14
417.837	547.32
418.214	541.21
418.591	542.8
418.967	539.41
419.344	514.77
419.721	545.73
420.098	556.58
420.475	542.8
420.852	571.72
421.228	583.47
421.605	555.45
421.982	565.85
422.358	575.11
422.735	579.18
423.111	592.74
423.488	597.71
423.864	603.59
424.241	593.87
424.617	591.16
424.994	630.7
425.37	627.09
425.746	624.15
426.123	632.29
426.499	629.12
426.875	630.03
427.251	651.95
427.627	649.69
428.003	644.26
428.379	651.72
428.756	646.3
429.132	663.7
429.507	655.56
429.883	685.17
430.259	669.35
430.635	694.88
431.011	674.09
431.387	687.2
431.763	695.11
432.138	720.42
432.514	704.37
432.89	725.62
433.265	753.86
433.641	739.18
434.016	745.73
434.392	745.05
434.767	764.94
435.143	775.11
435.518	764.03
435.894	768.1
436.269	781.21
436.644	779.85
437.02	788.44
437.395	791.38
437.77	804.26
438.145	832.05
438.52	819.17
438.895	831.15
439.271	825.95
439.646	843.13
440.021	844.48
440.395	837.25
440.77	857.82
441.145	862.56
441.52	865.05
441.895	881.32
442.27	863.01
442.645	886.97
443.019	877.25
443.394	886.29
443.769	875.44
444.143	886.29
444.518	867.08
444.892	888.1
445.267	896.69
445.641	925.84
446.016	911.6
446.39	912.28
446.764	907.31
447.139	899.62
447.513	921.77
447.887	933.75
448.262	936.23
448.636	926.52
449.01	957.93
449.384	933.29
449.758	945.27
450.132	946.4
450.506	960.41
450.88	982.33
451.254	964.48
451.628	956.57
452.002	979.62
452.376	972.62
452.75	989.56
453.123	982.56
453.497	995.21
453.871	1022.78
454.244	1021.88
454.618	1032.5
454.992	1047.64
455.365	1023.01
455.739	1058.94
456.112	1042.44
456.486	1049.9
456.859	1077.25
457.232	1060.97
457.606	1083.12
457.979	1098.49
458.352	1150.46
458.725	1117.24
459.099	1126.28
459.472	1150.69
459.845	1154.53
460.218	1151.14
460.591	1129
460.964	1165.6
461.337	1168.99
461.71	1209.45
462.083	1209.67
462.456	1209.9
462.829	1193.85
463.201	1230.24
463.574	1232.72
463.947	1232.72
464.32	1260.74
464.692	1254.87
465.065	1256.22
465.438	1289.9
465.81	1290.57
466.183	1339.16
466.555	1346.84
466.928	1316.34
467.3	1332.15
467.672	1339.39
468.045	1395.43
468.417	1383
468.789	1405.6
469.161	1421.64
469.534	1432.94
469.906	1439.95
470.278	1474.52
470.65	1469.55
471.022	1475.88
471.394	1533.73
471.766	1546.39
472.138	1526.27
472.51	1564.92
472.882	1601.75
473.253	1615.76
473.625	1653.5
473.997	1665.93
474.369	1689.66
474.74	1669.09
475.112	1674.97
475.484	1708.19
475.855	1761.52
476.227	1759.04
476.598	1812.14
476.97	1823.89
477.341	1834.97
477.713	1873.16
478.084	1822.76
478.455	1946.6
478.827	1927.62
479.198	2000.16
479.569	1984.57
479.94	2048.75
480.311	2034.06
480.682	2093.94
481.053	2125.81
481.424	2157.22
481.795	2140.95
482.166	2218.23
482.537	2229.31
482.908	2264.56
483.279	2278.8
483.65	2368.74
484.021	2335.52
484.391	2388.17
484.762	2429.75
485.133	2443.31
485.503	2442.41
485.874	2485.8
486.244	2522.18
486.615	2554.95
486.985	2604.44
487.356	2645.11
487.726	2648.5
488.097	2719.46
488.467	2739.35
488.837	2774.6
489.207	2795.62
489.578	2854.37
489.948	2865.45
490.318	2870.64
490.688	2910.87
491.058	2948.38
491.428	2967.14
491.798	3026.12
492.168	3068.38
492.538	3068.38
492.908	3116.74
493.278	3118.32
493.648	3187.7
494.017	3196.74
494.387	3193.35
494.757	3227.47
495.126	3295.94
495.496	3300.69
495.866	3332.33
496.235	3342.95
496.605	3380.91
496.974	3402.38
497.344	3418.43
497.713	3473.57
498.082	3434.92
498.452	3472.89
498.821	3495.94
499.19	3488.93
499.559	3543.17
499.928	3560.12
500.298	3596.05
500.667	3613
501.036	3593.79
501.405	3662.49
501.774	3615.26
502.143	3642.83
502.512	3665.43
502.88	3707.91
503.249	3688.25
503.618	3723.05
503.987	3724.18
504.356	3770.28
504.724	3802.6
505.093	3786.1
505.462	3808.7
505.83	3809.15
506.199	3824.07
506.567	3882.14
506.936	3919.66
507.304	3902.03
507.672	3930.96
508.041	3971.41
508.409	4016.6
508.777	3938.19
509.145	3958.98
509.514	3966.44
509.882	4042.37
510.25	4030.39
510.618	4061.57
510.986	4079.88
511.354	4084.17
511.722	4122.14
512.09	4160.33
512.458	4138.86
512.826	4164.85
513.193	4167.11
513.561	4181.57
513.929	4220.21
514.297	4200.1
514.664	4236.48
515.032	4265.86
515.4	4257.28
515.767	4232.64
516.135	4274.45
516.502	4268.12
516.869	4314.9
517.237	4274.45
517.604	4285.97
517.972	4388.8
518.339	4362.36
518.706	4348.12
519.073	4424.28
519.44	4408.91
519.808	4416.14
520.175	4422.92
520.542	4412.53
520.909	4470.15
521.276	4502.47
521.643	4510.38
522.009	4497.27
522.376	4513.77
522.743	4570.04
523.11	4595.12
523.477	4646.87
523.843	4644.61
524.21	4633.99
524.577	4671.95
524.943	4676.47
525.31	4730.26
525.676	4749.92
526.043	4801.89
526.409	4770.26
526.776	4781.1
527.142	4828.11
527.508	4878.5
527.874	4927.99
528.241	4901.55
528.607	4941.32
528.973	4970.93
529.339	4976.13
529.705	4989.46
530.071	5042.11
530.437	5069.23
530.803	5071.49
531.169	5112.85
531.535	5120.08
531.901	5079.17
532.267	5099.06
532.632	5214.99
532.998	5211.37
533.364	5233.75
533.73	5228.55
534.095	5285.95
534.461	5316.23
534.826	5316
535.192	5358.94
535.557	5379.51
535.923	5366.17
536.288	5420.63
536.653	5391.93
537.019	5408.66
537.384	5426.28
537.749	5504.7
538.114	5506.96
538.479	5520.29
538.845	5542.66
539.21	5529.56
539.575	5557.58
539.94	5606.17
540.305	5591.03
540.67	5597.13
541.034	5630.8
541.399	5661.76
541.764	5727.29
542.129	5726.39
542.494	5727.97
542.858	5725.26
543.223	5779.04
543.587	5805.48
543.952	5845.26
544.316	5828.31
544.681	5807.52
545.045	5898.59
545.41	5862.66
545.774	5953.95
546.138	5918.25
546.503	6043.67
546.867	5978.13
547.231	6000.28
547.595	6034.86
547.959	6100.39
548.324	6052.71
548.688	6090
549.052	6181.29
549.416	6140.62
549.779	6174.29
550.143	6225.13
550.507	6214.74
550.871	6235.98
551.235	6260.39
551.599	6277.56
551.962	6339.48
552.326	6310.33
552.689	6379.25
553.053	6374.51
553.417	6341.97
553.78	6446.37
554.143	6390.1
554.507	6443.88
554.87	6430.78
555.234	6547.38
555.597	6440.72
555.96	6465.13
556.323	6537.22
556.686	6503.77
557.05	6574.28
557.413	6593.48
557.776	6632.81
558.139	6630.77
558.502	6680.94
558.865	6640.94
559.228	6682.3
559.59	6724.78
559.953	6731.56
560.316	6764.33
560.679	6743.76
561.041	6789.19
561.404	6840.94
561.767	6855.62
562.129	6852.01
562.492	6966.36
562.854	6969.07
563.217	6970.2
563.579	6932.68
563.941	7033.02
564.304	6996.64
564.666	7085.22
565.028	7054.04
565.39	7045.45
565.753	7125
566.115	7175.84
566.477	7142.62
566.839	7183.53
567.201	7216.52
567.563	7254.03
567.925	7290.42
568.287	7288.61
568.648	7266.69
569.01	7376.74
569.372	7364.09
569.734	7400.7
570.095	7458.32
570.457	7459.9
570.819	7485.89
571.18	7537.19
571.542	7630.29
571.903	7608.6
572.265	7678.2
572.626	7689.5
572.987	7724.75
573.349	7807.24
573.71	7811.31
574.071	7811.53
574.432	7903.51
574.794	7996.39
575.155	7992.54
575.516	8019.89
575.877	8064.18
576.238	8164.52
576.599	8237.96
576.96	8275.02
577.32	8273.67
577.681	8443.38
578.042	8453.77
578.403	8515.02
578.763	8645.41
579.124	8644.05
579.485	8787.1
579.845	8930.6
580.206	8950.71
580.566	9109.35
580.927	9092.63
581.287	9340.53
581.648	9346.86
582.008	9536.91
582.368	9644.93
582.728	9819.61
583.089	9885.6
583.449	10103.9
583.809	10242.88
584.169	10382.76
584.529	10534.17
584.889	10723.09
585.249	10860.04
585.609	11054.84
585.969	11291.21
586.329	11394.04
586.688	11638.1
587.048	11813.01
587.408	11902.5
587.768	12204.41
588.127	12361.92
588.487	12589.03
588.846	12957.16
589.206	13071.96
589.565	13252.74
589.925	13520.53
590.284	13789.68
590.643	14038.03
591.003	14341.08
591.362	14573.39
591.721	14747.39
592.08	15052.25
592.44	15368.17
592.799	15693.36
593.158	15876.18
593.517	16150.97
593.876	16410.4
594.235	16612.66
594.593	16863.95
594.952	17200.21
595.311	17373.09
595.67	17693.98
596.029	18087.42
596.387	18350.24
596.746	18651.92
597.104	18828.42
597.463	19150.89
597.822	19465.01
598.18	19622.52
598.538	19999.69
598.897	20331.43
599.255	20447.81
599.613	20931.64
599.972	21117.85
600.33	21326.2
600.688	21668.57
601.046	21869.24
601.404	22285.95
601.762	22458.38
602.12	22753.06
602.478	23072.6
602.836	23333.38
603.194	23489.76
603.552	23883.43
603.91	23824.44
604.268	24297.65
604.625	24473.69
604.983	24711.43
605.341	24879.56
605.698	25307.8
606.056	25494.46
606.413	25713.21
606.771	26029.58
607.128	26261.89
607.485	26312.51
607.843	26641.55
608.2	26925.61
608.557	27203.11
608.914	27187.75
609.272	27586.83
609.629	27837.22
609.986	28018.46
610.343	28125.12
610.7	28439.01
611.057	28599.91
611.414	28696.18
611.771	29099.11
612.127	29208.03
612.484	29333.9
612.841	29581.81
613.198	29661.8
613.554	29883.72
613.911	30185.18
614.267	30276.03
614.624	30466.53
614.98	30654.55
615.337	30871.94
615.693	31005.72
616.05	30930.02
616.406	31280.29
616.762	31437.58
617.118	31466.73
617.475	31635.31
617.831	31841.41
618.187	32014.06
618.543	32073.49
618.899	32381.73
619.255	32350.55
619.611	32552.58
619.967	32687.71
620.323	32951.44
620.678	32762.97
621.034	32860.14
621.39	33082.73
621.746	33076.18
622.101	33575.15
622.457	33292.44
622.812	33489.95
623.168	33708.25
623.523	33736.95
623.879	33848.81
624.234	33800.45
624.589	33939.66
624.945	34019.66
625.3	34115.92
625.655	34134.91
626.01	34225.07
626.365	34355.92
626.72	34392.53
627.075	34379.87
627.43	34522.47
627.785	34604.73
628.14	34608.12
628.495	34612.18
628.85	34647.89
629.205	34593.2
629.559	34751.16
629.914	34757.04
630.269	35057.14
630.623	34827.77
630.978	34809.24
631.332	35144.15
631.687	35071.61
632.041	35040.42
632.396	35037.03
632.75	34968.56
633.104	35067.99
633.459	35009.69
633.813	35000.87
634.167	35007.88
634.521	35068.89
634.875	35192.05
635.229	35143.69
635.583	35022.57
635.937	35104.6
636.291	35066.41
636.645	35069.57
636.999	34922.46
637.352	35115.22
637.706	34977.82
638.06	35208.33
638.413	34914.55
638.767	35079.52
639.121	35131.49
639.474	34911.38
639.828	34968.33
640.181	34902.12
640.534	35090.14
640.888	34994.32
641.241	34842.23
641.594	34995.9
641.947	35111.83
642.301	34935.56
642.654	35001.1
643.007	35085.39
643.36	35059.18
643.713	34938.95
644.066	35112.28
644.419	34845.17
644.771	34560.43
645.124	34359.76
645.477	34498.06
645.83	34109.15
646.182	33940.34
646.535	34023.95
646.888	34014.46
647.24	33798.87
647.593	34037.06
647.945	33988.92
648.298	33795.93
648.65	33692.43
649.002	33640.91
649.355	33854.24
649.707	33734.69
650.059	33986.66
650.411	34280.89
650.763	34544.84
651.115	34659.64
651.467	34684.5
651.819	34566.99
652.171	34516.37
652.523	34507.33
652.875	34616.93
653.227	34368.35
653.578	34592.3
653.93	34572.64
654.282	34414
654.633	34382.58
654.985	34494.45
655.337	34535.12
655.688	34335.13
656.039	34539.42
656.391	34206.77
656.742	34324.51
657.094	34508.46
657.445	34430.04
657.796	34298.29
658.147	34255.36
658.498	34333.77
658.849	34443.37
659.2	34242.7
659.551	34279.31
659.902	34345.75
660.253	34200.67
660.604	34287.22
660.955	34181.01
661.306	34288.8
661.656	34091.29
662.007	34173.1
662.358	34161.35
662.708	34083.16
663.059	34241.8
663.409	34007.23
663.76	34135.36
664.11	34180.56
664.461	34251.51
664.811	34200.89
665.161	34169.93
665.511	34026.21
665.862	34168.13
666.212	34252.19
666.562	34161.35
666.912	34109.82
667.262	34197.73
667.612	34178.07
667.962	34174.91
668.312	34002.03
668.662	34215.81
669.011	34147.79
669.361	34140.78
669.711	34106.43
670.06	34037.96
670.41	34015.81
670.76	33993.67
671.109	34188.01
671.459	34085.64
671.808	34057.17
672.157	34005.19
672.507	33842.26
672.856	33844.75
673.205	34069.82
673.554	34024.63
673.904	33847.23
674.253	34117.96
674.602	33850.4
674.951	33473.68
675.3	33303.97
675.649	33848.59
675.998	33699.89
676.346	33886.78
676.695	33943.5
677.044	33581.93
677.393	33812.43
677.741	33791.19
678.09	33760.23
678.438	33652.66
678.787	33678.65
679.135	33673.45
679.484	33517.07
679.832	33587.58
680.181	33356.17
680.529	33458.99
680.877	33500.57
681.225	33413.57
681.573	33584.87
681.922	33349.39
682.27	33231.43
682.618	33260.81
682.966	33158.44
683.314	33312.1
683.661	33282.05
684.009	33085.9
684.357	32982.17
684.705	32836.18
685.053	32924.54
685.4	32926.58
685.748	32716.64
686.095	32671.9
686.443	32523.88
686.79	32507.61
687.138	32649.97
687.485	32609.52
687.832	32518.9
688.18	32586.47
688.527	32307.16
688.874	32272.13
689.221	32276.43
689.568	32225.35
689.915	32118.46
690.262	32075.98
690.609	32021.97
690.956	31931.58
691.303	31898.36
691.65	31706.95
691.997	31834.18
692.344	31546.05
692.69	31646.61
693.037	31605.03
693.383	31506.28
693.73	31403.91
694.077	31223.12
694.423	31228.77
694.769	31143.8
695.116	31025.38
695.462	31046.4
695.808	30981.09
696.155	31061.32
696.501	30683.92
696.847	30668.11
697.193	30573.65
697.539	30711.49
697.885	30357.83
698.231	30330.49
698.577	30393.54
698.923	30237.83
699.269	30177.72
699.614	30064.51
699.96	30003.04
700.306	30052.3
700.651	29839.2
700.997	29803.95
701.342	29612.77
701.688	29664.74
702.033	29638.53
702.379	29459.32
702.724	29492.77
703.069	29517.63
703.415	29180.69
703.76	29197.18
704.105	29207.35
704.45	29210.29
704.795	28978.66
705.14	29000.81
705.485	28825.22
705.83	28610.76
706.175	28730.76
706.52	28659.35
706.865	28474.72
707.209	28425.45
707.554	28466.36
707.899	28507.03
708.243	28357.43
708.588	28268.4
708.932	28162.18
709.277	28105.91
709.621	28091.9
709.966	27899.14
710.31	27986.37
710.654	27782.53
710.998	27847.62
711.342	27816.66
711.687	27765.36
712.031	27633.84
712.375	27529.43
712.719	27596.55
713.063	27630.9
713.407	27548.19
713.75	27521.3
714.094	27493.05
714.438	27324.47
714.782	27540.73
715.125	27241.76
715.469	27296.22
715.812	27023.68
716.156	27061.42
716.499	26951.14
716.843	27025.94
717.186	26898.94
717.53	27030.24
717.873	26857.81
718.216	26817.59
718.559	26649.23
718.902	26537.82
719.246	26579.63
719.589	26470.7
719.932	26535.56
720.275	26441.55
720.617	26421.21
720.96	26384.15
721.303	26386.41
721.646	26334.66
721.989	26133.54
722.331	26255.57
722.674	26232.52
723.016	26204.72
723.359	26236.58
723.701	26075.68
724.044	25982.81
724.386	25836.59
724.729	26026.19
725.071	25916.14
725.413	25870.94
725.755	25905.75
726.097	25659.88
726.439	25568.13
726.782	25650.61
727.124	25672.98
727.465	25469.15
727.807	25526.77
728.149	25582.82
728.491	25500.78
728.833	25475.93
729.175	25486.55
729.516	25320.68
729.858	25296.72
730.199	25296.95
730.541	25221.24
730.882	25213.33
731.224	25206.1
731.565	25012.66
731.906	25044.3
732.248	25058.54
732.589	24905.32
732.93	24826.45
733.271	24931.53
733.612	24978.31
733.953	25045.66
734.294	24763.85
734.635	24743.74
734.976	24807.47
735.317	24631.65
735.658	24663.07
735.999	24705.78
736.339	24653.12
736.68	24673.24
737.021	24558.66
737.361	24603.41
737.702	24586.68
738.042	24515.05
738.383	24503.97
738.723	24487.48
739.063	24385.56
739.404	24487.03
739.744	24393.24
740.084	24247.71
740.424	24310.76
740.764	24245.22
741.104	24204.32
741.444	24052.23
741.784	24111.89
742.124	24150.76
742.464	23993.48
742.804	23997.32
743.143	23948.96
743.483	24032.8
743.823	23981.95
744.162	23900.15
744.502	23782.19
744.841	23802.3
745.181	23801.62
745.52	23732.47
745.86	23773.37
746.199	23702.19
746.538	23692.7
746.877	23693.6
747.216	23585.58
747.556	23534.28
747.895	23573.6
748.234	23545.36
748.573	23510.78
748.911	23395.08
749.25	23470.1
749.589	23437.79
749.928	23283.44
750.267	23275.08
750.605	23238.47
750.944	23165.48
751.283	23052.04
751.621	23265.36
751.96	23106.04
752.298	23087.06
752.636	23059.27
752.975	22920.51
753.313	22809.78
753.651	22982.88
753.989	22793.06
754.327	22736.34
754.666	22762.78
755.004	22749.9
755.342	22777.92
755.679	22577.02
756.017	22487.98
756.355	22611.82
756.693	22440.75
757.031	22467.42
757.368	22334.77
757.706	22222.45
758.044	22211.38
758.381	22220.87
758.719	22139.74
759.056	22192.62
759.394	22065.17
759.731	21997.83
760.068	21872.41
760.405	21944.95
