Data from hue_150_FLMS001491_00067.txt Node
Date: Tue Feb 07 16:54:22 GMT 2017
User: dcchb
Spectrometer: FLMS00149
Trigger mode: 0
Integration Time (sec): 2.000000E-2
Scans to average: 10
Electric dark correction enabled: true
Nonlinearity correction enabled: false
Boxcar width: 0
XAxis mode: Wavelengths
Number of Pixels in Spectrum: 2048
>>>>>Begin Spectral Data<<<<<
341.393	-19
341.776	-19
342.16	-19
342.543	-78.66
342.927	-56.74
343.31	-56.51
343.693	-68.26
344.077	-65.78
344.46	-58.09
344.843	-59.9
345.226	-49.05
345.61	-48.15
345.993	-14.03
346.376	-4.99
346.759	3.83
347.142	35.47
347.525	38.4
347.908	48.12
348.291	86.31
348.674	102.36
349.057	110.27
349.44	131.06
349.823	125.86
350.206	166.76
350.588	190.04
350.971	209.7
351.354	231.17
351.737	230.71
352.119	232.3
352.502	249.47
352.884	262.35
353.267	280.88
353.65	276.14
354.032	291.05
354.414	282.69
354.797	308.45
355.179	313.2
355.562	327.43
355.944	328.56
356.326	313.65
356.709	345.06
357.091	327.89
357.473	329.69
357.855	321.33
358.238	359.3
358.62	339.86
359.002	330.15
359.384	327.89
359.766	340.99
360.148	335.34
360.53	348
360.912	347.32
361.294	336.7
361.676	329.69
362.057	326.76
362.439	316.59
362.821	321.33
363.203	320.2
363.584	330.82
363.966	309.58
364.348	318.85
364.729	319.98
365.111	315.46
365.493	330.15
365.874	308
366.256	331.5
366.637	327.43
367.019	306.64
367.4	308
367.781	307.1
368.163	320.66
368.544	326.08
368.925	318.85
369.306	326.76
369.688	326.3
370.069	307.55
370.45	305.74
370.831	307.1
371.212	311.62
371.593	308.45
371.974	313.42
372.355	308.23
372.736	311.84
373.117	306.42
373.498	310.03
373.879	340.32
374.26	300.32
374.641	312.07
375.021	304.61
375.402	318.17
375.783	313.65
376.163	340.77
376.544	341.22
376.925	337.15
377.305	351.16
377.686	313.88
378.066	338.73
378.447	323.59
378.827	340.09
379.208	345.97
379.588	306.87
379.968	333.54
380.349	319.53
380.729	322.92
381.109	359.07
381.489	342.35
381.87	335.34
382.25	356.59
382.63	344.61
383.01	334.21
383.39	330.82
383.77	350.49
384.15	351.39
384.53	339.86
384.91	362.46
385.29	337.15
385.67	352.07
386.049	366.3
386.429	362.69
386.809	366.08
387.189	357.94
387.568	352.52
387.948	375.12
388.328	345.51
388.707	345.97
389.087	383.03
389.466	367.66
389.846	374.44
390.225	366.3
390.605	367.66
390.984	390.03
391.363	364.5
391.743	382.8
392.122	375.12
392.501	388.68
392.881	377.83
393.26	370.37
393.639	363.59
394.018	384.16
394.397	381.22
394.776	396.59
395.155	384.61
395.534	400.65
395.913	383.48
396.292	371.5
396.671	401.11
397.05	389.35
397.429	384.38
397.808	403.14
398.186	389.58
398.565	397.72
398.944	409.47
399.323	423.25
399.701	419.86
400.08	398.85
400.458	413.08
400.837	424.16
401.215	418.05
401.594	428.22
401.972	422.8
402.351	430.26
402.729	422.57
403.107	428
403.486	444.27
403.864	446.08
404.242	433.87
404.62	412.18
404.999	432.06
405.377	437.04
405.755	445.85
406.133	424.16
406.511	447.66
406.889	440.88
407.267	443.36
407.645	471.61
408.023	446.98
408.401	471.16
408.779	459.41
409.156	461.67
409.534	476.58
409.912	464.83
410.29	500.76
410.667	491.72
411.045	477.49
411.422	502.8
411.8	497.15
412.178	491.27
412.555	504.38
412.933	508
413.31	503.93
413.687	512.97
414.065	508.22
414.442	513.19
414.819	521.78
415.197	541.44
415.574	526.3
415.951	546.41
416.328	533.98
416.705	530.82
417.082	552.29
417.46	536.24
417.837	567.65
418.214	550.48
418.591	548.45
418.967	559.75
419.344	564.94
419.721	577.82
420.098	581.21
420.475	575.11
420.852	591.38
421.228	580.31
421.605	560.42
421.982	565.85
422.358	584.15
422.735	595.45
423.111	623.47
423.488	605.39
423.864	611.04
424.241	631.16
424.617	631.61
424.994	626.41
425.37	615.11
425.746	613.3
426.123	630.25
426.499	649.46
426.875	649.01
427.251	674.54
427.627	681.1
428.003	675.22
428.379	680.87
428.756	686.3
429.132	691.49
429.507	687.88
429.883	675
430.259	717.03
430.635	713.87
431.011	712.51
431.387	705.73
431.763	719.06
432.138	727.42
432.514	715
432.89	747.99
433.265	743.47
433.641	766.75
434.016	771.72
434.392	800.64
434.767	773.75
435.143	818.04
435.518	794.99
435.894	811.72
436.269	828.44
436.644	808.55
437.02	830.92
437.395	818.04
437.77	838.61
438.145	827.99
438.52	828.66
438.895	862.11
439.271	853.3
439.646	848.78
440.021	882.9
440.395	890.81
440.77	893.75
441.145	906.18
441.52	907.76
441.895	910.47
442.27	916.8
442.645	914.99
443.019	925.84
443.394	953.86
443.769	950.7
444.143	931.03
444.518	952.28
444.892	969.9
445.267	966.06
445.641	989.79
446.016	962.45
446.39	992.73
446.764	997.25
447.139	981.2
447.513	999.28
447.887	1021.65
448.262	1024.59
448.636	1011.03
449.01	1040.64
449.384	1033.86
449.758	1049.68
450.132	1058.94
450.506	1086.74
450.88	1050.81
451.254	1078.83
451.628	1077.02
452.002	1104.59
452.376	1107.98
452.75	1133.29
453.123	1139.62
453.497	1160.86
453.871	1188.2
454.244	1194.76
454.618	1201.31
454.992	1213.29
455.365	1200.63
455.739	1240.86
456.112	1250.57
456.486	1228.88
456.859	1299.39
457.232	1256.45
457.606	1287.41
457.979	1318.14
458.352	1308.65
458.725	1355.88
459.099	1351.14
459.472	1361.76
459.845	1403.56
460.218	1392.94
460.591	1411.25
460.964	1418.03
461.337	1445.15
461.71	1475.65
462.083	1515.2
462.456	1524.92
462.829	1521.98
463.201	1553.17
463.574	1558.81
463.947	1593.84
464.32	1600.62
464.692	1628.64
465.065	1633.62
465.438	1712.48
465.81	1683.33
466.183	1733.05
466.555	1780.05
466.928	1785.02
467.3	1789.77
467.672	1803.1
468.045	1841.52
468.417	1853.27
468.789	1906.15
469.161	1919.03
469.534	1983.44
469.906	1987.05
470.278	2042.87
470.65	2041.74
471.022	2103.66
471.394	2128.74
471.766	2201.06
472.138	2229.08
472.51	2276.08
472.882	2280.83
473.253	2356.08
473.625	2362.18
473.997	2482.63
474.369	2503.87
474.74	2476.53
475.112	2593.36
475.484	2635.62
475.855	2723.08
476.227	2770.08
476.598	2854.83
476.97	2902.96
477.341	2952.9
477.713	3006.46
478.084	3080.58
478.455	3205.33
478.827	3263.63
479.198	3359.45
479.569	3448.03
479.94	3561.25
480.311	3613.22
480.682	3697.06
481.053	3820.68
481.424	3901.8
481.795	4023.61
482.166	4136.6
482.537	4156.26
482.908	4312.64
483.279	4412.98
483.65	4495.91
484.021	4626.53
484.391	4730.26
484.762	4858.16
485.133	4946.75
485.503	5063.13
485.874	5212.73
486.244	5325.04
486.615	5450.92
486.985	5569.1
487.356	5701.53
487.726	5804.13
488.097	6008.19
488.467	6064.23
488.837	6229.43
489.207	6356.43
489.578	6496.76
489.948	6670.32
490.318	6751.9
490.688	6882.06
491.058	7071.21
491.428	7230.3
491.798	7331.54
492.168	7554.36
492.538	7608.83
492.908	7792.1
493.278	7926.33
493.648	8046.55
494.017	8238.64
494.387	8294.91
494.757	8458.52
495.126	8588.91
495.496	8637.95
495.866	8818.06
496.235	8992.52
496.605	9121.33
496.974	9200.65
497.344	9253.75
497.713	9366.07
498.082	9541.2
498.452	9714.98
498.821	9785.72
499.19	9895.32
499.559	9995.88
499.928	10098.93
500.298	10207.18
500.667	10347.51
501.036	10362.65
501.405	10529.43
501.774	10509.77
502.143	10685.35
502.512	10780.95
502.88	10892.58
503.249	10923.54
503.618	11061.84
503.987	11101.39
504.356	11191.1
504.724	11264.55
505.093	11351.78
505.462	11463.19
505.83	11487.82
506.199	11617.99
506.567	11847.13
506.936	11773.01
507.304	11963.29
507.672	11975.04
508.041	12062.04
508.409	12117.63
508.777	12224.75
509.145	12275.6
509.514	12351.3
509.882	12423.16
510.25	12450.28
510.618	12564.85
510.986	12543.38
511.354	12632.87
511.722	12804.39
512.09	12815.47
512.458	12730.05
512.826	12915.13
513.193	12959.65
513.561	12970.49
513.929	13157.61
514.297	13182.01
514.664	13324.61
515.032	13175.68
515.4	13334.32
515.767	13343.36
516.135	13417.26
516.502	13375.68
516.869	13607.09
517.237	13512.17
517.604	13530.93
517.972	13624.03
518.339	13686.63
518.706	13657.25
519.073	13690.47
519.44	13791.71
519.808	13858.6
520.175	13840.53
520.542	13921.88
520.909	13968.88
521.276	13944.48
521.643	14075.55
522.009	14082.55
522.376	14102.67
522.743	14238.03
523.11	14348.99
523.477	14358.93
523.843	14507.85
524.21	14555.31
524.577	14516.89
524.943	14551.69
525.31	14497.68
525.676	14612.26
526.043	14614.06
526.409	14721.41
526.776	14832.36
527.142	14774.29
527.508	14781.29
527.874	14889.31
528.241	14921.63
528.607	14842.53
528.973	14914.4
529.339	14902.19
529.705	14928.41
530.071	14965.69
530.437	14959.14
530.803	15029.42
531.169	15044.34
531.535	15036.43
531.901	14967.28
532.267	14996.43
532.632	15060.61
532.998	14987.16
533.364	15111.68
533.73	15007.95
534.095	15055.41
534.461	15060.83
534.826	15108.74
535.192	15095.86
535.557	15074.62
535.923	15036.88
536.288	15035.97
536.653	15032.13
537.019	14962.98
537.384	15063.09
537.749	14991.68
538.114	14972.02
538.479	15003.43
538.845	14949.42
539.21	14746.72
539.575	14880.05
539.94	14872.14
540.305	14868.3
540.67	14793.5
541.034	14802.76
541.399	14827.62
541.764	14702.2
542.129	14699.26
542.494	14667.85
542.858	14655.42
543.223	14668.75
543.587	14618.58
543.952	14597.12
544.316	14594.63
544.681	14525.25
545.045	14572.48
545.41	14510.79
545.774	14539.94
546.138	14500.4
546.503	14447.52
546.867	14350.57
547.231	14420.62
547.595	14434.41
547.959	14469.66
548.324	14399.61
548.688	14318.48
549.052	14328.42
549.416	14369.78
549.779	14211.14
550.143	14224.7
550.507	14197.35
550.871	14244.36
551.235	14210.46
551.599	14193.51
551.962	14151.93
552.326	14102.67
552.689	14136.34
553.053	14020.18
553.417	14018.37
553.78	14119.16
554.143	14037.36
554.507	14048.88
554.87	14028.54
555.234	14097.92
555.597	13986.51
555.96	14071.71
556.323	13984.02
556.686	14037.81
557.05	14012.95
557.413	13978.38
557.776	13976.34
558.139	13986.28
558.502	13988.54
558.865	13996.68
559.228	14122.33
559.59	13953.29
559.953	14033.29
560.316	14112.38
560.679	14022.89
561.041	14148.99
561.404	14059.5
561.767	14124.36
562.129	14015.89
562.492	14219.95
562.854	14159.84
563.217	14139.73
563.579	14185.38
563.941	14216.79
564.304	14163.23
564.666	14221.76
565.028	14208.88
565.39	14209.1
565.753	14293.85
566.115	14216.56
566.477	14262.89
566.839	14305.6
567.201	14283.9
567.563	14367.97
567.925	14434.41
568.287	14395.54
568.648	14391.47
569.01	14395.54
569.372	14488.64
569.734	14388.99
570.095	14485.71
570.457	14547.4
570.819	14513.73
571.18	14437.57
571.542	14553.05
571.903	14574.07
572.265	14622.43
572.626	14543.11
572.987	14627.17
573.349	14663.78
573.71	14670.11
574.071	14645.93
574.432	14710.56
574.794	14759.82
575.155	14766.6
575.516	14666.49
575.877	14820.39
576.238	14754.4
576.599	14835.75
576.96	14766.15
577.32	14765.25
577.681	14800.27
578.042	14898.8
578.403	14780.61
578.763	14841.63
579.124	14873.49
579.485	14852.7
579.845	14915.07
580.206	14771.12
580.566	14855.64
580.927	14781.29
581.287	14828.75
581.648	14712.37
582.008	14873.95
582.368	14734.74
582.728	14794.4
583.089	14757.56
583.449	14822.42
583.809	14817.68
584.169	14777.45
584.529	14696.77
584.889	14894.96
585.249	14744.46
585.609	14673.72
585.969	14766.83
586.329	14670.33
586.688	14754.17
587.048	14613.39
587.408	14758.69
587.768	14648.41
588.127	14672.37
588.487	14604.57
588.846	14756.66
589.206	14704.01
589.565	14687.96
589.925	14774.74
590.284	14665.81
590.643	14706.27
591.003	14672.37
591.362	14769.77
591.721	14742.42
592.08	14624.23
592.44	14700.62
592.799	14664.01
593.158	14622.43
593.517	14588.53
593.876	14646.15
594.235	14711.46
594.593	14592.14
594.952	14653.39
595.311	14596.89
595.67	14582.2
596.029	14688.19
596.387	14672.59
596.746	14657
597.104	14610.68
597.463	14551.24
597.822	14679.37
598.18	14587.85
598.538	14564.8
598.897	14733.38
599.255	14538.36
599.613	14726.83
599.972	14662.88
600.33	14636.44
600.688	14582.43
601.046	14618.81
601.404	14764.34
601.762	14628.98
602.12	14654.52
602.478	14653.16
602.836	14621.52
603.194	14562.99
603.552	14603.9
603.91	14579.49
604.268	14640.73
604.625	14615.87
604.983	14625.36
605.341	14595.53
605.698	14658.36
606.056	14689.54
606.413	14624.69
606.771	14729.77
607.128	14660.17
607.485	14649.77
607.843	14607.06
608.2	14757.56
608.557	14694.97
608.914	14661.07
609.272	14824
609.629	14727.28
609.986	14833.49
610.343	14698.36
610.7	14883.89
611.057	14737
611.414	14758.92
611.771	14777.9
612.127	14751.24
612.484	14809.31
612.841	14931.34
613.198	14794.17
613.554	14805.92
613.911	14940.16
614.267	14872.59
614.624	14812.7
614.98	14839.82
615.337	14856.77
615.693	14958.91
616.05	15014.96
616.406	14991.23
616.762	14888.86
617.118	14956.88
617.475	14963.89
617.831	14983.32
618.187	15057.67
618.543	14995.98
618.899	15054.28
619.255	15049.99
619.611	15050.21
619.967	15139.7
620.323	15146.03
620.678	15012.25
621.034	15069.42
621.39	14998.24
621.746	14908.75
622.101	15156.42
622.457	15096.54
622.812	15135.41
623.168	15102.87
623.523	15085.92
623.879	15068.74
624.234	15003.66
624.589	15191.45
624.945	15108.06
625.3	15060.15
625.655	15046.37
626.01	15081.17
626.365	15151.68
626.72	15079.82
627.075	15111.45
627.43	15059.93
627.785	15011.12
628.14	15132.92
628.495	15165.69
628.85	15087.27
629.205	15068.97
629.559	15099.25
629.914	14993.26
630.269	14977.9
630.623	14932.7
630.978	14983.32
631.332	15006.37
631.687	15104.9
632.041	14836.43
632.396	14977.45
632.75	14899.93
633.104	14903.55
633.459	14836.66
633.813	14937.22
634.167	14907.39
634.521	14952.36
634.875	14815.87
635.229	14835.3
635.583	14862.87
635.937	14797.56
636.291	14708.3
636.645	14723.44
636.999	14666.94
637.352	14690.67
637.706	14697
638.06	14671.46
638.413	14590.11
638.767	14621.07
639.121	14580.39
639.474	14576.78
639.828	14480.51
640.181	14541.98
640.534	14487.51
640.888	14518.7
641.241	14400.74
641.594	14352.38
641.947	14525.03
642.301	14489.55
642.654	14397.57
643.007	14518.7
643.36	14474.18
643.713	14446.84
644.066	14402.32
644.419	14332.94
644.771	14263.57
645.124	14251.36
645.477	14130.91
645.83	14113.97
646.182	13991.26
646.535	13996.91
646.888	13950.58
647.24	13875.1
647.593	13976.57
647.945	13918.26
648.298	13894.08
648.65	13810.92
649.002	13867.87
649.355	13869.45
649.707	13900.19
650.059	14007.08
650.411	14091.82
650.763	14098.15
651.115	14225.6
651.467	14190.8
651.819	14166.17
652.171	14192.38
652.523	14157.58
652.875	14176.79
653.227	14116.22
653.578	14231.02
653.93	14134.53
654.282	14186.05
654.633	14087.98
654.985	14098.6
655.337	14232.38
655.688	14205.04
656.039	14283.45
656.391	14038.26
656.742	14151.25
657.094	14152.16
657.445	14197.35
657.796	14189.9
658.147	14105.83
658.498	14196.67
658.849	14134.08
659.2	14170.01
659.551	14134.98
659.902	14233.96
660.253	14245.26
660.604	14200.97
660.955	14089.78
661.306	14064.47
661.656	14045.49
662.007	14144.47
662.358	14161.2
662.708	14259.27
663.059	14191.03
663.409	14091.82
663.76	14179.05
664.11	14205.49
664.461	14252.72
664.811	14278.71
665.161	14190.35
665.511	14171.14
665.862	14201.42
666.212	14258.82
666.562	14266.5
666.912	14252.72
667.262	14174.75
667.612	14193.96
667.962	14161.65
668.312	14154.19
668.662	14274.86
669.011	14207.07
669.361	14190.8
669.711	14192.16
670.06	14190.35
670.41	14104.93
670.76	14184.92
671.109	14198.26
671.459	14116
671.808	14102.21
672.157	14124.36
672.507	14040.07
672.856	13979.51
673.205	14053.63
673.554	14104.93
673.904	14012.95
674.253	14132.04
674.602	13996.68
674.951	13823.35
675.3	13834.88
675.649	14013.85
675.998	14010.24
676.346	13948.55
676.695	14046.4
677.044	13947.64
677.393	13975.21
677.741	13971.6
678.09	13831.03
678.438	13909.68
678.787	13810.92
679.135	13874.65
679.484	13771.83
679.832	13833.97
680.181	13694.09
680.529	13796.01
680.877	13664.03
681.225	13651.38
681.573	13806.18
681.922	13622.9
682.27	13593.98
682.618	13537.48
682.966	13628.33
683.314	13557.14
683.661	13560.08
684.009	13464.72
684.357	13409.35
684.705	13432.18
685.053	13452.29
685.4	13472.85
685.748	13289.13
686.095	13377.71
686.443	13376.13
686.79	13337.71
687.138	13419.29
687.485	13384.49
687.832	13226.98
688.18	13200.32
688.527	13213.2
688.874	13153.31
689.221	13098.17
689.568	13086.2
689.915	13059.98
690.262	13022.69
690.609	12938.85
690.956	12883.94
691.303	12973.2
691.65	12871.51
691.997	12851.17
692.344	12772.53
692.69	12686.88
693.037	12667.45
693.383	12592.88
693.73	12680.33
694.077	12543.84
694.423	12523.72
694.769	12503.16
695.116	12384.97
695.462	12437.62
695.808	12323.96
696.155	12414.57
696.501	12240.57
696.847	12324.63
697.193	12192.21
697.539	12284.63
697.885	12157.41
698.231	12099.55
698.577	12166.22
698.923	12083.51
699.269	11993.34
699.614	11934.81
699.96	11894.36
700.306	11847.13
700.651	11792.44
700.997	11748.15
701.342	11729.17
701.688	11654.14
702.033	11642.17
702.379	11651.2
702.724	11602.17
703.069	11531.21
703.415	11467.48
703.76	11495.05
704.105	11469.06
704.45	11443.53
704.795	11352
705.14	11291.21
705.485	11265.68
705.83	11227.26
706.175	11314.94
706.52	11120.82
706.865	11179.35
707.209	11132.8
707.554	11113.59
707.899	11116.76
708.243	11096.64
708.588	11084.21
708.932	10901.85
709.277	10959.7
709.621	10887.61
709.966	10861.85
710.31	10873.37
710.654	10804.9
710.998	10735.75
711.342	10782.08
711.687	10726.71
712.031	10730.55
712.375	10663.43
712.719	10777.33
713.063	10665.69
713.407	10749.08
713.75	10633.6
714.094	10597.9
714.438	10534.4
714.782	10522.2
715.125	10554.28
715.469	10560.39
715.812	10505.02
716.156	10442.65
716.499	10428.86
716.843	10470.67
717.186	10319.26
717.53	10449.65
717.873	10468.86
718.216	10378.47
718.559	10250.56
718.902	10260.51
719.246	10349.54
719.589	10320.84
719.932	10255.76
720.275	10253.73
720.617	10189.32
720.96	10228.64
721.303	10146.16
721.646	10211.24
721.989	10191.36
722.331	10185.71
722.674	10122.43
723.016	10158.14
723.359	10140.74
723.701	10138.02
724.044	10021.87
724.386	10006.95
724.729	10077.46
725.071	10036.78
725.413	10005.15
725.755	10077.01
726.097	10001.76
726.439	9993.4
726.782	10013.28
727.124	10011.25
727.465	9942.55
727.807	9970.35
728.149	9933.74
728.491	9882.66
728.833	9940.06
729.175	9942.1
729.516	9952.49
729.858	9893.29
730.199	9964.24
730.541	9880.63
730.882	9933.96
731.224	9943.91
731.565	9828.2
731.906	9897.58
732.248	9888.09
732.589	9887.18
732.93	9865.94
733.271	9897.13
733.612	9875.66
733.953	9874.53
734.294	9833.85
734.635	9872.72
734.976	9848.54
735.317	9828.88
735.658	9804.7
735.999	9810.12
736.339	9822.1
736.68	9902.78
737.021	9839.05
737.361	9744.59
737.702	9912.95
738.042	9821.65
738.383	9856.45
738.723	9852.38
739.063	9819.84
739.404	9844.92
739.744	9772.61
740.084	9891.03
740.424	9855.09
740.764	9818.94
741.104	9949.78
741.444	9837.02
741.784	9867.3
742.124	9868.43
742.464	9933.96
742.804	9918.37
743.143	9911.36
743.483	9976.22
743.823	9959.05
744.162	9940.97
744.502	10003.34
744.841	10024.36
745.181	10152.71
745.52	10081.75
745.86	10080.85
746.199	10252.37
746.538	10193.16
746.877	10335.31
747.216	10280.17
747.556	10323.1
747.895	10443.33
748.234	10404.91
748.573	10476.55
748.911	10458.02
749.25	10526.26
749.589	10591.8
749.928	10609.2
750.267	10747.27
750.605	10806.93
750.944	10847.38
751.283	10909.53
751.621	10945.01
751.96	11019.36
752.298	11156.53
752.636	11244.66
752.975	11200.37
753.313	11319.46
753.651	11538.44
753.989	11530.3
754.327	11641.71
754.666	11779.79
755.004	11903.63
755.342	11985.21
755.679	12178.65
756.017	12176.61
756.355	12377.29
756.693	12408.47
757.031	12556.04
757.368	12592.42
