Data from hue_24_FLMS001491_00067.txt Node
Date: Tue Feb 07 17:12:36 GMT 2017
User: dcchb
Spectrometer: FLMS00149
Trigger mode: 0
Integration Time (sec): 2.000000E-2
Scans to average: 10
Electric dark correction enabled: true
Nonlinearity correction enabled: false
Boxcar width: 0
XAxis mode: Wavelengths
Number of Pixels in Spectrum: 2048
>>>>>Begin Spectral Data<<<<<
341.393	-5.52
341.776	-5.52
342.16	-5.52
342.543	-65.41
342.927	-78.97
343.31	-85.52
343.693	-78.97
344.077	-68.35
344.46	-64.73
344.843	-51.85
345.226	-41
345.61	-33.54
345.993	-14.34
346.376	21.82
346.759	8.94
347.142	32.89
347.525	39.22
347.908	51.88
348.291	66.79
348.674	92.78
349.057	123.97
349.44	120.12
349.823	141.82
350.206	177.75
350.588	206
350.971	202.61
351.354	239.89
351.737	243.51
352.119	266.11
352.502	251.87
352.884	285.54
353.267	305.88
353.65	299.78
354.032	295.94
354.414	334.81
354.797	320.8
355.179	328.93
355.562	322.38
355.944	325.54
356.326	310.85
356.709	357.41
357.091	346.33
357.473	378.87
357.855	348.37
358.238	344.98
358.62	351.53
359.002	360.12
359.384	349.04
359.766	341.36
360.148	342.49
360.53	330.06
360.912	356.73
361.294	351.53
361.676	339.33
362.057	353.34
362.439	334.81
362.821	343.39
363.203	317.86
363.584	334.36
363.966	337.29
364.348	349.04
364.729	347.46
365.111	331.87
365.493	318.99
365.874	328.71
366.256	335.71
366.637	321.7
367.019	325.09
367.4	339.78
367.781	321.25
368.163	330.51
368.544	342.49
368.925	341.59
369.306	332.1
369.688	319.89
370.069	316.95
370.45	313.79
370.831	324.86
371.212	319.44
371.593	325.54
371.974	330.74
372.355	336.84
372.736	337.97
373.117	323.51
373.498	321.25
373.879	324.64
374.26	325.99
374.641	335.03
375.021	331.64
375.402	345.65
375.783	335.71
376.163	342.94
376.544	347.91
376.925	328.48
377.305	336.62
377.686	336.39
378.066	344.75
378.447	345.43
378.827	342.72
379.208	353.79
379.588	347.69
379.968	350.63
380.349	358.76
380.729	335.49
381.109	335.94
381.489	347.46
381.87	354.92
382.25	359.89
382.63	365.77
383.01	379.78
383.39	352.21
383.77	356.73
384.15	373
384.53	361.93
384.91	366.45
385.29	395.37
385.67	381.81
386.049	376.16
386.429	375.03
386.809	361.25
387.189	389.04
387.568	379.1
387.948	377.29
388.328	388.82
388.707	391.3
389.087	397.18
389.466	407.35
389.846	411.19
390.225	375.48
390.605	379.55
390.984	394.69
391.363	378.65
391.743	403.96
392.122	413.45
392.501	427.91
392.881	417.29
393.26	406.44
393.639	413.22
394.018	392.21
394.397	403.28
394.776	424.3
395.155	425.88
395.534	405.09
395.913	408.48
396.292	444.86
396.671	430.4
397.05	428.36
397.429	422.94
397.808	444.18
398.186	427.46
398.565	436.95
398.944	426.33
399.323	450.28
399.701	448.25
400.08	436.05
400.458	448.48
400.837	425.2
401.215	443.96
401.594	454.35
401.972	452.54
402.351	448.02
402.729	436.05
403.107	459.78
403.486	471.08
403.864	439.21
404.242	462.26
404.62	466.33
404.999	464.52
405.377	479.89
405.755	465.2
406.133	471.53
406.511	501.58
406.889	490.74
407.267	489.61
407.645	472.43
408.023	505.2
408.401	485.99
408.779	525.09
409.156	494.8
409.534	508.14
409.912	507.91
410.29	486.44
410.667	530.96
411.045	503.62
411.422	557.63
411.8	534.58
412.178	530.96
412.555	537.06
412.933	540.23
413.31	562.15
413.687	561.69
414.065	545.2
414.442	578.64
414.819	560.79
415.197	570.06
415.574	576.61
415.951	555.14
416.328	582.94
416.705	587.91
417.082	570.51
417.46	606.89
417.837	590.62
418.214	577.51
418.591	579.55
418.967	605.31
419.344	590.85
419.721	611.18
420.098	621.35
420.475	611.64
420.852	613.9
421.228	627.91
421.605	618.64
421.982	624.74
422.358	649.83
422.735	638.75
423.111	656.16
423.488	646.21
423.864	646.44
424.241	661.35
424.617	680.34
424.994	669.26
425.37	682.82
425.746	695.48
426.123	704.06
426.499	695.25
426.875	696.61
427.251	707.45
427.627	714.68
428.003	729.83
428.379	721.46
428.756	719.43
429.132	731.18
429.507	758.07
429.883	736.83
430.259	735.7
430.635	742.25
431.011	779.77
431.387	772.99
431.763	800.33
432.138	771.41
432.514	797.85
432.89	812.76
433.265	844.85
433.641	816.38
434.016	816.83
434.392	848.24
434.767	843.04
435.143	840.78
435.518	829.94
435.894	858.64
436.269	877.39
436.644	869.93
437.02	913.55
437.395	907.9
437.77	916.04
438.145	892.31
438.52	932.31
438.895	913.32
439.271	902.93
439.646	929.82
440.021	953.32
440.395	960.1
440.77	951.74
441.145	945.19
441.52	975.02
441.895	971.63
442.27	972.08
442.645	999.42
443.019	998.29
443.394	968.01
443.769	979.99
444.143	986.77
444.518	1003.26
444.892	1014.34
445.267	1031.06
445.641	1033.32
446.016	1016.37
446.39	1043.94
446.764	1037.61
447.139	1058.86
447.513	1092.08
447.887	1058.18
448.262	1046.43
448.636	1069.93
449.01	1064.51
449.384	1095.92
449.758	1084.17
450.132	1110.83
450.506	1128.69
450.88	1137.95
451.254	1126.2
451.628	1159.19
452.002	1165.07
452.376	1150.38
452.75	1184.95
453.123	1188.57
453.497	1192.64
453.871	1184.28
454.244	1191.51
454.618	1220.43
454.992	1235.35
455.365	1265.4
455.739	1259.3
456.112	1280.55
456.486	1291.39
456.859	1314.67
457.232	1325.97
457.606	1337.95
457.979	1341.56
458.352	1351.05
458.725	1381.33
459.099	1372.97
459.472	1381.56
459.845	1411.16
460.218	1440.77
460.591	1458.17
460.964	1471.95
461.337	1489.58
461.71	1478.05
462.083	1534.55
462.456	1535.45
462.829	1511.5
463.201	1552.85
463.574	1549.92
463.947	1585.4
464.32	1611.16
464.692	1599.18
465.065	1630.37
465.438	1683.25
465.81	1682.12
466.183	1727.99
466.555	1730.7
466.928	1761.21
467.3	1778.61
467.672	1807.09
468.045	1816.8
468.417	1840.3
468.789	1828.78
469.161	1859.97
469.534	1925.73
469.906	1941.09
470.278	1953.97
470.65	1985.16
471.022	2058.6
471.394	2041.66
471.766	2084.82
472.138	2093.18
472.51	2169.79
472.882	2188.77
473.253	2220.18
473.625	2236.45
473.997	2292.04
474.369	2321.2
474.74	2324.36
475.112	2393.06
475.484	2443.68
475.855	2483.9
476.227	2505.6
476.598	2596.22
476.97	2588.76
477.341	2651.81
477.713	2698.14
478.084	2711.02
478.455	2814.29
478.827	2800.51
479.198	2915.08
479.569	2887.51
479.94	2981.74
480.311	3021.06
480.682	3133.6
481.053	3186.71
481.424	3230.1
481.795	3279.59
482.166	3330.66
482.537	3388.51
482.908	3487.49
483.279	3539.92
483.65	3610.2
484.021	3699.24
484.391	3751.67
484.762	3792.57
485.133	3844.77
485.503	3883.87
485.874	3991.89
486.244	4020.81
486.615	4114.82
486.985	4189.85
487.356	4306.45
487.726	4288.6
488.097	4384.87
488.467	4458.77
488.837	4571.31
489.207	4611.98
489.578	4679.33
489.948	4669.61
490.318	4783.73
490.688	4819.44
491.058	4935.82
491.428	5020.33
491.798	5071.63
492.168	5116.38
492.538	5170.16
492.908	5246.99
493.278	5298.74
493.648	5371.74
494.017	5463.71
494.387	5466.2
494.757	5570.38
495.126	5630.94
495.496	5632.75
495.866	5731.95
496.235	5740.99
496.605	5840.65
496.974	5828.67
497.344	5901.89
497.713	5991.61
498.082	5984.6
498.452	6117.71
498.821	6114.09
499.19	6154.32
499.559	6268.89
499.928	6262.34
500.298	6308.21
500.667	6356.57
501.036	6360.41
501.405	6435.66
501.774	6491.48
502.143	6522.44
502.512	6548.2
502.88	6598.82
503.249	6661.87
503.618	6663.91
503.987	6707.3
504.356	6756.56
504.724	6799.27
505.093	6889.21
505.462	6923.56
505.83	6840.85
506.199	6956.55
506.567	7017.34
506.936	7022.99
507.304	7160.16
507.672	7132.59
508.041	7168.98
508.409	7189.09
508.777	7301.4
509.145	7382.31
509.514	7297.34
509.882	7409.2
510.25	7388.41
510.618	7460.95
510.986	7470.21
511.354	7497.33
511.722	7577.55
512.09	7683.77
512.458	7683.09
512.826	7694.39
513.193	7770.32
513.561	7769.41
513.929	7910.65
514.297	7904.33
514.664	7947.94
515.032	7959.92
515.4	8104.77
515.767	8085.11
516.135	8123.98
516.502	8058.9
516.869	8206.01
517.237	8232
517.604	8169.86
517.972	8264.32
518.339	8312.68
518.706	8298.44
519.073	8348.16
519.44	8425.89
519.808	8535.27
520.175	8518.77
520.542	8561.48
520.909	8647.13
521.276	8639
521.643	8687.58
522.009	8774.13
522.376	8797.18
522.743	8824.98
523.11	8982.72
523.477	8955.37
523.843	9033.11
524.21	9124.18
524.577	9142.94
524.943	9131.64
525.31	9220.9
525.676	9290.73
526.043	9358.75
526.409	9411.41
526.776	9489.6
527.142	9496.83
527.508	9587.22
527.874	9610.95
528.241	9693.43
528.607	9671.06
528.973	9800.55
529.339	9855.01
529.705	9882.58
530.071	9971.62
530.437	9987.44
530.803	10080.54
531.169	10106.98
531.535	10107.66
531.901	10181.1
532.267	10116.7
532.632	10225.17
532.998	10313.3
533.364	10367.09
533.73	10424.49
534.095	10462.68
534.461	10483.02
534.826	10525.27
535.192	10669.68
535.557	10679.39
535.923	10652.5
536.288	10747.19
536.653	10764.59
537.019	10801.2
537.384	10830.12
537.749	10956.45
538.114	10898.82
538.479	10918.03
538.845	11037.8
539.21	10984.25
539.575	11040.97
539.94	11169.1
540.305	11233.73
540.67	11201.87
541.034	11234.18
541.399	11267.85
541.764	11339.26
542.129	11360.73
542.494	11446.61
542.858	11458.58
543.223	11446.83
543.587	11565.92
543.952	11543.33
544.316	11704.68
544.681	11659.03
545.045	11760.04
545.41	11843.43
545.774	11858.35
546.138	11849.53
546.503	11886.37
546.867	11870.32
547.231	12070.09
547.595	12015.4
547.959	12027.38
548.324	12017.21
548.688	12157.77
549.052	12248.17
549.416	12197.32
549.779	12296.53
550.143	12355.28
550.507	12326.58
550.871	12449.74
551.235	12449.97
551.599	12487.26
551.962	12497.43
552.326	12598.67
552.689	12659
553.053	12608.61
553.417	12683.86
553.78	12813.58
554.143	12753.01
554.507	12831.65
554.87	12845.89
555.234	12973.12
555.597	12863.97
555.96	13026.68
556.323	13009.28
556.686	13044.98
557.05	13230.06
557.413	13146
557.776	13167.46
558.139	13257.86
558.502	13317.07
558.865	13369.04
559.228	13514.35
559.59	13473.67
559.953	13529.26
560.316	13668.69
560.679	13637.96
561.041	13698.52
561.404	13733.55
561.767	13796.15
562.129	13734.46
562.492	13923.15
562.854	13944.17
563.217	13861.68
563.579	13964.05
563.941	14081.34
564.304	14108
564.666	14236.59
565.028	14240.43
565.39	14304.84
565.753	14291.95
566.115	14353.65
566.477	14430.48
566.839	14475.9
567.201	14629.8
567.563	14522.68
567.925	14690.36
568.287	14692.62
568.648	14744.15
569.01	14789.34
569.372	14877.48
569.734	14964.03
570.095	14933.52
570.457	15072.73
570.819	15062.78
571.18	15211.03
571.542	15247.18
571.903	15290.12
572.265	15345.49
572.626	15367.18
572.987	15471.13
573.349	15521.07
573.71	15644.01
574.071	15696.44
574.432	15763.55
574.794	15818.24
575.155	15872.03
575.516	15880.16
575.877	16075.64
576.238	16130.1
576.599	16284.67
576.96	16309.98
577.32	16414.84
577.681	16640.59
578.042	16737.09
578.403	16734.83
578.763	16879.23
579.124	17014.59
579.485	17058.89
579.845	17322.38
580.206	17325.77
580.566	17526.45
580.927	17676.05
581.287	17886.66
581.648	17910.16
582.008	18141.12
582.368	18286.2
582.728	18512.18
583.089	18514.44
583.449	18775.9
583.809	19028.33
584.169	19249.56
584.529	19440.29
584.889	19819.72
585.249	19740.85
585.609	19880.73
585.969	20252.48
586.329	20456.76
586.688	20760.49
587.048	20909.63
587.408	21192.56
587.768	21465.78
588.127	21721.59
588.487	21886.11
588.846	22414.9
589.206	22512.76
589.565	22780.77
589.925	23286.52
590.284	23390.02
590.643	23815.77
591.003	24079.72
591.362	24468.64
591.721	24711.12
592.08	24960.37
592.44	25375.96
592.799	25682.84
593.158	26030.4
593.517	26363.28
593.876	26733.89
594.235	26901.34
594.593	27306.53
594.952	27652.06
595.311	27952.61
595.67	28195.09
596.029	28797.56
596.387	29054.28
596.746	29440.93
597.104	29576.75
597.463	29935.16
597.822	30303.06
598.18	30583.05
598.538	30960.89
598.897	31459.86
599.255	31564.95
599.613	32220.52
599.972	32330.58
600.33	32788.42
600.688	32987.06
601.046	33365.58
601.404	33807.15
601.762	34019.57
602.12	34373.23
602.478	34697.29
602.836	35013.9
603.194	35283.95
603.552	35593.09
603.91	35689.13
604.268	36214.32
604.625	36364.82
604.983	36828.76
605.341	36925.03
605.698	37420.61
606.056	37673.26
606.413	37925.91
606.771	38287.48
607.128	38665.78
607.485	38737.87
607.843	38916.62
608.2	39404.06
608.557	39613.32
608.914	39831.62
609.272	40237.04
609.629	40491.27
609.986	40854.65
610.343	40889
610.7	41304.13
611.057	41396.78
611.414	41549.54
611.771	41926.93
612.127	42131.9
612.484	42256.64
612.841	42613.24
613.198	42698.67
613.554	42806.46
613.911	43186.79
614.267	43415.03
614.624	43480.79
614.98	43679.2
615.337	44064.51
615.693	44121.68
616.05	44316.25
616.406	44604.38
616.762	44455.91
617.118	44793.75
617.475	44934.09
617.831	45061.54
618.187	45429.44
618.543	45524.35
618.899	45622.43
619.255	45805.93
619.611	46048.86
619.967	46172.92
620.323	46454.05
620.678	46339.25
621.034	46121.17
621.39	46473.48
621.746	46488.17
622.101	46946.46
622.457	46678.9
622.812	47002.28
623.168	47202.28
623.523	47300.8
623.879	47454.25
624.234	47298.77
624.589	47503.96
624.945	47489.5
625.3	47654.02
625.655	47656.05
626.01	47674.81
626.365	47880.22
626.72	47875.25
627.075	47785.31
627.43	47934.23
627.785	47877.51
628.14	48042.93
628.495	48232.53
628.85	48147.11
629.205	48079.09
629.559	48358.63
629.914	48280.67
630.269	48251.97
630.623	48236.15
630.978	48275.24
631.332	48365.64
631.687	48517.04
632.041	48280.89
632.396	48540.32
632.75	48450.6
633.104	48523.37
633.459	48412.41
633.813	48546.87
634.167	48512.75
634.521	48456.93
634.875	48514.56
635.229	48642.92
635.583	48401.34
635.937	48496.71
636.291	48478.63
636.645	48469.36
636.999	48476.82
637.352	48598.85
637.706	48359.53
638.06	48510.04
638.413	48487.67
638.767	48446.54
639.121	48527.66
639.474	48264.17
639.828	48309.37
640.181	48413.32
640.534	48256.26
640.888	48343.71
641.241	48132.87
641.594	48208.8
641.947	48467.55
642.301	48192.76
642.654	48353.21
643.007	48384.17
643.36	48346.2
643.713	48279.54
644.066	48434.11
644.419	48016.94
644.771	47943.95
645.124	47601.36
645.477	47531.31
645.83	47322.72
646.182	47340.13
646.535	47133.8
646.888	47236.17
647.24	46993.24
647.593	47312.33
647.945	47168.38
648.298	47033.01
648.65	47005.67
649.002	46906.92
649.355	47088.83
649.707	47016.52
650.059	47348.94
650.411	47658.08
650.763	47646.33
651.115	48020.56
651.467	47851.3
651.819	47887.23
652.171	47797.74
652.523	47757.52
652.875	47671.64
653.227	47608.82
653.578	47972.2
653.93	47830.06
654.282	47684.3
654.633	47480.91
654.985	47542.38
655.337	47624.86
655.688	47571.98
656.039	47847.23
656.391	47465.09
656.742	47550.97
657.094	47489.5
657.445	47673.68
657.796	47639.33
658.147	47495.83
658.498	47558.65
658.849	47612.66
659.2	47484.98
659.551	47443.63
659.902	47647.46
660.253	47381.03
660.604	47566.11
660.955	47339.22
661.306	47527.24
661.656	47317.3
662.007	47530.4
662.358	47468.03
662.708	47460.12
663.059	47452.44
663.409	47207.02
663.76	47583.96
664.11	47558.2
664.461	47439.33
664.811	47511.65
665.161	47450.18
665.511	47215.61
665.862	47384.87
666.212	47406.79
666.562	47426.9
666.912	47377.64
667.262	47342.61
667.612	47338.32
667.962	47383.97
668.312	47369.5
668.662	47476.17
669.011	47342.16
669.361	47282.95
669.711	47209.06
670.06	47084.76
670.41	47179.68
670.76	47080.02
671.109	47287.02
671.459	47126.35
671.808	47125.89
672.157	47189.62
672.507	46922.06
672.856	46987.59
673.205	47171.99
673.554	47191.65
673.904	47034.6
674.253	47242.27
674.602	47171.09
674.951	46589.41
675.3	46477.32
675.649	47041.38
675.998	46869.86
676.346	46944.66
676.695	47075.5
677.044	46775.39
677.393	46941.04
677.741	46985.56
678.09	46793.92
678.438	46788.05
678.787	46818.78
679.135	46851.1
679.484	46546.25
679.832	46780.37
680.181	46317.33
680.529	46614.72
680.877	46500.83
681.225	46353.26
681.573	46629.64
681.922	46333.82
682.27	46144.45
682.618	46261.28
682.966	46238.01
683.314	46123.43
683.661	46134.51
684.009	45875.31
684.357	45932.03
684.705	45880.28
685.053	45920.95
685.4	45787.17
685.748	45609.55
686.095	45636.44
686.443	45372.27
686.79	45462.43
687.138	45386.28
687.485	45468.99
687.832	45381.31
688.18	45324.13
688.527	45146.51
688.874	45105.83
689.221	45048.66
689.568	45078.26
689.915	44827.2
690.262	44913.07
690.609	44702.45
690.956	44554.44
691.303	44601.44
691.65	44427.43
691.997	44434.21
692.344	44153.99
692.69	44127.55
693.037	44254.33
693.383	43816.6
693.73	44055.47
694.077	43725.31
694.423	43682.14
694.769	43537.51
695.116	43567.12
695.462	43439.89
695.808	43207.13
696.155	43475.14
696.501	43098.2
696.847	43037.19
697.193	42819.11
697.539	42964.87
697.885	42698.44
698.231	42643.98
698.577	42499.8
698.923	42631.32
699.269	42375.51
699.614	42148.4
699.96	42091.9
700.306	42024.78
700.651	41978.01
700.997	41777.56
701.342	41789.76
701.688	41782.98
702.033	41745.92
702.379	41604.23
702.724	41433.84
703.069	41465.93
703.415	41056
703.76	41076.56
704.105	41015.32
704.45	40916.79
704.795	40812.61
705.14	40653.3
705.485	40576.24
705.83	40382.79
706.175	40435.9
706.52	40371.95
706.865	40262.8
707.209	40294.66
707.554	40043.82
707.899	40181.9
708.243	39871.85
708.588	39996.82
708.932	39686.09
709.277	39727.44
709.621	39760.21
709.966	39363.16
710.31	39598.63
710.654	39276.38
710.998	39340.34
711.342	39426.44
711.687	39201.58
712.031	38981.48
712.375	38943.96
712.719	39007.69
713.063	38927.01
713.407	39143.28
713.75	38702.16
714.094	38783.51
714.438	38608.83
714.782	38639.56
715.125	38425.11
715.469	38429.63
715.812	38331.77
716.156	38135.4
716.499	38222.17
716.843	38189.41
717.186	37986.47
717.53	38151.89
717.873	37986.25
718.216	37948.96
718.559	37740.15
718.902	37494.96
719.246	37531.8
719.589	37367.51
719.932	37314.85
720.275	37396.88
720.617	37252.03
720.96	37221.07
721.303	37320.95
721.646	37262.88
721.989	36998.48
722.331	37055.42
722.674	37072.82
723.016	37061.75
723.359	36939.49
723.701	36982.43
724.044	36682.33
724.386	36574.76
724.729	36853.85
725.071	36580.86
725.413	36631.93
725.755	36604.14
726.097	36377.7
726.439	36298.16
726.782	36277.37
727.124	36268.55
727.465	36015.9
727.807	36152.4
728.149	36178.16
728.491	36059.74
728.833	36033.3
729.175	35860.65
729.516	35773.65
729.858	35952.18
730.199	35749.24
730.541	35789.69
730.882	35601.45
731.224	35783.82
731.565	35450.04
731.906	35579.53
732.248	35537.27
732.589	35394.45
732.93	35246.66
733.271	35334.34
733.612	35280.1
733.953	35313.55
734.294	35274
734.635	34949.26
734.976	35160.78
735.317	34932.09
735.658	34982.48
735.999	34973.44
736.339	34900.45
736.68	35019.32
737.021	34759.21
737.361	34659.55
737.702	34836.73
738.042	34707.46
738.383	34635.83
738.723	34721.02
739.063	34460.69
739.404	34646.45
739.744	34549.28
740.084	34390.41
740.424	34440.8
740.764	34274.71
741.104	34507.47
741.444	34092.56
741.784	34039.46
742.124	34134.6
742.464	34039.68
742.804	33995.62
743.143	34046.24
743.483	34007.82
743.823	33845.34
744.162	33809.41
744.502	33818.22
744.841	33662.29
745.181	33815.51
745.52	33490.77
745.86	33745.68
746.199	33568.74
746.538	33538
746.877	33579.36
747.216	33582.75
747.556	33530.54
747.895	33494.16
748.234	33341.17
748.573	33250.1
748.911	33223.21
749.25	33336.65
749.589	33129.88
749.928	33137.56
750.267	33162.42
750.605	33149.99
750.944	33025.25
751.283	32901.86
751.621	33074.29
751.96	32981.41
752.298	32733.5
752.636	32788.42
752.975	32620.74
753.313	32527.63
753.651	32651.25
753.989	32522.66
754.327	32460.06
754.666	32239.51
755.004	32342.78
755.342	32278.15
755.679	32187.3
756.017	32112.28
756.355	32123.58
756.693	31926.29
757.031	32160.86
757.368	31853.3
