Data from hue_120_FLMS001491_00020.txt Node
Date: Tue Feb 07 16:59:01 GMT 2017
User: dcchb
Spectrometer: FLMS00149
Trigger mode: 0
Integration Time (sec): 2.000000E-2
Scans to average: 10
Electric dark correction enabled: true
Nonlinearity correction enabled: false
Boxcar width: 0
XAxis mode: Wavelengths
Number of Pixels in Spectrum: 2048
>>>>>Begin Spectral Data<<<<<
341.393	-10.88
341.776	-10.88
342.16	-10.88
342.543	-49.29
342.927	-67.82
343.31	-83.87
343.693	-76.18
344.077	-57.65
344.46	-23.53
344.843	-47.71
345.226	-52
345.61	-29.18
345.993	-15.85
346.376	-0.48
346.759	-2.51
347.142	18.95
347.525	49.46
347.908	72.29
348.291	59.18
348.674	93.75
349.057	95.34
349.44	124.49
349.823	145.5
350.206	190.02
350.588	201.1
350.971	206.75
351.354	233.41
351.737	245.39
352.119	245.39
352.502	263.92
352.884	265.73
353.267	277.25
353.65	282.45
354.032	310.47
354.414	310.47
354.797	327.87
355.179	322
355.562	330.13
355.944	331.71
356.326	320.87
356.709	352.28
357.091	325.61
357.473	355.89
357.855	344.37
358.238	344.37
358.62	345.27
359.002	351.15
359.384	343.01
359.766	336.46
360.148	338.72
360.53	341.21
360.912	354.76
361.294	341.43
361.676	327.65
362.057	326.97
362.439	327.42
362.821	333.97
363.203	327.19
363.584	324.48
363.966	314.09
364.348	328.1
364.729	331.26
365.111	316.12
365.493	325.84
365.874	310.02
366.256	306.4
366.637	335.33
367.019	315.44
367.4	317.93
367.781	318.38
368.163	327.19
368.544	316.35
368.925	302.56
369.306	329.91
369.688	319.29
370.069	318.83
370.45	336.69
370.831	316.57
371.212	317.48
371.593	335.33
371.974	304.6
372.355	313.86
372.736	334.2
373.117	338.27
373.498	321.32
373.879	318.38
374.26	300.75
374.641	315.44
375.021	307.99
375.402	307.08
375.783	355.22
376.163	339.85
376.544	315.67
376.925	334.88
377.305	335.56
377.686	319.29
378.066	318.16
378.447	318.83
378.827	330.13
379.208	332.84
379.588	336.01
379.968	326.52
380.349	336.23
380.729	364.03
381.109	337.14
381.489	339.85
381.87	331.71
382.25	327.42
382.63	338.72
383.01	348.66
383.39	340.98
383.77	356.8
384.15	353.63
384.53	366.97
384.91	354.54
385.29	357.25
385.67	369.68
386.049	352.73
386.429	365.39
386.809	356.35
387.189	368.1
387.568	356.12
387.948	379.4
388.328	385.72
388.707	366.06
389.087	353.18
389.466	354.31
389.846	381.2
390.225	366.52
390.605	382.33
390.984	372.39
391.363	374.2
391.743	370.36
392.122	386.63
392.501	389.34
392.881	380.98
393.26	386.63
393.639	378.94
394.018	385.27
394.397	361.32
394.776	373.97
395.155	416.23
395.534	402.9
395.913	387.76
396.292	402
396.671	387.53
397.05	402
397.429	402
397.808	425.72
398.186	421.66
398.565	396.35
398.944	433.18
399.323	416.23
399.701	415.55
400.08	415.33
400.458	395.89
400.837	413.07
401.215	427.53
401.594	442.22
401.972	412.84
402.351	427.53
402.729	422.33
403.107	436.8
403.486	407.64
403.864	445.38
404.242	435.67
404.62	428.44
404.999	438.6
405.377	416.23
405.755	438.15
406.133	459.17
406.511	438.38
406.889	475.44
407.267	462.33
407.645	456.68
408.023	467.76
408.401	444.25
408.779	463.46
409.156	473.63
409.534	470.24
409.912	493.52
410.29	473.63
410.667	476.12
411.045	491.48
411.422	463.46
411.8	481.99
412.178	502.33
412.555	489.9
412.933	511.82
413.31	513.18
413.687	509.56
414.065	508.43
414.442	512.95
414.819	523.12
415.197	502.11
415.574	527.64
415.951	521.99
416.328	534.87
416.705	529.9
417.082	540.75
417.46	552.95
417.837	540.52
418.214	550.92
418.591	562.89
418.967	547.53
419.344	552.27
419.721	569.45
420.098	553.4
420.475	579.62
420.852	587.98
421.228	585.95
421.605	580.52
421.982	575.32
422.358	606.96
422.735	589.33
423.111	597.7
423.488	607.64
423.864	625.94
424.241	626.85
424.617	600.63
424.994	623.46
425.37	616.45
425.746	619.39
426.123	631.82
426.499	649.9
426.875	645.15
427.251	662.1
427.627	626.17
428.003	644.02
428.379	641.99
428.756	650.8
429.132	668.65
429.507	702.55
429.883	710.69
430.259	683.57
430.635	690.12
431.011	707.3
431.387	702.33
431.763	714.08
432.138	734.19
432.514	734.87
432.89	743
433.265	770.57
433.641	723.79
434.016	773.74
434.392	747.07
434.767	772.15
435.143	760.86
435.518	799.27
435.894	785.04
436.269	810.8
436.644	811.7
437.02	827.52
437.395	811.25
437.77	818.26
438.145	826.16
438.52	844.92
438.895	846.5
439.271	841.08
439.646	867.29
440.021	887.86
440.395	867.75
440.77	863.45
441.145	884.24
441.52	879.95
441.895	915.65
442.27	885.6
442.645	898.71
443.019	906.84
443.394	907.52
443.769	917.91
444.143	931.92
444.518	943.68
444.892	944.13
445.267	938.48
445.641	958.82
446.016	956.78
446.39	961.53
446.764	1004.69
447.139	986.61
447.513	1004.92
447.887	984.35
448.262	1010.11
448.636	992.26
449.01	1002.43
449.384	1013.05
449.758	1015.76
450.132	1032.26
450.506	1055.54
450.88	1048.98
451.254	1020.06
451.628	1077.01
452.002	1051.24
452.376	1076.1
452.75	1079.94
453.123	1061.86
453.497	1124.46
453.871	1111.81
454.244	1142.31
454.618	1142.31
454.992	1160.17
455.365	1184.8
455.739	1176.21
456.112	1183.9
456.486	1207.85
456.859	1234.06
457.232	1234.97
457.606	1246.04
457.979	1305.47
458.352	1263.89
458.725	1287.4
459.099	1302.08
459.472	1329.43
459.845	1336.89
460.218	1366.49
460.591	1350.67
460.964	1379.82
461.337	1413.72
461.71	1433.83
462.083	1436.32
462.456	1460.5
462.829	1452.14
463.201	1464.57
463.574	1497.11
463.947	1527.39
464.32	1557.9
464.692	1564
465.065	1594.28
465.438	1606.03
465.81	1607.16
466.183	1690.1
466.555	1653.94
466.928	1675.41
467.3	1735.52
467.672	1735.29
468.045	1834.05
468.417	1807.83
468.789	1818
469.161	1892.13
469.534	1898.68
469.906	1939.58
470.278	1944.55
470.65	1994.95
471.022	2028.39
471.394	2073.14
471.766	2093.25
472.138	2152.23
472.51	2201.5
472.882	2279.91
473.253	2279.46
473.625	2332.57
473.997	2371.43
474.369	2402.39
474.74	2469.29
475.112	2525.33
475.484	2552.67
475.855	2645.55
476.227	2667.7
476.598	2766.68
476.97	2793.34
477.341	2911.53
477.713	2933.91
478.084	3010.29
478.455	3135.48
478.827	3175.26
479.198	3257.29
479.569	3348.13
479.94	3419.54
480.311	3511.07
480.682	3621.35
481.053	3732.08
481.424	3803.26
481.795	3863.6
482.166	3979.53
482.537	4098.62
482.908	4192.4
483.279	4313.08
483.65	4389.46
484.021	4528.89
484.391	4645.95
484.762	4706.74
485.133	4869.22
485.503	4934.98
485.874	5139.5
486.244	5248.42
486.615	5380.62
486.985	5440.51
487.356	5660.84
487.726	5816.77
488.097	5954.17
488.467	5991.68
488.837	6177.89
489.207	6345.57
489.578	6457.2
489.948	6583.98
490.318	6734.71
490.688	6843.18
491.058	7053.8
491.428	7158.88
491.798	7240.91
492.168	7498.08
492.538	7578.53
492.908	7720.67
493.278	7951.63
493.648	7993.89
494.017	8185.52
494.387	8367.89
494.757	8456.47
495.126	8583.93
495.496	8671.83
495.866	8802.23
496.235	8956.12
496.605	9108.66
496.974	9188.66
497.344	9344.58
497.713	9469.33
498.082	9596.56
498.452	9656.44
498.821	9820.5
499.19	9901.18
499.559	10036.32
499.928	10124.23
500.298	10298.23
500.667	10396.53
501.036	10430.43
501.405	10585.46
501.774	10593.82
502.143	10831.78
502.512	10778.67
502.88	10975.05
503.249	10973.24
503.618	11153.58
503.987	11201.71
504.356	11363.29
504.724	11428.37
505.093	11458.88
505.462	11610.97
505.83	11617.97
506.199	11744.75
506.567	11856.16
506.936	11921.69
507.304	11993.1
507.672	12086.89
508.041	12045.53
508.409	12252.76
508.777	12385.41
509.145	12444.39
509.514	12525.29
509.882	12575.46
510.25	12577.04
510.618	12680.32
510.986	12720.54
511.354	12946.3
511.722	12926.19
512.09	13025.17
512.458	12971.61
512.826	13137.93
513.193	13173.64
513.561	13124.37
513.929	13262.9
514.297	13320.75
514.664	13396.68
515.032	13367.08
515.4	13565.72
515.767	13609.11
516.135	13652.27
516.502	13557.58
516.869	13719.39
517.237	13704.92
517.604	13773.39
517.972	13873.05
518.339	13864.92
518.706	13984.46
519.073	14008.42
519.44	13917.12
519.808	14095.19
520.175	14068.98
520.542	14201.41
520.909	14242.76
521.276	14160.96
521.643	14309.43
522.009	14359.37
522.376	14377.45
522.743	14392.36
523.11	14520.72
523.477	14551.68
523.843	14653.37
524.21	14717.1
524.577	14766.36
524.943	14743.31
525.31	14836.64
525.676	14880.03
526.043	14978.79
526.409	14961.61
526.776	15013.14
527.142	15009.75
527.508	15061.27
527.874	15171.32
528.241	15139.23
528.607	15041.61
528.973	15162.06
529.339	15144.88
529.705	15181.72
530.071	15277.08
530.437	15317.76
530.803	15245.67
531.169	15340.36
531.535	15250.19
531.901	15187.37
532.267	15322.96
532.632	15303.75
532.998	15277.54
533.364	15338.78
533.73	15332.45
534.095	15357.99
534.461	15360.02
534.826	15359.57
535.192	15313.47
535.557	15392.56
535.923	15331.32
536.288	15342.39
536.653	15365.44
537.019	15176.52
537.384	15155.73
537.749	15313.69
538.114	15196.41
538.479	15124.55
538.845	15119.12
539.21	15114.38
539.575	15106.47
539.94	14998.22
540.305	15053.14
540.67	15143.98
541.034	15042.29
541.399	15042.06
541.764	15043.19
542.129	15051.55
542.494	14991.44
542.858	14967.94
543.223	14931.1
543.587	15039.35
543.952	14863.76
544.316	14904.21
544.681	14733.82
545.045	14792.8
545.41	14787.15
545.774	14806.36
546.138	14719.36
546.503	14687.27
546.867	14622.41
547.231	14672.58
547.595	14716.65
547.959	14694.27
548.324	14590.32
548.688	14603.66
549.052	14587.61
549.416	14521.62
549.779	14571.11
550.143	14453.38
550.507	14539.48
550.871	14485.47
551.235	14461.51
551.599	14482.53
551.962	14384.68
552.326	14391.46
552.689	14341.06
553.053	14264.68
553.417	14250.67
553.78	14422.64
554.143	14316.43
554.507	14232.59
554.87	14280.95
555.234	14411.34
555.597	14263.33
555.96	14296.32
556.323	14234.4
556.686	14236.21
557.05	14260.61
557.413	14299.48
557.776	14258.35
558.139	14314.4
558.502	14254.96
558.865	14152.82
559.228	14308.07
559.59	14285.92
559.953	14238.02
560.316	14365.02
560.679	14230.33
561.041	14303.78
561.404	14315.98
561.767	14421.29
562.129	14277.11
562.492	14473.49
562.854	14418.58
563.217	14381.74
563.579	14335.19
563.941	14362.76
564.304	14445.69
564.666	14490.21
565.028	14415.64
565.39	14389.42
565.753	14502.42
566.115	14516.43
566.477	14486.37
566.839	14517.56
567.201	14568.85
567.563	14509.87
567.925	14645.46
568.287	14520.49
568.648	14527.27
569.01	14748.06
569.372	14740.83
569.734	14591.68
570.095	14658.8
570.457	14717.78
570.819	14716.65
571.18	14746.7
571.542	14808.4
571.903	14811.79
572.265	14851.56
572.626	14862.63
572.987	14835.97
573.349	14886.36
573.71	14915.06
574.071	14928.62
574.432	14934.27
574.794	15036.41
575.155	14965.23
575.516	14846.81
575.877	14991.44
576.238	14904.21
576.599	14936.98
576.96	14945.34
577.32	14920.26
577.681	15038.22
578.042	15019.69
578.403	15047.49
578.763	14947.38
579.124	14998.45
579.485	15077.99
579.845	15068.5
580.206	15027.15
580.566	14976.98
580.927	14992.12
581.287	15132.46
581.648	15032.12
582.008	15036.19
582.368	15010.88
582.728	15058.11
583.089	15030.31
583.449	15019.69
583.809	15082.06
584.169	15033.47
584.529	15107.37
584.889	15076.41
585.249	15009.29
585.609	14959.35
585.969	15022.4
586.329	14852.01
586.688	14926.81
587.048	14860.82
587.408	14851.11
587.768	14878.45
588.127	14787.38
588.487	14827.6
588.846	14942.63
589.206	14865.34
589.565	14844.1
589.925	14884.55
590.284	14823.31
590.643	14864.21
591.003	14975.62
591.362	14867.83
591.721	14795.74
592.08	14765.91
592.44	14876.64
592.799	14861.05
593.158	14804.1
593.517	14895.85
593.876	14856.08
594.235	14822.41
594.593	14755.06
594.952	14824.89
595.311	14713.94
595.67	14738.79
596.029	14820.37
596.387	14816.98
596.746	14900.14
597.104	14675.74
597.463	14803.65
597.822	14714.61
598.18	14734.73
598.538	14733.14
598.897	14823.54
599.255	14589.42
599.613	14880.94
599.972	14752.8
600.33	14758.91
600.688	14741.73
601.046	14913.93
601.404	14738.57
601.762	14816.08
602.12	14853.37
602.478	14879.58
602.836	14887.04
603.194	14804.33
603.552	14767.72
603.91	14788.06
604.268	14807.49
604.625	14798
604.983	14875.29
605.341	14756.19
605.698	14830.77
606.056	14763.43
606.413	14864.89
606.771	14890.65
607.128	14903.99
607.485	14759.58
607.843	14830.77
608.2	14890.65
608.557	14927.71
608.914	14899.02
609.272	14859.47
609.629	14938.79
609.986	14924.55
610.343	14925.46
610.7	14979.24
611.057	14883.65
611.414	14923.42
611.771	14909.64
612.127	15028.05
612.484	15005.45
612.841	15038.45
613.198	15015.62
613.554	15046.81
613.911	15017.88
614.267	14992.57
614.624	15055.85
614.98	15021.72
615.337	15139.69
615.693	15054.94
616.05	15062.17
616.406	15190.76
616.762	15080.03
617.118	15161.38
617.475	15134.49
617.831	15142.17
618.187	15173.13
618.543	15150.31
618.899	15251.1
619.255	15113.25
619.611	15193.47
619.967	15244.32
620.323	15256.52
620.678	15219.23
621.034	15201.38
621.39	15205.9
621.746	15240.7
622.101	15404.54
622.457	15226.01
622.812	15248.84
623.168	15305.78
623.523	15248.61
623.879	15315.73
624.234	15205.67
624.589	15304.43
624.945	15244.32
625.3	15227.59
625.655	15260.14
626.01	15227.82
626.365	15291.1
626.72	15247.71
627.075	15270.53
627.43	15181.95
627.785	15154.15
628.14	15222.85
628.495	15336.74
628.85	15200.7
629.205	15141.95
629.559	15258.33
629.914	15202.28
630.269	15200.02
630.623	15130.65
630.978	15048.62
631.332	15117.54
631.687	15186.24
632.041	15081.61
632.396	15091.1
632.75	15052.91
633.104	15153.47
633.459	14953.48
633.813	15050.88
634.167	14973.59
634.521	14980.37
634.875	15059.01
635.229	15023.31
635.583	14941.27
635.937	14913.93
636.291	14911.67
636.645	14849.52
636.999	14859.02
637.352	14971.33
637.706	14788.28
638.06	14889.07
638.413	14788.74
638.767	14792.13
639.121	14889.07
639.474	14751.9
639.828	14641.17
640.181	14748.96
640.534	14718
640.888	14736.08
641.241	14591.23
641.594	14639.13
641.947	14699.92
642.301	14679.81
642.654	14665.12
643.007	14689.53
643.36	14666.7
643.713	14601.4
644.066	14727.49
644.419	14505.13
644.771	14451.12
645.124	14311.23
645.477	14300.16
645.83	14151.01
646.182	14213.61
646.535	14085.93
646.888	14126.83
647.24	14111.69
647.593	14141.29
647.945	14062.65
648.298	14068.08
648.65	13963.67
649.002	13982.2
649.355	14150.56
649.707	14067.62
650.059	14167.06
650.411	14303.78
650.763	14277.79
651.115	14358.69
651.467	14352.36
651.819	14447.28
652.171	14409.08
652.523	14342.65
652.875	14366.83
653.227	14372.02
653.578	14413.83
653.93	14366.83
654.282	14304
654.633	14256.32
654.985	14354.4
655.337	14348.07
655.688	14334.28
656.039	14406.82
656.391	14258.35
656.742	14294.96
657.094	14383.77
657.445	14414.28
657.796	14413.38
658.147	14431
658.498	14376.77
658.849	14334.28
659.2	14391.91
659.551	14318.47
659.902	14376.99
660.253	14331.8
660.604	14397.11
660.955	14296.77
661.306	14409.54
661.656	14390.33
662.007	14416.77
662.358	14408.63
662.708	14441.63
663.059	14424
663.409	14354.4
663.76	14431
664.11	14439.37
664.461	14349.2
664.811	14454.96
665.161	14415.19
665.511	14406.15
665.862	14374.74
666.212	14375.86
666.562	14428.29
666.912	14459.7
667.262	14356.88
667.612	14411.8
667.962	14374.06
668.312	14325.7
668.662	14478.69
669.011	14409.31
669.361	14431
669.711	14364.79
670.06	14435.98
670.41	14321.4
670.76	14332.93
671.109	14384.9
671.459	14353.94
671.808	14318.01
672.157	14414.51
672.507	14328.86
672.856	14339.93
673.205	14300.84
673.554	14344
673.904	14304
674.253	14314.4
674.602	14237.56
674.951	14041.41
675.3	13981.98
675.649	14230.56
675.998	14122.76
676.346	14215.87
676.695	14219.94
677.044	14137.68
677.393	14134.97
677.741	14222.2
678.09	14171.8
678.438	14069.66
678.787	14101.07
679.135	14077.12
679.484	13913.05
679.832	13998.25
680.181	13906.5
680.529	14053.84
680.877	13974.75
681.225	13955.76
681.573	13920.96
681.922	13937.01
682.27	13907.85
682.618	13842.09
682.966	13773.62
683.314	13822.89
683.661	13707.41
684.009	13670.12
684.357	13767.75
684.705	13734.98
685.053	13627.41
685.4	13701.98
685.748	13569.33
686.095	13628.09
686.443	13470.58
686.79	13506.51
687.138	13484.81
687.485	13421.99
687.832	13442.78
688.18	13439.17
688.527	13336.34
688.874	13376.57
689.221	13223.35
689.568	13287.31
689.915	13239.62
690.262	13218.61
690.609	13169.79
690.956	13155.56
691.303	13052.51
691.65	13010.48
691.997	12989.69
692.344	12991.95
692.69	12962.34
693.037	12901.78
693.383	12814.1
693.73	12923.02
694.077	12814.32
694.423	12769.58
694.769	12668.34
695.116	12683.03
695.462	12601.45
695.808	12651.16
696.155	12606.65
696.501	12467.44
696.847	12518.96
697.193	12402.81
697.539	12473.09
697.885	12324.62
698.231	12283.26
698.577	12228.12
698.923	12235.58
699.269	12151.97
699.614	12087.11
699.96	12017.96
700.306	12060.22
700.651	11955.36
700.997	11928.7
701.342	11838.98
701.688	11845.08
702.033	11763.28
702.379	11832.43
702.724	11701.36
703.069	11759.44
703.415	11636.05
703.76	11597.18
704.105	11524.19
704.45	11582.49
704.795	11434.02
705.14	11439.22
705.485	11519.44
705.83	11448.26
706.175	11390.63
706.52	11369.84
706.865	11274.25
707.209	11273.57
707.554	11311.31
707.899	11237.87
708.243	11153.12
708.588	11152.67
708.932	11108.38
709.277	11036.74
709.621	11075.61
709.966	10984.54
710.31	11098.21
710.654	10935.28
710.998	10933.47
711.342	10867.03
711.687	10907.26
712.031	10792.46
712.375	10813.92
712.719	10851.44
713.063	10756.75
713.407	10829.07
713.75	10726.92
714.094	10708.16
714.438	10714.04
714.782	10693.7
715.125	10629.3
715.469	10642.4
715.812	10649.64
716.156	10572.12
716.499	10570.09
716.843	10526.7
717.186	10514.95
717.53	10603.31
717.873	10529.19
718.216	10496.87
718.559	10497.1
718.902	10407.38
719.246	10415.74
719.589	10422.07
719.932	10361.28
720.275	10444.44
720.617	10376.87
720.96	10413.26
721.303	10386.59
721.646	10343.2
721.989	10237.89
722.331	10289.87
722.674	10320.6
723.016	10287.16
723.359	10307.95
723.701	10285.35
724.044	10171.23
724.386	10233.15
724.729	10227.05
725.071	10246.48
725.413	10241.96
725.755	10239.02
726.097	10200.61
726.439	10100.5
726.782	10133.94
727.124	10202.87
727.465	10152.7
727.807	10100.5
728.149	10088.52
728.491	10053.27
728.833	10063.21
729.175	10067.05
729.516	10055.53
729.858	10039.26
730.199	10081.29
730.541	10082.64
730.882	10021.63
731.224	10075.87
731.565	9998.8
731.906	10037.67
732.248	10084.9
732.589	10044.45
732.93	9973.04
733.271	10051.23
733.612	9987.51
733.953	10017.56
734.294	9966.26
734.635	10051.91
734.976	10015.98
735.317	9956.09
735.658	9928.07
735.999	9987.73
736.339	10009.65
736.68	9992.48
737.021	9957
737.361	9994.06
737.702	10034.96
738.042	9972.36
738.383	9990.44
738.723	9966.49
739.063	10015.08
739.404	10026.83
739.744	10018.47
740.084	9963.33
740.424	9997.22
740.764	10094.62
741.104	10107.5
741.444	9995.64
741.784	10004.45
742.124	10052.59
742.464	10089.2
742.804	10097.79
743.143	10105.69
743.483	10183.21
743.823	10194.51
744.162	10234.73
744.502	10232.7
744.841	10261.85
745.181	10271.11
745.52	10314.95
745.86	10361.96
746.199	10371.68
746.538	10408.74
746.877	10462.07
747.216	10568.96
747.556	10518.11
747.895	10576.42
748.234	10583.2
748.573	10676.08
748.911	10710.65
749.25	10719.24
749.589	10821.83
749.928	10879.91
750.267	10939.35
750.605	11116.97
750.944	11083.3
751.283	11081.94
751.621	11221.82
751.96	11337.53
752.298	11335.04
752.636	11472.66
752.975	11535.26
753.313	11614.58
753.651	11769.15
753.989	11765.09
754.327	11904.29
754.666	11940.9
755.004	12136.83
755.342	12326.2
755.679	12396.93
756.017	12472.41
756.355	12632.18
756.693	12790.82
