Data from hue_120_FLMS001491_00032.txt Node
Date: Tue Feb 07 16:59:16 GMT 2017
User: dcchb
Spectrometer: FLMS00149
Trigger mode: 0
Integration Time (sec): 2.000000E-2
Scans to average: 10
Electric dark correction enabled: true
Nonlinearity correction enabled: false
Boxcar width: 0
XAxis mode: Wavelengths
Number of Pixels in Spectrum: 2048
>>>>>Begin Spectral Data<<<<<
341.393	-8.53
341.776	-8.53
342.16	-8.53
342.543	-49.21
342.927	-74.07
343.31	-72.03
343.693	-93.05
344.077	-68.87
344.46	-49.21
344.843	-70.9
345.226	-29.55
345.61	-30.23
345.993	-9.89
346.376	-12.82
346.759	30.56
347.142	25.14
347.525	27.85
347.908	68.53
348.291	68.76
348.674	97.91
349.057	117.79
349.44	132.03
349.823	123.44
350.206	176.78
350.588	188.53
350.971	192.14
351.354	224.23
351.737	223.55
352.119	243.21
352.502	268.3
352.884	263.78
353.267	274.4
353.65	306.04
354.032	318.24
354.414	302.87
354.797	315.98
355.179	328.86
355.562	327.05
355.944	356.66
356.326	340.39
356.709	337.9
357.091	341.29
357.473	345.36
357.855	331.35
358.238	351.46
358.62	338.8
359.002	318.24
359.384	335.87
359.766	337.22
360.148	355.53
360.53	346.71
360.912	323.89
361.294	348.97
361.676	368.41
362.057	358.24
362.439	344.68
362.821	358.47
363.203	318.24
363.584	313.04
363.966	323.89
364.348	322.76
364.729	322.53
365.111	324.57
365.493	317.34
365.874	316.88
366.256	301.29
366.637	327.96
367.019	319.82
367.4	349.43
367.781	326.15
368.163	314.4
368.544	325.25
368.925	308.3
369.306	321.63
369.688	318.01
370.069	320.5
370.45	308.3
370.831	309.88
371.212	331.8
371.593	329.77
371.974	316.43
372.355	312.14
372.736	318.69
373.117	312.36
373.498	336.54
373.879	320.05
374.26	300.84
374.641	319.37
375.021	317.56
375.402	336.54
375.783	355.98
376.163	346.26
376.544	330.9
376.925	323.44
377.305	323.89
377.686	325.47
378.066	329.99
378.447	341.29
378.827	337.45
379.208	321.86
379.588	327.28
379.968	326.15
380.349	336.54
380.729	337.45
381.109	344.23
381.489	347.62
381.87	331.35
382.25	352.59
382.63	331.12
383.01	353.04
383.39	366.83
383.77	348.52
384.15	342.65
384.53	357.34
384.91	338.8
385.29	352.14
385.67	346.49
386.049	357.11
386.429	355.98
386.809	346.94
387.189	380.39
387.568	382.42
387.948	363.44
388.328	347.62
388.707	363.66
389.087	378.58
389.466	382.87
389.846	378.13
390.225	377.67
390.605	388.07
390.984	374.06
391.363	385.58
391.743	366.37
392.122	391.68
392.501	399.14
392.881	419.48
393.26	369.54
393.639	400.95
394.018	388.29
394.397	395.75
394.776	384
395.155	405.47
395.534	400.27
395.913	373.61
396.292	413.83
396.671	428.75
397.05	403.44
397.429	395.3
397.808	416.32
398.186	393.27
398.565	407.73
398.944	411.57
399.323	413.15
399.701	415.64
400.08	392.36
400.458	409.09
400.837	425.81
401.215	427.84
401.594	416.77
401.972	421.29
402.351	426.71
402.729	431.68
403.107	443.21
403.486	449.31
403.864	429.88
404.242	424.9
404.62	428.75
404.999	423.1
405.377	451.57
405.755	445.24
406.133	440.04
406.511	433.72
406.889	450.44
407.267	450.89
407.645	461.97
408.023	458.12
408.401	454.96
408.779	455.19
409.156	490.67
409.534	475.3
409.912	475.52
410.29	473.72
410.667	472.13
411.045	484.56
411.422	493.83
411.8	493.15
412.178	493.15
412.555	497.44
412.933	490.67
413.31	491.79
413.687	521.62
414.065	489.76
414.442	507.84
414.819	514.17
415.197	513.72
415.574	518.46
415.951	547.61
416.328	551
416.705	527.05
417.082	531.12
417.46	528.4
417.837	544.67
418.214	540.61
418.591	548.52
418.967	588.97
419.344	555.52
419.721	558.46
420.098	559.82
420.475	555.52
420.852	560.49
421.228	573.83
421.605	583.09
421.982	585.13
422.358	593.94
422.735	583.77
423.111	610.89
423.488	615.18
423.864	612.7
424.241	610.21
424.617	614.5
424.994	597.1
425.37	603.2
425.746	611.11
426.123	631.45
426.499	608.85
426.875	637.55
427.251	623.32
427.627	649.98
428.003	647.27
428.379	665.58
428.756	675.29
429.132	672.36
429.507	688.4
429.883	684.78
430.259	694.95
430.635	665.58
431.011	672.81
431.387	683.43
431.763	701.96
432.138	702.86
432.514	724.33
432.89	728.4
433.265	750.09
433.641	733.37
434.016	741.51
434.392	750.77
434.767	761.39
435.143	783.09
435.518	777.89
435.894	804.1
436.269	786.7
436.644	779.92
437.02	802.3
437.395	799.81
437.77	803.43
438.145	840.71
438.52	829.87
438.895	838.68
439.271	833.71
439.646	820.15
440.021	853.59
440.395	871.67
440.77	837.32
441.145	868.51
441.52	901.05
441.895	872.8
442.27	880.49
442.645	891.56
443.019	899.92
443.394	887.26
443.769	915.29
444.143	894.27
444.518	920.26
444.892	902.41
445.267	923.87
445.641	940.6
446.016	926.59
446.39	936.98
446.764	932.24
447.139	919.81
447.513	952.12
447.887	963.42
448.262	974.49
448.636	982.18
449.01	995.28
449.384	989.86
449.758	986.25
450.132	994.15
450.506	1009.97
450.88	1014.27
451.254	1023.76
451.628	1058.56
452.002	1052.01
452.376	1044.77
452.75	1050.88
453.123	1057.88
453.497	1069.63
453.871	1087.49
454.244	1110.31
454.618	1129.07
454.992	1127.94
455.365	1156.64
455.739	1163.19
456.112	1178.78
456.486	1195.96
456.859	1192.57
457.232	1202.51
457.606	1216.3
457.979	1213.58
458.352	1277.09
458.725	1272.57
459.099	1308.5
459.472	1302.85
459.845	1296.97
460.218	1335.39
460.591	1364.77
460.964	1339.68
461.337	1389.4
461.71	1402.05
462.083	1407.93
462.456	1410.64
462.829	1423.97
463.201	1434.82
463.574	1452.9
463.947	1477.31
464.32	1500.36
464.692	1533.58
465.065	1584.2
465.438	1553.69
465.81	1592.33
466.183	1589.85
466.555	1607.7
466.928	1661.26
467.3	1669.62
467.672	1688.6
468.045	1758.65
468.417	1767.02
468.789	1761.37
469.161	1783.74
469.534	1824.42
469.906	1874.58
470.278	1886.56
470.65	1917.75
471.022	1974.92
471.394	2008.82
471.766	2059.89
472.138	2070.51
472.51	2113.9
472.882	2182.37
473.253	2260.56
473.625	2213.33
473.997	2295.14
474.369	2333.78
474.74	2391.63
475.112	2428.24
475.484	2507.79
475.855	2529.26
476.227	2569.25
476.598	2662.81
476.97	2691.96
477.341	2821.9
477.713	2852.41
478.084	2952.52
478.455	3023.48
478.827	3108.45
479.198	3190.93
479.569	3229.12
479.94	3317.71
480.311	3419.4
480.682	3478.16
481.053	3670.02
481.424	3675.21
481.795	3797.92
482.166	3880.41
482.537	3995.43
482.908	4110.91
483.279	4235.2
483.65	4341.64
484.021	4448.08
484.391	4559.03
484.762	4648.07
485.133	4728.97
485.503	4864.56
485.874	5034.73
486.244	5076.76
486.615	5291.67
486.985	5390.42
487.356	5520.59
487.726	5582.28
488.097	5788.83
488.467	5878.09
488.837	6097.98
489.207	6212.1
489.578	6312.21
489.948	6511.75
490.318	6628.81
490.688	6757.62
491.058	6942.02
491.428	7132.52
491.798	7242.35
492.168	7399.18
492.538	7520.54
492.908	7669.46
493.278	7839.62
493.648	7898.61
494.017	8064.25
494.387	8169.56
494.757	8365.49
495.126	8478.03
495.496	8584.69
495.866	8690
496.235	8880.05
496.605	8956.66
496.974	9111.23
497.344	9215.86
497.713	9322.98
498.082	9488.39
498.452	9582.63
498.821	9769.97
499.19	9796.41
499.559	9965.67
499.928	10049.74
500.298	10162.28
500.667	10330.41
501.036	10391.65
501.405	10423.96
501.774	10493.57
502.143	10674.35
502.512	10759.1
502.88	10877.96
503.249	10889.04
503.618	11064.4
503.987	11158.18
504.356	11229.37
504.724	11307.78
505.093	11401.34
505.462	11415.35
505.83	11459.42
506.199	11614.44
506.567	11853.98
506.936	11782.35
507.304	11911.83
507.672	12037.48
508.041	12096.01
508.409	12173.97
508.777	12253.29
509.145	12303.69
509.514	12346.85
509.882	12442.22
510.25	12471.37
510.618	12515.66
510.986	12545.94
511.354	12708.87
511.722	12820.28
512.09	12891.02
512.458	12878.81
512.826	12928.76
513.193	13022.99
513.561	13023.67
513.929	13059.37
514.297	13188.64
514.664	13328.29
515.032	13258.24
515.4	13459.14
515.767	13371.91
516.135	13412.59
516.502	13423.43
516.869	13603.54
517.237	13599.92
517.604	13639.25
517.972	13608.29
518.339	13753.37
518.706	13688.06
519.073	13772.58
519.44	13846.25
519.808	13921.95
520.175	13864.78
520.542	14087.82
520.909	14095.05
521.276	14015.96
521.643	14156.75
522.009	14133.47
522.376	14324.88
522.743	14191.77
523.11	14321.49
523.477	14407.14
523.843	14415.27
524.21	14591.54
524.577	14566.45
524.943	14589.73
525.31	14621.37
525.676	14739.78
526.043	14670.18
526.409	14703.62
526.776	14751.76
527.142	14762.83
527.508	14916.95
527.874	14871.76
528.241	14848.48
528.607	14918.76
528.973	14914.47
529.339	14973.45
529.705	14986.1
530.071	14980.91
530.437	15034.92
530.803	15128.02
531.169	15110.17
531.535	15065.88
531.901	15041.69
532.267	15097.29
532.632	15166.89
532.998	15042.37
533.364	15121.01
533.73	15018.19
534.095	15036.5
534.461	15140.9
534.826	15083.28
535.192	15085.76
535.557	15158.98
535.923	15072.88
536.288	15104.07
536.653	15017.97
537.019	15024.97
537.384	14943.17
537.749	14937.52
538.114	14966.89
538.479	14870.63
538.845	14895.03
539.21	14759.44
539.575	14831.98
539.94	14886.44
540.305	14837.41
540.67	14771.87
541.034	14776.39
541.399	14723.96
541.764	14695.72
542.129	14691.2
542.494	14723.74
542.858	14638.77
543.223	14607.58
543.587	14655.94
543.952	14565.1
544.316	14549.5
544.681	14473.8
545.045	14472.9
545.41	14500.92
545.774	14458.89
546.138	14403.52
546.503	14484.87
546.867	14341.37
547.231	14387.93
547.595	14347.93
547.959	14325.1
548.324	14232.68
548.688	14288.95
549.052	14208.72
549.416	14232
549.779	14136.41
550.143	14151.32
550.507	14239
550.871	14153.36
551.235	14056.18
551.599	14087.82
551.962	14016.86
552.326	14007.15
552.689	14063.87
553.053	13945
553.417	13984.55
553.78	14070.65
554.143	14007.15
554.507	13920.82
554.87	13994.26
555.234	13978.22
555.597	13889.86
555.96	13862.74
556.323	13872.46
556.686	13857.09
557.05	13885.57
557.413	13904.55
557.776	13888.73
558.139	13836.98
558.502	13863.87
558.865	13894.61
559.228	13907.71
559.59	13895.51
559.953	13847.38
560.316	13957.88
560.679	13884.44
561.041	13882.63
561.404	13917.88
561.767	14006.47
562.129	13902.29
562.492	13995.17
562.854	13927.37
563.217	13883.08
563.579	13892.35
563.941	14034.94
564.304	13983.87
564.666	14052.34
565.028	14067.26
565.39	14077.43
565.753	14082.4
566.115	14094.83
566.477	14141.61
566.839	14167.37
567.201	14177.54
567.563	14213.02
567.925	14247.14
568.287	14149.74
568.648	14149.06
569.01	14241.49
569.372	14282.84
569.734	14209.4
570.095	14330.3
570.457	14324.2
570.819	14288.95
571.18	14356.06
571.542	14357.42
571.903	14323.75
572.265	14373.01
572.626	14452.11
572.987	14402.62
573.349	14439.45
573.71	14494.82
574.071	14487.81
574.432	14426.34
574.794	14550.63
575.155	14449.39
575.516	14580.01
575.877	14510.64
576.238	14571.65
576.599	14567.13
576.96	14447.36
577.32	14537.75
577.681	14525.55
578.042	14540.01
578.403	14513.8
578.763	14641.03
579.124	14517.19
579.485	14522.84
579.845	14635.15
580.206	14577.53
580.566	14502.05
580.927	14617.3
581.287	14579.56
581.648	14571.2
582.008	14564.87
582.368	14523.52
582.728	14573.01
583.089	14522.61
583.449	14561.48
583.809	14549.96
584.169	14516.06
584.529	14560.8
584.889	14626.11
585.249	14515.38
585.609	14458.43
585.969	14586.34
586.329	14449.85
586.688	14531.43
587.048	14437.42
587.408	14435.38
587.768	14464.31
588.127	14441.48
588.487	14328.27
588.846	14494.36
589.206	14384.09
589.565	14437.19
589.925	14380.7
590.284	14439
590.643	14446.68
591.003	14407.14
591.362	14513.57
591.721	14385.67
592.08	14401.71
592.44	14375.5
592.799	14389.06
593.158	14368.27
593.517	14378.66
593.876	14386.12
594.235	14346.8
594.593	14356.06
594.952	14339.79
595.311	14315.61
595.67	14305.44
596.029	14377.08
596.387	14315.16
596.746	14319
597.104	14255.95
597.463	14211.21
597.822	14370.53
598.18	14326.23
598.538	14275.39
598.897	14305.9
599.255	14142.06
599.613	14490.07
599.972	14298.44
600.33	14293.69
600.688	14218.67
601.046	14330.53
601.404	14426.34
601.762	14324.43
602.12	14361.49
602.478	14414.59
602.836	14286.91
603.194	14292.56
603.552	14277.65
603.91	14283.75
604.268	14332.34
604.625	14312.45
604.983	14300.25
605.341	14283.97
605.698	14389.73
606.056	14290.53
606.413	14283.97
606.771	14361.26
607.128	14311.77
607.485	14308.83
607.843	14338.89
608.2	14363.75
608.557	14464.53
608.914	14326.01
609.272	14427.47
609.629	14411.88
609.986	14433.8
610.343	14378.44
610.7	14449.39
611.057	14458.66
611.414	14456.17
611.771	14448.94
612.127	14489.17
612.484	14500.92
612.841	14535.95
613.198	14469.28
613.554	14566.45
613.911	14638.54
614.267	14563.74
614.624	14635.15
614.98	14620.69
615.337	14601.25
615.693	14663.85
616.05	14631.99
616.406	14811.19
616.762	14633.12
617.118	14701.59
617.475	14654.81
617.831	14648.48
618.187	14697.3
618.543	14687.13
618.899	14748.14
619.255	14789.72
619.611	14702.04
619.967	14752.89
620.323	14727.35
620.678	14822.94
621.034	14752.66
621.39	14792.44
621.746	14738.2
622.101	14790.63
622.457	14764.87
622.812	14757.41
623.168	14718.77
623.523	14736.62
623.879	14834.47
624.234	14746.11
624.589	14785.2
624.945	14791.08
625.3	14761.7
625.655	14779.78
626.01	14755.6
626.365	14817.97
626.72	14728.93
627.075	14692.33
627.43	14660.91
627.785	14686
628.14	14740.01
628.495	14783.17
628.85	14732.55
629.205	14692.1
629.559	14776.39
629.914	14664.53
630.269	14726
630.623	14636.28
630.978	14626.11
631.332	14710.4
631.687	14642.16
632.041	14641.25
632.396	14690.52
632.75	14601.25
633.104	14625.89
633.459	14636.51
633.813	14552.22
634.167	14477.19
634.521	14499.34
634.875	14509.96
635.229	14555.83
635.583	14406.46
635.937	14366.01
636.291	14341.6
636.645	14384.31
636.999	14386.57
637.352	14381.6
637.706	14309.06
638.06	14281.71
638.413	14379.34
638.767	14377.08
639.121	14343.86
639.474	14264.54
639.828	14192.9
640.181	14236.97
640.534	14258.44
640.888	14214.82
641.241	14185.22
641.594	14253.92
641.947	14283.97
642.301	14169.4
642.654	14236.74
643.007	14114.49
643.36	14191.55
643.713	14119.23
644.066	14222.06
644.419	14090.53
644.771	13971.44
645.124	13843.99
645.477	13904.1
645.83	13807.15
646.182	13751.11
646.535	13683.54
646.888	13697.55
647.24	13606.03
647.593	13701.17
647.945	13660.04
648.298	13598.57
648.65	13597.21
649.002	13596.31
649.355	13583.43
649.707	13563.09
650.059	13655.29
650.411	13805.34
650.763	13844.66
651.115	13985.23
651.467	13924.21
651.819	13993.36
652.171	13934.38
652.523	13945.9
652.875	13899.13
653.227	13766.25
653.578	13964.21
653.93	13985
654.282	13812.57
654.633	13901.84
654.985	13879.47
655.337	13873.59
655.688	14002.85
656.039	13985.45
656.391	13841.5
656.742	13950.42
657.094	13876.08
657.445	14012.57
657.796	13933.93
658.147	13869.52
658.498	13811.22
658.849	13957.66
659.2	13965.34
659.551	13968.95
659.902	13987.26
660.253	13855.06
660.604	13964.66
660.955	13827.94
661.306	13987.26
661.656	13928.28
662.007	13920.82
662.358	13919.69
662.708	13902.29
663.059	13938.67
663.409	13810.54
663.76	13905
664.11	13876.75
664.461	13976.64
664.811	14019.12
665.161	13939.35
665.511	13856.19
665.862	14048.73
666.212	13937.09
666.562	13956.98
666.912	13933.25
667.262	13907.49
667.612	13941.61
667.962	13965.79
668.312	13981.84
668.662	13995.39
669.011	14002.63
669.361	13886.02
669.711	13859.35
670.06	13869.75
670.41	13944.32
670.76	13896.87
671.109	13915.85
671.459	13905.68
671.808	13866.81
672.157	13822.29
672.507	13850.31
672.856	13816.42
673.205	13826.81
673.554	13870.2
673.904	13818.45
674.253	13891.67
674.602	13855.29
674.951	13620.26
675.3	13560.38
675.649	13809.86
675.998	13752.24
676.346	13719.92
676.695	13701.17
677.044	13582.07
677.393	13694.61
677.741	13681.05
678.09	13672.01
678.438	13592.92
678.787	13602.41
679.135	13627.95
679.484	13576.42
679.832	13555.86
680.181	13532.58
680.529	13531.68
680.877	13436.09
681.225	13464.11
681.573	13486.93
681.922	13401.06
682.27	13352.47
682.618	13312.47
682.966	13365.58
683.314	13361.29
683.661	13310.89
684.009	13271.12
684.357	13292.14
684.705	13268.63
685.053	13233.61
685.4	13126.27
685.748	13117.45
686.095	13033.39
686.443	13121.07
686.79	13003.78
687.138	13108.19
687.485	13084.01
687.832	12991.35
688.18	13009.88
688.527	12925.37
688.874	12886.27
689.221	12807.86
689.568	12847.85
689.915	12779.83
690.262	12811.92
690.609	12765.6
690.956	12697.8
691.303	12678.37
691.65	12534.87
691.997	12628.43
692.344	12479.95
692.69	12455.77
693.037	12426.85
693.383	12347.98
693.73	12419.16
694.077	12334.87
694.423	12310.02
694.769	12310.02
695.116	12249.68
695.462	12206.06
695.808	12141.43
696.155	12173.3
696.501	12038.38
696.847	12130.81
697.193	12005.39
697.539	11969.23
697.885	11915.22
698.231	11836.13
698.577	11832.29
698.923	11816.02
699.269	11802.46
699.614	11747.77
699.96	11644.5
700.306	11699.18
700.651	11560.88
700.997	11522.01
701.342	11529.7
701.688	11502.8
702.033	11436.14
702.379	11364.96
702.724	11450.38
703.069	11351.62
703.415	11263.49
703.76	11245.86
704.105	11255.35
704.45	11186.88
704.795	11129.03
705.14	11070.95
705.485	11111.63
705.83	11064.85
706.175	10996.83
706.52	11005.64
706.865	10992.54
707.209	10943.5
707.554	10851.97
707.899	10954.57
708.243	10805.42
708.588	10807
708.932	10705.31
709.277	10697.85
709.621	10749.6
709.966	10659.44
710.31	10703.96
710.654	10558.87
710.998	10584.86
711.342	10631.42
711.687	10536.73
712.031	10470.52
712.375	10461.02
712.719	10490.18
713.063	10439.33
713.407	10515.03
713.75	10475.26
714.094	10377.41
714.438	10332.44
714.782	10361.37
715.125	10259.22
715.469	10249.28
715.812	10272.1
716.156	10265.78
716.499	10226
716.843	10256.96
717.186	10166.12
717.53	10244.08
717.873	10244.98
718.216	10177.87
718.559	10149.39
718.902	10077.31
719.246	10107.36
719.589	10117.76
719.932	10040.02
720.275	10029.17
720.617	10078.89
720.96	9991.88
721.303	10104.2
721.646	10115.95
721.989	9907.14
722.331	10016.06
722.674	9904.2
723.016	9954.15
723.359	10004.09
723.701	9960.25
724.044	9902.39
724.386	9896.52
724.729	9857.65
725.071	9875.5
725.413	9892
725.755	9900.81
726.097	9813.36
726.439	9819.01
726.782	9802.74
727.124	9812.68
727.465	9757.77
727.807	9786.01
728.149	9695.17
728.491	9747.82
728.833	9771.1
729.175	9774.71
729.516	9777.65
729.858	9725.45
730.199	9740.14
730.541	9748.5
730.882	9693.59
731.224	9761.16
731.565	9644.32
731.906	9740.37
732.248	9683.87
732.589	9701.72
732.93	9710.08
733.271	9662.4
733.612	9663.76
733.953	9732
734.294	9684.32
734.635	9671.89
734.976	9726.13
735.317	9576.75
735.658	9688.39
735.999	9714.6
736.339	9654.49
736.68	9700.59
737.021	9739.46
737.361	9683.42
737.702	9706.24
738.042	9691.33
738.383	9618.11
738.723	9694.94
739.063	9689.07
739.404	9716.19
739.744	9652.23
740.084	9720.03
740.424	9673.47
740.764	9699.46
741.104	9710.99
741.444	9725.68
741.784	9781.27
742.124	9827.59
742.464	9771.55
742.804	9789.18
743.143	9782.62
743.483	9862.17
743.823	9855.16
744.162	9857.88
744.502	9934.71
744.841	9922.51
745.181	10001.38
745.52	9958.89
745.86	10056.06
746.199	10077.53
746.538	10095.61
746.877	10218.09
747.216	10250.86
747.556	10207.92
747.895	10314.59
748.234	10258.54
748.573	10343.74
748.911	10432.1
749.25	10455.83
749.589	10507.35
749.928	10611.53
750.267	10680.23
750.605	10756.16
750.944	10745.31
751.283	10869.38
751.621	10945.53
751.96	10950.5
752.298	11071.86
752.636	11168.35
752.975	11260.1
753.313	11334.67
753.651	11478.4
753.989	11590.94
754.327	11630.71
754.666	11681.33
755.004	11922.68
755.342	11992.74
755.679	12155.22
756.017	12181.21
756.355	12363.57
756.693	12479.5
757.031	12665.94
757.368	12722.89
757.706	12883.11
