Data from hue_24_FLMS001491_00038.txt Node
Date: Tue Feb 07 17:12:11 GMT 2017
User: dcchb
Spectrometer: FLMS00149
Trigger mode: 0
Integration Time (sec): 2.000000E-2
Scans to average: 10
Electric dark correction enabled: true
Nonlinearity correction enabled: false
Boxcar width: 0
XAxis mode: Wavelengths
Number of Pixels in Spectrum: 2048
>>>>>Begin Spectral Data<<<<<
341.393	7.27
341.776	7.27
342.16	7.27
342.543	-51.03
342.927	-80.18
343.31	-65.04
343.693	-70.46
344.077	-86.28
344.46	-48.77
344.843	-76.11
345.226	-29.79
345.61	-40.86
345.993	-30.24
346.376	3.66
346.759	12.7
347.142	28.29
347.525	45.69
347.908	77.78
348.291	82.98
348.674	92.02
349.057	104.45
349.44	136.99
349.823	142.64
350.206	188.74
350.588	178.34
350.971	221.28
351.354	219.7
351.737	247.72
352.119	249.75
352.502	248.17
352.884	275.52
353.267	273.93
353.65	294.5
354.032	310.54
354.414	297.44
354.797	309.41
355.179	327.72
355.562	306.02
355.944	322.52
356.326	345.12
356.709	344.21
357.091	343.99
357.473	346.47
357.855	343.54
358.238	346.93
358.62	329.53
359.002	341.28
359.384	353.25
359.766	354.84
360.148	316.87
360.53	336.08
360.912	350.99
361.294	315.97
361.676	341.28
362.057	341.73
362.439	340.82
362.821	349.19
363.203	323.88
363.584	330.66
363.966	319.36
364.348	328.85
364.729	325.91
365.111	330.88
365.493	310.54
365.874	318.45
366.256	337.66
366.637	335.85
367.019	323.65
367.4	301.28
367.781	313.93
368.163	317.55
368.544	315.29
368.925	318.9
369.306	320.94
369.688	299.92
370.069	304.67
370.45	332.69
370.831	301.73
371.212	311.45
371.593	332.69
371.974	323.65
372.355	315.29
372.736	341.5
373.117	319.13
373.498	327.27
373.879	319.58
374.26	336.3
374.641	317.1
375.021	311.22
375.402	309.19
375.783	316.87
376.163	315.97
376.544	349.86
376.925	333.82
377.305	335.63
377.686	323.2
378.066	329.75
378.447	315.06
378.827	311.67
379.208	342.41
379.588	325.23
379.968	332.46
380.349	329.53
380.729	341.73
381.109	326.36
381.489	329.75
381.87	341.73
382.25	327.27
382.63	337.43
383.01	341.28
383.39	325.01
383.77	340.6
384.15	342.18
384.53	333.59
384.91	357.77
385.29	370.2
385.67	344.89
386.049	352.35
386.429	351.45
386.809	370.2
387.189	355.29
387.568	355.97
387.948	348.06
388.328	376.3
388.707	366.13
389.087	390.99
389.466	398.68
389.846	357.55
390.225	389.41
390.605	369.52
390.984	374.04
391.363	382.63
391.743	393.48
392.122	379.92
392.501	385.79
392.881	371.33
393.26	394.83
393.639	380.37
394.018	381.73
394.397	376.76
394.776	392.35
395.155	395.74
395.534	370.2
395.913	399.81
396.292	405.68
396.671	394.61
397.05	396.42
397.429	398.9
397.808	403.2
398.186	375.85
398.565	393.25
398.944	408.62
399.323	407.72
399.701	425.57
400.08	401.61
400.458	420.6
400.837	396.19
401.215	408.39
401.594	420.14
401.972	412.91
402.351	407.04
402.729	415.17
403.107	433.03
403.486	419.24
403.864	436.64
404.242	423.99
404.62	461.73
404.999	445
405.377	440.71
405.755	430.99
406.133	435.06
406.511	437.54
406.889	438
407.267	441.84
407.645	458.34
408.023	456.53
408.401	458.79
408.779	459.69
409.156	446.36
409.534	457.21
409.912	458.56
410.29	451.33
410.667	464.89
411.045	496.07
411.422	470.54
411.8	474.38
412.178	476.87
412.555	456.75
412.933	496.07
413.31	489.52
413.687	491.1
414.065	499.69
414.442	486.13
414.819	512.35
415.197	508.5
415.574	520.03
415.951	511.44
416.328	515.96
416.705	518.9
417.082	496.98
417.46	501.72
417.837	519.8
418.214	537.43
418.591	533.59
418.967	523.64
419.344	520.48
419.721	535.62
420.098	547.6
420.475	538.79
420.852	554.15
421.228	580.59
421.605	562.06
421.982	562.06
422.358	575.17
422.735	554.15
423.111	578.33
423.488	561.38
423.864	564.77
424.241	592.34
424.617	585.79
424.994	596.18
425.37	599.12
425.746	583.08
426.123	615.85
426.499	613.81
426.875	615.17
427.251	616.98
427.627	609.74
428.003	626.01
428.379	619.46
428.756	649.06
429.132	655.17
429.507	639.35
429.883	645.9
430.259	661.27
430.635	635.28
431.011	652.23
431.387	681.38
431.763	677.99
432.138	665.34
432.514	683.64
432.89	703.53
433.265	702.4
433.641	714.83
434.016	711.66
434.392	729.06
434.767	729.06
435.143	730.64
435.518	725
435.894	737.88
436.269	758.21
436.644	753.92
437.02	756.86
437.395	784.2
437.77	779.46
438.145	774.03
438.52	791.43
438.895	802.96
439.271	816.07
439.646	790.08
440.021	809.51
440.395	831.88
440.77	808.38
441.145	830.3
441.52	817.42
441.895	808.38
442.27	865.78
442.645	816.97
443.019	848.38
443.394	841.83
443.769	843.64
444.143	856.97
444.518	859.45
444.892	891.09
445.267	858.55
445.641	871.43
446.016	875.95
446.39	892.45
446.764	889.74
447.139	911.43
447.513	893.8
447.887	906.91
448.262	895.84
448.636	913.69
449.01	923.41
449.384	941.26
449.758	932.22
450.132	980.13
450.506	944.65
450.88	954.82
451.254	959.11
451.628	946.68
452.002	958.89
452.376	979.68
452.75	981.03
453.123	991.88
453.497	1027.36
453.871	1030.07
454.244	1042.73
454.618	1014.03
454.992	1070.75
455.365	1052.67
455.739	1074.14
456.112	1095.83
456.486	1102.39
456.859	1102.61
457.232	1119.56
457.606	1108.71
457.979	1136.51
458.352	1131.31
458.725	1136.28
459.099	1169.5
459.472	1183.74
459.845	1200.91
460.218	1212.89
460.591	1199.11
460.964	1230.07
461.337	1232.33
461.71	1244.76
462.083	1270.52
462.456	1247.92
462.829	1291.76
463.201	1310.97
463.574	1299.22
463.947	1318.65
464.32	1362.72
464.692	1354.36
465.065	1379.22
465.438	1388.48
465.81	1417.18
466.183	1419.89
466.555	1459.67
466.928	1449.27
467.3	1456.5
467.672	1492.21
468.045	1529.72
468.417	1550.06
468.789	1534.69
469.161	1550.28
469.534	1576.72
469.906	1574.01
470.278	1642.03
470.65	1633.45
471.022	1692.43
471.394	1723.84
471.766	1724.74
472.138	1731.97
472.51	1781.69
472.882	1818.53
473.253	1814.46
473.625	1846.1
473.997	1912.53
474.369	1930.16
474.74	1932.19
475.112	1936.94
475.484	1993.89
475.855	2047.22
476.227	2069.82
476.598	2142.13
476.97	2143.04
477.341	2155.47
477.713	2232.98
478.084	2266.42
478.455	2310.72
478.827	2322.24
479.198	2395.69
479.569	2358.17
479.94	2500.54
480.311	2507.1
480.682	2565.62
481.053	2622.8
481.424	2654.89
481.795	2720.42
482.166	2750.93
482.537	2791.16
482.908	2851.04
483.279	2900.98
483.65	2935.78
484.021	3014.65
484.391	3063.24
484.762	3093.07
485.133	3151.82
485.503	3177.36
485.874	3258.04
486.244	3291.48
486.615	3367.19
486.985	3417.81
487.356	3494.87
487.726	3490.8
488.097	3595.88
488.467	3594.07
488.837	3678.82
489.207	3748.64
489.578	3841.07
489.948	3862.09
490.318	3921.3
490.688	3920.84
491.058	3966.27
491.428	4076.09
491.798	4111.35
492.168	4196.32
492.538	4199.03
492.908	4263.66
493.278	4328.52
493.648	4351.11
494.017	4413.71
494.387	4491
494.757	4541.62
495.126	4543.65
495.496	4595.4
495.866	4586.59
496.235	4650.09
496.605	4736.19
496.974	4726.02
497.344	4805.57
497.713	4837.43
498.082	4841.5
498.452	4976.86
498.821	4946.35
499.19	5002.4
499.559	5052.56
499.928	5097.76
500.298	5128.72
500.667	5122.39
501.036	5172.56
501.405	5216.18
501.774	5236.97
502.143	5298.21
502.512	5311.54
502.88	5354.48
503.249	5379.34
503.618	5417.98
503.987	5389.73
504.356	5486.9
504.724	5504.98
505.093	5503.17
505.462	5561.25
505.83	5567.58
506.199	5612.1
506.567	5696.84
506.936	5663.85
507.304	5750.17
507.672	5722.38
508.041	5795.82
508.409	5794.24
508.777	5830.85
509.145	5875.14
509.514	5897.74
509.882	5947.46
510.25	5912.43
510.618	5975.7
510.986	6060.22
511.354	6047.34
511.722	6097.06
512.09	6150.62
512.458	6120.33
512.826	6153.55
513.193	6216.15
513.561	6206.43
513.929	6291.4
514.297	6330.5
514.664	6374.34
515.032	6337.73
515.4	6412.53
515.767	6472.19
516.135	6430.83
516.502	6404.85
516.869	6500.44
517.237	6518.29
517.604	6518.97
517.972	6523.94
518.339	6613.65
518.706	6545.86
519.073	6645.74
519.44	6610.04
519.808	6739.3
520.175	6746.31
520.542	6784.04
520.909	6848.9
521.276	6841.67
521.643	6934.55
522.009	6928.45
522.376	6979.52
522.743	6994.66
523.11	7106.3
523.477	7124.37
523.843	7185.84
524.21	7214.99
524.577	7240.3
524.943	7235.11
525.31	7287.53
525.676	7336.8
526.043	7415.67
526.409	7424.25
526.776	7476
527.142	7447.53
527.508	7516
527.874	7584.7
528.241	7642.78
528.607	7605.49
528.973	7690.69
529.339	7769.1
529.705	7859.95
530.071	7846.84
530.437	7880.74
530.803	7954.86
531.169	7983.11
531.535	7959.16
531.901	8010.91
532.267	8037.35
532.632	8125.93
532.998	8162.31
533.364	8179.26
533.73	8227.62
534.095	8235.76
534.461	8262.42
534.826	8309.2
535.192	8400.27
535.557	8360.73
535.923	8460.84
536.288	8441.63
536.653	8495.41
537.019	8455.41
537.384	8594.17
537.749	8576.77
538.114	8629.87
538.479	8619.7
538.845	8684.79
539.21	8664.22
539.575	8754.61
539.94	8773.82
540.305	8780.15
540.67	8784.67
541.034	8826.7
541.399	8917.55
541.764	8912.58
542.129	8971.11
542.494	8960.94
542.858	9052.46
543.223	9005.23
543.587	9109.86
543.952	9106.24
544.316	9099.46
544.681	9166.13
545.045	9211.33
545.41	9293.36
545.774	9274.15
546.138	9338.78
546.503	9412.68
546.867	9371.32
547.231	9382.17
547.595	9445.67
547.959	9460.81
548.324	9522.05
548.688	9511.2
549.052	9545.33
549.416	9620.35
549.779	9643.86
550.143	9623.74
550.507	9761.37
550.871	9736.28
551.235	9834.36
551.599	9829.39
551.962	9866.22
552.326	9821.25
552.689	9951.87
553.053	9894.02
553.417	9947.58
553.78	10020.8
554.143	10035.71
554.507	9989.61
554.87	10029.38
555.234	10197.97
555.597	10141.02
555.96	10164.97
556.323	10206.33
556.686	10254.46
557.05	10349.83
557.413	10324.74
557.776	10356.38
558.139	10380.79
558.502	10412.2
558.865	10466.66
559.228	10569.48
559.59	10508.69
559.953	10626.2
560.316	10691.96
560.679	10774.67
561.041	10637.5
561.404	10800.66
561.767	10821
562.129	10845.41
562.492	10926.53
562.854	10957.27
563.217	10910.26
563.579	11006.08
563.941	11009.7
564.304	11107.09
564.666	11102.35
565.028	11185.51
565.39	11151.61
565.753	11254.89
566.115	11274.77
566.477	11369.23
566.839	11396.13
567.201	11327.65
567.563	11363.81
567.925	11499.63
568.287	11535.78
568.648	11523.36
569.01	11570.13
569.372	11703.69
569.734	11619.62
570.095	11651.94
570.457	11739.85
570.819	11741.2
571.18	11763.8
571.542	11957.02
571.903	11918.15
572.265	12032.72
572.626	12068.2
572.987	12126.05
573.349	12180.51
573.71	12177.35
574.071	12224.81
574.432	12404.69
574.794	12384.8
575.155	12473.16
575.516	12547.74
575.877	12559.49
576.238	12693.95
576.599	12749.31
576.96	12892.58
577.32	12847.16
577.681	13006.03
578.042	13052.58
578.403	13109.53
578.763	13246.02
579.124	13343.87
579.485	13519.69
579.845	13577.99
580.206	13642.4
580.566	13786.57
580.927	13865.67
581.287	14075.83
581.648	14164.19
582.008	14334.13
582.368	14440.57
582.728	14638.53
583.089	14743.61
583.449	14891.85
583.809	15068.57
584.169	15246.65
584.529	15403.71
584.889	15660.87
585.249	15833.52
585.609	15982.22
585.969	16224.47
586.329	16364.81
586.688	16718.02
587.048	16805.02
587.408	17037.79
587.768	17282.75
588.127	17497.89
588.487	17742.85
588.846	18114.82
589.206	18238.43
589.565	18466
589.925	18843.84
590.284	19022.14
590.643	19352.75
591.003	19514.33
591.362	20009.46
591.721	20141.43
592.08	20438.15
592.44	20832.49
592.799	21054.86
593.158	21229.77
593.517	21596.99
593.876	22011.44
594.235	22181.15
594.593	22534.37
594.952	22916.5
595.311	23145.42
595.67	23481.91
596.029	23930.94
596.387	24225.62
596.746	24525.73
597.104	24685.04
597.463	25041.87
597.822	25540.39
598.18	25581.06
598.538	25951.22
598.897	26416.97
599.255	26515.96
599.613	27159.33
599.972	27269.16
600.33	27651.97
600.688	27857.16
601.046	28186.42
601.404	28623.02
601.762	28663.24
602.12	29152.95
602.478	29430
602.836	29668.41
603.194	29964.45
603.552	30169.64
603.91	30241.51
604.268	30825.22
604.625	30935.27
604.983	31335.26
605.341	31443.51
605.698	31895.02
606.056	32342.69
606.413	32306.31
606.771	32735
607.128	32987.65
607.485	33085.5
607.843	33419.73
608.2	33740.62
608.557	34126.83
608.914	34198.47
609.272	34560.94
609.629	34818.56
609.986	35150.76
610.343	35109.18
610.7	35710.97
611.057	35695.37
611.414	35898.76
611.771	36192.31
612.127	36339.43
612.484	36586.88
612.841	36927.66
613.198	36951.16
613.554	37181.89
613.911	37578.94
614.267	37679.28
614.624	37751.82
614.98	37987.97
615.337	38255.53
615.693	38419.15
616.05	38631.57
616.406	38956.08
616.762	38867.95
617.118	38935.29
617.475	39167.37
617.831	39399.91
618.187	39585.67
618.543	39666.8
618.899	39987.92
619.255	40043.06
619.611	40137.07
619.967	40374.35
620.323	40537.73
620.678	40608.47
621.034	40706.77
621.39	40751.51
621.746	40879.65
622.101	41402.57
622.457	41078.96
622.812	41279.63
623.168	41522.34
623.523	41650.92
623.879	41845.5
624.234	41590.59
624.589	41766.85
624.945	41815.67
625.3	41979.96
625.655	42030.35
626.01	42092.72
626.365	42198.03
626.72	42179.95
627.075	42264.02
627.43	42383.11
627.785	42362.09
628.14	42608.19
628.495	42720.05
628.85	42630.79
629.205	42511.69
629.559	42873.27
629.914	42600.05
630.269	42779.48
630.623	42780.16
630.978	42743.1
631.332	42937.22
631.687	42968.63
632.041	42916.65
632.396	43125.69
632.75	42894.96
633.104	43014.5
633.459	42869.2
633.813	42965.92
634.167	42991.91
634.521	43020.61
634.875	43186.03
635.229	43103.09
635.583	43051.79
635.937	43059.7
636.291	43041.17
636.645	42942.64
636.999	42989.65
637.352	43033.26
637.706	42935.64
638.06	43101.73
638.413	43100.15
638.767	43019.02
639.121	43104.67
639.474	42861.51
639.828	42805.92
640.181	43048.18
640.534	43077.1
640.888	42847.28
641.241	42769.99
641.594	42877.33
641.947	43026.48
642.301	43012.47
642.654	43073.49
643.007	42950.55
643.36	42980.38
643.713	42816.09
644.066	43206.82
644.419	42950.78
644.771	42615.19
645.124	42197.35
645.477	42268.31
645.83	41940.41
646.182	41932.27
646.535	41717.36
646.888	41872.84
647.24	41557.14
647.593	41781.99
647.945	41842.33
648.298	41517.37
648.65	41489.57
649.002	41493.64
649.355	41594.65
649.707	41683.92
650.059	41744.93
650.411	42266.28
650.763	42282.55
651.115	42611.13
651.467	42539.49
651.819	42591.69
652.171	42426.5
652.523	42476.67
652.875	42410.23
653.227	42273.96
653.578	42595.76
653.93	42394.86
654.282	42367.52
654.633	42272.83
654.985	42469.21
655.337	42385.59
655.688	42389.44
656.039	42438.47
656.391	42338.59
656.742	42234.41
657.094	42288.42
657.445	42446.16
657.796	42397.8
658.147	42170.46
658.498	42295.88
658.849	42381.3
659.2	42195.54
659.551	42090.46
659.902	42277.35
660.253	42202.1
660.604	42238.93
660.955	42134.98
661.306	42179.72
661.656	42174.07
662.007	42072.83
662.358	42142.21
662.708	42127.3
663.059	42133.4
663.409	42036.68
663.76	42212.49
664.11	42279.38
664.461	42237.35
664.811	42292.94
665.161	42081.87
665.511	42236.67
665.862	42215.66
666.212	42309.44
666.562	42230.8
666.912	42263.79
667.262	42007.53
667.612	42103.12
667.962	42052.27
668.312	41955.55
668.662	42100.4
669.011	42030.58
669.361	42031.93
669.711	42008.88
670.06	41940.86
670.41	41873.74
670.76	41915.55
671.109	41989.45
671.459	41921.2
671.808	41853.63
672.157	41933.18
672.507	41695.44
672.856	41695.9
673.205	41772.05
673.554	41930.47
673.904	41818.6
674.253	41983.35
674.602	41896.79
674.951	41346.53
675.3	41087.32
675.649	41741.09
675.998	41704.03
676.346	41790.81
676.695	41739.74
677.044	41589.68
677.393	41608.89
677.741	41705.61
678.09	41605.5
678.438	41489.57
678.787	41487.31
679.135	41582.9
679.484	41278.28
679.832	41452.06
680.181	41012.75
680.529	41302.23
680.877	41225.17
681.225	41008.46
681.573	41433.53
681.922	41083.71
682.27	41012.75
682.618	41017.72
682.966	40904.28
683.314	40913.77
683.661	40838.97
684.009	40624.06
684.357	40690.72
684.705	40594
685.053	40799.42
685.4	40732.53
685.748	40518.07
686.095	40551.97
686.443	40431.75
686.79	40340.9
687.138	40450.5
687.485	40407.34
687.832	40289.6
688.18	40282.6
688.527	40000.12
688.874	39951.99
689.221	39840.35
689.568	39706.79
689.915	39733.69
690.262	39784.08
690.609	39456.86
690.956	39435.62
691.303	39357.65
691.65	39372.79
691.997	39212.12
692.344	39068.62
692.69	38968.28
693.037	38963.54
693.383	38740.49
693.73	38801.28
694.077	38592.02
694.423	38480.61
694.769	38535.98
695.116	38318.36
695.462	38336.66
695.808	38265.25
696.155	38310.22
696.501	38080.17
696.847	38123.79
697.193	37863.68
697.539	37995.2
697.885	37722.44
698.231	37633.63
698.577	37534.42
698.923	37493.75
699.269	37502.11
699.614	37270.02
699.96	37169.23
700.306	37251.27
700.651	37051.05
700.997	36876.13
701.342	36911.61
701.688	36835.01
702.033	36591.85
702.379	36747.32
702.724	36456.03
703.069	36588.91
703.415	36226.66
703.76	36188.7
704.105	36233.67
704.45	36217.17
704.795	35927.46
705.14	35870.06
705.485	35934.69
705.83	35565.89
706.175	35668.26
706.52	35673.91
706.865	35556.85
707.209	35547.36
707.554	35191.21
707.899	35438.88
708.243	35195.05
708.588	35236.18
708.932	34960.03
709.277	34943.98
709.621	35070.98
709.966	34647.72
710.31	34936.52
710.654	34522.07
710.998	34525.91
711.342	34591.22
711.687	34386.26
712.031	34376.31
712.375	34289.99
712.719	34222.42
713.063	34304.9
713.407	34265.58
713.75	34106.26
714.094	33967.28
714.438	33900.85
714.782	33934.97
715.125	33709.21
715.469	33772.94
715.812	33581.53
716.156	33469.44
716.499	33448.65
716.843	33577.01
717.186	33281.88
717.53	33494.53
717.873	33282.33
718.216	33315.32
718.559	33311.71
718.902	32911.95
719.246	33156.68
719.589	32922.79
719.932	32886.86
720.275	32921.21
720.617	32795.34
720.96	32784.04
721.303	32776.81
721.646	32817.03
721.989	32553.99
722.331	32677.83
722.674	32557.6
723.016	32547.21
723.359	32488
723.701	32467.44
724.044	32281.68
724.386	32120.55
724.729	32358.74
725.071	32290.72
725.413	32115.13
725.755	32080.78
726.097	32061.57
726.439	31942.25
726.782	31886.89
727.124	31937.28
727.465	31797.17
727.807	31752.2
728.149	31630.62
728.491	31594.69
728.833	31634.01
729.175	31478.31
729.516	31605.77
729.858	31414.58
730.199	31476.05
730.541	31468.82
730.882	31395.15
731.224	31423.4
731.565	31098.89
731.906	31205.78
732.248	31251.2
732.589	31015.05
732.93	30878.1
733.271	31044.88
733.612	31090.98
733.953	31062.28
734.294	30783.64
734.635	30774.15
734.976	30906.57
735.317	30714.94
735.658	30807.37
735.999	30796.29
736.339	30750.87
736.68	30731.21
737.021	30564.21
737.361	30416.42
737.702	30620.93
738.042	30495.29
738.383	30415.74
738.723	30421.39
739.063	30256.42
739.404	30447.38
739.744	30338
740.084	30151.11
740.424	30356.08
740.764	30192.24
741.104	30097.56
741.444	30079.7
741.784	29993.6
742.124	30125.13
742.464	29959.48
742.804	29927.62
743.143	29952.25
743.483	29863.89
743.823	29647.62
744.162	29738.92
744.502	29848.3
744.841	29660.05
745.181	29713.39
745.52	29559.04
745.86	29632.26
746.199	29612.82
746.538	29522.88
746.877	29561.52
747.216	29639.94
747.556	29404.69
747.895	29475.65
748.234	29371.47
748.573	29332.15
748.911	29227.3
749.25	29208.31
749.589	29194.53
749.928	29136.23
750.267	29249.22
750.605	28987.75
750.944	29174.42
751.283	28837.7
751.621	28975.78
751.96	28837.7
752.298	28824.6
752.636	28874.76
752.975	28723.58
753.313	28675.9
753.651	28823.69
753.989	28592.51
754.327	28570.14
754.666	28472.29
755.004	28498.28
755.342	28472.74
755.679	28420.31
756.017	28277.26
756.355	28211.73
756.693	28111.62
757.031	28203.59
757.368	28051.73
757.706	28050.83
758.044	27909.37
758.381	27911.17
758.719	27809.93
759.056	27820.33
759.394	27832.3
