Data from hue_60_FLMS001491_15.txt Node
Date: Mon Feb 06 15:12:00 GMT 2017
User: dcchb
Spectrometer: FLMS00149
Trigger mode: 0
Integration Time (sec): 2.000000E-2
Scans to average: 10
Electric dark correction enabled: true
Nonlinearity correction enabled: false
Boxcar width: 0
XAxis mode: Wavelengths
Number of Pixels in Spectrum: 2048
>>>>>Begin Spectral Data<<<<<
341.393	3.14
341.776	3.14
342.16	3.14
342.543	-52.68
342.927	-59.24
343.31	-76.86
343.693	-82.06
344.077	-69.4
344.46	-58.78
344.843	-71.44
345.226	-51.78
345.61	-24.66
345.993	-13.81
346.376	8.79
346.759	34.77
347.142	25.51
347.525	41.55
347.908	49.46
348.291	68.44
348.674	100.99
349.057	119.29
349.44	140.31
349.823	154.09
350.206	160.87
350.588	201.55
350.971	206.75
351.354	218.95
351.737	251.49
352.119	266.63
352.502	281.77
352.884	278.38
353.267	270.02
353.65	293.75
354.032	284.94
354.414	308.89
354.797	300.53
355.179	334.65
355.562	343.92
355.944	354.09
356.326	343.69
356.709	329
357.091	340.08
357.473	345.05
357.855	339.4
358.238	346.4
358.62	352.96
359.002	344.6
359.384	359.51
359.766	336.46
360.148	362.22
360.53	344.6
360.912	321.32
361.294	317.03
361.676	331.04
362.057	339.62
362.439	332.84
362.821	319.06
363.203	338.04
363.584	323.13
363.966	328.78
364.348	335.1
364.729	332.62
365.111	335.78
365.493	315.9
365.874	299.17
366.256	304.14
366.637	321.32
367.019	342.34
367.4	315.22
367.781	346.18
368.163	330.13
368.544	305.05
368.925	291.94
369.306	316.12
369.688	322.22
370.069	300.53
370.45	312.51
370.831	323.13
371.212	315.67
371.593	321.55
371.974	317.93
372.355	322
372.736	327.42
373.117	314.09
373.498	315.67
373.879	307.08
374.26	326.74
374.641	306.86
375.021	333.97
375.402	324.26
375.783	321.09
376.163	318.16
376.544	340.3
376.925	324.71
377.305	336.69
377.686	333.52
378.066	310.02
378.447	343.47
378.827	321.77
379.208	334.88
379.588	323.81
379.968	338.95
380.349	336.91
380.729	327.65
381.109	338.95
381.489	336.91
381.87	353.41
382.25	347.08
382.63	356.57
383.01	332.39
383.39	354.54
383.77	343.24
384.15	329.68
384.53	345.27
384.91	363.13
385.29	349.79
385.67	353.86
386.049	357.93
386.429	379.4
386.809	372.84
387.189	349.34
387.568	353.41
387.948	358.15
388.328	343.92
388.707	355.44
389.087	335.1
389.466	354.76
389.846	341.21
390.225	347.08
390.605	369.23
390.984	372.62
391.363	345.5
391.743	362.22
392.122	388.89
392.501	341.21
392.881	354.09
393.26	372.39
393.639	364.93
394.018	367.42
394.397	388.44
394.776	382.56
395.155	358.83
395.534	365.16
395.913	364.48
396.292	389.79
396.671	390.02
397.05	375.78
397.429	376.46
397.808	390.02
398.186	384.82
398.565	384.37
398.944	385.5
399.323	383.01
399.701	396.57
400.08	383.92
400.458	392.73
400.837	398.83
401.215	389.57
401.594	374.43
401.972	390.7
402.351	391.15
402.729	392.05
403.107	375.56
403.486	410.36
403.864	408.77
404.242	378.72
404.62	402
404.999	411.71
405.377	412.62
405.755	413.75
406.133	400.87
406.511	389.57
406.889	418.27
407.267	430.69
407.645	422.11
408.023	427.08
408.401	416.01
408.779	413.75
409.156	440.64
409.534	434.08
409.912	424.59
410.29	449.23
410.667	431.82
411.045	431.6
411.422	455.78
411.8	435.44
412.178	442.45
412.555	441.09
412.933	465.27
413.31	468.43
413.687	467.76
414.065	462.78
414.442	449.68
414.819	464.14
415.197	464.14
415.574	477.7
415.951	479.96
416.328	466.63
416.705	462.11
417.082	465.72
417.46	490.81
417.837	518.83
418.214	484.93
418.591	496.68
418.967	490.81
419.344	466.63
419.721	519.51
420.098	499.85
420.475	493.97
420.852	516.79
421.228	523.35
421.605	515.89
421.982	520.18
422.358	514.53
422.735	520.86
423.111	526.06
423.488	530.13
423.864	516.57
424.241	511.6
424.617	535.32
424.994	528.09
425.37	565.15
425.746	563.8
426.123	548.88
426.499	556.57
426.875	555.44
427.251	533.74
427.627	543.01
428.003	576.91
428.379	561.31
428.756	592.27
429.132	589.79
429.507	577.13
429.883	575.55
430.259	582.78
430.635	592.27
431.011	606.51
431.387	612.39
431.763	607.64
432.138	594.08
432.514	601.09
432.89	646.51
433.265	633.4
433.641	642.89
434.016	634.08
434.392	627.75
434.767	633.63
435.143	637.92
435.518	633.85
435.894	671.59
436.269	655.55
436.644	676.56
437.02	648.99
437.395	680.86
437.77	681.99
438.145	683.8
438.52	693.06
438.895	695.32
439.271	692.16
439.646	687.64
440.021	705.49
440.395	707.07
440.77	712.27
441.145	699.61
441.52	713.17
441.895	703.91
442.27	739.61
442.645	726.51
443.019	760.4
443.394	725.15
443.769	739.16
444.143	728.54
444.518	772.83
444.892	743.68
445.267	743.91
445.641	759.27
446.016	767.41
446.39	770.12
446.764	777.35
447.139	782.1
447.513	760.86
447.887	771.48
448.262	771.25
448.636	800.4
449.01	820.06
449.384	797.69
449.758	818.71
450.132	794.75
450.506	826.39
450.88	806.05
451.254	813.06
451.628	813.96
452.002	847.41
452.376	820.97
452.75	850.8
453.123	845.15
453.497	851.47
453.871	873.17
454.244	854.86
454.618	874.98
454.992	891.25
455.365	924.92
455.739	907.29
456.112	923.34
456.486	938.7
456.859	910.46
457.232	951.13
457.606	927.63
457.979	953.84
458.352	944.13
458.725	991.81
459.099	987.52
459.472	998.14
459.845	1016.67
460.218	1010.34
460.591	1027.52
460.964	1051.92
461.337	1074.75
461.71	1049.21
462.083	1079.94
462.456	1090.79
462.829	1044.46
463.201	1110.9
463.574	1122.2
463.947	1141.41
464.32	1152.03
464.692	1173.5
465.065	1185.03
465.438	1200.17
465.81	1223.22
466.183	1261.41
466.555	1257.11
466.928	1293.5
467.3	1295.08
467.672	1286.94
468.045	1324.23
468.417	1331.24
468.789	1368.52
469.161	1380.27
469.534	1414.4
469.906	1448.52
470.278	1442.65
470.65	1464.11
471.022	1510.21
471.394	1530.1
471.766	1559.93
472.138	1581.17
472.51	1617.56
472.882	1641.74
473.253	1658.46
473.625	1721.28
473.997	1752.24
474.369	1797.89
474.74	1815.52
475.112	1862.3
475.484	1933.25
475.855	1972.8
476.227	1985
476.598	2076.75
476.97	2106.81
477.341	2161.72
477.713	2207.82
478.084	2309.52
478.455	2353.36
478.827	2413.92
479.198	2500.47
479.569	2519.45
479.94	2675.16
480.311	2671.54
480.682	2748.6
481.053	2864.53
481.424	2987.46
481.795	3042.38
482.166	3092.09
482.537	3211.41
482.908	3285.99
483.279	3364.63
483.65	3496.15
484.021	3589.48
484.391	3727.56
484.762	3790.38
485.133	3898.4
485.503	3998.96
485.874	4180.65
486.244	4259.07
486.615	4376.35
486.985	4459.06
487.356	4581.32
487.726	4678.94
488.097	4878.94
488.467	4970.46
488.837	5114.87
489.207	5314.63
489.578	5422.2
489.948	5516.21
490.318	5689.99
490.688	5830.1
491.058	5964.56
491.428	6160.26
491.798	6263.31
492.168	6494.94
492.538	6582.85
492.908	6766.35
493.278	6927.47
493.648	7012.89
494.017	7214.47
494.387	7346.22
494.757	7522.49
495.126	7684.29
495.496	7836.6
495.866	7919.99
496.235	8109.59
496.605	8248.79
496.974	8428.9
497.344	8571.5
497.713	8709.57
498.082	8786.18
498.452	9074.31
498.821	9155.21
499.19	9295.55
499.559	9505.48
499.928	9645.59
500.298	9719.72
500.667	9923.33
501.036	9971.69
501.405	10163.32
501.774	10290.55
502.143	10437.89
502.512	10590.2
502.88	10721.27
503.249	10865
503.618	10990.42
503.987	11146.57
504.356	11235.38
504.724	11438.77
505.093	11491.65
505.462	11653
505.83	11765.76
506.199	11926.21
506.567	12188.8
506.936	12160.56
507.304	12457.05
507.672	12542.92
508.041	12631.05
508.409	12770.48
508.777	12922.34
509.145	13101.77
509.514	13166.86
509.882	13375.67
510.25	13511.71
510.618	13546.96
510.986	13666.05
511.354	13886.61
511.722	14111.92
512.09	14169.54
512.458	14200.5
512.826	14422.19
513.193	14415.19
513.561	14649.53
513.929	14759.13
514.297	14925
514.664	15056.07
515.032	15191.21
515.4	15388.72
515.767	15442.96
516.135	15565.66
516.502	15497.19
516.869	15813.57
517.237	16025.99
517.604	15977.4
517.972	16234.12
518.339	16362.48
518.706	16334.01
519.073	16437.73
519.44	16623.49
519.808	16891.73
520.175	16839.75
520.542	17226.86
520.909	17281.55
521.276	17267.54
521.643	17535.1
522.009	17616.01
522.376	17730.13
522.743	17926.96
523.11	18124.69
523.477	18414.85
523.843	18333.05
524.21	18508.19
524.577	18709.54
524.943	18823.43
525.31	19098.9
525.676	19248.51
526.043	19238.11
526.409	19310.42
526.776	19602.62
527.142	19680.58
527.508	19689.17
527.874	19934.81
528.241	20095.94
528.607	20159.89
528.973	20344.07
529.339	20375.71
529.705	20546.32
530.071	20789.48
530.437	20861.57
530.803	20922.36
531.169	21134.11
531.535	21148.79
531.901	21304.95
532.267	21365.51
532.632	21612.06
532.998	21636.46
533.364	21842.56
533.73	21767.76
534.095	21940.41
534.461	22005.72
534.826	22177.69
535.192	22217.24
535.557	22486.61
535.923	22453.17
536.288	22443.22
536.653	22556.89
537.019	22573.62
537.384	22747.85
537.749	22788.07
538.114	22854.74
538.479	23045.24
538.845	23131.11
539.21	23094.28
539.575	23154.84
539.94	23308.06
540.305	23475.06
540.67	23445.68
541.034	23567.94
541.399	23613.14
541.764	23721.16
542.129	23815.16
542.494	23824.43
542.858	24028.72
543.223	24004.54
543.587	24185.55
543.952	24127.92
544.316	24261.48
544.681	24209.28
545.045	24361.14
545.41	24521.36
545.774	24499.44
546.138	24642.04
546.503	24573.79
546.867	24632.54
547.231	24946.66
547.595	25002.48
547.959	25007
548.324	25102.81
548.688	25224.39
549.052	25255.35
549.416	25251.06
549.779	25373.54
550.143	25295.13
550.507	25648.34
550.871	25698.96
551.235	25706.41
551.599	25863.7
551.962	25817.37
552.326	25941.66
552.689	26126.52
553.053	26084.26
553.417	26160.64
553.78	26395.21
554.143	26428.43
554.507	26458.94
554.87	26606.96
555.234	26864.35
555.597	26648.08
555.96	26889.43
556.323	26966.27
556.686	26998.58
557.05	27233.38
557.413	27151.35
557.776	27390.44
558.139	27521.96
558.502	27640.37
558.865	27655.74
559.228	27926.47
559.59	27994.49
559.953	28086.92
560.316	28218.66
560.679	28272
561.041	28439.68
561.404	28667.92
561.767	28773.68
562.129	28682.38
562.492	29018.42
562.854	29039.89
563.217	29036.72
563.579	29204.85
563.941	29352.42
564.304	29504.51
564.666	29705.63
565.028	29633.99
565.39	29897.26
565.753	30036.24
566.115	30127.32
566.477	30322.34
566.839	30342.22
567.201	30560.98
567.563	30626.74
567.925	30753.06
568.287	30891.14
568.648	30847.97
569.01	31177.68
569.372	31280.05
569.734	31213.16
570.095	31412.03
570.457	31497.67
570.819	31601.4
571.18	31511.91
571.542	31812.24
571.903	31884.56
572.265	32010.88
572.626	32057.89
572.987	32133.36
573.349	32222.4
573.71	32326.13
574.071	32330.65
574.432	32477.99
574.794	32819
575.155	32606.8
575.516	32597.76
575.877	32786.91
576.238	32904.64
576.599	33093.11
576.96	33081.36
577.32	33083.62
577.681	33238.42
578.042	33355.7
578.403	33301.47
578.763	33393.44
579.124	33477.96
579.485	33574.23
579.845	33654.45
580.206	33466.66
580.566	33565.42
580.927	33598.86
581.287	33726.54
581.648	33583.5
582.008	33865.52
582.368	33795.47
582.728	33855.13
583.089	33763.6
583.449	33940.32
583.809	33904.17
584.169	34015.8
584.529	33882.47
584.889	34260.54
585.249	33929.48
585.609	33908.91
585.969	34099.41
586.329	34004.5
586.688	34119.3
587.048	34089.24
587.408	34063.93
587.768	33955.46
588.127	34123.82
588.487	34117.72
588.846	34197.04
589.206	34094.44
589.565	34164.95
589.925	34212.86
590.284	34160.2
590.643	34251.27
591.003	34407.43
591.362	34337.37
591.721	34369.01
592.08	34368.33
592.44	34450.14
592.799	34342.8
593.158	34323.14
593.517	34393.87
593.876	34421.44
594.235	34423.47
594.593	34519.06
594.952	34664.15
595.311	34439.07
595.67	34648.78
596.029	34730.13
596.387	34785.5
596.746	34833.63
597.104	34738.95
597.463	34679.06
597.822	34871.37
598.18	34769.9
598.538	34685.61
598.897	34977.36
599.255	34725.84
599.613	35186.62
599.972	35087.18
600.33	35135.55
600.688	34971.26
601.046	35101.42
601.404	35274.75
601.762	35108.65
602.12	35472.94
602.478	35326.5
602.836	35423.22
603.194	35235.88
603.552	35432.26
603.91	35265.03
604.268	35525.14
604.625	35386.16
604.983	35582.99
605.341	35418.48
605.698	35684.68
606.056	35636.32
606.413	35639.03
606.771	35744.79
607.128	35832.48
607.485	35787.28
607.843	35812.82
608.2	36005.58
608.557	36001.96
608.914	36189.53
609.272	36246.25
609.629	36266.14
609.986	36359.24
610.343	36360.82
610.7	36563.98
611.057	36510.42
611.414	36516.07
611.771	36607.37
612.127	36670.19
612.484	36710.87
612.841	36855.73
613.198	36722.62
613.554	37018.43
613.911	37009.62
614.267	37054.82
614.624	36924.65
614.98	37043.07
615.337	37264.98
615.693	37196.51
616.05	37213.46
616.406	37358.99
616.762	37309.95
617.118	37365.99
617.475	37421.59
617.831	37557.18
618.187	37469.5
618.543	37593.56
618.899	37615.48
619.255	37677.4
619.611	37729.15
619.967	37957.62
620.323	37899.09
620.678	37821.12
621.034	37788.36
621.39	37651.19
621.746	37830.16
622.101	38254.33
622.457	38077.39
622.812	37987.67
623.168	38209.14
623.523	38120.33
623.879	38362.35
624.234	38101.57
624.589	38221.79
624.945	38252.3
625.3	38324.16
625.655	38349.7
626.01	38322.13
626.365	38318.74
626.72	38382.69
627.075	38449.13
627.43	38336.14
627.785	38283.71
628.14	38434.44
628.495	38503.14
628.85	38376.59
629.205	38277.16
629.559	38452.75
629.914	38340.21
630.269	38415.68
630.623	38311.96
630.978	38126.43
631.332	38375.46
631.687	38410.26
632.041	38198.74
632.396	38275.35
632.75	38162.81
633.104	38281.23
633.459	38162.58
633.813	38243.71
634.167	38170.27
634.521	38105.64
634.875	38224.96
635.229	38143.83
635.583	38061.8
635.937	37990.16
636.291	38064.28
636.645	38169.14
636.999	38007.56
637.352	38025.41
637.706	37920.1
638.06	38116.26
638.413	37954.91
638.767	37810.95
639.121	37859.32
639.474	37799.43
639.828	37824.51
640.181	37841.01
640.534	37909.71
640.888	37731.64
641.241	37661.58
641.594	37600.79
641.947	37715.36
642.301	37665.42
642.654	37628.13
643.007	37633.56
643.36	37654.12
643.713	37524.63
644.066	37553.33
644.419	37399.44
644.771	37400.8
645.124	36943.63
645.477	36747.48
645.83	36702.51
646.182	36543.19
646.535	36394.72
646.888	36609.86
647.24	36258.45
647.593	36469.97
647.945	36467.49
648.298	36150.43
648.65	36192.24
649.002	36109.76
649.355	36225.69
649.707	36171.22
650.059	36304.33
650.411	36689.85
650.763	36727.14
651.115	37170.07
651.467	37128.49
651.819	37031.99
652.171	36946.12
652.523	36927.81
652.875	36670.65
653.227	36663.19
653.578	36943.63
653.93	36895.72
654.282	36703.87
654.633	36636.3
654.985	36588.39
655.337	36590.42
655.688	36648.95
656.039	36797.2
656.391	36528.5
656.742	36589.97
657.094	36570.99
657.445	36642.85
657.796	36544.77
658.147	36499.8
658.498	36610.53
658.849	36640.59
659.2	36443.99
659.551	36443.99
659.902	36560.14
660.253	36448.73
660.604	36636.07
660.955	36493.93
661.306	36441.95
661.656	36383.2
662.007	36495.74
662.358	36401.73
662.708	36390.88
663.059	36494.83
663.409	36157.67
663.76	36500.71
664.11	36547.26
664.461	36487.83
664.811	36439.01
665.161	36400.37
665.511	36323.99
665.862	36326.47
666.212	36493.25
666.562	36386.81
666.912	36279.92
667.262	36200.38
667.612	36389.52
667.962	36295.29
668.312	36262.97
668.662	36431.78
669.011	36201.05
669.361	36240.15
669.711	36238.11
670.06	36184.78
670.41	36218.23
670.76	36100.72
671.109	36165.8
671.459	36217.32
671.808	36035.18
672.157	36220.26
672.507	35861.85
672.856	35943.89
673.205	36058.01
673.554	36120.15
673.904	35968.97
674.253	36126.93
674.602	35938.91
674.951	35490.11
675.3	35327.4
675.649	35917.67
675.998	35800.39
676.346	35965.81
676.695	35939.59
677.044	35799.93
677.393	35807.62
677.741	35794.28
678.09	35792.7
678.438	35736.43
678.787	35759.94
679.135	35732.82
679.484	35613.95
679.832	35687.85
680.181	35416.67
680.529	35684.01
680.877	35386.61
681.225	35403.11
681.573	35678.81
681.922	35295.09
682.27	35211.25
682.618	35204.24
682.966	35166.96
683.314	35230.23
683.661	35008.09
684.009	34965.61
684.357	34871.15
684.705	34952.73
685.053	34910.69
685.4	34932.16
685.748	34694.65
686.095	34756.35
686.443	34513.87
686.79	34479.29
687.138	34578.05
687.485	34573.3
687.832	34456.24
688.18	34498.95
688.527	34367.66
688.874	34369.24
689.221	34361.33
689.568	34168.34
689.915	34081.56
690.262	34032.52
690.609	33984.39
690.956	33725.19
691.303	33741.91
691.65	33691.06
691.997	33657.62
692.344	33516.15
692.69	33532.88
693.037	33501.01
693.383	33173.79
693.73	33351.64
694.077	33098.54
694.423	33130.63
694.769	32968.37
695.116	32925.89
695.462	32830.29
695.808	32799.56
696.155	32821.71
696.501	32763.18
696.847	32795.27
697.193	32388.72
697.539	32509.63
697.885	32317.09
698.231	32172.69
698.577	32326.58
698.923	32254.04
699.269	32015.4
699.614	31928.4
699.96	31847.5
700.306	31849.08
700.651	31741.28
700.997	31647.73
701.342	31616.32
701.688	31537.9
702.033	31499.03
702.379	31361.41
702.724	31312.14
703.069	31280.28
703.415	31037.57
703.76	31132.94
704.105	30959.84
704.45	30958.03
704.795	30678.49
705.14	30728.2
705.485	30744.93
705.83	30577.7
706.175	30522.56
706.52	30365.05
706.865	30357.59
707.209	30305.16
707.554	30224.94
707.899	30266.75
708.243	30015.91
708.588	30030.82
708.932	29849.13
709.277	29782.69
709.621	29807.1
709.966	29544.96
710.31	29676.25
710.654	29558.52
710.998	29536.6
711.342	29575.47
711.687	29445.98
712.031	29255.25
712.375	29137.96
712.719	29322.82
713.063	29126.21
713.407	29208.7
713.75	29174.8
714.094	29180
714.438	29031.98
714.782	29052.32
715.125	28793.34
715.469	28817.75
715.812	28778.42
716.156	28604.64
716.499	28700.69
716.843	28623.85
717.186	28530.75
717.53	28625.21
717.873	28602.84
718.216	28584.08
718.559	28305.44
718.902	28213.02
719.246	28293.01
719.589	28189.29
719.932	28007.37
720.275	28133.7
720.617	28003.08
720.96	27987.71
721.303	27845.34
721.646	28015.05
721.989	27647.61
722.331	27858.67
722.674	27652.8
723.016	27758.79
723.359	27723.54
723.701	27661.84
724.044	27488.06
724.386	27517.44
724.729	27610.32
725.071	27486.71
725.413	27458.01
725.755	27286.03
726.097	27284.9
726.439	27227.96
726.782	27051.92
727.124	27211.46
727.465	26966.04
727.807	27023.22
728.149	27030.67
728.491	26991.13
728.833	26927.63
729.175	26857.8
729.516	26750.23
729.858	26823
730.199	26855.99
730.541	26728.31
730.882	26666.84
731.224	26786.16
731.565	26658.25
731.906	26599.05
732.248	26563.34
732.589	26415.55
732.93	26386.4
733.271	26470.91
733.612	26438.82
733.953	26499.16
734.294	26398.37
734.635	26253.97
734.976	26392.72
735.317	26220.53
735.658	26133.52
735.999	26179.4
736.339	26211.94
736.68	26197.02
737.021	26039.06
737.361	25982.34
737.702	26024.6
738.042	26026.18
738.383	25862.57
738.723	26013.07
739.063	25848.33
739.404	25846.07
739.744	25794.1
740.084	25769.69
740.424	25709.35
740.764	25609.92
741.104	25773.53
741.444	25493.76
741.784	25490.15
742.124	25542.35
742.464	25457.16
742.804	25355.01
743.143	25306.2
743.483	25437.04
743.823	25352.07
744.162	25208.12
744.502	25268.23
744.841	25135.58
745.181	25200.89
745.52	25113.66
745.86	25067.79
746.199	25082.02
746.538	24985.76
746.877	25086.09
747.216	25051.74
747.556	24813.78
747.895	24866.89
748.234	24811.3
748.573	24675.71
748.911	24804.74
749.25	24749.6
749.589	24723.16
749.928	24677.74
750.267	24633.45
750.605	24589.38
750.944	24462.83
751.283	24399.56
751.621	24421.48
751.96	24428.48
752.298	24334.7
752.636	24258.77
752.975	24250.63
753.313	24051.77
753.651	24173.35
753.989	24115.95
754.327	24003.18
754.666	23862.85
755.004	23906.91
755.342	23817.65
755.679	23852
756.017	23645.23
756.355	23913.69
756.693	23669.63
757.031	23719.12
