Data from hue_100_FLMS001491_00032.txt Node
Date: Tue Feb 07 17:03:04 GMT 2017
User: dcchb
Spectrometer: FLMS00149
Trigger mode: 0
Integration Time (sec): 2.000000E-2
Scans to average: 10
Electric dark correction enabled: true
Nonlinearity correction enabled: false
Boxcar width: 0
XAxis mode: Wavelengths
Number of Pixels in Spectrum: 2048
>>>>>Begin Spectral Data<<<<<
341.393	-23.62
341.776	-23.62
342.16	-23.62
342.543	-47.8
342.927	-73.78
343.31	-62.48
343.693	-86.21
344.077	-61.58
344.46	-48.7
344.843	-60
345.226	-44.41
345.61	-18.87
345.993	-32.65
346.376	11.86
346.759	20.68
347.142	3.95
347.525	38.98
347.908	47.57
348.291	72.2
348.674	101.58
349.057	118.08
349.44	131.18
349.823	165.53
350.206	145.42
350.588	210.73
350.971	231.75
351.354	236.49
351.737	251.18
352.119	268.58
352.502	262.7
352.884	281.46
353.267	280.33
353.65	283.04
354.032	307.45
354.414	309.48
354.797	314
355.179	316.26
355.562	339.54
355.944	333.21
356.326	332.99
356.709	333.66
357.091	334.34
357.473	338.64
357.855	373.66
358.238	351.06
358.62	350.16
359.002	363.49
359.384	340.67
359.766	337.05
360.148	357.39
360.53	354.68
360.912	339.99
361.294	344.96
361.676	337.28
362.057	338.18
362.439	343.83
362.821	342.02
363.203	343.38
363.584	332.08
363.966	345.19
364.348	330.73
364.729	319.65
365.111	322.36
365.493	310.84
365.874	317.17
366.256	317.62
366.637	328.69
367.019	316.71
367.4	321.69
367.781	328.24
368.163	335.02
368.544	342.48
368.925	333.66
369.306	342.02
369.688	322.59
370.069	314
370.45	293.89
370.831	317.62
371.212	327.56
371.593	312.2
371.974	331.4
372.355	334.57
372.736	309.71
373.117	319.43
373.498	339.77
373.879	341.35
374.26	330.73
374.641	332.99
375.021	322.59
375.402	303.38
375.783	347.67
376.163	325.08
376.544	345.19
376.925	326.88
377.305	316.94
377.686	337.51
378.066	364.4
378.447	333.44
378.827	361.91
379.208	356.26
379.588	340.44
379.968	331.18
380.349	368.69
380.729	360.1
381.109	354.23
381.489	369.14
381.87	393.1
382.25	372.08
382.63	372.98
383.01	379.76
383.39	361.01
383.77	356.49
384.15	356.94
384.53	367.33
384.91	347.45
385.29	376.6
385.67	388.35
386.049	371.63
386.429	391.97
386.809	380.44
387.189	371.18
387.568	391.52
387.948	377.28
388.328	374.34
388.707	396.26
389.087	370.05
389.466	422.7
389.846	402.36
390.225	404.62
390.605	391.74
390.984	403.49
391.363	408.92
391.743	378.63
392.122	377.28
392.501	376.37
392.881	413.66
393.26	427.67
393.639	409.37
394.018	395.81
394.397	411.18
394.776	404.17
395.155	410.27
395.534	449.82
395.913	419.09
396.292	418.18
396.671	440.33
397.05	444.17
397.429	430.38
397.808	429.03
398.186	412.08
398.565	440.55
398.944	434.68
399.323	444.17
399.701	457.28
400.08	460.67
400.458	439.88
400.837	454.34
401.215	445.07
401.594	450.95
401.972	433.1
402.351	456.37
402.729	466.32
403.107	483.04
403.486	481.46
403.864	465.86
404.242	467.45
404.62	470.38
404.999	469.71
405.377	460.44
405.755	481
406.133	473.77
406.511	489.59
406.889	483.49
407.267	489.37
407.645	484.17
408.023	503.15
408.401	494.79
408.779	530.49
409.156	511.51
409.534	519.65
409.912	512.87
410.29	535.24
410.667	539.31
411.045	559.19
411.422	538.18
411.8	518.29
412.178	528.01
412.555	540.44
412.933	550.83
413.31	562.58
413.687	590.15
414.065	542.7
414.442	547.44
414.819	550.83
415.197	560.32
415.574	586.09
415.951	608.46
416.328	591.51
416.705	570.04
417.082	588.8
417.46	596.03
417.837	593.54
418.214	616.14
418.591	614.11
418.967	594.67
419.344	619.08
419.721	628.12
420.098	603.71
420.475	633.77
420.852	647.78
421.228	617.5
421.605	658.85
421.982	663.15
422.358	643.71
422.735	661.56
423.111	665.86
423.488	666.76
423.864	670.6
424.241	709.92
424.617	670.83
424.994	685.52
425.37	699.08
425.746	686.2
426.123	717.38
426.499	701.34
426.875	707.89
427.251	748.34
427.627	735.69
428.003	742.69
428.379	744.95
428.756	749.7
429.132	749.7
429.507	744.73
429.883	784.5
430.259	792.41
430.635	799.19
431.011	788.79
431.387	803.26
431.763	841.22
432.138	805.97
432.514	841.45
432.89	843.48
433.265	851.16
433.641	838.96
434.016	860.66
434.392	863.14
434.767	889.58
435.143	879.19
435.518	912.86
435.894	924.38
436.269	915.34
436.644	918.28
437.02	928
437.395	929.13
437.77	944.49
438.145	963.7
438.52	958.96
438.895	964.38
439.271	972.06
439.646	977.26
440.021	1003.93
440.395	1003.02
440.77	991.05
441.145	991.73
441.52	1031.95
441.895	1013.65
442.27	1022.46
442.645	1012.29
443.019	1056.81
443.394	1042.8
443.769	1064.94
444.143	1069.01
444.518	1085.73
444.892	1079.41
445.267	1097.94
445.641	1091.38
446.016	1104.72
446.39	1114.21
446.764	1102.91
447.139	1122.34
447.513	1125.28
447.887	1149.24
448.262	1163.7
448.636	1156.92
449.01	1145.62
449.384	1176.58
449.758	1157.14
450.132	1218.16
450.506	1185.62
450.88	1168.22
451.254	1218.84
451.628	1237.14
452.002	1245.96
452.376	1246.63
452.75	1237.59
453.123	1279.63
453.497	1311.26
453.871	1300.64
454.244	1318.95
454.618	1317.14
454.992	1360.76
455.365	1352.85
455.739	1389.23
456.112	1399.62
456.486	1415.44
456.859	1417.93
457.232	1447.76
457.606	1464.26
457.979	1476.91
458.352	1519.85
458.725	1530.02
459.099	1506.74
459.472	1531.6
459.845	1547.64
460.218	1572.5
460.591	1605.27
460.964	1596
461.337	1643.23
461.71	1679.62
462.083	1686.17
462.456	1717.58
462.829	1716.23
463.201	1742.89
463.574	1740.18
463.947	1767.98
464.32	1855.88
464.692	1847.52
465.065	1854.75
465.438	1870.57
465.81	1929.55
466.183	1946.95
466.555	1988.08
466.928	2008.87
467.3	2002.77
467.672	2029.44
468.045	2127.97
468.417	2106.05
468.789	2127.06
469.161	2145.14
469.534	2225.37
469.906	2268.75
470.278	2300.84
470.65	2311.24
471.022	2364.8
471.394	2422.87
471.766	2433.5
472.138	2503.32
472.51	2553.27
472.882	2584.23
473.253	2649.99
473.625	2678.23
473.997	2752.81
474.369	2791.45
474.74	2846.59
475.112	2912.8
475.484	2968.85
475.855	3058.79
476.227	3145.12
476.598	3216.53
476.97	3255.17
477.341	3355.96
477.713	3448.61
478.084	3477.76
478.455	3639.57
478.827	3656.51
479.198	3799.56
479.569	3874.36
479.94	4012.89
480.311	4024.64
480.682	4163.85
481.053	4297.18
481.424	4391.64
481.795	4483.38
482.166	4696.49
482.537	4721.34
482.908	4844.05
483.279	4986.2
483.65	5156.81
484.021	5238.17
484.391	5336.92
484.762	5464.38
485.133	5560.87
485.503	5752.5
485.874	5900.3
486.244	6046.28
486.615	6168.76
486.985	6295.54
487.356	6494.41
487.726	6600.39
488.097	6806.49
488.467	6901.17
488.837	7151.79
489.207	7304.78
489.578	7442.18
489.948	7556.98
490.318	7809.4
490.688	7833.35
491.058	8131.42
491.428	8267.01
491.798	8437.18
492.168	8646.67
492.538	8763.72
492.908	8957.39
493.278	9144.28
493.648	9234.45
494.017	9403.93
494.387	9591.27
494.757	9786.52
495.126	9963.01
495.496	10020.87
495.866	10114.65
496.235	10315.55
496.605	10553.96
496.974	10707.63
497.344	10773.84
497.713	10978.36
498.082	11040.95
498.452	11282.3
498.821	11394.84
499.19	11448.85
499.559	11558
499.928	11674.83
500.298	11911.21
500.667	12018.78
501.036	12052.68
501.405	12279.56
501.774	12398.21
502.143	12524.98
502.512	12562.95
502.88	12715.48
503.249	12751.87
503.618	12965.42
503.987	13035.25
504.356	13130.16
504.724	13351.85
505.093	13356.15
505.462	13476.37
505.83	13652.18
506.199	13644.27
506.567	13873.65
506.936	13937.15
507.304	14111.61
507.672	14145.73
508.041	14248.55
508.409	14309.34
508.777	14423.91
509.145	14566.06
509.514	14492.84
509.882	14569.9
510.25	14762.21
510.618	14903.68
510.986	14891.92
511.354	14957.01
511.722	15142.09
512.09	15194.52
512.458	15205.59
512.826	15385.02
513.193	15408.52
513.561	15402.19
513.929	15622.08
514.297	15663.2
514.664	15753.37
515.032	15802.41
515.4	15913.82
515.767	15939.58
516.135	15982.52
516.502	15846.7
516.869	16239.46
517.237	16166.69
517.604	16137.54
517.972	16279.46
518.339	16309.29
518.706	16310.64
519.073	16426.57
519.44	16499.57
519.808	16528.27
520.175	16543.63
520.542	16796.51
520.909	16758.32
521.276	16880.8
521.643	16820.91
522.009	16928.71
522.376	16950.85
522.743	17064.07
523.11	17303.61
523.477	17252.31
523.843	17224.97
524.21	17454.34
524.577	17429.03
524.943	17545.19
525.31	17592.19
525.676	17640.1
526.043	17702.02
526.409	17750.83
526.776	17799.42
527.142	17832.64
527.508	17935.01
527.874	17899.08
528.241	17933.65
528.607	17964.39
528.973	18135.23
529.339	18031.28
529.705	18139.3
530.071	18144.27
530.437	18196.24
530.803	18263.14
531.169	18322.12
531.535	18220.2
531.901	18251.38
532.267	18313.53
532.632	18341.33
532.998	18258.39
533.364	18377.03
533.73	18355.79
534.095	18475.56
534.461	18335
534.826	18324.38
535.192	18485.95
535.557	18507.42
535.923	18400.76
536.288	18417.48
536.653	18428.1
537.019	18304.49
537.384	18358.95
537.749	18399.18
538.114	18311.5
538.479	18350.36
538.845	18363.02
539.21	18245.73
539.575	18337.26
539.94	18246.41
540.305	18318.73
540.67	18260.88
541.034	18151.27
541.399	18243.93
541.764	18187.21
542.129	18191.5
542.494	18147.43
542.858	18182.91
543.223	18100.88
543.587	18258.39
543.952	18133.42
544.316	18080.77
544.681	18070.37
545.045	18078.73
545.41	18209.13
545.774	18085.51
546.138	17997.15
546.503	17966.19
546.867	17965.29
547.231	18008
547.595	17994.22
547.959	17978.85
548.324	17843.03
548.688	17820.66
549.052	17810.49
549.416	17873.77
549.779	17822.02
550.143	17822.47
550.507	17791.06
550.871	17782.92
551.235	17723.71
551.599	17829.93
551.962	17687.56
552.326	17715.58
552.689	17766.88
553.053	17582.93
553.417	17683.72
553.78	17772.08
554.143	17640.55
554.507	17559.65
554.87	17700.44
555.234	17834.67
555.597	17631.29
555.96	17659.76
556.323	17752.41
556.686	17527.79
557.05	17693.89
557.413	17668.8
557.776	17606.43
558.139	17697.05
558.502	17696.37
558.865	17639.65
559.228	17723.71
559.59	17724.39
559.953	17733.88
560.316	17799.42
560.679	17810.49
561.041	17862.02
561.404	17909.02
561.767	17858.85
562.129	17837.16
562.492	17838.51
562.854	17843.03
563.217	17865.63
563.579	17979.08
563.941	17945.86
564.304	17982.47
564.666	18068.34
565.028	18036.93
565.39	18048.45
565.753	18178.62
566.115	18122.57
566.477	18126.19
566.839	18102.91
567.201	18283.93
567.563	18254.55
567.925	18281.89
568.287	18367.77
568.648	18323.92
569.01	18417.03
569.372	18438.27
569.734	18361.66
570.095	18514.88
570.457	18464.71
570.819	18530.25
571.18	18584.48
571.542	18743.12
571.903	18601.43
572.265	18527.76
572.626	18703.58
572.987	18664.71
573.349	18621.09
573.71	18695.67
574.071	18742.9
574.432	18751.26
574.794	18865.38
575.155	18794.65
575.516	18777.47
575.877	18755.78
576.238	18788.55
576.599	18819.73
576.96	18832.16
577.32	18676.23
577.681	18876.23
578.042	18881.65
578.403	18909.67
578.763	18951.93
579.124	18892.27
579.485	18906.28
579.845	19027.18
580.206	18871.26
580.566	18948.09
580.927	18942.89
581.287	18944.93
581.648	18900.18
582.008	18895.44
582.368	18921.2
582.728	18978.37
583.089	18896.57
583.449	18833.06
583.809	19034.87
584.169	18864.93
584.529	18850.46
584.889	18979.95
585.249	18941.31
585.609	18721.43
585.969	18836
586.329	18902.89
586.688	18943.57
587.048	18806.62
587.408	18781.31
587.768	18771.82
588.127	18767.3
588.487	18758.26
588.846	18897.47
589.206	18710.58
589.565	18752.61
589.925	18783.35
590.284	18697.25
590.643	18796.45
591.003	18748.77
591.362	18925.72
591.721	18826.74
592.08	18757.59
592.44	18784.93
592.799	18839.17
593.158	18754.87
593.517	18704.03
593.876	18763.24
594.235	18701.99
594.593	18729.79
594.952	18720.52
595.311	18692.05
595.67	18672.16
596.029	18814.08
596.387	18720.98
596.746	18808.21
597.104	18638.94
597.463	18662.9
597.822	18663.35
598.18	18513.3
598.538	18564.6
598.897	18792.16
599.255	18511.49
599.613	18758.04
599.972	18730.24
600.33	18605.95
600.688	18555.78
601.046	18748.09
601.404	18691.15
601.762	18650.02
602.12	18765.72
602.478	18698.83
602.836	18768.21
603.194	18687.98
603.552	18658.83
603.91	18560.53
604.268	18723.24
604.625	18562.79
604.983	18704.03
605.341	18548.55
605.698	18650.24
606.056	18723.24
606.413	18748.32
606.771	18783.8
607.128	18819.51
607.485	18687.53
607.843	18640.98
608.2	18789.22
608.557	18831.03
608.914	18731.15
609.272	18850.92
609.629	18889.33
609.986	18885.49
610.343	18914.87
610.7	18988.31
611.057	19036.9
611.414	18900.63
611.771	18927.3
612.127	18987.18
612.484	18962.55
612.841	19030.35
613.198	18968.88
613.554	19000.07
613.911	19079.61
614.267	19079.84
614.624	19071.93
614.98	19048.2
615.337	19057.01
615.693	19115.99
616.05	19203.68
616.406	19254.97
616.762	19110.34
617.118	19131.14
617.475	19088.88
617.831	19226.05
618.187	19287.52
618.543	19278.7
618.899	19369.1
619.255	19232.38
619.611	19231.7
619.967	19301.75
620.323	19486.15
620.678	19425.59
621.034	19273.96
621.39	19232.6
621.746	19285.03
622.101	19454.74
622.457	19249.32
622.812	19371.13
623.168	19305.14
623.523	19260.4
623.879	19406.16
624.234	19274.63
624.589	19335.88
624.945	19315.54
625.3	19330.45
625.655	19326.61
626.01	19373.61
626.365	19318.02
626.72	19294.29
627.075	19310.34
627.43	19375.87
627.785	19166.16
628.14	19270.34
628.495	19243
628.85	19250.45
629.205	19140.4
629.559	19345.14
629.914	19173.39
630.269	19220.4
630.623	19123
630.978	19143.56
631.332	19184.47
631.687	19301.98
632.041	19060.18
632.396	19173.39
632.75	18962.1
633.104	19031.7
633.459	18838.71
633.813	18950.8
634.167	18988.31
634.521	18940.41
634.875	19000.74
635.229	18943.8
635.583	18821.09
635.937	18834.19
636.291	18788.32
636.645	18872.61
636.999	18709
637.352	18837.13
637.706	18666.51
638.06	18741.32
638.413	18678.72
638.767	18706.51
639.121	18726.17
639.474	18636.46
639.828	18553.07
640.181	18605.05
640.534	18606.63
640.888	18554.65
641.241	18495.22
641.594	18626.52
641.947	18654.09
642.301	18565.95
642.654	18624.93
643.007	18552.62
643.36	18487.31
643.713	18502.9
644.066	18589.45
644.419	18391.95
644.771	18303.81
645.124	18205.28
645.477	18122.12
645.83	18074.44
646.182	17930.26
646.535	17908.12
646.888	17926.2
647.24	17801.9
647.593	17893.65
647.945	17972.07
648.298	17787.22
648.65	17824.5
649.002	17762.36
649.355	17777.27
649.707	17795.8
650.059	17933.88
650.411	18115.12
650.763	18069.02
651.115	18272.63
651.467	18251.38
651.819	18196.02
652.171	18117.6
652.523	18077.15
652.875	18212.97
653.227	18026.31
653.578	18264.27
653.93	18191.5
654.282	18113.31
654.633	18077.83
654.985	18172.74
655.337	18140.65
655.688	18083.93
656.039	18220.42
656.391	18008.68
656.742	18123.93
657.094	18043.03
657.445	18150.82
657.796	18220.42
658.147	18213.65
658.498	18067.66
658.849	18196.47
659.2	18119.64
659.551	18080.09
659.902	18228.79
660.253	18103.82
660.604	18246.64
660.955	18182.23
661.306	18197.6
661.656	18141.78
662.007	18241.22
662.358	18285.96
662.708	18236.24
663.059	18148.56
663.409	18157.15
663.76	18270.59
664.11	18193.08
664.461	18147.21
664.811	18078.51
665.161	18125.51
665.511	18167.09
665.862	18170.71
666.212	18173.65
666.562	18223.36
666.912	18124.83
667.262	18139.98
667.612	18170.26
667.962	18228.79
668.312	18152.18
668.662	18325.96
669.011	18269.24
669.361	18134.78
669.711	18204.15
670.06	18176.58
670.41	18161.44
670.76	18156.47
671.109	18238.28
671.459	18197.6
671.808	18114.21
672.157	18142.46
672.507	18009.58
672.856	18014.78
673.205	18034.89
673.554	18093.2
673.904	17926.65
674.253	18065.85
674.602	17963.26
674.951	17709.7
675.3	17586.32
675.649	17898.85
675.998	17834.67
676.346	17991.73
676.695	17912.64
677.044	17806.88
677.393	17740.44
677.741	17864.95
678.09	17789.48
678.438	17778.85
678.787	17755.8
679.135	17759.65
679.484	17655.47
679.832	17645.3
680.181	17606.43
680.529	17586.54
680.877	17525.98
681.225	17615.02
681.573	17681.46
681.922	17457.96
682.27	17392.88
682.618	17462.25
682.966	17371.41
683.314	17433.1
683.661	17321.92
684.009	17265.2
684.357	17275.82
684.705	17259.55
685.053	17295.93
685.4	17145.65
685.748	17098.19
686.095	17054.58
686.443	16989.72
686.79	17025.2
687.138	17045.09
687.485	17039.44
687.832	16873.34
688.18	16825.66
688.527	16787.92
688.874	16833.12
689.221	16753.12
689.568	16686
689.915	16693.69
690.262	16613.46
690.609	16567.59
690.956	16501.83
691.303	16476.74
691.65	16467.93
691.997	16467.48
692.344	16322.85
692.69	16271.78
693.037	16319.68
693.383	16217.99
693.73	16218.44
694.077	16008.73
694.423	16073.59
694.769	16012.35
695.116	15989.75
695.462	15941.39
695.808	15946.13
696.155	15813.26
696.501	15734.84
696.847	15745.01
697.193	15572.36
697.539	15675.86
697.885	15539.59
698.231	15465.47
698.577	15479.71
698.923	15422.31
699.269	15320.16
699.614	15249.43
699.96	15190.9
700.306	15178.47
700.651	15057.34
700.997	15098.02
701.342	14997.68
701.688	14881.98
702.033	14942.77
702.379	14938.48
702.724	14848.54
703.069	14798.14
703.415	14747.52
703.76	14640.86
704.105	14659.61
704.45	14673.63
704.795	14497.36
705.14	14513.86
705.485	14493.97
705.83	14413.97
706.175	14393.41
706.52	14413.52
706.865	14348.44
707.209	14319.96
707.554	14211.26
707.899	14216.91
708.243	14088.78
708.588	14020.76
708.932	13970.82
709.277	13917.04
709.621	13989.58
709.966	13813.99
710.31	13913.42
710.654	13691.96
710.998	13803.37
711.342	13783.48
711.687	13758.17
712.031	13683.14
712.375	13675.01
712.719	13711.16
713.063	13602.24
713.407	13678.17
713.75	13509.59
714.094	13496.26
714.438	13560.43
714.782	13518.18
715.125	13454.9
715.469	13515.69
715.812	13347.33
716.156	13348.69
716.499	13431.85
716.843	13297.39
717.186	13235.92
717.53	13324.51
717.873	13293.77
718.216	13247.45
718.559	13167.45
718.902	13080.22
719.246	13177.85
719.589	13104.85
719.932	13120.22
720.275	13055.59
720.617	13055.14
720.96	13047
721.303	13011.3
721.646	13130.39
721.989	12936.95
722.331	12994.57
722.674	13060.79
723.016	12975.14
723.359	12955.7
723.701	12976.49
724.044	12893.56
724.386	12880.9
724.729	12875.03
725.071	12860.11
725.413	12857.63
725.755	12821.24
726.097	12773.79
726.439	12706.9
726.782	12743.73
727.124	12821.7
727.465	12733.56
727.807	12719.1
728.149	12695.37
728.491	12704.41
728.833	12747.35
729.175	12649.05
729.516	12624.19
729.858	12662.83
730.199	12695.37
730.541	12660.35
730.882	12601.36
731.224	12698.31
731.565	12667.12
731.906	12596.62
732.248	12641.81
732.589	12575.15
732.93	12508.94
733.271	12518.2
733.612	12558.88
733.953	12559.56
734.294	12591.19
734.635	12527.69
734.976	12648.82
735.317	12598.88
735.658	12525.66
735.999	12578.54
736.339	12527.92
736.68	12643.17
737.021	12566.79
737.361	12548.94
737.702	12649.5
738.042	12573.79
738.383	12522.27
738.723	12572.66
739.063	12582.38
739.404	12632.32
739.744	12580.57
740.084	12576.73
740.424	12521.37
740.764	12534.7
741.104	12669.16
741.444	12552.55
741.784	12531.99
742.124	12682.72
742.464	12615.15
742.804	12690.85
743.143	12717.29
743.483	12726.78
743.823	12660.57
744.162	12689.5
744.502	12786.22
744.841	12734.02
745.181	12827.8
745.52	12842.94
745.86	12931.75
746.199	12957.96
746.538	12972.88
746.877	13041.8
747.216	13179.65
747.556	13108.24
747.895	13195.92
748.234	13251.06
748.573	13259.65
748.911	13344.39
749.25	13326.77
749.589	13469.14
749.928	13564.28
750.267	13662.35
750.605	13674.1
750.944	13741.22
751.283	13813.54
751.621	13956.13
751.96	14021.67
752.298	14086.3
752.636	14254.65
752.975	14242.68
753.313	14335.78
753.651	14577.81
753.989	14601.99
754.327	14737.58
754.666	14785.03
755.004	14926.95
755.342	15109.32
755.679	15280.62
