Data from hue_250_FLMS001491_00075.txt Node
Date: Tue Feb 07 16:01:27 GMT 2017
User: dcchb
Spectrometer: FLMS00149
Trigger mode: 0
Integration Time (sec): 2.000000E-2
Scans to average: 10
Electric dark correction enabled: true
Nonlinearity correction enabled: false
Boxcar width: 0
XAxis mode: Wavelengths
Number of Pixels in Spectrum: 2048
>>>>>Begin Spectral Data<<<<<
341.393	-19.94
341.776	-19.94
342.16	-19.94
342.543	-51.81
342.927	-67.63
343.31	-85.7
343.693	-56.78
344.077	-71.02
344.46	-62.88
344.843	-54.29
345.226	-56.55
345.61	-23.56
345.993	-25.14
346.376	14.41
346.759	5.82
347.142	8.3
347.525	46.27
347.908	64.12
348.291	96.44
348.674	86.72
349.057	113.84
349.44	143.44
349.823	145.93
350.206	165.14
350.588	183.44
350.971	206.04
351.354	232.48
351.737	223.89
352.119	255.08
352.502	232.25
352.884	262.99
353.267	277
353.65	271.8
354.032	301.18
354.414	316.77
354.797	307.96
355.179	310.67
355.562	310.22
355.944	313.16
356.326	319.26
356.709	309.31
357.091	342.53
357.473	329.65
357.855	341.86
358.238	311.57
358.62	329.88
359.002	327.62
359.384	323.32
359.766	314.74
360.148	314.06
360.53	331.23
360.912	335.75
361.294	315.87
361.676	315.42
362.057	325.36
362.439	323.55
362.821	338.69
363.203	325.58
363.584	313.83
363.966	325.81
364.348	308.18
364.729	305.25
365.111	307.96
365.493	317.45
365.874	311.57
366.256	320.61
366.637	318.58
367.019	323.1
367.4	314.06
367.781	291.24
368.163	305.02
368.544	315.64
368.925	290.11
369.306	300.95
369.688	306.6
370.069	291.24
370.45	308.41
370.831	309.77
371.212	299.6
371.593	299.14
371.974	313.16
372.355	305.47
372.736	314.51
373.117	301.63
373.498	296.43
373.879	309.99
374.26	317.45
374.641	285.81
375.021	308.64
375.402	309.54
375.783	312.7
376.163	309.99
376.544	312.48
376.925	315.87
377.305	347.96
377.686	334.62
378.066	335.08
378.447	328.07
378.827	333.95
379.208	321.07
379.588	314.06
379.968	329.43
380.349	333.95
380.729	326.94
381.109	342.31
381.489	327.17
381.87	339.14
382.25	322.87
382.63	325.13
383.01	342.53
383.39	329.65
383.77	339.37
384.15	331.69
384.53	335.98
384.91	338.92
385.29	341.86
385.67	341.86
386.049	358.13
386.429	343.44
386.809	343.21
387.189	351.57
387.568	362.65
387.948	352.25
388.328	346.38
388.707	367.39
389.087	348.86
389.466	370.1
389.846	348.63
390.225	354.51
390.605	355.41
390.984	346.6
391.363	361.06
391.743	355.87
392.122	374.17
392.501	373.94
392.881	372.14
393.26	353.15
393.639	391.8
394.018	377.56
394.397	383.21
394.776	393.61
395.155	387.96
395.534	380.5
395.913	367.39
396.292	394.28
396.671	382.76
397.05	397.22
397.429	394.51
397.808	397.22
398.186	382.76
398.565	412.59
398.944	410.78
399.323	394.51
399.701	408.97
400.08	408.75
400.458	398.35
400.837	427.5
401.215	436.77
401.594	412.14
401.972	408.52
402.351	403.77
402.729	435.64
403.107	424.11
403.486	425.02
403.864	440.38
404.242	429.08
404.62	435.86
404.999	446.71
405.377	435.41
405.755	463.66
406.133	436.77
406.511	472.93
406.889	460.27
407.267	476.54
407.645	470.67
408.023	495.98
408.401	473.15
408.779	462.3
409.156	489.65
409.534	511.34
409.912	508.86
410.29	508.63
410.667	495.52
411.045	489.2
411.422	549.08
411.8	542.53
412.178	541.4
412.555	534.84
412.933	553.83
413.31	547.95
413.687	544.34
414.065	568.52
414.442	566.93
414.819	576.88
415.197	587.5
415.574	596.31
415.951	592.7
416.328	595.86
416.705	597.44
417.082	606.93
417.46	612.58
417.837	605.13
418.214	621.62
418.591	636.54
418.967	649.64
419.344	661.17
419.721	673.82
420.098	658.23
420.475	689.64
420.852	695.07
421.228	714.28
421.605	708.17
421.982	693.03
422.358	720.38
422.735	738.23
423.111	715.18
423.488	721.96
423.864	724.67
424.241	757.21
424.617	768.28
424.994	771.9
425.37	779.58
425.746	798.79
426.123	789.3
426.499	841.5
426.875	804.22
427.251	846.02
427.627	837.44
428.003	853.25
428.379	860.71
428.756	861.16
429.132	890.54
429.507	915.4
429.883	918.56
430.259	909.3
430.635	931.44
431.011	925.57
431.387	975.51
431.763	962.18
432.138	956.98
432.514	985.91
432.89	997.88
433.265	1016.41
433.641	1059.35
434.016	1065.23
434.392	1057.09
434.767	1093.02
435.143	1074.94
435.518	1095.06
435.894	1118.78
436.269	1138.9
436.644	1156.52
437.02	1140.25
437.395	1174.6
437.77	1214.6
438.145	1228.16
438.52	1207.6
438.895	1241.49
439.271	1247.82
439.646	1282.17
440.021	1318.55
440.395	1288.95
440.77	1329.85
441.145	1311.32
441.52	1312.9
441.895	1357.65
442.27	1392.68
442.645	1394.03
443.019	1401.04
443.394	1375.73
443.769	1422.5
444.143	1395.39
444.518	1445.78
444.892	1450.07
445.267	1469.74
445.641	1465.89
446.016	1471.54
446.39	1486.46
446.764	1474.48
447.139	1519.9
447.513	1529.39
447.887	1534.59
448.262	1499.57
448.636	1540.47
449.01	1570.07
449.384	1559.9
449.758	1568.94
450.132	1619.34
450.506	1594.7
450.88	1603.07
451.254	1618.21
451.628	1643.29
452.002	1665.21
452.376	1683.52
452.75	1718.09
453.123	1709.05
453.497	1720.58
453.871	1743.17
454.244	1753.57
454.618	1786.34
454.992	1782.27
455.365	1812.1
455.739	1807.13
456.112	1840.57
456.486	1879.44
456.859	1903.62
457.232	1923.06
457.606	1904.53
457.979	1931.42
458.352	1977.07
458.725	1980.23
459.099	2010.29
459.472	2006.22
459.845	2058.65
460.218	2073.11
460.591	2092.09
460.964	2079.44
461.337	2180.45
461.71	2161.92
462.083	2188.36
462.456	2222.71
462.829	2175.71
463.201	2229.49
463.574	2226.33
463.947	2283.05
464.32	2338.19
464.692	2325.08
465.065	2323.5
465.438	2410.28
465.81	2425.64
466.183	2471.74
466.555	2506.09
466.928	2492.99
467.3	2512.87
467.672	2559.42
468.045	2606.43
468.417	2584.96
468.789	2603.94
469.161	2645.52
469.534	2677.84
469.906	2742.02
470.278	2739.98
470.65	2796.71
471.022	2812.52
471.394	2851.62
471.766	2858.85
472.138	2924.16
472.51	2975.23
472.882	3010.49
473.253	3014.1
473.625	3094.1
473.997	3157.83
474.369	3164.83
474.74	3182.46
475.112	3245.28
475.484	3285.96
475.855	3332.96
476.227	3352.4
476.598	3407.31
476.97	3463.36
477.341	3522.11
477.713	3539.74
478.084	3597.59
478.455	3666.06
478.827	3714.87
479.198	3762.33
479.569	3812.95
479.94	3883.23
480.311	3872.61
480.682	3974.98
481.053	4045.94
481.424	4134.75
481.795	4178.59
482.166	4197.12
482.537	4233.05
482.908	4322.09
483.279	4362.77
483.65	4434.4
484.021	4526.6
484.391	4535.19
484.762	4567.96
485.133	4600.05
485.503	4652.93
485.874	4749.88
486.244	4786.03
486.615	4859.93
486.985	4914.62
487.356	4972.02
487.726	5035.07
488.097	5155.06
488.467	5136.31
488.837	5267.15
489.207	5253.36
489.578	5304.44
489.948	5357.99
490.318	5435.73
490.688	5449.74
491.058	5479.57
491.428	5594.82
491.798	5629.17
492.168	5668.95
492.538	5693.81
492.908	5781.49
493.278	5828.04
493.648	5811.77
494.017	5899.9
494.387	5983.51
494.757	6014.02
495.126	6048.6
495.496	6085.66
495.866	6068.94
496.235	6147.35
496.605	6193.23
496.974	6219.89
497.344	6258.31
497.713	6291.53
498.082	6327.23
498.452	6402.49
498.821	6364.52
499.19	6400.45
499.559	6489.49
499.928	6488.59
500.298	6540.56
500.667	6633.22
501.036	6518.42
501.405	6604.29
501.774	6612.43
502.143	6648.13
502.512	6703.72
502.88	6734.68
503.249	6755.25
503.618	6798.63
503.987	6793.89
504.356	6840.44
504.724	6877.28
505.093	6848.35
505.462	6943.94
505.83	6918.18
506.199	6947.56
506.567	7039.08
506.936	6979.65
507.304	7101.45
507.672	7117.5
508.041	7130.15
508.409	7123.15
508.777	7228
509.145	7263.26
509.514	7195.01
509.882	7271.84
510.25	7251.96
510.618	7272.75
510.986	7242.24
511.354	7285.85
511.722	7391.61
512.09	7421.44
512.458	7420.31
512.826	7480.2
513.193	7413.99
513.561	7477.49
513.929	7513.42
514.297	7608.78
514.664	7594.32
515.032	7573.76
515.4	7600.65
515.767	7710.02
516.135	7652.85
516.502	7587.31
516.869	7665.28
517.237	7680.19
517.604	7629.35
517.972	7738.72
518.339	7773.98
518.706	7739.63
519.073	7819.4
519.44	7804.71
519.808	7893.75
520.175	7800.87
520.542	7898.94
520.909	7884.71
521.276	7874.99
521.643	7959.51
522.009	7931.03
522.376	8025.27
522.743	8035.89
523.11	8050.81
523.477	8133.74
523.843	8093.06
524.21	8168.54
524.577	8170.58
524.943	8188.43
525.31	8215.32
525.676	8223.68
526.043	8214.42
526.409	8279.05
526.776	8374.19
527.142	8300.74
527.508	8262.55
527.874	8394.07
528.241	8408.99
528.607	8392.49
528.973	8414.41
529.339	8407.18
529.705	8456.44
530.071	8489.66
530.437	8514.97
530.803	8517.01
531.169	8526.05
531.535	8506.61
531.901	8486.5
532.267	8559.72
532.632	8560.17
532.998	8499.83
533.364	8548.42
533.73	8520.85
534.095	8570.57
534.461	8579.83
534.826	8569.89
535.192	8601.07
535.557	8630.68
535.923	8653.5
536.288	8649.21
536.653	8627.06
537.019	8539.61
537.384	8565.82
537.749	8605.37
538.114	8594.97
538.479	8612.15
538.845	8618.7
539.21	8536.22
539.575	8611.24
539.94	8608.08
540.305	8665.48
540.67	8608.98
541.034	8622.09
541.399	8557.23
541.764	8563.11
542.129	8596.33
542.494	8514.07
542.858	8621.64
543.223	8643.78
543.587	8604.46
543.952	8608.3
544.316	8585.48
544.681	8561.75
545.045	8550.91
545.41	8663.22
545.774	8573.05
546.138	8580.51
546.503	8597.23
546.867	8524.92
547.231	8513.84
547.595	8524.24
547.959	8564.69
548.324	8580.28
548.688	8566.72
549.052	8592.03
549.416	8514.97
549.779	8570.11
550.143	8587.51
550.507	8561.98
550.871	8570.57
551.235	8591.13
551.599	8610.11
551.962	8533.5
552.326	8605.59
552.689	8615.31
553.053	8548.19
553.417	8552.71
553.78	8660.28
554.143	8596.33
554.507	8594.29
554.87	8616.67
555.234	8694.86
555.597	8604.91
555.96	8567.18
556.323	8635.42
556.686	8635.87
557.05	8660.96
557.413	8661.41
557.776	8599.49
558.139	8691.01
558.502	8712.71
558.865	8676.55
559.228	8748.41
559.59	8764.91
559.953	8770.11
560.316	8801.75
560.679	8840.39
561.041	8797.45
561.404	8815.76
561.767	8866.6
562.129	8860.28
562.492	8933.72
562.854	8880.16
563.217	8923.32
563.579	8930.78
563.941	8922.19
564.304	8984.11
564.666	9020.72
565.028	9077.67
565.39	9019.82
565.753	9079.03
566.115	9108.86
566.477	9032.93
566.839	9102.98
567.201	9187.27
567.563	9140.49
567.925	9249.64
568.287	9232.92
568.648	9264.56
569.01	9290.55
569.372	9359.92
569.734	9286.25
570.095	9373.03
570.457	9403.31
570.819	9399.7
571.18	9354.27
571.542	9476.76
571.903	9429.53
572.265	9502.52
572.626	9478.34
572.987	9524.89
573.349	9510.88
573.71	9595.4
574.071	9633.36
574.432	9641.05
574.794	9698.9
575.155	9690.54
575.516	9636.07
575.877	9697.77
576.238	9724.21
576.599	9787.26
576.96	9737.99
577.32	9773.02
577.681	9777.99
578.042	9801.27
578.403	9894.15
578.763	9821.38
579.124	9876.75
579.485	9875.39
579.845	9955.61
580.206	9947.03
580.566	10016.4
580.927	9955.61
581.287	9989.74
581.648	9987.7
582.008	10060.92
582.368	10064.54
582.728	10074.03
583.089	10096.85
583.449	10098.44
583.809	10109.51
584.169	10108.6
584.529	10060.24
584.889	10230.41
585.249	10137.3
585.609	10109.51
585.969	10194.7
586.329	10194.7
586.688	10121.03
587.048	10188.83
587.408	10210.75
587.768	10121.03
588.127	10186.34
588.487	10186.57
588.846	10311.31
589.206	10195.38
589.565	10248.71
589.925	10321.25
590.284	10228.38
590.643	10337.07
591.003	10321.48
591.362	10265.66
591.721	10361.25
592.08	10357.86
592.44	10453
592.799	10447.13
593.158	10413.23
593.517	10435.15
593.876	10374.13
594.235	10381.37
594.593	10334.59
594.952	10352.44
595.311	10398.77
595.67	10399.9
596.029	10476.96
596.387	10474.24
596.746	10482.61
597.104	10466.79
597.463	10423.62
597.822	10467.24
598.18	10449.61
598.538	10463.85
598.897	10481.93
599.255	10384.3
599.613	10568.71
599.972	10509.05
600.33	10525.77
600.688	10527.8
601.046	10550.63
601.404	10540.23
601.762	10575.48
602.12	10551.53
602.478	10533.45
602.836	10556.28
603.194	10553.34
603.552	10542.04
603.91	10537.97
604.268	10596.05
604.625	10534.58
604.983	10571.42
605.341	10516.5
605.698	10654.8
606.056	10651.64
606.413	10548.59
606.771	10594.47
607.128	10600.79
607.485	10583.39
607.843	10639.89
608.2	10737.51
608.557	10719.21
608.914	10669.27
609.272	10696.84
609.629	10784.74
609.986	10800.79
610.343	10683.73
610.7	10734.12
611.057	10837.4
611.414	10808.92
611.771	10793.78
612.127	10756.27
612.484	10865.19
612.841	10831.07
613.198	10880.79
613.554	10859.54
613.911	10843.5
614.267	10855.48
614.624	10844.4
614.98	10874.23
615.337	10913.33
615.693	10852.99
616.05	10885.98
616.406	10923.05
616.762	10906.1
617.118	10909.26
617.475	10946.77
617.831	11004.63
618.187	10981.12
618.543	10971.18
618.899	11029.03
619.255	10953.1
619.611	10969.37
619.967	10958.3
620.323	11059.99
620.678	10942.03
621.034	10994.46
621.39	10940.67
621.746	10962.82
622.101	11062.48
622.457	11057.28
622.812	11045.3
623.168	11066.55
623.523	11012.31
623.879	11114.45
624.234	10970.05
624.589	11028.35
624.945	11039.2
625.3	11107
625.655	10964.4
626.01	11067.9
626.365	11042.59
626.72	10993.78
627.075	11042.59
627.43	11006.89
627.785	11060.9
628.14	11031.07
628.495	11002.14
628.85	11024.06
629.205	11056.6
629.559	10917.4
629.914	10958.75
630.269	11001.91
630.623	11009.82
630.978	10898.87
631.332	10891.41
631.687	10952.2
632.041	10841.69
632.396	10914.91
632.75	10873.33
633.104	10881.69
633.459	10850.73
633.813	10756.72
634.167	10805.08
634.521	10830.62
634.875	10779.1
635.229	10834.69
635.583	10803.73
635.937	10749.49
636.291	10737.29
636.645	10740
636.999	10690.28
637.352	10764.86
637.706	10629.27
638.06	10787.68
638.413	10757.63
638.767	10719.21
639.121	10644.18
639.474	10575.94
639.828	10635.6
640.181	10589.27
640.534	10561.47
640.888	10602.15
641.241	10596.05
641.594	10592.89
641.947	10612.55
642.301	10598.99
642.654	10537.97
643.007	10555.15
643.36	10508.14
643.713	10504.98
644.066	10529.38
644.419	10412.55
644.771	10474.02
645.124	10340.24
645.477	10324.42
645.83	10204.42
646.182	10154.93
646.535	10101.15
646.888	10140.69
647.24	10063.63
647.593	10114.25
647.945	10116.74
648.298	10068.61
648.65	10052.79
649.002	9946.57
649.355	10133.01
649.707	10067.7
650.059	10096.4
650.411	10249.62
650.763	10323.97
651.115	10420.69
651.467	10320.35
651.819	10342.5
652.171	10340.91
652.523	10285.77
652.875	10227.92
653.227	10201.94
653.578	10287.58
653.93	10342.04
654.282	10278.77
654.633	10272.89
654.985	10276.06
655.337	10274.7
655.688	10240.8
656.039	10267.02
656.391	10182.95
656.742	10273.57
657.094	10203.07
657.445	10253.91
657.796	10220.69
658.147	10246.68
658.498	10265.21
658.849	10260.01
659.2	10196.29
659.551	10256.17
659.902	10253.69
660.253	10255.04
660.604	10213.46
660.955	10165.1
661.306	10237.64
661.656	10180.92
662.007	10190.64
662.358	10256.85
662.708	10252.1
663.059	10247.58
663.409	10213.69
663.76	10177.53
664.11	10212.78
664.461	10199
664.811	10231.54
665.161	10182.05
665.511	10195.16
665.862	10243.29
666.212	10216.85
666.562	10249.84
666.912	10302.95
667.262	10270.63
667.612	10255.27
667.962	10252.56
668.312	10168.26
668.662	10285.1
669.011	10196.74
669.361	10129.17
669.711	10214.36
670.06	10252.78
670.41	10167.36
670.76	10189.28
671.109	10207.13
671.459	10165.78
671.808	10146.34
672.157	10184.53
672.507	10103.18
672.856	10157.19
673.205	10183.18
673.554	10168.49
673.904	10140.02
674.253	10105.21
674.602	10107.02
674.951	9969.17
675.3	9899.12
675.649	10057.53
675.998	10128.49
676.346	10022.96
676.695	10030.87
677.044	10015.05
677.393	10027.7
677.741	10022.05
678.09	9994.71
678.438	10029.96
678.787	9971.43
679.135	9983.41
679.484	9932.56
679.832	9941.6
680.181	9923.3
680.529	9910.87
680.877	9839.01
681.225	9877.2
681.573	9881.94
681.922	9856.86
682.27	9831.78
682.618	9802.4
682.966	9754.04
683.314	9839.23
683.661	9755.62
684.009	9711.55
684.357	9750.42
684.705	9662.74
685.053	9730.31
685.4	9687.82
685.748	9642.85
686.095	9637.43
686.443	9612.57
686.79	9550.2
687.138	9581.16
687.485	9599.01
687.832	9558.79
688.18	9585.45
688.527	9509.98
688.874	9452.58
689.221	9461.16
689.568	9457.77
689.915	9486.25
690.262	9378.45
690.609	9375.97
690.956	9318.57
691.303	9314.95
691.65	9238.34
691.997	9221.85
692.344	9196.09
692.69	9155.86
693.037	9164.9
693.383	9128.07
693.73	9108.4
694.077	9057.33
694.423	9011.46
694.769	9008.52
695.116	8984.79
695.462	8943.21
695.808	8867.05
696.155	8998.35
696.501	8894.4
696.847	8869.99
697.193	8801.97
697.539	8914.06
697.885	8779.15
698.231	8735.31
698.577	8802.2
698.923	8718.36
699.269	8696.21
699.614	8644.46
699.96	8597.91
700.306	8585.03
700.651	8538.25
700.997	8542.54
701.342	8482.66
701.688	8458.7
702.033	8398.59
702.379	8497.57
702.724	8438.59
703.069	8465.03
703.415	8346.62
703.76	8388.2
704.105	8366.5
704.45	8353.17
704.795	8214.42
705.14	8206.28
705.485	8184.36
705.83	8162.44
706.175	8178.71
706.52	8161.08
706.865	8117.24
707.209	8120.18
707.554	8095.1
707.899	8112.95
708.243	8000.41
708.588	8006.06
708.932	8000.19
709.277	8004.93
709.621	7976.68
709.966	7927.64
710.31	7924.25
710.654	7867.99
710.998	7854.88
711.342	7904.37
711.687	7868.89
712.031	7826.18
712.375	7808.55
712.719	7809.91
713.063	7780.53
713.407	7804.71
713.75	7723.36
714.094	7784.6
714.438	7708.89
714.782	7696.01
715.125	7676.35
715.469	7668.89
715.812	7684.04
716.156	7667.31
716.499	7616.47
716.843	7604.49
717.186	7616.24
717.53	7624.6
717.873	7631.83
718.216	7585.73
718.559	7546.19
718.902	7486.07
719.246	7526.75
719.589	7465.51
719.932	7467.54
720.275	7491.72
720.617	7482.91
720.96	7444.27
721.303	7432.97
721.646	7458.96
721.989	7436.81
722.331	7433.42
722.674	7413.99
723.016	7382.8
723.359	7362.01
723.701	7418.73
724.044	7331.05
724.386	7311.62
724.729	7283.59
725.071	7313.88
725.413	7307.77
725.755	7338.06
726.097	7261.67
726.439	7276.59
726.782	7261.67
727.124	7379.64
727.465	7221.67
727.807	7270.71
728.149	7258.96
728.491	7244.05
728.833	7279.98
729.175	7208.12
729.516	7201.11
729.858	7252.86
730.199	7221.45
730.541	7239.98
730.882	7196.36
731.224	7226.42
731.565	7126.08
731.906	7142.81
732.248	7205.4
732.589	7159.76
732.93	7117.95
733.271	7217.83
733.612	7203.37
733.953	7183.71
734.294	7150.72
734.635	7120.43
734.976	7151.85
735.317	7118.17
735.658	7167.89
735.999	7135.12
736.339	7131.06
736.68	7167.21
737.021	7157.95
737.361	7113.65
737.702	7169.92
738.042	7143.03
738.383	7132.19
738.723	7157.04
739.063	7151.62
739.404	7143.71
739.744	7131.51
740.084	7164.95
740.424	7142.58
740.764	7165.86
741.104	7163.6
741.444	7122.92
741.784	7140.55
742.124	7151.39
742.464	7135.12
742.804	7161.11
743.143	7184.16
743.483	7152.98
743.823	7220.09
744.162	7152.3
744.502	7261.22
744.841	7219.19
745.181	7234.78
745.52	7274.55
745.86	7251.5
746.199	7291.05
746.538	7310.26
746.877	7361.56
747.216	7386.42
747.556	7366.08
747.895	7507.99
748.234	7421.44
748.573	7451.27
748.911	7573.53
749.25	7521.78
749.589	7578.28
749.928	7623.92
750.267	7701.89
750.605	7653.53
750.944	7746.63
751.283	7794.99
751.621	7793.18
751.96	7879.06
752.298	7955.21
752.636	7996.57
752.975	8018.72
753.313	8084.25
753.651	8111.82
753.989	8143.23
754.327	8249.22
754.666	8278.82
755.004	8444.02
755.342	8479.49
755.679	8567.85
756.017	8608.53
756.355	8768.75
756.693	8783.22
757.031	8866.38
757.368	9008.07
757.706	9059.14
758.044	9144.56
758.381	9264.33
758.719	9378
759.056	9490.99
759.394	9553.36
759.731	9583.87
760.068	9634.27
760.405	9758.11
760.743	9882.17
761.08	9975.5
761.417	10024.99
761.754	10184.76
762.091	10203.52
762.428	10299.79
762.765	10358.09
763.102	10594.02
763.438	10578.87
763.775	10695.93
764.112	10820
