Data from hue_340_FLMS001491_77.txt Node
Date: Mon Feb 06 15:43:35 GMT 2017
User: dcchb
Spectrometer: FLMS00149
Trigger mode: 0
Integration Time (sec): 2.000000E-2
Scans to average: 10
Electric dark correction enabled: true
Nonlinearity correction enabled: false
Boxcar width: 0
XAxis mode: Wavelengths
Number of Pixels in Spectrum: 2048
>>>>>Begin Spectral Data<<<<<
341.393	11.55
341.776	11.55
342.16	11.55
342.543	-52.4
342.927	-55.34
343.31	-74.32
343.693	-52.17
344.077	-65.05
344.46	-65.73
344.843	-54.43
345.226	-45.62
345.61	-32.74
345.993	-14.43
346.376	-2.01
346.759	-8.79
347.142	25.56
347.525	39.35
347.908	60.82
348.291	87.26
348.674	96.52
349.057	105.79
349.44	121.16
349.823	146.24
350.206	153.7
350.588	184.66
350.971	209.06
351.354	242.28
351.737	240.93
352.119	242.51
352.502	270.08
352.884	268.04
353.267	296.97
353.65	276.18
354.032	315.5
354.414	312.56
354.797	327.03
355.179	330.42
355.562	302.17
355.944	330.19
356.326	350.75
356.709	344.2
357.091	344.2
357.473	373.58
357.855	348.95
358.238	340.36
358.62	334.48
359.002	331.09
359.384	341.26
359.766	320.02
360.148	356.86
360.53	351.21
360.912	334.26
361.294	332.67
361.676	341.94
362.057	327.48
362.439	323.64
362.821	340.13
363.203	324.77
363.584	315.05
363.966	320.47
364.348	326.8
364.729	331.32
365.111	306.01
365.493	296.52
365.874	316.63
366.256	330.64
366.637	332.45
367.019	312.56
367.4	296.29
367.781	320.02
368.163	307.82
368.544	315.05
368.925	315.5
369.306	322.05
369.688	304.43
370.069	305.78
370.45	309.62
370.831	317.76
371.212	317.76
371.593	325.44
371.974	313.24
372.355	321.15
372.736	304.88
373.117	310.08
373.498	325.44
373.879	310.98
374.26	321.6
374.641	320.7
375.021	299.46
375.402	304.65
375.783	326.35
376.163	311.66
376.544	338.32
376.925	319.34
377.305	310.08
377.686	305.78
378.066	351.88
378.447	333.8
378.827	314.37
379.208	320.25
379.588	314.82
379.968	350.3
380.349	330.42
380.729	319.79
381.109	332.45
381.489	332.67
381.87	342.39
382.25	330.64
382.63	341.49
383.01	340.13
383.39	336.97
383.77	341.94
384.15	332.9
384.53	345.33
384.91	342.39
385.29	334.26
385.67	368.15
386.049	357.53
386.429	349.85
386.809	355.05
387.189	355.73
387.568	339
387.948	353.01
388.328	359.11
388.707	364.99
389.087	362.5
389.466	360.02
389.846	349.4
390.225	388.27
390.605	364.31
390.984	338.78
391.363	372
391.743	368.38
392.122	366.12
392.501	361.15
392.881	369.51
393.26	382.39
393.639	379.68
394.018	362.28
394.397	383.07
394.776	384.88
395.155	367.93
395.534	371.09
395.913	376.97
396.292	374.48
396.671	368.61
397.05	373.58
397.429	379.23
397.808	380.58
398.186	390.75
398.565	384.2
398.944	381.26
399.323	402.96
399.701	385.55
400.08	406.35
400.458	391.66
400.837	397.31
401.215	397.98
401.594	415.38
401.972	410.86
402.351	400.02
402.729	419.68
403.107	422.39
403.486	428.72
403.864	408.38
404.242	417.42
404.62	407.93
404.999	412.45
405.377	414.71
405.755	440.47
406.133	417.42
406.511	437.53
406.889	433.46
407.267	424.2
407.645	451.09
408.023	454.25
408.401	437.76
408.779	461.94
409.156	440.69
409.534	464.42
409.912	453.58
410.29	470.07
410.667	462.61
411.045	466.23
411.422	501.03
411.8	470.75
412.178	487.25
412.555	484.54
412.933	501.26
413.31	486.8
413.687	495.83
414.065	514.37
414.442	515.27
414.819	530.41
415.197	501.48
415.574	540.13
415.951	546.45
416.328	519.34
416.705	552.78
417.082	531.09
417.46	527.47
417.837	571.31
418.214	539.45
418.591	576.28
418.967	558.66
419.344	578.09
419.721	576.96
420.098	563.63
420.475	593.23
420.852	577.87
421.228	604.98
421.605	591.2
421.982	617.41
422.358	604.31
422.735	601.59
423.111	609.05
423.488	618.09
423.864	625.1
424.241	642.5
424.617	642.05
424.994	658.99
425.37	643.63
425.746	652.67
426.123	644.53
426.499	633.91
426.875	679.78
427.251	665.32
427.627	673.23
428.003	684.53
428.379	703.74
428.756	708.03
429.132	689.28
429.507	696.28
429.883	721.59
430.259	713.91
430.635	747.35
431.011	759.33
431.387	759.1
431.763	755.04
432.138	737.64
432.514	769.27
432.89	781.48
433.265	782.83
433.641	784.41
434.016	799.78
434.392	786
434.767	801.14
435.143	813.11
435.518	812.66
435.894	818.99
436.269	861.7
436.644	834.36
437.02	844.3
437.395	838.2
437.77	883.39
438.145	863.73
438.52	859.44
438.895	880.01
439.271	864.41
439.646	908.03
440.021	905.77
440.395	903.06
440.77	887.46
441.145	917.74
441.52	940.12
441.895	924.98
442.27	933.11
442.645	936.05
443.019	922.94
443.394	955.71
443.769	957.74
444.143	933.56
444.518	946.67
444.892	946.9
445.267	970.4
445.641	962.71
446.016	990.06
446.39	984.86
446.764	1004.3
447.139	997.29
447.513	1020.79
447.887	1009.49
448.262	990.74
448.636	1013.11
449.01	1053.33
449.384	1011.3
449.758	1028.7
450.132	1040
450.506	1053.56
450.88	1031.87
451.254	1032.54
451.628	1064.86
452.002	1078.42
452.376	1068.25
452.75	1086.55
453.123	1077.97
453.497	1110.28
453.871	1090.85
454.244	1132.43
454.618	1088.36
454.992	1119.09
455.365	1155.7
455.739	1161.35
456.112	1182.6
456.486	1175.36
456.859	1163.39
457.232	1199.54
457.606	1188.47
457.979	1199.32
458.352	1230.96
458.725	1223.27
459.099	1218.98
459.472	1263.5
459.845	1247.91
460.218	1289.03
460.591	1276.38
460.964	1301.69
461.337	1289.03
461.71	1306.66
462.083	1337.62
462.456	1332.2
462.829	1333.55
463.201	1357.05
463.574	1331.29
463.947	1362.03
464.32	1389.6
464.692	1404.51
465.065	1408.13
465.438	1447.9
465.81	1437.73
466.183	1456.94
466.555	1498.07
466.928	1500.55
467.3	1525.64
467.672	1523.6
468.045	1541
468.417	1534
468.789	1536.94
469.161	1572.87
469.534	1574.22
469.906	1636.14
470.278	1629.14
470.65	1672.07
471.022	1657.61
471.394	1681.79
471.766	1670.94
472.138	1726.08
472.51	1787.55
472.882	1769.02
473.253	1794.78
473.625	1802.01
473.997	1838.85
474.369	1870.26
474.74	1882.92
475.112	1894.67
475.484	1933.99
475.855	1937.38
476.227	1991.61
476.598	2023.25
476.97	2051.73
477.341	2086.98
477.713	2122.91
478.084	2158.84
478.455	2209.01
478.827	2183.7
479.198	2262.34
479.569	2234.32
479.94	2307.09
480.311	2335.56
480.682	2354.77
481.053	2417.59
481.424	2452.39
481.795	2446.52
482.166	2509.57
482.537	2520.19
482.908	2577.59
483.279	2580.53
483.65	2641.31
484.021	2688.55
484.391	2707.98
484.762	2751.82
485.133	2750.24
485.503	2790.46
485.874	2883.34
486.244	2874.08
486.615	2919.73
486.985	2979.16
487.356	3034.98
487.726	3033.17
488.097	3119.95
488.467	3108.2
488.837	3153.62
489.207	3173.96
489.578	3257.12
489.948	3237.01
490.318	3319.94
490.688	3327.4
491.058	3341.41
491.428	3406.04
491.798	3485.13
492.168	3521.52
492.538	3511.8
492.908	3535.53
493.278	3576.66
493.648	3602.42
494.017	3624.79
494.387	3652.81
494.757	3685.81
495.126	3729.2
495.496	3747.73
495.866	3776.2
496.235	3765.13
496.605	3851.68
496.974	3865.01
497.344	3930.55
497.713	3908.4
498.082	3939.13
498.452	3956.99
498.821	4037.21
499.19	4001.73
499.559	4041.28
499.928	4088.96
500.298	4089.64
500.667	4088.06
501.036	4134.38
501.405	4157.66
501.774	4154.27
502.143	4183.65
502.512	4208.05
502.88	4252.35
503.249	4258.45
503.618	4229.52
503.987	4267.03
504.356	4297.09
504.724	4358.78
505.093	4322.85
505.462	4356.07
505.83	4418.22
506.199	4373.7
506.567	4475.62
506.936	4458.22
507.304	4526.24
507.672	4543.86
508.041	4552.9
508.409	4533.47
508.777	4537.54
509.145	4606.23
509.514	4587.7
509.882	4604.88
510.25	4610.53
510.618	4613.01
510.986	4670.19
511.354	4739.11
511.722	4717.87
512.09	4752.22
512.458	4770.75
512.826	4800.81
513.193	4774.82
513.561	4789.73
513.929	4846.23
514.297	4848.94
514.664	4918.99
515.032	4916.74
515.4	4904.53
515.767	4952.21
516.135	4997.18
516.502	4948.15
516.869	5025.43
517.237	5028.14
517.604	4969.84
517.972	5009.16
518.339	5077.18
518.706	5100.01
519.073	5042.38
519.44	5065.88
519.808	5116.28
520.175	5127.35
520.542	5137.97
520.909	5174.81
521.276	5191.3
521.643	5203.96
522.009	5244.41
522.376	5238.31
522.743	5225.2
523.11	5307.91
523.477	5337.74
523.843	5371.41
524.21	5422.71
524.577	5458.19
524.943	5526.66
525.31	5533.22
525.676	5560.11
526.043	5579.54
526.409	5594.23
526.776	5685.75
527.142	5699.09
527.508	5690.73
527.874	5756.26
528.241	5753.55
528.607	5820.67
528.973	5854.11
529.339	5796.26
529.705	5859.76
530.071	5908.12
530.437	5950.15
530.803	5975.01
531.169	5989.25
531.535	5972.75
531.901	5972.07
532.267	6024.73
532.632	6009.14
532.998	6132.97
533.364	6080.55
533.73	6137.49
534.095	6177.49
534.461	6172.07
534.826	6197.38
535.192	6200.32
535.557	6292.52
535.923	6306.3
536.288	6326.87
536.653	6387.43
537.019	6342.69
537.384	6405.51
537.749	6440.76
538.114	6427.66
538.479	6440.76
538.845	6481.21
539.21	6466.98
539.575	6505.17
539.94	6576.35
540.305	6539.74
540.67	6607.54
541.034	6578.39
541.399	6664.03
541.764	6740.19
542.129	6752.62
542.494	6772.96
542.858	6749.46
543.223	6805.95
543.587	6860.19
543.952	6835.55
544.316	6866.74
544.681	6869
545.045	6940.64
545.41	6931.82
545.774	6972.95
546.138	7013.18
546.503	6967.98
546.867	7040.52
547.231	7069.22
547.595	7033.29
547.959	7120.07
548.324	7131.14
548.688	7146.28
549.052	7191.03
549.416	7183.57
549.779	7205.04
550.143	7313.96
550.507	7280.74
550.871	7263.79
551.235	7353.06
551.599	7373.85
551.962	7389.89
552.326	7355.54
552.689	7462.66
553.053	7420.62
553.417	7450.68
553.78	7510.79
554.143	7534.97
554.507	7556.89
554.87	7553.95
555.234	7637.34
555.597	7572.03
555.96	7636.44
556.323	7668.08
556.686	7681.63
557.05	7707.4
557.413	7730.45
557.776	7765.25
558.139	7857.45
558.502	7825.81
558.865	7822.2
559.228	7899.26
559.59	7917.11
559.953	7912.14
560.316	7974.28
560.679	7999.14
561.041	8045.01
561.404	8065.13
561.767	8062.42
562.129	8155.29
562.492	8167.5
562.854	8159.14
563.217	8133.83
563.579	8183.99
563.941	8266.7
564.304	8260.15
564.666	8306.48
565.028	8313.03
565.39	8376.31
565.753	8343.31
566.115	8406.59
566.477	8447.72
566.839	8453.14
567.201	8538.33
567.563	8526.36
567.925	8624.89
568.287	8592.8
568.648	8598.9
569.01	8687.26
569.372	8795.28
569.734	8690.42
570.095	8762.74
570.457	8815.39
570.819	8784.43
571.18	8796.86
571.542	8922.96
571.903	8975.16
572.265	8997.08
572.626	9055.16
572.987	9093.8
573.349	9164.53
573.71	9176.96
574.071	9231.42
574.432	9251.31
574.794	9321.82
575.155	9388.03
575.516	9461.02
575.877	9545.54
576.238	9564.75
576.599	9627.57
576.96	9680.68
577.32	9747.12
577.681	9876.6
578.042	9973.55
578.403	10061.01
578.763	10115.47
579.124	10174.45
579.485	10346.42
579.845	10422.35
580.206	10444.05
580.566	10613.76
580.927	10674.32
581.287	10886.3
581.648	10952.73
582.008	11083.35
582.368	11186.63
582.728	11322.89
583.089	11471.59
583.449	11647.18
583.809	11810.34
584.169	12012.82
584.529	12097.56
584.889	12367.61
585.249	12506.59
585.609	12647.83
585.969	12934.83
586.329	13051.66
586.688	13225.22
587.048	13474.25
587.408	13639.67
587.768	13909.72
588.127	14119.66
588.487	14254.34
588.846	14640.77
589.206	14797.61
589.565	15026.53
589.925	15290.93
590.284	15541.09
590.643	15781.31
591.003	16061.98
591.362	16391.91
591.721	16697.67
592.08	16863.09
592.44	17113.02
592.799	17412.9
593.158	17669.39
593.517	17906.22
593.876	18324.07
594.235	18457.85
594.593	18767.22
594.952	19075.91
595.311	19340.08
595.67	19658.04
596.029	20050.57
596.387	20243.56
596.746	20621.18
597.104	20822.53
597.463	21062.75
597.822	21467.26
598.18	21654.15
598.538	21886.01
598.897	22441.92
599.255	22341.81
599.613	23045.98
599.972	23116.03
600.33	23422.01
600.688	23669.24
601.046	23982.22
601.404	24358.71
601.762	24541.3
602.12	24966.83
602.478	25149.65
602.836	25374.5
603.194	25585.8
603.552	25858.33
603.91	26024.43
604.268	26428.71
604.625	26551.19
604.983	26992.76
605.341	27068.92
605.698	27268.46
606.056	27685.18
606.413	27755.91
606.771	28126.07
607.128	28539.62
607.485	28491.26
607.843	28780.06
608.2	29024.35
608.557	29475.86
608.914	29469.76
609.272	29840.83
609.629	30036.98
609.986	30312.68
610.343	30332.79
610.7	30733.91
611.057	30961.25
611.414	31088.02
611.771	31314.46
612.127	31695.47
612.484	31656.6
612.841	31976.36
613.198	32102.91
613.554	32099.98
613.911	32457.48
614.267	32608.44
614.624	32652.95
614.98	32972.04
615.337	33140.4
615.693	33124.58
616.05	33345.37
616.406	33573.16
616.762	33560.28
617.118	33780.61
617.475	33994.39
617.831	34187.6
618.187	34356.41
618.543	34423.08
618.899	34691.09
619.255	34768.83
619.611	34838.66
619.967	35136.51
620.323	35261.47
620.678	35186.67
621.034	35250.4
621.39	35435.03
621.746	35452.88
622.101	35879.99
622.457	35644.97
622.812	35896.71
623.168	36137.84
623.523	36042.7
623.879	36225.52
624.234	36065.75
624.589	36418.51
624.945	36318.62
625.3	36601.55
625.655	36569.91
626.01	36576.69
626.365	36733.3
626.72	36771.49
627.075	36809.68
627.43	36794.77
627.785	36808.78
628.14	37046.29
628.495	37193.63
628.85	37138.49
629.205	37063.91
629.559	37431.36
629.914	37243.34
630.269	37347.07
630.623	37344.13
630.978	37327.18
631.332	37510
631.687	37621.41
632.041	37451.02
632.396	37447.86
632.75	37355.88
633.104	37418.93
633.459	37405.6
633.813	37397.46
634.167	37471.81
634.521	37478.36
634.875	37644.01
635.229	37463
635.583	37368.76
635.937	37494.86
636.291	37416.67
636.645	37468.65
636.999	37374.86
637.352	37697.57
637.706	37306.17
638.06	37558.14
638.413	37436.78
638.767	37382.77
639.121	37541.41
639.474	37368.31
639.828	37359.95
640.181	37521.08
640.534	37486.73
640.888	37436.33
641.241	37138.71
641.594	37362.66
641.947	37465.71
642.301	37398.82
642.654	37421.19
643.007	37441.98
643.36	37437.46
643.713	37435.43
644.066	37424.81
644.419	37261.87
644.771	37144.14
645.124	36814.2
645.477	36768.55
645.83	36532.18
646.182	36370.6
646.535	36403.36
646.888	36386.42
647.24	36186.42
647.593	36426.87
647.945	36285.18
648.298	36191.17
648.65	36130.6
649.002	36086.76
649.355	36204.95
649.707	36165.86
650.059	36345.97
650.411	36802.9
650.763	36848.1
651.115	37106.17
651.467	36946.63
651.819	36875.89
652.171	36986.85
652.523	36898.72
652.875	36927.87
653.227	36715.22
653.578	37047.64
653.93	36886.97
654.282	36736.24
654.633	36758.61
654.985	36842.22
655.337	36900.3
655.688	36855.1
656.039	37018.04
656.391	36640.65
656.742	36807.2
657.094	36771.72
657.445	36713.64
657.796	36795.67
658.147	36663.02
658.498	36724.26
658.849	36785.05
659.2	36682
659.551	36604.04
659.902	36785.95
660.253	36620.99
660.604	36691.04
660.955	36517.94
661.306	36691.27
661.656	36583.7
662.007	36708.44
662.358	36558.84
662.708	36674.77
663.059	36811.72
663.409	36397.04
663.76	36663.47
664.11	36665.96
664.461	36663.02
664.811	36628.67
665.161	36583.25
665.511	36444.95
665.862	36660.53
666.212	36674.54
666.562	36745.5
666.912	36644.04
667.262	36495.34
667.612	36544.15
667.962	36498.96
668.312	36500.54
668.662	36603.81
669.011	36509.58
669.361	36547.54
669.711	36489.24
670.06	36465.51
670.41	36459.41
670.76	36491.05
671.109	36477.26
671.459	36396.36
671.808	36332.86
672.157	36450.82
672.507	36247.66
672.856	36286.08
673.205	36302.12
673.554	36358.62
673.904	36210.6
674.253	36366.08
674.602	36228.45
674.951	35726.77
675.3	35593.89
675.649	36137.84
675.998	36117.72
676.346	36198.4
676.695	36289.02
677.044	35981.91
677.393	36052.19
677.741	36166.08
678.09	36049.7
678.438	36059.65
678.787	35904.17
679.135	35959.08
679.484	35861.68
679.832	35950.5
680.181	35794.79
680.529	35912.53
680.877	35864.85
681.225	35781.46
681.573	35848.58
681.922	35670.73
682.27	35527.23
682.618	35672.08
682.966	35508.02
683.314	35621.01
683.661	35500.56
684.009	35285.2
684.357	35247.69
684.705	35155.49
685.053	35234.13
685.4	35182.38
685.748	34931.99
686.095	35035.27
686.443	34865.33
686.79	34840.92
687.138	34976.28
687.485	34869.85
687.832	34760.02
688.18	34853.58
688.527	34447.71
688.874	34637.99
689.221	34562.96
689.568	34409.29
689.915	34379.01
690.262	34306.7
690.609	34123.88
690.956	34256.08
691.303	34160.26
691.65	33784.9
691.997	34052.92
692.344	33760.72
692.69	33765.47
693.037	33708.75
693.383	33407.74
693.73	33704
694.077	33352.6
694.423	33319.6
694.769	33179.49
695.116	33229.89
695.462	33114.64
695.808	33112.6
696.155	33085.71
696.501	33015.66
696.847	32912.61
697.193	32663.58
697.539	32901.31
697.885	32646.85
698.231	32478.5
698.577	32514.88
698.923	32433.07
699.269	32369.8
699.614	32132.74
699.96	32138.39
700.306	32138.39
700.651	32080.77
700.997	31863.15
701.342	31865.86
701.688	31835.12
702.033	31692.3
702.379	31681.68
702.724	31527.11
703.069	31701.12
703.415	31164.86
703.76	31357.4
704.105	31277.4
704.45	31280.34
704.795	31019.33
705.14	30961.93
705.485	30939.33
705.83	30727.58
706.175	30877.41
706.52	30702.05
706.865	30631.31
707.209	30592.44
707.554	30602.16
707.899	30650.52
708.243	30416.4
708.588	30373.01
708.932	30193.58
709.277	30186.13
709.621	30123.98
709.966	29933.93
710.31	30004.89
710.654	29794.73
710.998	29839.02
711.342	29709.3
711.687	29820.49
712.031	29616.2
712.375	29672.47
712.719	29540.04
713.063	29554.28
713.407	29604.45
713.75	29546.82
714.094	29422.08
714.438	29237.68
714.782	29315.64
715.125	29055.54
715.469	29132.14
715.812	28963.11
716.156	28821.87
716.499	28899.61
716.843	28936.44
717.186	28789.33
717.53	28846.05
717.873	28885.6
718.216	28796.33
718.559	28578.71
718.902	28453.52
719.246	28487.87
719.589	28444.93
719.932	28388.21
720.275	28311.83
720.617	28460.3
720.96	28338.94
721.303	28267.76
721.646	28300.98
721.989	28029.35
722.331	28197.93
722.674	28021.89
723.016	28069.57
723.359	28016.47
723.701	27990.7
724.044	27857.6
724.386	27630.94
724.729	27860.54
725.071	27764.5
725.413	27637.49
725.755	27656.02
726.097	27635.23
726.439	27436.14
726.782	27462.13
727.124	27616.03
727.465	27428.23
727.807	27446.31
728.149	27313.21
728.491	27344.39
728.833	27350.04
729.175	27154.79
729.516	27129.71
729.858	27183.72
730.199	27154.34
730.541	27026.21
730.882	27005.65
731.224	27042.93
731.565	26868.47
731.906	27018.07
732.248	26974.23
732.589	26774.01
732.93	26710.51
733.271	26604.75
733.612	26730.17
733.953	26754.35
734.294	26724.3
734.635	26530.18
734.976	26706.9
735.317	26372.22
735.658	26439.11
735.999	26491.76
736.339	26399.79
736.68	26496.28
737.021	26425.1
737.361	26335.61
737.702	26223.07
738.042	26311.2
738.383	26208.15
738.723	26310.07
739.063	26155.27
739.404	26215.61
739.744	26153.46
740.084	25983.07
740.424	26109.85
740.764	25938.1
741.104	26005.67
741.444	25855.62
741.784	25837.77
742.124	25882.96
742.464	25758
742.804	25775.17
743.143	25672.35
743.483	25706.02
743.823	25572.69
744.162	25580.15
744.502	25565.68
744.841	25513.48
745.181	25542.18
745.52	25438.46
745.86	25506.25
746.199	25423.77
746.538	25302.87
746.877	25376.76
747.216	25365.91
747.556	25250.89
747.895	25290.21
748.234	25181.06
748.573	25235.07
748.911	25087.96
749.25	25114.4
749.589	24990.33
749.928	25085.47
750.267	25043.21
750.605	24928.64
750.944	24923.21
751.283	24719.83
751.621	24890.22
751.96	24685.25
752.298	24697.68
752.636	24803.44
752.975	24546.5
753.313	24530.46
753.651	24616.78
753.989	24383.57
754.327	24388.77
754.666	24336.56
755.004	24316.23
755.342	24329.11
755.679	24200.97
756.017	24146.74
756.355	24260.86
756.693	24033.97
757.031	24081.43
757.368	23855.45
757.706	23924.6
758.044	23875.33
758.381	23797.37
758.719	23840.08
759.056	23720.99
759.394	23700.87
759.731	23509.01
760.068	23451.62
760.405	23405.97
