Data from hue_200_FLMS001491_00072.txt Node
Date: Tue Feb 07 16:43:54 GMT 2017
User: dcchb
Spectrometer: FLMS00149
Trigger mode: 0
Integration Time (sec): 2.000000E-2
Scans to average: 10
Electric dark correction enabled: true
Nonlinearity correction enabled: false
Boxcar width: 0
XAxis mode: Wavelengths
Number of Pixels in Spectrum: 2048
>>>>>Begin Spectral Data<<<<<
341.393	0.44
341.776	0.44
342.16	0.44
342.543	-65.1
342.927	-53.35
343.31	-63.52
343.693	-48.6
344.077	-40.01
344.46	-68.03
344.843	-54.48
345.226	-51.99
345.61	-35.95
345.993	-16.96
346.376	11.29
346.759	2.92
347.142	25.97
347.525	33.43
347.908	45.63
348.291	70.72
348.674	92.19
349.057	97.38
349.44	132.19
349.823	157.27
350.206	182.58
350.588	210.6
350.971	211.73
351.354	234.78
351.737	254.67
352.119	252.63
352.502	256.7
352.884	280.43
353.267	281.79
353.65	293.31
354.032	294.89
354.414	332.41
354.797	339.64
355.179	337.83
355.562	338.73
355.944	332.86
356.326	334.44
356.709	340.09
357.091	345.97
357.473	332.18
357.855	345.97
358.238	340.09
358.62	364.27
359.002	362.46
359.384	328.56
359.766	353.87
360.148	325.4
360.53	341.22
360.912	351.62
361.294	322.01
361.676	333.99
362.057	331.95
362.439	345.06
362.821	350.94
363.203	336.25
363.584	320.66
363.966	328.34
364.348	330.15
364.729	322.24
365.111	315.23
365.493	326.98
365.874	314.78
366.256	302.58
366.637	314.33
367.019	297.61
367.4	324.05
367.781	322.24
368.163	311.16
368.544	314.78
368.925	304.38
369.306	321.11
369.688	334.89
370.069	306.19
370.45	315.01
370.831	312.07
371.212	301.45
371.593	301.45
371.974	306.64
372.355	334.21
372.736	326.3
373.117	323.14
373.498	301.22
373.879	332.41
374.26	315.91
374.641	323.37
375.021	327.43
375.402	308.9
375.783	329.92
376.163	336.25
376.544	338.73
376.925	348
377.305	338.06
377.686	318.85
378.066	325.85
378.447	325.18
378.827	359.3
379.208	333.08
379.588	333.54
379.968	345.06
380.349	341.9
380.729	335.34
381.109	335.57
381.489	335.8
381.87	331.5
382.25	338.06
382.63	358.17
383.01	341.9
383.39	324.27
383.77	352.07
384.15	363.82
384.53	315.01
384.91	336.47
385.29	359.52
385.67	359.98
386.049	359.07
386.429	358.62
386.809	353.87
387.189	358.39
387.568	365.4
387.948	353.42
388.328	347.1
388.707	355.23
389.087	369.92
389.466	358.62
389.846	367.89
390.225	402.69
390.605	381.9
390.984	367.89
391.363	363.59
391.743	379.64
392.122	374.21
392.501	374.67
392.881	388.22
393.26	405.85
393.639	369.69
394.018	386.42
394.397	385.74
394.776	372.63
395.155	393.2
395.534	413.08
395.913	381.67
396.292	384.38
396.671	385.74
397.05	400.43
397.429	401.33
397.808	396.36
398.186	397.94
398.565	417.6
398.944	422.12
399.323	416.02
399.701	413.08
400.08	403.82
400.458	453.99
400.837	439.3
401.215	429.13
401.594	419.18
401.972	420.54
402.351	434.1
402.729	426.64
403.107	436.13
403.486	438.62
403.864	422.57
404.242	434.1
404.62	474.1
404.999	447.43
405.377	447.88
405.755	466.41
406.133	471.39
406.511	480.43
406.889	454.44
407.267	498.28
407.645	507.32
408.023	486.53
408.401	519.29
408.779	478.84
409.156	513.64
409.534	526.3
409.912	510.93
410.29	521.1
410.667	531.72
411.045	568.11
411.422	550.93
411.8	570.14
412.178	594.09
412.555	584.38
412.933	593.87
413.31	598.16
413.687	601.55
414.065	649.23
414.442	659.18
414.819	621.66
415.197	654.43
415.574	661.21
415.951	670.7
416.328	705.28
416.705	694.2
417.082	706.18
417.46	701.66
417.837	716.8
418.214	711.15
418.591	741.21
418.967	754.99
419.344	766.07
419.721	763.13
420.098	776.69
420.475	801.77
420.852	812.85
421.228	823.47
421.605	811.04
421.982	865.73
422.358	876.8
422.735	875.67
423.111	911.15
423.488	923.35
423.864	906.63
424.241	942.33
424.617	967.19
424.994	971.49
425.37	978.49
425.746	1022.11
426.123	1003.58
426.499	1036.12
426.875	1023.24
427.251	1049
427.627	1094.65
428.003	1102.33
428.379	1103.46
428.756	1119.28
429.132	1154.53
429.507	1134.87
429.883	1159.73
430.259	1189.33
430.635	1178.49
431.011	1206.06
431.387	1208.99
431.763	1241.76
432.138	1258.71
432.514	1310.01
432.89	1314.08
433.265	1331.48
433.641	1358.37
434.016	1379.38
434.392	1390.91
434.767	1417.35
435.143	1436.78
435.518	1442.66
435.894	1504.58
436.269	1536.89
436.644	1563.79
437.02	1613.05
437.395	1588.64
437.77	1620.28
438.145	1652.82
438.52	1690.56
438.895	1718.81
439.271	1710.68
439.646	1771.24
440.021	1810.79
440.395	1823.21
440.77	1820.05
441.145	1838.36
441.52	1889.88
441.895	1867.73
442.27	1933.95
442.645	1958.35
443.019	1984.57
443.394	1978.92
443.769	2017.11
444.143	2023.21
444.518	2017.11
444.892	2064.34
445.267	2078.35
445.641	2084
446.016	2103.66
446.39	2162.41
446.764	2188.85
447.139	2143.43
447.513	2199.02
447.887	2191.57
448.262	2217.33
448.636	2238.35
449.01	2237.44
449.384	2306.59
449.758	2283.32
450.132	2305.46
450.506	2348.4
450.88	2368.74
451.254	2380.04
451.628	2400.37
452.002	2443.99
452.376	2441.96
452.75	2457.32
453.123	2487.6
453.497	2540.71
453.871	2549.3
454.244	2601.73
454.618	2622.97
454.992	2680.82
455.365	2690.31
455.739	2746.81
456.112	2780.7
456.486	2766.92
456.859	2764.43
457.232	2862.28
457.606	2860.02
457.979	2895.73
458.352	2940.02
458.725	2966.69
459.099	2983.64
459.472	3025.22
459.845	3054.14
460.218	3088.27
460.591	3103.86
460.964	3151.77
461.337	3219.34
461.71	3264.53
462.083	3279.9
462.456	3316.96
462.829	3342.04
463.201	3380.91
463.574	3443.74
463.947	3456.39
464.32	3571.64
464.692	3533.9
465.065	3579.33
465.438	3682.6
465.81	3711.3
466.183	3733.67
466.555	3814.35
466.928	3855.48
467.3	3824.52
467.672	3917.62
468.045	3974.12
468.417	3981.35
468.789	4024.96
469.161	4057.51
469.534	4136.6
469.906	4222.7
470.278	4242.13
470.65	4255.02
471.022	4348.8
471.394	4424.28
471.766	4449.13
472.138	4499.98
472.51	4608
472.882	4633.08
473.253	4721.9
473.625	4779.52
473.997	4867.65
474.369	4890.7
474.74	4895.68
475.112	5022.45
475.484	5099.29
475.855	5170.92
476.227	5224.71
476.598	5339.73
476.97	5402.33
477.341	5496.34
477.713	5550.57
478.084	5603.45
478.455	5707.41
478.827	5829.66
479.198	5967.51
479.569	5940.39
479.94	6100.16
480.311	6138.13
480.682	6265.13
481.053	6410.89
481.424	6471
481.795	6511
482.166	6570.89
482.537	6678.23
482.908	6785.57
483.279	6822.41
483.65	7017.65
484.021	7129.97
484.391	7146.46
484.762	7262.39
485.133	7275.05
485.503	7360.47
485.874	7460.13
486.244	7563.85
486.615	7700.8
486.985	7781.02
487.356	7969.95
487.726	7910.29
488.097	8103.28
488.467	8094.24
488.837	8226.21
489.207	8342.37
489.578	8410.16
489.948	8471.4
490.318	8601.57
490.688	8642.92
491.058	8771.28
491.428	8792.52
491.798	8922.46
492.168	9030.03
492.538	9071.61
492.908	9176.24
493.278	9300.31
493.648	9231.83
494.017	9384.15
494.387	9419.63
494.757	9522.22
495.126	9511.83
495.496	9535.1
495.866	9632.73
496.235	9753.63
496.605	9794.76
496.974	9783.91
497.344	9927.63
497.713	9840.86
498.082	9965.83
498.452	10015.99
498.821	10073.17
499.19	10112.26
499.559	10190
499.928	10191.36
500.298	10246.5
500.667	10322.88
501.036	10295.31
501.405	10435.64
501.774	10299.38
502.143	10412.14
502.512	10439.26
502.88	10493.72
503.249	10488.75
503.618	10566.04
503.987	10608.97
504.356	10646.26
504.724	10644.23
505.093	10620.72
505.462	10709.08
505.83	10762.87
506.199	10778.01
506.567	10920.38
506.936	10900.72
507.304	10895.74
507.672	10946.82
508.041	10945.69
508.409	10928.74
508.777	11024.1
509.145	11127.6
509.514	11055.97
509.882	11087.83
510.25	11122.41
510.618	11104.55
510.986	11076.98
511.354	11126.02
511.722	11210.09
512.09	11310.2
512.458	11211.44
512.826	11348.61
513.193	11293.93
513.561	11318.78
513.929	11365.11
514.297	11365.79
514.664	11385.45
515.032	11383.42
515.4	11428.84
515.767	11438.33
516.135	11466.8
516.502	11382.06
516.869	11570.98
517.237	11513.36
517.604	11468.16
517.972	11526.69
518.339	11530.53
518.706	11508.84
519.073	11535.73
519.44	11494.6
519.808	11618.66
520.175	11481.04
520.542	11662.73
520.909	11606.46
521.276	11582.28
521.643	11620.02
522.009	11633.13
522.376	11793.8
522.743	11747.93
523.11	11715.84
523.477	11756.51
523.843	11779.79
524.21	11777.3
524.577	11832.9
524.943	11850.97
525.31	11796.06
525.676	11873.12
526.043	11815.49
526.409	11837.19
526.776	11866.57
527.142	11782.5
527.508	11854.59
527.874	11830.86
528.241	11798.77
528.607	11909.5
528.973	11848.04
529.339	11782.05
529.705	11835.15
530.071	11844.87
530.437	11828.6
530.803	11806.46
531.169	11769.85
531.535	11770.52
531.901	11681.94
532.267	11699.34
532.632	11652.33
532.998	11645.33
533.364	11612.79
533.73	11579.12
534.095	11631.32
534.461	11612.11
534.826	11599.68
535.192	11471.1
535.557	11583.86
535.923	11415.96
536.288	11446.24
536.653	11462.74
537.019	11310.2
537.384	11321.5
537.749	11248.96
538.114	11288.5
538.479	11190.88
538.845	11241.72
539.21	11090.54
539.575	11155.4
539.94	11039.24
540.305	11020.94
540.67	10969.64
541.034	10952.24
541.399	10854.84
541.764	10841.06
542.129	10823.43
542.494	10810.1
542.858	10753.6
543.223	10697.11
543.587	10659.59
543.952	10614.85
544.316	10524.68
544.681	10525.13
545.045	10560.39
545.41	10473.16
545.774	10420.73
546.138	10385.02
546.503	10355.65
546.867	10218.7
547.231	10224.58
547.595	10204.01
547.959	10122.43
548.324	10131.92
548.688	10051.02
549.052	10039.5
549.416	9998.37
549.779	9952.72
550.143	9887.86
550.507	9952.94
550.871	9804.02
551.235	9761.54
551.599	9739.62
551.962	9717.92
552.326	9637.25
552.689	9651.71
553.053	9509.79
553.417	9495.56
553.78	9548.44
554.143	9526.74
554.507	9456.69
554.87	9396.12
555.234	9371.72
555.597	9326.75
555.96	9321.55
556.323	9358.16
556.686	9319.97
557.05	9296.01
557.413	9299.18
557.776	9265.73
558.139	9208.33
558.502	9169.01
558.865	9217.14
559.228	9150.03
559.59	9203.13
559.953	9187.99
560.316	9158.39
560.679	9066.41
561.041	9063.7
561.404	9079.52
561.767	9096.7
562.129	9089.92
562.492	9066.19
562.854	9116.36
563.217	9031.39
563.579	8991.39
563.941	9019.64
564.304	9071.16
564.666	8987.09
565.028	8960.2
565.39	8997.72
565.753	8969.47
566.115	8973.54
566.477	9014.21
566.839	8973.31
567.201	8961.33
567.563	8963.37
567.925	9019.41
568.287	8934.44
568.648	8944.38
569.01	8984.83
569.372	8923.14
569.734	8949.13
570.095	8978.96
570.457	8988.68
570.819	8940.32
571.18	8941.67
571.542	8995.46
571.903	9020.09
572.265	9067.09
572.626	8896.93
572.987	9033.42
573.349	8997.26
573.71	9015.12
574.071	9024.83
574.432	9050.6
574.794	9011.73
575.155	9019.64
575.516	8929.92
575.877	8964.04
576.238	9044.27
576.599	9012.86
576.96	8976.02
577.32	9059.86
577.681	9044.72
578.042	9049.92
578.403	9001.56
578.763	8972.86
579.124	8986.87
579.485	9041.33
579.845	9056.02
580.206	8940.32
580.566	9010.14
580.927	8976.92
581.287	8950.71
581.648	8941.22
582.008	8992.52
582.368	8947.32
582.728	8990.94
583.089	8934.44
583.449	8930.15
583.809	8916.81
584.169	8963.82
584.529	8910.03
584.889	8962.91
585.249	8861.67
585.609	8827.32
585.969	8945.74
586.329	8965.85
586.688	8928.34
587.048	8921.33
587.408	8912.07
587.768	8879.53
588.127	8851.5
588.487	8825.74
588.846	8863.71
589.206	8888.11
589.565	8870.26
589.925	8896.02
590.284	8822.8
590.643	8818.06
591.003	8874.78
591.362	8821.22
591.721	8808.12
592.08	8802.69
592.44	8839.08
592.799	8837.95
593.158	8817.16
593.517	8809.47
593.876	8784.16
594.235	8786.2
594.593	8725.18
594.952	8709.14
595.311	8700.1
595.67	8734.45
596.029	8809.25
596.387	8837.04
596.746	8793.2
597.104	8739.42
597.463	8677.27
597.822	8750.94
598.18	8728.8
598.538	8750.49
598.897	8737.16
599.255	8661
599.613	8859.64
599.972	8755.01
600.33	8763.6
600.688	8722.69
601.046	8722.24
601.404	8767.21
601.762	8696.93
602.12	8744.61
602.478	8693.09
602.836	8739.87
603.194	8633.43
603.552	8704.39
603.91	8611.28
604.268	8665.29
604.625	8644.5
604.983	8653.77
605.341	8603.15
605.698	8730.15
606.056	8722.92
606.413	8690.15
606.771	8745.07
607.128	8723.6
607.485	8613.54
607.843	8692.19
608.2	8713.2
608.557	8724.5
608.914	8741.9
609.272	8757.5
609.629	8773.77
609.986	8744.61
610.343	8693.32
610.7	8763.82
611.057	8741.22
611.414	8718.63
611.771	8709.81
612.127	8739.64
612.484	8726.54
612.841	8788.23
613.198	8750.04
613.554	8745.97
613.911	8723.6
614.267	8783.94
614.624	8814.44
614.98	8697.16
615.337	8773.99
615.693	8793.2
616.05	8784.61
616.406	8825.52
616.762	8775.12
617.118	8773.77
617.475	8845.18
617.831	8845.18
618.187	8832.07
618.543	8767.44
618.899	8827.78
619.255	8872.29
619.611	8855.35
619.967	8882.92
620.323	8855.8
620.678	8889.7
621.034	8840.21
621.39	8859.19
621.746	8864.16
622.101	8924.27
622.457	8803.82
622.812	8816.03
623.168	8901.67
623.523	8868.23
623.879	8918.62
624.234	8851.5
624.589	8773.77
624.945	8822.13
625.3	8857.15
625.655	8844.73
626.01	8835.69
626.365	8821.22
626.72	8804.73
627.075	8842.47
627.43	8715.24
627.785	8760.21
628.14	8838.62
628.495	8815.35
628.85	8764.5
629.205	8764.95
629.559	8843.6
629.914	8775.12
630.269	8792.98
630.623	8744.61
630.978	8741.68
631.332	8800.66
631.687	8761.11
632.041	8704.16
632.396	8747.1
632.75	8688.57
633.104	8717.5
633.459	8673.88
633.813	8668.46
634.167	8678.63
634.521	8630.27
634.875	8668.01
635.229	8627.1
635.583	8588.23
635.937	8595.01
636.291	8543.94
636.645	8606.77
636.999	8566.31
637.352	8562.02
637.706	8496.03
638.06	8595.69
638.413	8522.47
638.767	8460.55
639.121	8528.35
639.474	8501.01
639.828	8494.45
640.181	8500.55
640.534	8454.45
640.888	8463.94
641.241	8413.55
641.594	8528.58
641.947	8466.43
642.301	8403.38
642.654	8450.16
643.007	8455.13
643.36	8430.27
643.713	8422.36
644.066	8469.14
644.419	8383.27
644.771	8332.42
645.124	8292.88
645.477	8292.88
645.83	8217.4
646.182	8207.23
646.535	8179.21
646.888	8151.86
647.24	8121.35
647.593	8145.53
647.945	8115.48
648.298	8064.63
648.65	8124.52
649.002	8087.91
649.355	8142.37
649.707	8107.34
650.059	8164.29
650.411	8234.8
650.763	8282.93
651.115	8327
651.467	8270.05
651.819	8328.58
652.171	8333.55
652.523	8321.35
652.875	8298.75
653.227	8263.5
653.578	8377.17
653.93	8311.18
654.282	8284.51
654.633	8272.99
654.985	8333.55
655.337	8295.36
655.688	8325.64
656.039	8359.99
656.391	8294.46
656.742	8250.39
657.094	8358.41
657.445	8340.78
657.796	8311.86
658.147	8280.45
658.498	8330.61
658.849	8362.03
659.2	8290.62
659.551	8357.05
659.902	8317.51
660.253	8336.04
660.604	8409.93
660.955	8267.11
661.306	8364.51
661.656	8395.7
662.007	8361.8
662.358	8396.15
662.708	8383.95
663.059	8377.39
663.409	8314.8
663.76	8389.82
664.11	8370.61
664.461	8445.41
664.811	8406.54
665.161	8420.1
665.511	8448.8
665.862	8366.77
666.212	8455.36
666.562	8375.58
666.912	8364.51
667.262	8389.37
667.612	8379.43
667.962	8373.55
668.312	8435.7
668.662	8480.21
669.011	8391.4
669.361	8374
669.711	8397.96
670.06	8408.13
670.41	8411.74
670.76	8370.84
671.109	8436.15
671.459	8309.15
671.808	8340.78
672.157	8326.32
672.507	8239.54
672.856	8340.56
673.205	8351.4
673.554	8379.65
673.904	8296.04
674.253	8408.58
674.602	8308.24
674.951	8181.69
675.3	8126.33
675.649	8319.54
675.998	8249.71
676.346	8256.72
676.695	8195.93
677.044	8211.3
677.393	8241.8
677.741	8262.14
678.09	8224.4
678.438	8191.63
678.787	8231.86
679.135	8262.59
679.484	8099.66
679.832	8216.04
680.181	8183.5
680.529	8159.32
680.877	8116.83
681.225	8157.74
681.573	8143.05
681.922	8039.55
682.27	8093.11
682.618	8033.9
682.966	8031.87
683.314	8057.4
683.661	7991.64
684.009	7975.82
684.357	7967.69
684.705	7977.86
685.053	7981.02
685.4	7931.08
685.748	7868.48
686.095	7880.68
686.443	7846.79
686.79	7842.49
687.138	7844.3
687.485	7816.5
687.832	7811.98
688.18	7816.96
688.527	7787.35
688.874	7733.34
689.221	7698.54
689.568	7670.07
689.915	7623.97
690.262	7616.51
690.609	7607.7
690.956	7571.54
691.303	7504.42
691.65	7572.89
691.997	7569.05
692.344	7463.29
692.69	7470.52
693.037	7405.67
693.383	7396.63
693.73	7391.2
694.077	7334.93
694.423	7342.62
694.769	7288.38
695.116	7279.12
695.462	7278.89
695.808	7268.04
696.155	7259.91
696.501	7194.15
696.847	7215.39
697.193	7100.36
697.539	7168.84
697.885	7091.78
698.231	7058.11
698.577	7030.54
698.923	7059.46
699.269	6975.85
699.614	6943.08
699.96	6908.5
700.306	6939.01
700.651	6900.14
700.997	6871.22
701.342	6844.55
701.688	6797.1
702.033	6807.49
702.379	6736.08
702.724	6760.49
703.069	6748.06
703.415	6689.3
703.76	6664.22
704.105	6657.89
704.45	6658.79
704.795	6657.21
705.14	6541.51
705.485	6525.46
705.83	6511.91
706.175	6516.2
706.52	6512.36
706.865	6446.6
707.209	6487.95
707.554	6423.09
707.899	6437.78
708.243	6379.25
708.588	6351.46
708.932	6331.8
709.277	6336.32
709.621	6321.4
709.966	6244.57
710.31	6298.8
710.654	6230.33
710.998	6227.17
711.342	6202.08
711.687	6214.06
712.031	6217.22
712.375	6159.82
712.719	6156.66
713.063	6198.92
713.407	6172.03
713.75	6103.1
714.094	6109.88
714.438	6116.89
714.782	6120.05
715.125	6062.2
715.469	6092.93
715.812	6045.02
716.156	6014.29
716.499	6029.21
716.843	6063.78
717.186	6021.97
717.53	6067.85
717.873	6047.51
718.216	6015.65
718.559	6012.48
718.902	5987.4
719.246	6005.48
719.589	5990.11
719.932	5963.22
720.275	5940.85
720.617	5921.64
720.96	5951.24
721.303	5938.36
721.646	5914.18
721.989	5888.42
722.331	5923.9
722.674	5941.52
723.016	5881.64
723.359	5897.91
723.701	5907.4
724.044	5845.03
724.386	5904.46
724.729	5888.42
725.071	5863.79
725.413	5867.63
725.755	5890.68
726.097	5846.61
726.439	5835.09
726.782	5817.69
727.124	5847.97
727.465	5806.39
727.807	5869.89
728.149	5847.97
728.491	5866.5
728.833	5788.76
729.175	5832.6
729.516	5799.83
729.858	5836.44
730.199	5825.82
730.541	5792.6
730.882	5802.77
731.224	5873.28
731.565	5793.05
731.906	5767.07
732.248	5826.5
732.589	5808.19
732.93	5790.57
733.271	5794.41
733.612	5811.13
733.953	5855.88
734.294	5834.41
734.635	5809.78
734.976	5828.53
735.317	5825.37
735.658	5841.41
735.999	5872.6
736.339	5841.64
736.68	5889.32
737.021	5891.36
737.361	5854.3
737.702	5873.5
738.042	5876.67
738.383	5899.49
738.723	5920.06
739.063	5962.09
739.404	5926.84
739.744	5914.86
740.084	5935.2
740.424	5938.59
740.764	5918.25
741.104	6015.19
741.444	5971.81
741.784	6003.44
742.124	6005.48
742.464	6046.83
742.804	6013.61
743.143	6096.32
743.483	6092.48
743.823	6067.4
744.162	6158.24
744.502	6190.56
744.841	6129.77
745.181	6190.33
745.52	6231.23
745.86	6308.75
746.199	6327.73
746.538	6312.36
746.877	6454.05
747.216	6441.85
747.556	6474.84
747.895	6504.45
748.234	6554.84
748.573	6601.62
748.911	6612.24
749.25	6752.8
749.589	6804.78
749.928	6861.05
750.267	6964.32
750.605	6980.37
750.944	7071.66
751.283	7103.3
751.621	7220.36
751.96	7242.51
752.298	7392.11
752.636	7539.45
752.975	7539.9
753.313	7728.82
753.651	7811.08
753.989	7861.02
754.327	7991.64
754.666	8084.75
755.004	8243.38
755.342	8386.66
755.679	8498.52
756.017	8649.25
756.355	8783.48
756.693	8957.26
757.031	9114.77
757.368	9189.35
757.706	9432.28
758.044	9413.98
758.381	9690.35
758.719	9862.78
759.056	10004.92
759.394	10174.86
759.731	10231.36
760.068	10512.93
760.405	10586.6
760.743	10771
761.08	10958.57
761.417	11197.88
761.754	11389.97
762.091	11533.69
762.428	11720.58
762.765	11914.02
763.102	12084.64
763.438	12254.8
763.775	12457.74
764.112	12649.37
764.449	12841.91
764.785	12916.93
765.122	13081.45
765.458	13229.24
765.795	13508.33
766.131	13543.13
766.467	13805.27
766.804	13836.23
