Data from hue_240_FLMS001491_00039.txt Node
Date: Tue Feb 07 16:35:24 GMT 2017
User: dcchb
Spectrometer: FLMS00149
Trigger mode: 0
Integration Time (sec): 2.000000E-2
Scans to average: 10
Electric dark correction enabled: true
Nonlinearity correction enabled: false
Boxcar width: 0
XAxis mode: Wavelengths
Number of Pixels in Spectrum: 2048
>>>>>Begin Spectral Data<<<<<
341.393	-27.53
341.776	-27.53
342.16	-27.53
342.543	-57.58
342.927	-65.72
343.31	-62.78
343.693	-71.82
344.077	-83.8
344.46	-26.85
344.843	-47.87
345.226	-39.05
345.61	-42.22
345.993	-37.92
346.376	-1.31
346.759	14.96
347.142	24
347.525	27.39
347.908	64
348.291	72.36
348.674	94.28
349.057	116.65
349.44	146.03
349.823	141.06
350.206	158
350.588	202.97
350.971	206.14
351.354	203.2
351.737	227.16
352.119	256.76
352.502	262.41
352.884	273.93
353.267	271
353.65	292.24
354.032	310.32
354.414	312.58
354.797	310.09
355.179	305.57
355.562	308.06
355.944	319.13
356.326	325.01
356.709	351.45
357.091	324.33
357.473	334.95
357.855	325.23
358.238	339.92
358.62	332.24
359.002	324.33
359.384	320.26
359.766	341.95
360.148	315.51
360.53	332.46
360.912	326.14
361.294	312.35
361.676	315.06
362.057	341.95
362.439	345.34
362.821	333.82
363.203	326.81
363.584	326.81
363.966	309.41
364.348	307.15
364.729	329.75
365.111	321.16
365.493	312.35
365.874	308.96
366.256	333.82
366.637	308.73
367.019	301.28
367.4	328.4
367.781	292.01
368.163	322.29
368.544	292.92
368.925	301.28
369.306	347.38
369.688	301.73
370.069	302.86
370.45	303.09
370.831	301.73
371.212	302.86
371.593	310.99
371.974	322.07
372.355	314.84
372.736	309.64
373.117	312.35
373.498	308.51
373.879	315.97
374.26	308.06
374.641	299.02
375.021	300.37
375.402	319.36
375.783	332.46
376.163	308.51
376.544	309.64
376.925	315.51
377.305	319.13
377.686	321.84
378.066	329.98
378.447	325.91
378.827	322.07
379.208	308.51
379.588	311.22
379.968	324.55
380.349	330.66
380.729	335.85
381.109	308.96
381.489	320.49
381.87	312.58
382.25	325.23
382.63	334.04
383.01	348.28
383.39	321.39
383.77	335.17
384.15	355.06
384.53	352.35
384.91	340.82
385.29	328.17
385.67	341.28
386.049	334.72
386.429	357.32
386.809	334.27
387.189	342.63
387.568	338.11
387.948	349.41
388.328	362.97
388.707	359.58
389.087	363.87
389.466	350.77
389.846	373.82
390.225	371.56
390.605	358.23
390.984	348.73
391.363	364.55
391.743	344.89
392.122	356.19
392.501	371.78
392.881	370.2
393.26	377.89
393.639	385.12
394.018	367.94
394.397	369.3
394.776	363.42
395.155	371.56
395.534	379.24
395.913	371.11
396.292	394.16
396.671	368.62
397.05	391.9
397.429	404.33
397.808	389.41
398.186	381.5
398.565	379.47
398.944	400.48
399.323	408.62
399.701	394.16
400.08	405.91
400.458	395.06
400.837	401.61
401.215	407.94
401.594	399.35
401.972	419.01
402.351	432.8
402.729	419.69
403.107	423.31
403.486	416.08
403.864	437.77
404.242	443.65
404.62	462.63
404.999	417.66
405.377	449.07
405.755	466.47
406.133	421.05
406.511	445.45
406.889	438.22
407.267	454.27
407.645	462.63
408.023	455.17
408.401	458.11
408.779	433.25
409.156	460.6
409.534	485.91
409.912	492.23
410.29	485.45
410.667	460.82
411.045	508.73
411.422	503.53
411.8	528.62
412.178	520.03
412.555	535.85
412.933	536.75
413.31	526.13
413.687	563.87
414.065	558.67
414.442	531.1
414.819	558.45
415.197	560.93
415.574	570.42
415.951	586.02
416.328	587.15
416.705	602.96
417.082	596.86
417.46	590.54
417.837	603.87
418.214	592.12
418.591	601.38
418.967	620.59
419.344	597.54
419.721	634.38
420.098	653.81
420.475	673.25
420.852	653.13
421.228	658.33
421.605	659.91
421.982	699.01
422.358	672.57
422.735	694.04
423.111	722.96
423.488	710.76
423.864	719.8
424.241	723.41
424.617	734.26
424.994	749.63
425.37	743.3
425.746	751.21
426.123	773.58
426.499	779.23
426.875	802.96
427.251	816.07
427.627	824.2
428.003	810.64
428.379	820.81
428.756	828.04
429.132	814.48
429.507	850.87
429.883	876.4
430.259	868.27
430.635	907.14
431.011	863.75
431.387	898.78
431.763	902.62
432.138	918.66
432.514	951.2
432.89	944.42
433.265	993.69
433.641	962.5
434.016	984.88
434.392	1003.18
434.767	1016.06
435.143	1024.65
435.518	1026.23
435.894	1066.23
436.269	1074.59
436.644	1098.32
437.02	1119.56
437.395	1108.26
437.77	1129.05
438.145	1159.56
438.52	1142.84
438.895	1195.49
439.271	1198.43
439.646	1204.08
440.021	1209.73
440.395	1228.03
440.77	1214.25
441.145	1249.28
441.52	1261.25
441.895	1263.51
442.27	1267.35
442.645	1263.06
443.019	1329.72
443.394	1303.28
443.769	1313.68
444.143	1321.82
444.518	1362.27
444.892	1337.41
445.267	1344.41
445.641	1379.44
446.016	1386.45
446.39	1355.49
446.764	1362.72
447.139	1376.5
447.513	1419.44
447.887	1408.82
448.262	1418.31
448.636	1455.37
449.01	1439.1
449.384	1481.59
449.758	1487.01
450.132	1481.36
450.506	1479.55
450.88	1493.11
451.254	1516.84
451.628	1510.96
452.002	1537.4
452.376	1585.09
452.75	1556.16
453.123	1544.86
453.497	1597.97
453.871	1618.3
454.244	1624.41
454.618	1661.47
454.992	1660.79
455.365	1670.73
455.739	1716.16
456.112	1708.25
456.486	1691.75
456.859	1746.44
457.232	1779.2
457.606	1739.43
457.979	1797.74
458.352	1825.53
458.725	1847.23
459.099	1860.78
459.472	1906.43
459.845	1875.7
460.218	1924.29
460.591	1924.29
460.964	1932.42
461.337	1961.57
461.71	1971.97
462.083	2031.18
462.456	2019.2
462.829	2041.12
463.201	2043.15
463.574	2085.41
463.947	2109.59
464.32	2138.52
464.692	2190.27
465.065	2175.13
465.438	2208.57
465.81	2244.05
466.183	2247.21
466.555	2296.03
466.928	2293.77
467.3	2327.66
467.672	2332.41
468.045	2370.38
468.417	2390.94
468.789	2422.13
469.161	2433.42
469.534	2451.96
469.906	2537.38
470.278	2555.91
470.65	2552.29
471.022	2637.49
471.394	2646.75
471.766	2639.52
472.138	2672.06
472.51	2720.2
472.882	2771.72
473.253	2821.44
473.625	2814.66
473.997	2896.01
474.369	2910.7
474.74	2881.77
475.112	2941.66
475.484	2990.02
475.855	3080.64
476.227	3089.68
476.598	3159.96
476.97	3188.66
477.341	3216.23
477.713	3255.78
478.084	3294.19
478.455	3364.25
478.827	3405.38
479.198	3465.26
479.569	3490.35
479.94	3548.65
480.311	3610.34
480.682	3672.71
481.053	3730.57
481.424	3773.5
481.795	3776.44
482.166	3804.01
482.537	3893.27
482.908	3968.3
483.279	4027.28
483.65	4061.4
484.021	4118.58
484.391	4139.14
484.762	4193.6
485.133	4191.8
485.503	4274.51
485.874	4349.53
486.244	4388.63
486.615	4478.57
486.985	4472.02
487.356	4531.9
487.726	4589.53
488.097	4680.82
488.467	4709.75
488.837	4746.13
489.207	4812.12
489.578	4882.4
489.948	4919.69
490.318	4963.08
490.688	4962.4
491.058	4998.78
491.428	5147.25
491.798	5132.34
492.168	5237.42
492.538	5235.61
492.908	5282.62
493.278	5308.6
493.648	5367.13
494.017	5379.11
494.387	5445.32
494.757	5463.85
495.126	5569.84
495.496	5553.12
495.866	5599.44
496.235	5674.7
496.605	5672.66
496.974	5720.57
497.344	5759.89
497.713	5789.04
498.082	5809.38
498.452	5770.06
498.821	5848.25
499.19	5821.13
499.559	5913.11
499.928	5976.61
500.298	5986.55
500.667	6041.47
501.036	5995.82
501.405	6110.16
501.774	6098.19
502.143	6084.4
502.512	6107.9
502.88	6167.79
503.249	6219.77
503.618	6227.68
503.987	6222.03
504.356	6203.04
504.724	6274.68
505.093	6304.74
505.462	6293.21
505.83	6332.08
506.199	6373.66
506.567	6422.02
506.936	6428.12
507.304	6481.91
507.672	6458.18
508.041	6476.93
508.409	6519.42
508.777	6562.36
509.145	6602.35
509.514	6544.5
509.882	6611.85
510.25	6669.47
510.618	6641.9
510.986	6670.83
511.354	6724.39
511.722	6730.94
512.09	6790.6
512.458	6782.46
512.826	6815.46
513.193	6801.45
513.561	6822.01
513.929	6829.02
514.297	6893.42
514.664	6946.53
515.032	6917.83
515.4	6921.89
515.767	6963.7
516.135	6992.17
516.502	6921.67
516.869	7052.96
517.237	7048.9
517.604	7032.63
517.972	6996.92
518.339	7041.21
518.706	7080.08
519.073	7095.9
519.44	7115.79
519.808	7148.55
520.175	7127.31
520.542	7155.11
520.909	7175.67
521.276	7179.29
521.643	7225.16
522.009	7289.57
522.376	7249.57
522.743	7268.1
523.11	7337.7
523.477	7353.75
523.843	7338.83
524.21	7450.24
524.577	7438.49
524.943	7412.73
525.31	7533.4
525.676	7496.34
526.043	7476.68
526.409	7560.75
526.776	7557.58
527.142	7581.54
527.508	7617.24
527.874	7654.98
528.241	7633.29
528.607	7597.81
528.973	7651.59
529.339	7639.39
529.705	7664.7
530.071	7746.05
530.437	7724.13
530.803	7772.72
531.169	7668.09
531.535	7737.69
531.901	7768.88
532.267	7721.65
532.632	7711.03
532.998	7766.62
533.364	7746.51
533.73	7741.08
534.095	7757.13
534.461	7743.12
534.826	7806.39
535.192	7764.58
535.557	7782.21
535.923	7773.4
536.288	7828.99
536.653	7785.37
537.019	7758.48
537.384	7783.34
537.749	7808.88
538.114	7768.2
538.479	7733.17
538.845	7802.1
539.21	7752.15
539.575	7779.05
539.94	7685.72
540.305	7767.52
540.67	7773.17
541.034	7746.51
541.399	7742.89
541.764	7772.04
542.129	7743.34
542.494	7728.65
542.858	7714.64
543.223	7712.83
543.587	7754.87
543.952	7721.65
544.316	7686.62
544.681	7739.27
545.045	7713.06
545.41	7719.39
545.774	7741.53
546.138	7688.43
546.503	7693.63
546.867	7669.22
547.231	7704.25
547.595	7712.38
547.959	7725.49
548.324	7666.06
548.688	7655.66
549.052	7617.47
549.416	7661.76
549.779	7628.32
550.143	7678.71
550.507	7622.89
550.871	7624.93
551.235	7607.53
551.599	7660.18
551.962	7592.16
552.326	7588.77
552.689	7679.84
553.053	7606.85
553.417	7612.05
553.78	7674.64
554.143	7608.88
554.507	7649.78
554.87	7657.92
555.234	7687.75
555.597	7604.81
555.96	7602.1
556.323	7654.98
556.686	7618.37
557.05	7646.62
557.413	7713.74
557.776	7654.53
558.139	7671.25
558.502	7741.08
558.865	7658.6
559.228	7769.33
559.59	7716.9
559.953	7734.98
560.316	7810.01
560.679	7767.97
561.041	7741.31
561.404	7803.23
561.767	7847.07
562.129	7779.72
562.492	7923.9
562.854	7857.69
563.217	7847.97
563.579	7894.98
563.941	7919.38
564.304	7865.15
564.666	7936.33
565.028	7984.92
565.39	7998.7
565.753	7984.69
566.115	8063.56
566.477	8046.38
566.839	8089.55
567.201	8106.72
567.563	8109.66
567.925	8111.24
568.287	8152.37
568.648	8122.54
569.01	8147.85
569.372	8229.2
569.734	8205.7
570.095	8242.76
570.457	8254.06
570.819	8219.49
571.18	8188.98
571.542	8301.52
571.903	8241.18
572.265	8278.02
572.626	8336.55
572.987	8335.87
573.349	8381.74
573.71	8403.66
574.071	8453.83
574.432	8427.39
574.794	8568.18
575.155	8498.35
575.516	8514.85
575.877	8507.62
576.238	8563.21
576.599	8552.59
576.96	8538.8
577.32	8583.55
577.681	8606.14
578.042	8584.9
578.403	8565.47
578.763	8690.44
579.124	8605.24
579.485	8644.56
579.845	8692.02
580.206	8707.38
580.566	8700.83
580.927	8712.58
581.287	8738.34
581.648	8681.85
582.008	8762.07
582.368	8768.4
582.728	8799.13
583.089	8735.18
583.449	8796.2
583.809	8813.14
584.169	8833.26
584.529	8801.17
584.889	8894.95
585.249	8849.3
585.609	8788.06
585.969	8825.35
586.329	8939.24
586.688	8883.88
587.048	8833.03
587.408	8877.78
587.768	8936.3
588.127	8880.49
588.487	8885.23
588.846	9028.05
589.206	8915.97
589.565	8899.92
589.925	8952.58
590.284	8959.81
590.643	9006.81
591.003	9038.45
591.362	9068.28
591.721	8980.37
592.08	9015.17
592.44	9066.7
592.799	9027.83
593.158	9029.86
593.517	9018.79
593.876	9027.38
594.235	9033.7
594.593	9052.23
594.952	9088.39
595.311	8994.38
595.67	9064.44
596.029	9146.69
596.387	9135.17
596.746	9131.33
597.104	9105.34
597.463	9092.68
597.822	9132.68
598.18	9167.94
598.538	9080.48
598.897	9125.45
599.255	9066.7
599.613	9177.65
599.972	9157.77
600.33	9162.74
600.688	9128.62
601.046	9172.68
601.404	9219.46
601.762	9167.94
602.12	9228.73
602.478	9193.7
602.836	9203.19
603.194	9180.59
603.552	9180.59
603.91	9149.86
604.268	9228.27
604.625	9146.69
604.983	9242.29
605.341	9242.96
605.698	9229.86
606.056	9267.14
606.413	9238.9
606.771	9298.55
607.128	9272.79
607.485	9241.16
607.843	9285.67
608.2	9290.19
608.557	9363.41
608.914	9333.36
609.272	9382.85
609.629	9312.57
609.986	9402.51
610.343	9411.09
610.7	9428.72
611.057	9339.91
611.414	9340.59
611.771	9336.97
612.127	9385.11
612.484	9367.25
612.841	9521.15
613.198	9423.07
613.554	9382.17
613.911	9464.88
614.267	9464.43
614.624	9482.05
614.98	9451.55
615.337	9468.95
615.693	9467.82
616.05	9445.67
616.406	9495.39
616.762	9458.32
617.118	9520.92
617.475	9543.29
617.831	9554.37
618.187	9609.28
618.543	9572.9
618.899	9634.59
619.255	9566.12
619.611	9591.43
619.967	9617.64
620.323	9594.14
620.678	9507.59
621.034	9547.14
621.39	9553.92
621.746	9532.45
622.101	9621.94
622.457	9548.04
622.812	9558.21
623.168	9601.37
623.523	9611.54
623.879	9631.2
624.234	9534.71
624.589	9562.05
624.945	9570.41
625.3	9597.3
625.655	9626.46
626.01	9636.4
626.365	9534.71
626.72	9608.83
627.075	9557.76
627.43	9595.5
627.785	9513.01
628.14	9543.97
628.495	9548.72
628.85	9511.43
629.205	9521.83
629.559	9565.67
629.914	9474.14
630.269	9494.71
630.623	9508.72
630.978	9459.23
631.332	9497.19
631.687	9516.63
632.041	9429.85
632.396	9469.62
632.75	9486.35
633.104	9503.07
633.459	9364.32
633.813	9394.37
634.167	9375.16
634.521	9381.72
634.875	9365.45
635.229	9388.72
635.583	9403.86
635.937	9321.38
636.291	9370.64
636.645	9357.08
636.999	9292.23
637.352	9315.5
637.706	9241.83
638.06	9295.84
638.413	9258.33
638.767	9285.45
639.121	9217.88
639.474	9192.12
639.828	9171.55
640.181	9227.6
640.534	9261.49
640.888	9200.93
641.241	9201.38
641.594	9080.48
641.947	9240.25
642.301	9194.83
642.654	9148.05
643.007	9195.05
643.36	9148.5
643.713	9103.53
644.066	9109.18
644.419	9083.19
644.771	9046.13
645.124	8896.76
645.477	8974.04
645.83	8883.65
646.182	8870.32
646.535	8798.46
646.888	8811.11
647.24	8799.81
647.593	8862.86
647.945	8830.09
648.298	8805.69
648.65	8785.57
649.002	8734.95
649.355	8780.83
649.707	8790.55
650.059	8745.12
650.411	8899.7
650.763	8959.58
651.115	9025.34
651.467	8976.98
651.819	8962.74
652.171	8905.12
652.523	9027.83
652.875	8979.02
653.227	8918.68
653.578	8942.63
653.93	8966.13
654.282	8880.71
654.633	8928.62
654.985	8930.66
655.337	8939.92
655.688	8885.46
656.039	8982.63
656.391	8914.84
656.742	8880.26
657.094	8907.15
657.445	8969.52
657.796	8874.39
658.147	8899.92
658.498	8903.99
658.849	8947.38
659.2	8856.08
659.551	8887.72
659.902	8900.37
660.253	8846.82
660.604	8958.22
660.955	8927.49
661.306	8882.97
661.656	8868.06
662.007	8917.55
662.358	8946.93
662.708	8914.61
663.059	8899.92
663.409	8852.69
663.76	8919.81
664.11	8862.18
664.461	8951.67
664.811	8961.84
665.161	8898.11
665.511	8924.33
665.862	8912.58
666.212	8950.99
666.562	8917.32
666.912	8842.52
667.262	8927.04
667.612	8930.66
667.962	8976.53
668.312	8912.58
668.662	8908.06
669.011	8970.43
669.361	8870.32
669.711	8930.2
670.06	8919.58
670.41	8797.33
670.76	8848.85
671.109	8846.82
671.459	8863.09
671.808	8857.21
672.157	8833.93
672.507	8805.01
672.856	8804.33
673.205	8756.42
673.554	8786.93
673.904	8781.51
674.253	8882.07
674.602	8792.35
674.951	8676.2
675.3	8665.58
675.649	8736.08
675.998	8767.04
676.346	8764.78
676.695	8769.98
677.044	8698.57
677.393	8738.57
677.741	8778.57
678.09	8698.12
678.438	8702.41
678.787	8668.06
679.135	8745.12
679.484	8632.58
679.832	8646.59
680.181	8624
680.529	8619.25
680.877	8610.44
681.225	8584.45
681.573	8676.42
681.922	8576.77
682.27	8531.12
682.618	8536.09
682.966	8531.57
683.314	8584.68
683.661	8528.41
684.009	8385.81
684.357	8464.68
684.705	8444.11
685.053	8449.76
685.4	8466.49
685.748	8348.98
686.095	8383.32
686.443	8387.17
686.79	8299.26
687.138	8318.02
687.485	8306.72
687.832	8277.11
688.18	8294.51
688.527	8266.72
688.874	8286.38
689.221	8191.01
689.568	8147.17
689.915	8141.98
690.262	8177.91
690.609	8118.47
690.956	8078.02
691.303	8089.1
691.65	8047.74
691.997	8019.72
692.344	8056.33
692.69	7961.87
693.037	7964.8
693.383	7895.88
693.73	7904.24
694.077	7884.13
694.423	7899.72
694.769	7871.47
695.116	7812.94
695.462	7835.54
695.808	7830.57
696.155	7866.05
696.501	7680.29
696.847	7697.69
697.193	7704.7
697.539	7659.05
697.885	7629.45
698.231	7635.55
698.577	7683
698.923	7551.93
699.269	7490.92
699.614	7415.67
699.96	7483.24
700.306	7445.95
700.651	7482.78
700.997	7452.28
701.342	7403.69
701.688	7392.84
702.033	7362.11
702.379	7354.88
702.724	7289.34
703.069	7266.97
703.415	7212.06
703.76	7242.79
704.105	7218.38
704.45	7207.76
704.795	7181.1
705.14	7159.85
705.485	7179.29
705.83	7157.14
706.175	7146.75
706.52	7038.5
706.865	7020.2
707.209	7027.65
707.554	7003.47
707.899	7037.15
708.243	6981.55
708.588	6994.66
708.932	6935.45
709.277	6937.94
709.621	6900.2
709.966	6835.79
710.31	6846.19
710.654	6780.88
710.998	6835.34
711.342	6813.2
711.687	6827.89
712.031	6795.8
712.375	6737.49
712.719	6807.1
713.063	6770.71
713.407	6772.52
713.75	6735.91
714.094	6717.61
714.438	6688
714.782	6654.78
715.125	6665.63
715.469	6639.42
715.812	6647.33
716.156	6647.55
716.499	6628.34
716.843	6628.57
717.186	6592.19
717.53	6618.63
717.873	6689.81
718.216	6581.79
718.559	6560.1
718.902	6514.9
719.246	6553.77
719.589	6501.11
719.932	6504.73
720.275	6511.74
720.617	6433.32
720.96	6496.59
721.303	6474
721.646	6459.99
721.989	6415.47
722.331	6498.85
722.674	6428.12
723.016	6481.23
723.359	6451.85
723.701	6480.55
724.044	6459.53
724.386	6365.07
724.729	6429.25
725.071	6380.44
725.413	6382.25
725.755	6363.04
726.097	6359.65
726.439	6382.93
726.782	6350.84
727.124	6400.33
727.465	6368.69
727.807	6384.28
728.149	6363.04
728.491	6253.21
728.833	6324.4
729.175	6307.45
729.516	6353.77
729.858	6342.25
730.199	6351.06
730.541	6298.18
730.882	6307
731.224	6335.47
731.565	6263.15
731.906	6294.79
732.248	6298.63
732.589	6224.74
732.93	6221.12
733.271	6234
733.612	6216.6
733.953	6315.36
734.294	6211.63
734.635	6245.53
734.976	6293.21
735.317	6242.36
735.658	6248.92
735.999	6253.89
736.339	6223.16
736.68	6317.84
737.021	6287.79
737.361	6251.18
737.702	6222.7
738.042	6208.01
738.383	6245.98
738.723	6271.52
739.063	6245.75
739.404	6296.6
739.744	6297.73
740.084	6218.86
740.424	6262.25
740.764	6248.69
741.104	6267.67
741.444	6283.72
741.784	6290.5
742.124	6299.76
742.464	6325.98
742.804	6293.89
743.143	6300.89
743.483	6352.19
743.823	6305.87
744.162	6295.92
744.502	6403.26
744.841	6367.11
745.181	6410.27
745.52	6398.97
745.86	6495.24
746.199	6465.64
746.538	6432.42
746.877	6490.49
747.216	6541.11
747.556	6595.12
747.895	6590.83
748.234	6584.73
748.573	6650.94
748.911	6679.19
749.25	6687.32
749.589	6741.33
749.928	6790.37
750.267	6824.72
750.605	6801.67
750.944	6893.65
751.283	6859.52
751.621	7010.71
751.96	6986.3
752.298	7071.95
752.636	7136.35
752.975	7162.79
753.313	7193.07
753.651	7240.98
753.989	7341.09
754.327	7372.96
754.666	7451.82
755.004	7506.96
755.342	7634.42
755.679	7668.54
756.017	7701.99
756.355	7822.21
756.693	7926.84
757.031	7978.36
757.368	8010
757.706	8125.7
758.044	8139.04
758.381	8299.49
758.719	8351.69
759.056	8471.68
759.394	8562.76
759.731	8595.75
760.068	8661.74
760.405	8733.82
760.743	8892.69
761.08	9000.03
761.417	9013.14
761.754	9113.25
762.091	9225.11
762.428	9325.67
762.765	9353.02
763.102	9515.27
763.438	9532.45
763.775	9628.26
764.112	9790.07
764.449	9895.38
764.785	9909.39
765.122	9950.74
765.458	10048.14
765.795	10076.16
766.131	10268.47
766.467	10293.33
766.804	10409.26
767.14	10401.35
767.476	10511.4
767.812	10557.96
768.148	10624.17
768.485	10612.64
768.821	10759.31
769.157	10834.33
769.492	10879.53
