Data from hue_80_FLMS001491_11.txt Node
Date: Mon Feb 06 15:22:32 GMT 2017
User: dcchb
Spectrometer: FLMS00149
Trigger mode: 0
Integration Time (sec): 2.000000E-2
Scans to average: 10
Electric dark correction enabled: true
Nonlinearity correction enabled: false
Boxcar width: 0
XAxis mode: Wavelengths
Number of Pixels in Spectrum: 2048
>>>>>Begin Spectral Data<<<<<
341.393	-12.51
341.776	-12.51
342.16	-12.51
342.543	-59.29
342.927	-69.91
343.31	-62.91
343.693	-88.67
344.077	-71.27
344.46	-66.52
344.843	-50.48
345.226	-28.78
345.61	-30.82
345.993	-19.97
346.376	-12.97
346.759	7.6
347.142	13.47
347.525	62.06
347.908	85.79
348.291	88.73
348.674	82.62
349.057	92.12
349.44	125.34
349.823	155.84
350.206	155.84
350.588	182.74
350.971	189.97
351.354	229.06
351.737	219.8
352.119	249.4
352.502	260.7
352.884	244.43
353.267	291.21
353.65	274.26
354.032	286.46
354.414	290.76
354.797	300.92
355.179	342.51
355.562	316.74
355.944	319.91
356.326	315.84
356.709	325.56
357.091	329.17
357.473	346.12
357.855	335.27
358.238	358.32
358.62	350.64
359.002	338.89
359.384	344.99
359.766	329.85
360.148	332.11
360.53	340.02
360.912	314.94
361.294	312
361.676	315.16
362.057	323.52
362.439	314.94
362.821	309.51
363.203	321.26
363.584	324.88
363.966	317.87
364.348	315.39
364.729	321.26
365.111	312.9
365.493	314.26
365.874	292.34
366.256	294.37
366.637	304.77
367.019	310.42
367.4	310.42
367.781	321.49
368.163	317.65
368.544	299.57
368.925	310.42
369.306	302.28
369.688	305.22
370.069	311.32
370.45	320.81
370.831	307.03
371.212	311.09
371.593	311.77
371.974	298.66
372.355	297.99
372.736	305.9
373.117	300.92
373.498	323.97
373.879	325.56
374.26	304.99
374.641	298.66
375.021	303.64
375.402	310.87
375.783	329.62
376.163	301.83
376.544	309.51
376.925	317.65
377.305	321.94
377.686	328.49
378.066	305.67
378.447	306.8
378.827	333.01
379.208	302.73
379.588	332.34
379.968	337.99
380.349	316.52
380.729	322.62
381.109	328.04
381.489	334.37
381.87	326.46
382.25	342.28
382.63	326.23
383.01	336.63
383.39	327.82
383.77	323.07
384.15	321.94
384.53	339.79
384.91	313.13
385.29	354.03
385.67	341.38
386.049	336.63
386.429	324.65
386.809	347.25
387.189	332.11
387.568	361.71
387.948	355.39
388.328	356.52
388.707	330.08
389.087	354.03
389.466	346.57
389.846	359.91
390.225	352.67
390.605	353.13
390.984	346.57
391.363	354.03
391.743	368.72
392.122	365.56
392.501	354.03
392.881	374.37
393.26	358.78
393.639	361.04
394.018	359.45
394.397	380.47
394.776	377.31
395.155	378.21
395.534	371.88
395.913	365.1
396.292	384.99
396.671	379.57
397.05	373.24
397.429	387.25
397.808	374.14
398.186	371.88
398.565	384.09
398.944	397.42
399.323	400.13
399.701	383.18
400.08	389.28
400.458	399
400.837	378.21
401.215	387.02
401.594	383.63
401.972	404.65
402.351	382.28
402.729	403.97
403.107	403.07
403.486	392.45
403.864	378.66
404.242	388.15
404.62	387.7
404.999	407.59
405.377	417.53
405.755	403.52
406.133	417.98
406.511	405.78
406.889	411.66
407.267	423.63
407.645	414.14
408.023	430.64
408.401	428.38
408.779	435.38
409.156	420.7
409.534	438.77
409.912	438.32
410.29	452.11
410.667	439.9
411.045	437.42
411.422	429.06
411.8	433.12
412.178	445.1
412.555	448.27
412.933	434.03
413.31	469.96
413.687	450.52
414.065	464.54
414.442	487.13
414.819	472.22
415.197	461.82
415.574	462.05
415.951	486.46
416.328	461.82
416.705	457.08
417.082	461.82
417.46	466.34
417.837	478.09
418.214	478.32
418.591	511.31
418.967	495.5
419.344	511.09
419.721	491.2
420.098	508.83
420.475	499.79
420.852	509.05
421.228	499.34
421.605	502.5
421.982	505.21
422.358	520.35
422.735	520.58
423.111	518.32
423.488	536.4
423.864	520.35
424.241	529.39
424.617	535.04
424.994	523.29
425.37	534.36
425.746	530.97
426.123	532.1
426.499	523.52
426.875	568.71
427.251	561.03
427.627	574.59
428.003	574.14
428.379	538.88
428.756	587.92
429.132	598.54
429.507	565.78
429.883	597.87
430.259	600.35
430.635	615.27
431.011	596.06
431.387	579.79
431.763	605.32
432.138	605.32
432.514	619.33
432.89	643.06
433.265	634.7
433.641	629.96
434.016	621.37
434.392	645.1
434.767	643.06
435.143	662.27
435.518	632.67
435.894	673.34
436.269	660.24
436.644	684.64
437.02	682.61
437.395	684.19
437.77	705.66
438.145	687.81
438.52	681.93
438.895	681.71
439.271	686.9
439.646	712.89
440.021	709.95
440.395	721.48
440.77	731.42
441.145	723.74
441.52	728.03
441.895	719.22
442.27	742.04
442.645	744.75
443.019	733.91
443.394	730.52
443.769	728.26
444.143	734.81
444.518	770.29
444.892	749.73
445.267	763.06
445.641	764.19
446.016	768.03
446.39	788.37
446.764	780.01
447.139	793.11
447.513	784.53
447.887	796.96
448.262	784.75
448.636	779.78
449.01	812.55
449.384	798.31
449.758	826.79
450.132	813.91
450.506	840.35
450.88	836.5
451.254	847.12
451.628	871.08
452.002	854.36
452.376	865.88
452.75	875.82
453.123	894.58
453.497	890.06
453.871	877.86
454.244	908.14
454.618	895.26
454.992	921.92
455.365	904.52
455.739	947.91
456.112	944.3
456.486	940.68
456.859	956.95
457.232	1005.76
457.606	963.51
457.979	983.84
458.352	1005.99
458.725	1042.15
459.099	1014.8
459.472	1036.95
459.845	1041.7
460.218	1054.58
460.591	1042.37
460.964	1070.4
461.337	1089.6
461.71	1094.35
462.083	1104.74
462.456	1139.32
462.829	1131.86
463.201	1162.6
463.574	1178.64
463.947	1196.95
464.32	1182.03
464.692	1210.73
465.065	1227.45
465.438	1217.06
465.81	1246.21
466.183	1262.93
466.555	1298.64
466.928	1337.28
467.3	1308.58
467.672	1336.6
468.045	1381.12
468.417	1396.49
468.789	1413.66
469.161	1420.22
469.534	1437.84
469.906	1476.49
470.278	1482.81
470.65	1506.77
471.022	1539.76
471.394	1551.51
471.766	1613.43
472.138	1620.66
472.51	1649.59
472.882	1701.57
473.253	1725.75
473.625	1769.13
473.997	1801.22
474.369	1839.64
474.74	1882.13
475.112	1899.75
475.484	1970.48
475.855	2021.56
476.227	2019.75
476.598	2100.42
476.97	2098.62
477.341	2207.54
477.713	2246.41
478.084	2273.3
478.455	2399.17
478.827	2405.5
479.198	2440.98
479.569	2515.56
479.94	2627.19
480.311	2674.65
480.682	2785.38
481.053	2855.43
481.424	2899.05
481.795	2973.17
482.166	3060.4
482.537	3115.77
482.908	3256.78
483.279	3328.64
483.65	3437.34
484.021	3540.84
484.391	3597.33
484.762	3689.54
485.133	3752.81
485.503	3896.99
485.874	3987.16
486.244	4108.96
486.615	4219.47
486.985	4265.11
487.356	4405.22
487.726	4547.82
488.097	4687.02
488.467	4776.74
488.837	4919.11
489.207	5014.92
489.578	5187.8
489.948	5242.04
490.318	5406.55
490.688	5514.57
491.058	5648.81
491.428	5764.06
491.798	5907.78
492.168	6061.45
492.538	6178.51
492.908	6273.2
493.278	6426.86
493.648	6602.68
494.017	6747.53
494.387	6884.25
494.757	6963.12
495.126	7089.45
495.496	7245.15
495.866	7310.23
496.235	7455.31
496.605	7593.39
496.974	7740.05
497.344	7819.6
497.713	7928.97
498.082	8153.6
498.452	8305.46
498.821	8291.67
499.19	8382.07
499.559	8561.95
499.928	8671.78
500.298	8824.09
500.667	8915.84
501.036	8951.77
501.405	9090.07
501.774	9204.87
502.143	9352.21
502.512	9436.5
502.88	9570.96
503.249	9648.7
503.618	9780.22
503.987	9845.53
504.356	9903.61
504.724	10049.14
505.093	10091.4
505.462	10227.44
505.83	10295.01
506.199	10368.46
506.567	10579.07
506.936	10616.81
507.304	10735.68
507.672	10831.04
508.041	10919.4
508.409	11063.13
508.777	11136.35
509.145	11219.28
509.514	11236.46
509.882	11386.96
510.25	11456.34
510.618	11539.72
510.986	11543.11
511.354	11685.03
511.722	11765.71
512.09	11854.74
512.458	11947.62
512.826	12017.23
513.193	12063.33
513.561	12104.68
513.929	12184.91
514.297	12328.18
514.664	12369.31
515.032	12426.26
515.4	12521.39
515.767	12637.1
516.135	12671.9
516.502	12650.66
516.869	12817.43
517.237	12890.65
517.604	12908.28
517.972	12985.56
518.339	13070.08
518.706	12970.87
519.073	13136.97
519.44	13189.17
519.808	13317.53
520.175	13263.97
520.542	13464.42
520.909	13489.5
521.276	13526.57
521.643	13659.9
522.009	13660.12
522.376	13701.7
522.743	13755.26
523.11	13946.67
523.477	13957.74
523.843	14026.89
524.21	14120.45
524.577	14252.65
524.943	14268.92
525.31	14323.15
525.676	14334.91
526.043	14477.27
526.409	14469.59
526.776	14645.63
527.142	14636.37
527.508	14664.61
527.874	14735.8
528.241	14743.03
528.607	14755.23
528.973	14924.04
529.339	14809.47
529.705	14990.93
530.071	14992.74
530.437	15066.41
530.803	15114.55
531.169	15140.31
531.535	15141.44
531.901	15172.4
532.267	15116.13
532.632	15321.77
532.998	15263.47
533.364	15257.14
533.73	15311.15
534.095	15365.84
534.461	15372.62
534.826	15465.05
535.192	15354.54
535.557	15432.96
535.923	15473.63
536.288	15473.41
536.653	15469.56
537.019	15495.78
537.384	15464.37
537.749	15522.44
538.114	15529.45
538.479	15418.49
538.845	15529.22
539.21	15409.91
539.575	15444.03
539.94	15473.41
540.305	15519.28
540.67	15495.55
541.034	15530.58
541.399	15602.67
541.764	15545.04
542.129	15481.32
542.494	15543.24
542.858	15378.27
543.223	15527.19
543.587	15542.78
543.952	15434.54
544.316	15514.54
544.681	15406.06
545.045	15484.71
545.41	15539.85
545.774	15522.22
546.138	15432.05
546.503	15494.42
546.867	15522.22
547.231	15521.54
547.595	15500.3
547.959	15504.37
548.324	15504.59
548.688	15504.59
549.052	15434.31
549.416	15393.63
549.779	15397.25
550.143	15411.04
550.507	15477.7
550.871	15481.54
551.235	15351.6
551.599	15395.22
551.962	15511.15
552.326	15399.28
552.689	15458.72
553.053	15473.86
553.417	15449.45
553.78	15544.82
554.143	15459.17
554.507	15437.48
554.87	15454.88
555.234	15587.3
555.597	15415.56
555.96	15462.33
556.323	15396.8
556.686	15554.53
557.05	15538.94
557.413	15592.95
557.776	15555.89
558.139	15599.73
558.502	15674.53
558.865	15578.94
559.228	15683.34
559.59	15659.39
559.953	15697.81
560.316	15850.57
560.679	15769.67
561.041	15788.65
561.404	15739.16
561.767	15878.14
562.129	15823.45
562.492	15935.09
562.854	15914.98
563.217	15872.27
563.579	15952.72
563.941	15960.85
564.304	15971.7
564.666	16074.29
565.028	16036.78
565.39	16080.4
565.753	16091.24
566.115	16138.02
566.477	16161.52
566.839	16198.81
567.201	16271.58
567.563	16281.75
567.925	16347.06
568.287	16374.17
568.648	16308.19
569.01	16418.92
569.372	16562.42
569.734	16309.54
570.095	16536.88
570.457	16488.3
570.819	16534.85
571.18	16616.88
571.542	16727.61
571.903	16577.78
572.265	16617.33
572.626	16701.85
572.987	16713.15
573.349	16763.09
573.71	16753.15
574.071	16779.14
574.432	16891.9
574.794	16897.1
575.155	16886.93
575.516	16779.59
575.877	16832.02
576.238	16925.12
576.599	17005.34
576.96	16928.74
577.32	16975.06
577.681	16882.18
578.042	16961.73
578.403	16978
578.763	16890.09
579.124	17026.81
579.485	17069.97
579.845	17020.03
580.206	17010.54
580.566	17044.44
580.927	16995.85
581.287	17083.53
581.648	16970.99
582.008	17040.82
582.368	17046.7
582.728	17067.26
583.089	17074.04
583.449	16970.09
583.809	17012.35
584.169	16942.52
584.529	16992.69
584.889	17219.35
585.249	17030.2
585.609	16862.07
585.969	17063.42
586.329	16970.99
586.688	17044.21
587.048	17011.9
587.408	16954.72
587.768	16843.54
588.127	16927.38
588.487	16938.45
588.846	17008.51
589.206	16904.56
589.565	16800.15
589.925	17014.84
590.284	16898.23
590.643	16926.93
591.003	16970.54
591.362	17009.86
591.721	16982.29
592.08	16920.15
592.44	16931.45
592.799	16921.96
593.158	16933.26
593.517	16874.95
593.876	16969.41
594.235	16874.05
594.593	16926.48
594.952	16876.76
595.311	16896.19
595.67	16816.2
596.029	16998.34
596.387	16927.38
596.746	16963.99
597.104	16891.9
597.463	16898
597.822	16858.68
598.18	16853.71
598.538	16822.3
598.897	16943.2
599.255	16810.77
599.613	17022.52
599.972	16810.09
600.33	16979.13
600.688	16935.74
601.046	16952.24
601.404	17022.29
601.762	16924.22
602.12	17096.87
602.478	17074.27
602.836	16957.66
603.194	16913.37
603.552	16892.58
603.91	16838.79
604.268	16845.57
604.625	16898.91
604.983	16971.45
605.341	16944.55
605.698	17057.09
606.056	16992.24
606.413	16987.27
606.771	17100.03
607.128	17048.96
607.485	16970.77
607.843	16997.66
608.2	17114.27
608.557	17175.06
608.914	17006.25
609.272	17079.47
609.629	17049.64
609.986	17227.03
610.343	17140.26
610.7	17270.42
611.057	17210.31
611.414	17150.2
611.771	17285.34
612.127	17262.29
612.484	17315.17
612.841	17260.7
613.198	17266.35
613.554	17224.32
613.911	17346.8
614.267	17330.76
614.624	17249.63
614.98	17359.23
615.337	17492.11
615.693	17529.17
616.05	17333.47
616.406	17448.5
616.762	17478.33
617.118	17391.1
617.475	17441.04
617.831	17489.4
618.187	17432.45
618.543	17610.53
618.899	17608.49
619.255	17590.41
619.611	17615.27
619.967	17644.65
620.323	17699.34
620.678	17601.49
621.034	17506.35
621.39	17604.42
621.746	17507.03
622.101	17778.2
622.457	17584.99
622.812	17645.33
623.168	17669.96
623.523	17610.53
623.879	17635.61
624.234	17588.83
624.589	17707.7
624.945	17681.48
625.3	17702.73
625.655	17678.32
626.01	17711.77
626.365	17631.09
626.72	17674.7
627.075	17692.33
627.43	17609.62
627.785	17539.79
628.14	17701.6
628.495	17682.84
628.85	17631.54
629.205	17527.59
629.559	17675.38
629.914	17630.41
630.269	17603.97
630.623	17570.53
630.978	17532.79
631.332	17759.22
631.687	17548.61
632.041	17490.75
632.396	17589.51
632.75	17507.48
633.104	17563.75
633.459	17604.88
633.813	17392
634.167	17356.97
634.521	17427.71
634.875	17400.59
635.229	17450.98
635.583	17319.01
635.937	17325.79
636.291	17242.85
636.645	17268.61
636.999	17349.06
637.352	17334.37
637.706	17211.44
638.06	17223.42
638.413	17217.09
638.767	17180.93
639.121	17299.57
639.474	17078.11
639.828	17124.89
640.181	17149.97
640.534	17121.27
640.888	17058.22
641.241	17004.67
641.594	17098.9
641.947	17129.63
642.301	17036.76
642.654	17050.77
643.007	17087.83
643.36	17036.98
643.713	17064.55
644.066	17071.33
644.419	16994.5
644.771	16789.76
645.124	16723.32
645.477	16734.16
645.83	16565.36
646.182	16558.35
646.535	16462.53
646.888	16402.87
647.24	16414.17
647.593	16585.69
647.945	16477.67
648.298	16367.17
648.65	16313.84
649.002	16400.61
649.355	16440.84
649.707	16370.11
650.059	16474.96
650.411	16544.34
650.763	16636.99
651.115	16889.19
651.467	16772.13
651.819	16851.22
652.171	16809.42
652.523	16742.98
652.875	16726.71
653.227	16696.88
653.578	16771.23
653.93	16785.01
654.282	16683.77
654.633	16720.15
654.985	16765.58
655.337	16763.54
655.688	16662.3
656.039	16825.69
656.391	16613.04
656.742	16742.3
657.094	16695.52
657.445	16776.65
657.796	16677.22
658.147	16696.88
658.498	16741.85
658.849	16766.25
659.2	16679.25
659.551	16692.81
659.902	16758.57
660.253	16749.98
660.604	16734.16
660.955	16643.09
661.306	16732.81
661.656	16690.55
662.007	16755.18
662.358	16738.91
662.708	16908.85
663.059	16794.28
663.409	16745.24
663.76	16771.45
664.11	16855.52
664.461	16863.65
664.811	16848.74
665.161	16849.64
665.511	16771
665.862	16793.15
666.212	16860.49
666.562	16854.61
666.912	16829.76
667.262	16819.59
667.612	16792.24
667.962	16771.68
668.312	16715.63
668.662	16891.9
669.011	16658.46
669.361	16745.46
669.711	16781.85
670.06	16796.54
670.41	16789.53
670.76	16688.97
671.109	16852.35
671.459	16660.72
671.808	16750.89
672.157	16710.44
672.507	16575.75
672.856	16725.35
673.205	16647.16
673.554	16733.49
673.904	16634.96
674.253	16692.36
674.602	16651.23
674.951	16450.33
675.3	16366.04
675.649	16595.86
675.998	16623.66
676.346	16632.02
676.695	16712.02
677.044	16463.66
677.393	16458.47
677.741	16591.34
678.09	16462.99
678.438	16451.69
678.787	16458.47
679.135	16481.29
679.484	16344.34
679.832	16455.98
680.181	16299.6
680.529	16336.89
680.877	16445.58
681.225	16266.15
681.573	16409.88
681.922	16270.22
682.27	16213.27
682.618	16259.15
682.966	16227.29
683.314	16211.69
683.661	16206.72
684.009	16056.67
684.357	16050.11
684.705	15962.89
685.053	16042.88
685.4	15999.04
685.748	15913.4
686.095	15801.99
686.443	15816
686.79	15814.87
687.138	15781.87
687.485	15790.01
687.832	15750.46
688.18	15700.97
688.527	15665.94
688.874	15643.35
689.221	15538.26
689.568	15491.03
689.915	15381.66
690.262	15441.54
690.609	15392.96
690.956	15366.97
691.303	15436.35
691.65	15313.64
691.997	15230.48
692.344	15180.76
692.69	15118.39
693.037	15192.28
693.383	15073.64
693.73	15027.77
694.077	14949.13
694.423	14960.88
694.769	14883.37
695.116	14822.35
695.462	14842.24
695.808	14787.78
696.155	14781.22
696.501	14621.45
696.847	14589.81
697.193	14543.26
697.539	14603.83
697.885	14368.8
698.231	14357.5
698.577	14402.93
698.923	14363.15
699.269	14284.51
699.614	14174.46
699.96	14143.95
700.306	14141.46
700.651	14033.22
700.997	14100.79
701.342	13928.81
701.688	13909.15
702.033	13930.17
702.379	13920.23
702.724	13899.89
703.069	13796.39
703.415	13662.15
703.76	13581.03
704.105	13660.8
704.45	13696.73
704.795	13534.7
705.14	13547.58
705.485	13532.21
705.83	13442.27
706.175	13373.35
706.52	13395.95
706.865	13268.49
707.209	13301.94
707.554	13261.94
707.899	13230.53
708.243	13109.85
708.588	13193.01
708.932	13043.41
709.277	13053.81
709.621	12963.87
709.966	12918.45
710.31	12982.4
710.654	12795.06
710.998	12892.23
711.342	12804.32
711.687	12884.1
712.031	12737.43
712.375	12708.51
712.719	12737.89
713.063	12708.73
713.407	12642.97
713.75	12661.05
714.094	12677.32
714.438	12671.45
714.782	12515.29
715.125	12478.01
715.469	12471
715.812	12448.4
716.156	12440.94
716.499	12470.1
716.843	12532.47
717.186	12401.4
717.53	12499.25
717.873	12415.41
718.216	12351.45
718.559	12331.79
718.902	12213.38
719.246	12249.99
719.589	12228.97
719.932	12185.81
720.275	12153.95
720.617	12179.71
720.96	12139.71
721.303	12138.81
721.646	12224
721.989	12098.58
722.331	12171.57
722.674	12104.91
723.016	12100.61
723.359	12105.81
723.701	12106.72
724.044	12017.68
724.386	11987.4
724.729	12027.4
725.071	11974.97
725.413	11930.45
725.755	11991.69
726.097	11850.68
726.439	11925.03
726.782	11914.86
727.124	11931.58
727.465	11856.33
727.807	11800.96
728.149	11830.56
728.491	11789.89
728.833	11893.61
729.175	11802.99
729.516	11831.47
729.858	11781.98
730.199	11824.92
730.541	11786.95
730.882	11724.58
731.224	11785.82
731.565	11729.1
731.906	11795.76
732.248	11736.78
732.589	11739.04
732.93	11735.2
733.271	11746.95
733.612	11745.14
733.953	11754.18
734.294	11673.73
734.635	11718.93
734.976	11732.94
735.317	11675.99
735.658	11636.9
735.999	11691.36
736.339	11668.76
736.68	11790.34
737.021	11688.65
737.361	11688.65
737.702	11790.57
738.042	11793.28
738.383	11749.66
738.723	11753.96
739.063	11767.74
739.404	11729.1
739.744	11786.5
740.084	11758.7
740.424	11693.17
740.764	11738.59
741.104	11864.69
741.444	11808.87
741.784	11860.39
742.124	11838.7
742.464	11822.88
742.804	11852.26
743.143	11840.28
743.483	11880.28
743.823	11808.87
744.162	11967.28
744.502	11951.69
744.841	11847.74
745.181	11968.64
745.52	11999.83
745.86	12054.74
746.199	12033.5
746.538	12051.35
746.877	12065.81
747.216	12170.44
747.556	12188.97
747.895	12247.95
748.234	12242.31
748.573	12369.08
748.911	12379.25
749.25	12408.85
749.589	12419.25
749.928	12484.56
750.267	12612.92
750.605	12661.5
750.944	12641.84
751.283	12820.37
751.621	12790.54
751.96	12826.24
752.298	13030.08
752.636	13085.67
752.975	13117.08
753.313	13067.14
753.651	13321.82
753.989	13345.55
754.327	13438.88
754.666	13534.47
755.004	13614.7
755.342	13786.22
755.679	13852.66
756.017	13842.49
756.355	14014.24
756.693	14067.12
