Data from hue_32_FLMS001491_00038.txt Node
Date: Tue Feb 07 17:23:18 GMT 2017
User: dcchb
Spectrometer: FLMS00149
Trigger mode: 0
Integration Time (sec): 2.000000E-2
Scans to average: 10
Electric dark correction enabled: true
Nonlinearity correction enabled: false
Boxcar width: 0
XAxis mode: Wavelengths
Number of Pixels in Spectrum: 2048
>>>>>Begin Spectral Data<<<<<
341.393	-2.09
341.776	-2.09
342.16	-2.09
342.543	-101.3
342.927	-68.98
343.31	-65.82
343.693	-58.13
344.077	-74.63
344.46	-75.99
344.843	-55.87
345.226	-46.61
345.61	-21.52
345.993	-16.1
346.376	21.86
346.759	-13.16
347.142	18.02
347.525	43.11
347.908	74.97
348.291	61.64
348.674	84.24
349.057	124.01
349.44	122.88
349.823	142.09
350.206	177.11
350.588	195.42
350.971	219.15
351.354	243.33
351.737	237.23
352.119	254.4
352.502	259.37
352.884	273.83
353.267	275.42
353.65	281.74
354.032	316.32
354.414	296.66
354.797	314.51
355.179	331.23
355.562	333.49
355.944	341.86
356.326	344.12
356.709	338.92
357.091	340.95
357.473	338.47
357.855	340.27
358.238	336.43
358.62	344.34
359.002	352.93
359.384	339.82
359.766	329.88
360.148	329.88
360.53	341.4
360.912	337.56
361.294	316.09
361.676	332.59
362.057	332.59
362.439	351.35
362.821	345.47
363.203	342.53
363.584	339.6
363.966	347.05
364.348	343.44
364.729	349.76
365.111	329.65
365.493	330.56
365.874	332.59
366.256	333.27
366.637	299.37
367.019	306.6
367.4	323.78
367.781	306.83
368.163	323.32
368.544	336.43
368.925	317.22
369.306	315.19
369.688	315.42
370.069	327.17
370.45	322.87
370.831	321.97
371.212	304.57
371.593	298.92
371.974	307.96
372.355	317.22
372.736	326.04
373.117	310.44
373.498	320.84
373.879	335.3
374.26	333.72
374.641	321.07
375.021	321.07
375.402	311.8
375.783	322.42
376.163	323.1
376.544	322.87
376.925	325.13
377.305	327.84
377.686	326.04
378.066	331.23
378.447	340.95
378.827	337.34
379.208	316.32
379.588	323.78
379.968	362.65
380.349	349.99
380.729	345.47
381.109	337.79
381.489	332.14
381.87	343.21
382.25	329.88
382.63	356.09
383.01	331.69
383.39	328.97
383.77	366.94
384.15	341.4
384.53	324.45
384.91	354.28
385.29	354.06
385.67	332.14
386.049	342.76
386.429	355.19
386.809	344.57
387.189	349.99
387.568	355.41
387.948	368.52
388.328	354.06
388.707	351.12
389.087	352.25
389.466	362.65
389.846	377.33
390.225	367.17
390.605	361.06
390.984	350.89
391.363	366.04
391.743	353.61
392.122	358.13
392.501	374.62
392.881	353.61
393.26	343.21
393.639	369.88
394.018	368.52
394.397	393.61
394.776	385.02
395.155	382.76
395.534	377.56
395.913	374.17
396.292	395.19
396.671	401.06
397.05	385.02
397.429	396.54
397.808	399.71
398.186	393.83
398.565	377.11
398.944	359.26
399.323	404.45
399.701	370.56
400.08	385.47
400.458	390.67
400.837	405.13
401.215	384.34
401.594	397
401.972	413.04
402.351	393.38
402.729	410.33
403.107	418.92
403.486	414.4
403.864	420.27
404.242	412.36
404.62	396.32
404.999	421.4
405.377	415.07
405.755	416.43
406.133	420.5
406.511	436.54
406.889	439.48
407.267	410.33
407.645	425.24
408.023	434.28
408.401	431.34
408.779	435.64
409.156	448.75
409.534	459.14
409.912	456.65
410.29	453.72
410.667	421.85
411.045	446.94
411.422	457.11
411.8	460.04
412.178	464.79
412.555	453.26
412.933	464.34
413.31	474.06
413.687	461.63
414.065	485.35
414.442	477.9
414.819	459.14
415.197	472.47
415.574	481.74
415.951	486.48
416.328	482.64
416.705	502.53
417.082	498.69
417.46	478.35
417.837	488.52
418.214	507.5
418.591	493.72
418.967	505.69
419.344	516.99
419.721	518.8
420.098	532.81
420.475	521.51
420.852	527.39
421.228	530.1
421.605	525.13
421.982	540.04
422.358	536.43
422.735	554.05
423.111	542.75
423.488	540.04
423.864	551.79
424.241	557.22
424.617	556.77
424.994	563.32
425.37	566.93
425.746	581.62
426.123	583.21
426.499	563.54
426.875	556.54
427.251	585.01
427.627	586.37
428.003	592.92
428.379	590.89
428.756	598.57
429.132	583.66
429.507	588.63
429.883	583.66
430.259	600.38
430.635	627.5
431.011	611.68
431.387	613.94
431.763	627.5
432.138	657.33
432.514	629.76
432.89	658.68
433.265	652.58
433.641	663.43
434.016	644.22
434.392	664.56
434.767	677.89
435.143	679.25
435.518	669.98
435.894	663.88
436.269	691
436.644	683.09
437.02	684.9
437.395	706.82
437.77	721.05
438.145	693.94
438.52	724.67
438.895	729.19
439.271	720.6
439.646	731
440.021	725.12
440.395	749.08
440.77	740.49
441.145	752.69
441.52	769.19
441.895	746.14
442.27	766.7
442.645	771
443.019	765.35
443.394	745.69
443.769	782.97
444.143	762.18
444.518	782.97
444.892	760.83
445.267	804.89
445.641	811
446.016	806.48
446.39	797.44
446.764	815.29
447.139	830.43
447.513	796.98
447.887	818.23
448.262	810.54
448.636	812.35
449.01	816.42
449.384	844.89
449.758	864.1
450.132	828.4
450.506	828.62
450.88	878.34
451.254	859.58
451.628	846.47
452.002	864.55
452.376	887.83
452.75	889.41
453.123	887.83
453.497	896.19
453.871	890.54
454.244	914.04
454.618	912.01
454.992	957.66
455.365	948.39
455.739	948.85
456.112	971.67
456.486	972.8
456.859	1008.96
457.232	999.47
457.606	987.26
457.979	993.36
458.352	1016.87
458.725	1032.01
459.099	1022.74
459.472	1035.17
459.845	1029.52
460.218	1043.98
460.591	1067.03
460.964	1079.46
461.337	1108.16
461.71	1125.34
462.083	1131.67
462.456	1135.05
462.829	1120.59
463.201	1143.42
463.574	1163.53
463.947	1154.26
464.32	1224.09
464.692	1225.45
465.065	1196.97
465.438	1251.44
465.81	1254.37
466.183	1277.2
466.555	1297.99
466.928	1322.62
467.3	1299.57
467.672	1334.15
468.045	1351.32
468.417	1371.88
468.789	1368.5
469.161	1417.76
469.534	1427.93
469.906	1431.09
470.278	1462.5
470.65	1484.65
471.022	1513.12
471.394	1532.33
471.766	1521.49
472.138	1572.78
472.51	1615.27
472.882	1616.4
473.253	1647.36
473.625	1685.77
473.997	1713.57
474.369	1733.68
474.74	1769.61
475.112	1819.33
475.484	1845.77
475.855	1886.22
476.227	1940.68
476.598	1956.28
476.97	1979.33
477.341	2052.54
477.713	2062.94
478.084	2084.86
478.455	2162.37
478.827	2228.13
479.198	2279.21
479.569	2283.27
479.94	2340.67
480.311	2423.16
480.682	2450.05
481.053	2519.43
481.424	2592.19
481.795	2622.02
482.166	2714.67
482.537	2753.54
482.908	2834.67
483.279	2853.43
483.65	2945.63
484.021	3008.9
484.391	3076.47
484.762	3165.96
485.133	3155.34
485.503	3257.26
485.874	3341.1
486.244	3407.76
486.615	3485.28
486.985	3555.1
487.356	3620.41
487.726	3705.16
488.097	3831.93
488.467	3861.99
488.837	3956.68
489.207	4024.24
489.578	4125.26
489.948	4176.1
490.318	4267.63
490.688	4311.92
491.058	4409.77
491.428	4543.78
491.798	4574.06
492.168	4721.18
492.538	4777.22
492.908	4840.04
493.278	4985.8
493.648	4987.16
494.017	5064.22
494.387	5135.18
494.757	5221.5
495.126	5309.18
495.496	5329.52
495.866	5423.53
496.235	5494.94
496.605	5525.67
496.974	5607.48
497.344	5668.95
497.713	5754.37
498.082	5783.29
498.452	5944.65
498.821	6023.06
499.19	6006.79
499.559	6075.94
499.928	6129.73
500.298	6202.49
500.667	6256.95
501.036	6297.18
501.405	6457.63
501.774	6475.71
502.143	6521.58
502.512	6545.76
502.88	6609.49
503.249	6692.42
503.618	6730.39
503.987	6792.31
504.356	6869.59
504.724	6905.3
505.093	6958.18
505.462	6959.08
505.83	7050.38
506.199	7102.81
506.567	7194.56
506.936	7220.09
507.304	7267.1
507.672	7303.25
508.041	7374.89
508.409	7478.39
508.777	7503.02
509.145	7599.74
509.514	7540.08
509.882	7630.7
510.25	7571.72
510.618	7756.35
510.986	7783.92
511.354	7787.54
511.722	7871.37
512.09	8033.18
512.458	8036.12
512.826	8055.1
513.193	8037.92
513.561	8098.04
513.929	8134.19
514.297	8225.04
514.664	8310.46
515.032	8339.16
515.4	8427.29
515.767	8445.82
516.135	8479.72
516.502	8472.49
516.869	8555.88
517.237	8619.83
517.604	8588.64
517.972	8692.6
518.339	8727.17
518.706	8685.82
519.073	8745.25
519.44	8796.55
519.808	8897.79
520.175	8932.59
520.542	9031.8
520.909	8997.22
521.276	9079.03
521.643	9108.63
522.009	9180.04
522.376	9184.56
522.743	9322.86
523.11	9358.79
523.477	9385.01
523.843	9408.51
524.21	9536.19
524.577	9642.4
524.943	9643.53
525.31	9716.98
525.676	9753.13
526.043	9838.78
526.409	9848.72
526.776	9973.24
527.142	10009.62
527.508	10007.82
527.874	10030.64
528.241	10113.12
528.607	10159.68
528.973	10256.62
529.339	10301.82
529.705	10396.28
530.071	10363.96
530.437	10471.53
530.803	10505.2
531.169	10645.54
531.535	10574.13
531.901	10698.87
532.267	10655.03
532.632	10800.56
532.998	10819.77
533.364	10891.18
533.73	10937.28
534.095	11010.05
534.461	10980.9
534.826	11074.23
535.192	11097.28
535.557	11180.44
535.923	11179.99
536.288	11239.2
536.653	11222.47
537.019	11235.13
537.384	11321.23
537.749	11389.93
538.114	11444.16
538.479	11444.61
538.845	11500.43
539.21	11447.55
539.575	11526.65
539.94	11691.84
540.305	11747.21
540.67	11666.76
541.034	11766.41
541.399	11864.04
541.764	11843.7
542.129	11954.66
542.494	12014.99
542.858	11971.83
543.223	12038.72
543.587	12156.01
543.952	12087.54
544.316	12144.03
544.681	12183.35
545.045	12241.66
545.41	12333.18
545.774	12342.22
546.138	12377.92
546.503	12463.12
546.867	12491.37
547.231	12612.95
547.595	12571.36
547.959	12636.9
548.324	12766.84
548.688	12773.62
549.052	12785.37
549.416	12882.77
549.779	12860.62
550.143	12836.22
550.507	13015.42
550.871	13069.43
551.235	12986.04
551.599	13050.67
551.962	13111.24
552.326	13126.15
552.689	13233.49
553.053	13180.84
553.417	13193.27
553.78	13419.25
554.143	13374.06
554.507	13425.58
554.87	13558.23
555.234	13568.63
555.597	13505.13
555.96	13565.46
556.323	13632.13
556.686	13643.43
557.05	13741.05
557.413	13752.8
557.776	13844.1
558.139	13840.48
558.502	13883.87
558.865	13986.69
559.228	13948.96
559.59	14083.42
559.953	14056.98
560.316	14176.52
560.679	14146.92
561.041	14261.94
561.404	14405.44
561.767	14413.8
562.129	14393.24
562.492	14545.78
562.854	14493.12
563.217	14513.91
563.579	14579.67
563.941	14651.54
564.304	14759.33
564.666	14731.99
565.028	14825.77
565.39	14851.3
565.753	14865.77
566.115	15012.66
566.477	15022.6
566.839	15106.44
567.201	15179.88
567.563	15173.33
567.925	15323.83
568.287	15336.49
568.648	15373.1
569.01	15378.97
569.372	15492.87
569.734	15559.31
570.095	15651.06
570.457	15656.03
570.819	15770.38
571.18	15785.07
571.542	15927.43
571.903	15915.46
572.265	16065.28
572.626	16067.09
572.987	16172.63
573.349	16262.57
573.71	16270.02
574.071	16394.54
574.432	16392.51
574.794	16536.91
575.155	16508.66
575.516	16667.98
575.877	16759.05
576.238	16855.09
576.599	16978.25
576.96	17108.87
577.32	17222.32
577.681	17404.46
578.042	17498.92
578.403	17524.23
578.763	17637.67
579.124	17750.89
579.485	17931.22
579.845	18122.18
580.206	18281.27
580.566	18312.91
580.927	18445.79
581.287	18693.69
581.648	18865.21
582.008	19038.31
582.368	19245.99
582.728	19402.37
583.089	19568.69
583.449	19637.39
583.809	19867.44
584.169	20107.44
584.529	20376.81
584.889	20599.85
585.249	20621.77
585.609	20899.51
585.969	21242.55
586.329	21406.61
586.688	21641.18
587.048	21859.26
587.408	22068.52
587.768	22195.29
588.127	22453.14
588.487	22688.61
588.846	23044.08
589.206	23121.6
589.565	23468.93
589.925	23738.3
590.284	23994.57
590.643	24331.06
591.003	24598.62
591.362	24821.21
591.721	25142.56
592.08	25363.12
592.44	25691.7
592.799	25965.81
593.158	26249.42
593.517	26471.11
593.876	26814.38
594.235	26910.42
594.593	27222.96
594.952	27663.85
595.311	27820.23
595.67	28023.84
596.029	28558.06
596.387	28691.39
596.746	29060.2
597.104	29367.98
597.463	29451.37
597.822	29877.35
598.18	29905.6
598.538	30109.89
598.897	30640.95
599.255	30624
599.613	31338.33
599.972	31279.12
600.33	31608.83
600.688	31823.29
601.046	32080.68
601.404	32338.98
601.762	32489.03
602.12	32931.51
602.478	33099.19
602.836	33255.57
603.194	33353.87
603.552	33546.41
603.91	33680.87
604.268	34122.89
604.625	34255.54
604.983	34674.96
605.341	34585.25
605.698	34995.41
606.056	35222.52
606.413	35198.34
606.771	35482.85
607.128	35757.2
607.485	35746.12
607.843	35977.53
608.2	36457.52
608.557	36594.91
608.914	36609.15
609.272	37029.03
609.629	37046.43
609.986	37555.57
610.343	37514.66
610.7	37862.68
611.057	37901.32
611.414	37977.25
611.771	38138.83
612.127	38457.24
612.484	38539.72
612.841	38815.65
613.198	38798.7
613.554	38863.33
613.911	39179.93
614.267	39349.42
614.624	39381.96
614.98	39454.5
615.337	39821.04
615.693	39799.57
616.05	39955.5
616.406	40418.09
616.762	40188.72
617.118	40208.15
617.475	40376.96
617.831	40510.74
618.187	40680.91
618.543	40855.14
618.899	41056.72
619.255	41144.62
619.611	41036.83
619.967	41319.76
620.323	41370.61
620.678	41427.1
621.034	41497.16
621.39	41617.61
621.746	41517.27
622.101	42196.8
622.457	41851.95
622.812	42023.25
623.168	42141.66
623.523	42248.55
623.879	42344.59
624.234	42035.22
624.589	42309.11
624.945	42383.69
625.3	42441.09
625.655	42417.36
626.01	42472.73
626.365	42676.11
626.72	42573.51
627.075	42646.73
627.43	42704.58
627.785	42573.06
628.14	42767.86
628.495	42865.26
628.85	42799.72
629.205	42685.37
629.559	42877.46
629.914	42851.92
630.269	42925.37
630.623	42941.19
630.978	42853.28
631.332	43082.2
631.687	43155.19
632.041	42966.95
632.396	43086.95
632.75	42911.81
633.104	43052.6
633.459	42751.36
633.813	42884.01
634.167	43034.07
634.521	42980.51
634.875	42956.78
635.229	42931.92
635.583	42850.57
635.937	42854.64
636.291	42888.76
636.645	42787.07
636.999	42865.26
637.352	42889.44
637.706	42831.81
638.06	42950.45
638.413	43001.52
638.767	42775.99
639.121	42884.47
639.474	42612.16
639.828	42717.01
640.181	42706.17
640.534	42782.1
640.888	42592.72
641.241	42517.7
641.594	42628.43
641.947	42810.34
642.301	42629.56
642.654	42700.52
643.007	42696.9
643.36	42577.36
643.713	42599.73
644.066	42825.03
644.419	42510.92
644.771	42232.96
645.124	41780.99
645.477	41858.05
645.83	41553.65
646.182	41369.48
646.535	41449.7
646.888	41374.45
647.24	41190.72
647.593	41516.59
647.945	41416.26
648.298	41123.61
648.65	41184.17
649.002	41066.66
649.355	41286.77
649.707	41147.79
650.059	41300.55
650.411	41857.83
650.763	41868.45
651.115	42344.14
651.467	42152.28
651.819	42023.25
652.171	42041.55
652.523	41873.19
652.875	41980.99
653.227	41723.14
653.578	42151.38
653.93	42044.04
654.282	41710.49
654.633	41780.09
654.985	41915.68
655.337	41892.4
655.688	41828.45
656.039	42018.27
656.391	41550.49
656.742	41722.24
657.094	41840.88
657.445	41938.28
657.796	41888.11
658.147	41626.42
658.498	41680.2
658.849	41882.91
659.2	41749.81
659.551	41664.38
659.902	41842.91
660.253	41540.09
660.604	41660.77
660.955	41534.22
661.306	41653.09
661.656	41630.04
662.007	41784.38
662.358	41629.13
662.708	41650.6
663.059	41570.38
663.409	41449.02
663.76	41590.49
664.11	41639.53
664.461	41695.34
664.811	41533.77
665.161	41536.25
665.511	41467.55
665.862	41537.83
666.212	41618.96
666.562	41523.82
666.912	41535.8
667.262	41417.39
667.612	41315.47
667.962	41524.5
668.312	41430.94
668.662	41693.99
669.011	41441.79
669.361	41418.29
669.711	41365.64
670.06	41297.61
670.41	41332.19
670.76	41281.12
671.109	41354.34
671.459	41328.35
671.808	41349.14
672.157	41444.05
672.507	41056.94
672.856	41136.49
673.205	41239.31
673.554	41390.72
673.904	41189.14
674.253	41314.11
674.602	41347.56
674.951	40642.26
675.3	40498.09
675.649	41097.85
675.998	41128.58
676.346	41040.22
676.695	41372.64
677.044	40943.73
677.393	40849.94
677.741	41039.99
678.09	40884.29
678.438	40955.48
678.787	41005.87
679.135	40808.81
679.484	40583.28
679.832	40848.59
680.181	40699.89
680.529	40661.02
680.877	40645.88
681.225	40623.06
681.573	40880.22
681.922	40550.29
682.27	40355.04
682.618	40425.32
682.966	40280.47
683.314	40435.94
683.661	40244.08
684.009	40125.89
684.357	40145.1
684.705	40140.58
685.053	39935.84
685.4	39997.31
685.748	39797.32
686.095	39756.64
686.443	39584.89
686.79	39631.67
687.138	39657.21
687.485	39623.08
687.832	39560.26
688.18	39610.43
688.527	39367.04
688.874	39373.15
689.221	39140.38
689.568	39159.14
689.915	38993.04
690.262	38984.68
690.609	38963.66
690.956	38684.35
691.303	38870.56
691.65	38705.59
691.997	38664.24
692.344	38342.66
692.69	38374.98
693.037	38411.36
693.383	38045.5
693.73	38369.56
694.077	37994.88
694.423	37988.55
694.769	37908.33
695.116	37807.31
695.462	37809.34
695.808	37691.16
696.155	37678.5
696.501	37345.63
696.847	37416.59
697.193	37182.47
697.539	37312.63
697.885	37079.65
698.231	37001.91
698.577	37008.91
698.923	36929.59
699.269	36660
699.614	36470.4
699.96	36403.73
700.306	36534.58
700.651	36422.04
700.997	36290.06
701.342	36173.23
701.688	36089.84
702.033	35998.77
702.379	36036.96
702.724	35862.28
703.069	35997.19
703.415	35446.24
703.76	35513.36
704.105	35505.22
704.45	35449.86
704.795	35336.87
705.14	35195.63
705.485	35161.05
705.83	35016.88
706.175	35056.42
706.52	34988.18
706.865	34863.21
707.209	34742.08
707.554	34616.43
707.899	34677.45
708.243	34513.61
708.588	34539.6
708.932	34180.74
709.277	34345.93
709.621	34323.11
709.966	34072.72
710.31	34146.84
710.654	33950.24
710.998	33860.52
711.342	33873.18
711.687	33788.43
712.031	33630.47
712.375	33571.49
712.719	33574.43
713.063	33451.95
713.407	33679.74
713.75	33390.93
714.094	33481.1
714.438	33202.01
714.782	33237.94
715.125	33175.57
715.469	33261.67
715.812	33035.46
716.156	32895.58
716.499	32852.19
716.843	32977.38
717.186	32736.94
717.53	32774.45
717.873	32874.56
718.216	32723.83
718.559	32649.48
718.902	32321.35
719.246	32491.97
719.589	32247.01
719.932	32308.25
720.275	32254.46
720.617	32275.03
720.96	32161.36
721.303	32039.1
721.646	32126.56
721.989	31912.1
722.331	32027.12
722.674	31822.61
723.016	31934.25
723.359	31705.55
723.701	31820.58
724.044	31731.76
724.386	31518.66
724.729	31659
725.071	31576.74
725.413	31496.52
725.755	31451.55
726.097	31368.16
726.439	31325.45
726.782	31185.34
727.124	31368.16
727.465	31104.89
727.807	31283.64
728.149	31171.78
728.491	31137.43
728.833	31172.46
729.175	30990.77
729.516	30903.09
729.858	30907.61
730.199	30912.13
730.541	30789.87
730.882	30807.72
731.224	30822.18
731.565	30678.68
731.906	30610.21
732.248	30771.11
732.589	30393.95
732.93	30312.14
733.271	30408.86
733.612	30424
733.953	30386.04
734.294	30395.3
734.635	30228.08
734.976	30338.81
735.317	30031.24
735.658	30129.77
735.999	29964.13
736.339	30049.55
736.68	30138.36
737.021	29910.12
737.361	29803.23
737.702	30080.73
738.042	29967.07
738.383	29905.37
738.723	29838.03
739.063	29793.74
739.404	29859.27
739.744	29732.72
740.084	29662.67
740.424	29614.53
740.764	29577.92
741.104	29723.46
741.444	29622.22
741.784	29453.41
742.124	29409.79
742.464	29370.47
742.804	29330.25
743.143	29261.1
743.483	29204.83
743.823	29111.49
744.162	29129.8
744.502	29173.41
744.841	29061.55
745.181	29073.53
745.52	28940.43
745.86	29063.81
746.199	29022.68
746.538	28838.51
746.877	28962.57
747.216	28876.7
747.556	28756.02
747.895	28880.09
748.234	28684.84
748.573	28682.13
748.911	28589.25
749.25	28652.3
749.589	28499.76
749.928	28606.42
750.267	28501.34
750.605	28552.19
750.944	28292.98
751.283	28279.2
751.621	28410.04
751.96	28203.95
752.298	28236.04
752.636	28182.71
752.975	27949.94
753.313	27927.57
753.651	28086.89
753.989	27978.42
754.327	27864.3
754.666	27744.98
755.004	27789.5
755.342	27843.73
755.679	27736.16
756.017	27507.92
756.355	27679.22
756.693	27477.87
757.031	27606.9
757.368	27379.79
757.706	27360.35
