Data from hue_34_FLMS001491_00006.txt Node
Date: Tue Feb 07 17:25:07 GMT 2017
User: dcchb
Spectrometer: FLMS00149
Trigger mode: 0
Integration Time (sec): 2.000000E-2
Scans to average: 10
Electric dark correction enabled: true
Nonlinearity correction enabled: false
Boxcar width: 0
XAxis mode: Wavelengths
Number of Pixels in Spectrum: 2048
>>>>>Begin Spectral Data<<<<<
341.393	-15.78
341.776	-15.78
342.16	-15.78
342.543	-61.88
342.927	-97.36
343.31	-77.92
343.693	-79.5
344.077	-69.33
344.46	-65.72
344.843	-40.41
345.226	-57.13
345.61	-42.22
345.993	-25.49
346.376	5.01
346.759	1.4
347.142	34.17
347.525	69.42
347.908	80.94
348.291	63.09
348.674	93.6
349.057	110.1
349.44	118.91
349.823	146.48
350.206	171.11
350.588	205.23
350.971	202.52
351.354	240.04
351.737	231.45
352.119	258.11
352.502	247.27
352.884	283.88
353.267	284.1
353.65	280.71
354.032	310.54
354.414	311.9
354.797	313.03
355.179	322.97
355.562	327.72
355.944	350.99
356.326	333.59
356.709	325.01
357.091	340.6
357.473	366.36
357.855	353.71
358.238	341.28
358.62	341.28
359.002	357.1
359.384	350.77
359.766	354.16
360.148	353.03
360.53	348.51
360.912	330.43
361.294	338.11
361.676	361.84
362.057	346.7
362.439	334.04
362.821	318.45
363.203	342.41
363.584	344.67
363.966	332.69
364.348	340.82
364.729	339.69
365.111	324.1
365.493	314.16
365.874	322.07
366.256	322.07
366.637	334.72
367.019	313.03
367.4	316.64
367.781	310.99
368.163	321.62
368.544	308.73
368.925	314.16
369.306	320.71
369.688	316.87
370.069	347.83
370.45	326.81
370.831	326.36
371.212	336.3
371.593	298.11
371.974	314.84
372.355	336.98
372.736	321.16
373.117	313.25
373.498	324.55
373.879	320.94
374.26	320.49
374.641	309.41
375.021	311.22
375.402	336.3
375.783	328.62
376.163	334.72
376.544	323.65
376.925	327.49
377.305	326.36
377.686	347.6
378.066	326.36
378.447	345.57
378.827	354.16
379.208	323.2
379.588	343.31
379.968	334.27
380.349	337.43
380.729	334.72
381.109	344.44
381.489	342.86
381.87	330.66
382.25	346.02
382.63	342.63
383.01	354.61
383.39	363.2
383.77	366.13
384.15	345.12
384.53	357.1
384.91	358
385.29	330.66
385.67	351.45
386.049	364.33
386.429	349.64
386.809	363.2
387.189	382.18
387.568	381.05
387.948	351.67
388.328	361.16
388.707	375.4
389.087	379.24
389.466	367.72
389.846	353.48
390.225	368.85
390.605	361.39
390.984	357.77
391.363	378.79
391.743	381.95
392.122	372.46
392.501	372.46
392.881	379.02
393.26	368.39
393.639	372.46
394.018	375.4
394.397	375.63
394.776	379.24
395.155	381.95
395.534	397.55
395.913	378.56
396.292	390.31
396.671	386.25
397.05	394.38
397.429	404.55
397.808	383.08
398.186	412.46
398.565	386.47
398.944	388.28
399.323	408.85
399.701	401.84
400.08	413.36
400.458	396.64
400.837	407.26
401.215	426.02
401.594	415.4
401.972	426.25
402.351	418.11
402.729	404.55
403.107	397.77
403.486	404.78
403.864	403.42
404.242	422.4
404.62	411.56
404.999	427.6
405.377	442.97
405.755	440.93
406.133	441.16
406.511	428.05
406.889	444.32
407.267	446.81
407.645	448.39
408.023	441.61
408.401	421.5
408.779	436.19
409.156	444.32
409.534	460.6
409.912	449.97
410.29	456.53
410.667	457.66
411.045	452.01
411.422	475.96
411.8	474.38
412.178	468.5
412.555	473.48
412.933	482.74
413.31	477.54
413.687	490.2
414.065	499.92
414.442	503.08
414.819	488.62
415.197	507.37
415.574	510.99
415.951	498.56
416.328	513.02
416.705	521.16
417.082	519.8
417.46	497.2
417.837	508.73
418.214	509.18
418.591	518.9
418.967	535.4
419.344	523.64
419.721	542.4
420.098	542.85
420.475	537.66
420.852	548.5
421.228	528.16
421.605	559.12
421.982	557.32
422.358	556.86
422.735	557.54
423.111	557.09
423.488	552.12
423.864	557.54
424.241	565
424.617	569.74
424.994	584.66
425.37	583.98
425.746	569.97
426.123	589.63
426.499	582.4
426.875	605.22
427.251	597.09
427.627	608.84
428.003	597.54
428.379	619.91
428.756	597.99
429.132	616.75
429.507	614.49
429.883	630.31
430.259	646.13
430.635	623.98
431.011	661.95
431.387	649.29
431.763	662.85
432.138	659.01
432.514	655.17
432.89	673.02
433.265	660.82
433.641	670.76
434.016	671.89
434.392	692.91
434.767	715.73
435.143	713.24
435.518	699.91
435.894	701.72
436.269	700.59
436.644	724.32
437.02	729.06
437.395	741.94
437.77	745.79
438.145	736.07
438.52	767.48
438.895	768.38
439.271	759.8
439.646	772
440.021	793.69
440.395	791.21
440.77	772
441.145	783.07
441.52	802.73
441.895	793.02
442.27	807.93
442.645	788.72
443.019	822.85
443.394	802.96
443.769	835.05
444.143	809.06
444.518	820.81
444.892	834.37
445.267	824.2
445.641	814.26
446.016	854.03
446.39	845.9
446.764	823.3
447.139	846.57
447.513	863.07
447.887	880.47
448.262	837.08
448.636	860.81
449.01	876.86
449.384	873.01
449.758	898.32
450.132	901.94
450.506	896.74
450.88	893.13
451.254	912.11
451.628	927.48
452.002	927.25
452.376	940.36
452.75	938.55
453.123	944.88
453.497	957.08
453.871	959.79
454.244	973.35
454.618	985.33
454.992	986.23
455.365	978.77
455.739	1000.24
456.112	1022.61
456.486	990.75
456.859	1042.27
457.232	1071.65
457.606	1037.98
457.979	1063.97
458.352	1089.05
458.725	1075.49
459.099	1099.45
459.472	1107.58
459.845	1128.6
460.218	1132.89
460.591	1160.92
460.964	1150.97
461.337	1167.47
461.71	1176.96
462.083	1187.81
462.456	1198.2
462.829	1221.03
463.201	1245.89
463.574	1247.92
463.947	1236.62
464.32	1269.39
464.692	1281.59
465.065	1313.45
465.438	1312.32
465.81	1337.18
466.183	1332.89
466.555	1399.55
466.928	1392.1
467.3	1391.42
467.672	1406.11
468.045	1452.89
468.417	1444.07
468.789	1476.61
469.161	1484.52
469.534	1514.8
469.906	1544.63
470.278	1519.32
470.65	1582.37
471.022	1579.89
471.394	1622.82
471.766	1657.4
472.138	1667.57
472.51	1715.7
472.882	1723.61
473.253	1754.12
473.625	1787.11
473.997	1865.3
474.369	1876.15
474.74	1877.96
475.112	1911.63
475.484	1972.19
475.855	2004.74
476.227	2034.11
476.598	2100.55
476.97	2143.71
477.341	2185.3
477.713	2219.87
478.084	2245.63
478.455	2309.13
478.827	2357.27
479.198	2434.78
479.569	2417.61
479.94	2521.11
480.311	2559.52
480.682	2669.12
481.053	2699.86
481.424	2758.16
481.795	2817.6
482.166	2902.34
482.537	2946.41
482.908	3012.84
483.279	3062.33
483.65	3151.82
484.021	3255.32
484.391	3315.66
484.762	3319.73
485.133	3435.21
485.503	3473.62
485.874	3596.78
486.244	3668.87
486.615	3702.54
486.985	3822.31
487.356	3865.48
487.726	3975.53
488.097	4077.45
488.467	4098.47
488.837	4199.48
489.207	4335.97
489.578	4416.88
489.948	4452.58
490.318	4571.67
490.688	4590.43
491.058	4747.04
491.428	4814.83
491.798	4865.23
492.168	5050.53
492.538	5066.8
492.908	5170.75
493.278	5298.43
493.648	5309.06
494.017	5468.83
494.387	5505.89
494.757	5591.53
495.126	5645.09
495.496	5730.97
495.866	5814.58
496.235	5918.3
496.605	5964.86
496.974	6080.56
497.344	6135.93
497.713	6198.52
498.082	6199.2
498.452	6359.88
498.821	6364.17
499.19	6489.59
499.559	6504.73
499.928	6662.92
500.298	6717.38
500.667	6748.11
501.036	6820.65
501.405	6917.6
501.774	6953.98
502.143	6998.05
502.512	7036.69
502.88	7151.04
503.249	7206.18
503.618	7321.43
503.987	7370.47
504.356	7389.9
504.724	7500.64
505.093	7527.3
505.462	7567.98
505.83	7606.17
506.199	7706.73
506.567	7808.88
506.936	7820.63
507.304	7966.16
507.672	7979.72
508.041	7983.11
508.409	8087.51
508.777	8153.73
509.145	8247.96
509.514	8208.19
509.882	8354.4
510.25	8356.21
510.618	8352.59
510.986	8488.86
511.354	8530.21
511.722	8604.56
512.09	8753.03
512.458	8638.69
512.826	8763.43
513.193	8755.07
513.561	8863.54
513.929	8921.16
514.297	9011.33
514.664	9015.85
515.032	9100.59
515.4	9157.77
515.767	9242.74
516.135	9153.93
516.502	9190.99
516.869	9353.02
517.237	9437.08
517.604	9398.67
517.972	9522.96
518.339	9518.66
518.706	9545.33
519.073	9569.73
519.44	9640.47
519.808	9769.05
520.175	9779.9
520.542	9874.13
520.909	9924.53
521.276	9946.22
521.643	10058.76
522.009	10053.11
522.376	10071.19
522.743	10147.57
523.11	10231.64
523.477	10398.86
523.843	10396.61
524.21	10521.8
524.577	10592.53
524.943	10588.69
525.31	10634.57
525.676	10760.66
526.043	10798.4
526.409	10862.36
526.776	10909.36
527.142	10928.79
527.508	11070.26
527.874	11127.89
528.241	11146.42
528.607	11260.31
528.973	11310.48
529.339	11329.46
529.705	11385.28
530.071	11502.34
530.437	11588.21
530.803	11594.54
531.169	11697.81
531.535	11644.03
531.901	11749.34
532.267	11813.97
532.632	11857.58
532.998	11926.96
533.364	11983.23
533.73	11973.51
534.095	12045.83
534.461	12238.36
534.826	12210.34
535.192	12245.82
535.557	12372.6
535.923	12400.39
536.288	12440.62
536.653	12542.31
537.019	12579.6
537.384	12483.33
537.749	12645.36
538.114	12662.08
538.479	12724.45
538.845	12790.21
539.21	12746.15
539.575	12836.09
539.94	12873.15
540.305	12935.3
540.67	12997.89
541.034	13042.86
541.399	13058.91
541.764	13054.84
542.129	13149.08
542.494	13161.5
542.858	13239.92
543.223	13283.53
543.587	13409.86
543.952	13408.73
544.316	13420.25
544.681	13486.92
545.045	13498.67
545.41	13632.9
545.774	13639.91
546.138	13697.99
546.503	13747.7
546.867	13758.55
547.231	13883.97
547.595	13950.86
547.959	13982.27
548.324	14001.26
548.688	14046.23
549.052	14085.32
549.416	14144.98
549.779	14098.65
550.143	14174.13
550.507	14277.63
550.871	14333
551.235	14284.64
551.599	14394.92
551.962	14490.28
552.326	14458.19
552.689	14537.74
553.053	14535.71
553.417	14597.85
553.78	14768.69
554.143	14791.52
554.507	14874.23
554.87	14761.46
555.234	14938.18
555.597	14951.74
555.96	14923.04
556.323	15051.17
556.686	15090.72
557.05	15113.32
557.413	15164.84
557.776	15319.87
558.139	15288.45
558.502	15361.67
558.865	15392.86
559.228	15500.88
559.59	15520.31
559.953	15493.42
560.316	15680.08
560.679	15675.11
561.041	15805.05
561.404	15840.98
561.767	15974.31
562.129	15865.39
562.492	16066.74
562.854	15944.03
563.217	16043.24
563.579	16128.21
563.941	16218.15
564.304	16262.67
564.666	16359.61
565.028	16228.77
565.39	16398.93
565.753	16480.06
566.115	16547.18
566.477	16636.22
566.839	16615.88
567.201	16874.17
567.563	16730.9
567.925	16962.08
568.287	16934.51
568.648	16977.9
569.01	17121.17
569.372	17244.33
569.734	17159.37
570.095	17214.73
570.457	17375.18
570.819	17428.74
571.18	17466.93
571.542	17616.75
571.903	17654.49
572.265	17682.52
572.626	17739.24
572.987	17812.68
573.349	17895.39
573.71	18065.33
574.071	18016.52
574.432	18195.72
574.794	18398.88
575.155	18470.29
575.516	18309.39
575.877	18490.4
576.238	18614.92
576.599	18820.11
576.96	18788.7
577.32	18925.42
577.681	19094.46
578.042	19155.24
578.403	19368.35
578.763	19416.48
579.124	19576.93
579.485	19709.58
579.845	19965.39
580.206	20068.67
580.566	20181.66
580.927	20306.4
581.287	20444.25
581.648	20512.27
582.008	20843.79
582.368	20912.26
582.728	21201.29
583.089	21420.04
583.449	21432.93
583.809	21636.76
584.169	21839.02
584.529	21952.46
584.889	22328.49
585.249	22372.79
585.609	22573.01
585.969	22952.21
586.329	23113.56
586.688	23418.41
587.048	23552.87
587.408	23702.02
587.768	23962.12
588.127	24168.9
588.487	24322.34
588.846	24792.38
589.206	24783.12
589.565	25135.88
589.925	25433.95
590.284	25641.63
590.643	25918.23
591.003	26299.46
591.362	26512.34
591.721	26664.43
592.08	26872.1
592.44	27314.8
592.799	27458.98
593.158	27679.77
593.517	27884.96
593.876	28334.66
594.235	28266.42
594.593	28682
594.952	28849.91
595.311	29147.75
595.67	29441.08
596.029	29811.24
596.387	30061.4
596.746	30251.45
597.104	30372.13
597.463	30542.97
597.822	31014.14
598.18	31137.98
598.538	31318.99
598.897	31760.56
599.255	31674.46
599.613	32355.35
599.972	32323.26
600.33	32721.67
600.688	32795.56
601.046	33072.62
601.404	33471.93
601.762	33318.71
602.12	33869.43
602.478	33978.13
602.836	34146.49
603.194	34315.52
603.552	34453.6
603.91	34553.71
604.268	34929.07
604.625	35020.14
604.983	35248.38
605.341	35287.02
605.698	35648.14
606.056	35861.92
606.413	36003.16
606.771	36459.87
607.128	36501.68
607.485	36414.9
607.843	36808.11
608.2	36928.34
608.557	37169.23
608.914	37212.17
609.272	37506.4
609.629	37758.37
609.986	38018.93
610.343	38002.21
610.7	38289.88
611.057	38286.49
611.414	38349.32
611.771	38674.28
612.127	38820.94
612.484	38995.4
612.841	39241.95
613.198	39121.73
613.554	39290.08
613.911	39596.06
614.267	39662.5
614.624	39671.77
614.98	39880.8
615.337	40133.68
615.693	40127.12
616.05	40299.1
616.406	40623.61
616.762	40566.66
617.118	40605.98
617.475	40612.08
617.831	41039.87
618.187	41000.55
618.543	41105.4
618.899	41341.78
619.255	41406.86
619.611	41309.46
619.967	41575.67
620.323	41723.47
620.678	41607.08
621.034	41698.16
621.39	41630.13
621.746	41650.25
622.101	42327.29
622.457	41967.53
622.812	42162.1
623.168	42325.94
623.523	42244.13
623.879	42367.52
624.234	42116.9
624.589	42426.72
624.945	42549.88
625.3	42595.31
625.655	42572.03
626.01	42600.05
626.365	42742.2
626.72	42737.9
627.075	42760.05
627.43	42693.84
627.785	42716.89
628.14	42818.58
628.495	42845.7
628.85	42905.13
629.205	42775.19
629.559	43036.88
629.914	42916.88
630.269	42933.83
630.623	42983.09
630.978	42769.99
631.332	42981.06
631.687	43054.05
632.041	43004.34
632.396	43092.24
632.75	43028.74
633.104	43081.17
633.459	42931.12
633.813	42928.63
634.167	42968.86
634.521	43008.18
634.875	43113.49
635.229	42991
635.583	42870.1
635.937	42795.53
636.291	42932.7
636.645	42900.38
636.999	42751.01
637.352	42922.3
637.706	42753.72
638.06	42933.15
638.413	42891.57
638.767	42873.94
639.121	42957.33
639.474	42661.52
639.828	42824.91
640.181	42856.32
640.534	42749.65
640.888	42626.27
641.241	42499.49
641.594	42665.81
641.947	42740.84
642.301	42597.11
642.654	42756.88
643.007	42528.64
643.36	42596.21
643.713	42473.73
644.066	42784.91
644.419	42371.81
644.771	42101.76
645.124	41766.18
645.477	41844.14
645.83	41530.7
646.182	41414.09
646.535	41453.42
646.888	41465.39
647.24	41208.9
647.593	41313.98
647.945	41342.01
648.298	41099.53
648.65	40998.06
649.002	41081.22
649.355	41311.27
649.707	41354.66
650.059	41338.16
650.411	41840.98
650.763	41905.16
651.115	42194.64
651.467	42057.92
651.819	42031.48
652.171	42060.18
652.523	41942.44
652.875	41961.42
653.227	41831.03
653.578	42012.72
653.93	41872.39
654.282	41799.4
654.633	41706.29
654.985	41836.68
655.337	41808.89
655.688	41723.69
656.039	41898.6
656.391	41665.39
656.742	41880.07
657.094	41778.6
657.445	41970.46
657.796	41822.9
658.147	41650.02
658.498	41756.68
658.849	41922.56
659.2	41777.02
659.551	41600.53
659.902	41716.23
660.253	41647.08
660.604	41762.56
660.955	41474.66
661.306	41712.17
661.656	41597.59
662.007	41683.01
662.358	41662.68
662.708	41489.57
663.059	41696.12
663.409	41391.27
663.76	41609.8
664.11	41450.48
664.461	41665.84
664.811	41589.23
665.161	41645.95
665.511	41423.36
665.862	41403.02
666.212	41598.5
666.562	41532.74
666.912	41585.84
667.262	41347.43
667.612	41610.47
667.962	41558.05
668.312	41372.29
668.662	41633.98
669.011	41576.8
669.361	41388.78
669.711	41524.37
670.06	41387.65
670.41	41286.19
670.76	41251.84
671.109	41392.63
671.459	41389.24
671.808	41259.3
672.157	41342.01
672.507	40988.57
672.856	41122.8
673.205	41234.89
673.554	41281.67
673.904	41183.59
674.253	41413.64
674.602	41228.56
674.951	40715.13
675.3	40496.6
675.649	41102.92
675.998	41093.65
676.346	41115.35
676.695	41258.84
677.044	40848.01
677.393	40949.7
677.741	41161.22
678.09	40847.33
678.438	40747.9
678.787	40869.93
679.135	40919.19
679.484	40696.15
679.832	40906.54
680.181	40479.66
680.529	40727.56
680.877	40487.11
681.225	40582.25
681.573	40763.49
681.922	40518.98
682.27	40370.73
682.618	40527.11
682.966	40364.18
683.314	40396.72
683.661	40343.16
684.009	40141.81
684.357	40083.06
684.705	40038.99
685.053	40025.88
685.4	39988.6
685.748	39881.71
686.095	39844.64
686.443	39690.07
686.79	39673.12
687.138	39746.12
687.485	39655.5
687.832	39527.36
688.18	39462.28
688.527	39329.18
688.874	39319.23
689.221	39153.59
689.568	39130.99
689.915	39038.11
690.262	39160.14
690.609	38901.39
690.956	38796.54
691.303	38883.54
691.65	38556.77
691.997	38663.88
692.344	38464.57
692.69	38279.49
693.037	38358.36
693.383	38079.49
693.73	38224.12
694.077	38087.4
694.423	38020.06
694.769	37768.99
695.116	37693.74
695.462	37718.6
695.808	37627.98
696.155	37625.72
696.501	37457.36
696.847	37466.63
697.193	37275.22
697.539	37264.15
697.885	36984.61
698.231	36972.63
698.577	36893.31
698.923	36897.6
699.269	36743.26
699.614	36657.84
699.96	36531.51
700.306	36521.34
700.651	36313.66
700.997	36207.45
701.342	36321.12
701.688	36106.44
702.033	35950.96
702.379	36052.43
702.724	35849.95
703.069	35934.92
703.415	35566.11
703.76	35652.66
704.105	35650.18
704.45	35481.14
704.795	35290.64
705.14	35194.82
705.485	35172.22
705.83	35142.4
706.175	35141.49
706.52	34995.05
706.865	34875.28
707.209	34950.08
707.554	34794.61
707.899	34823.08
708.243	34628.51
708.588	34564.56
708.932	34401.85
709.277	34282.76
709.621	34472.58
709.966	34200.5
710.31	34274.62
710.654	33852.03
710.998	33977
711.342	33884.58
711.687	33817.46
712.031	33664.69
712.375	33670.57
712.719	33578.14
713.063	33594.41
713.407	33689.55
713.75	33417.92
714.094	33451.82
714.438	33304.03
714.782	33384.25
715.125	33109
715.469	33199.85
715.812	33000.08
716.156	32895
716.499	33045.95
716.843	32981.77
717.186	32869.91
717.53	32934.54
717.873	32806.86
718.216	32772.51
718.559	32610.03
718.902	32513.54
719.246	32516.02
719.589	32411.39
719.932	32247.56
720.275	32268.35
720.617	32323.03
720.96	32138.41
721.303	32211.4
721.646	32212.3
721.989	31998.75
722.331	32105.19
722.674	31941.58
723.016	31975.02
723.359	31867.23
723.701	31857.96
724.044	31708.36
724.386	31588.59
724.729	31705.2
725.071	31546.11
725.413	31619.55
725.755	31576.39
726.097	31395.83
726.439	31276.06
726.782	31402.83
727.124	31495.03
727.465	31223.85
727.807	31166.68
728.149	31187.7
728.491	31048.94
728.833	31180.69
729.175	31008.94
729.516	30952.45
729.858	30996.29
730.199	30957.42
730.541	30906.57
730.882	30849.63
731.224	30846.69
731.565	30758.56
731.906	30686.02
732.248	30757.2
732.589	30596.3
732.93	30481.27
733.271	30394.27
733.612	30461.84
733.953	30513.59
734.294	30289.42
734.635	30348.4
734.976	30445.12
735.317	30137.33
735.658	30210.32
735.999	30189.08
736.339	30082.87
736.68	30100.27
737.021	30047.39
737.361	29940.05
737.702	30072.02
738.042	30029.76
738.383	29999.93
738.723	29936.43
739.063	29663.22
739.404	29819.82
739.744	29695.08
740.084	29609.66
740.424	29496.22
740.764	29493.96
741.104	29666.38
741.444	29440.4
741.784	29488.53
742.124	29506.16
742.464	29446.73
742.804	29345.03
743.143	29264.13
743.483	29476.56
743.823	29138.03
744.162	29114.08
744.502	29360.4
744.841	29099.84
745.181	29090.12
745.52	29092.61
745.86	28986.62
746.199	29016.68
746.538	28943.01
746.877	29143.46
747.216	28837.25
747.556	28875.44
747.895	28901.43
748.234	28727.42
748.573	28779.17
748.911	28621.44
749.25	28583.25
749.589	28481.78
749.928	28524.49
750.267	28615.11
750.605	28432.06
750.944	28496.47
751.283	28316.13
751.621	28442.68
751.96	28161.56
752.298	28106.65
752.636	28228.9
752.975	28009.93
753.313	28023.49
753.651	28025.29
753.989	27944.62
754.327	27900.78
754.666	27841.12
755.004	27788.46
755.342	27796.6
755.679	27828.46
756.017	27582.59
756.355	27632.08
756.693	27529.26
757.031	27529.71
757.368	27367.68
757.706	27381.7
