Data from hue_140_FLMS001491_00005.txt Node
Date: Tue Feb 07 16:55:17 GMT 2017
User: dcchb
Spectrometer: FLMS00149
Trigger mode: 0
Integration Time (sec): 2.000000E-2
Scans to average: 10
Electric dark correction enabled: true
Nonlinearity correction enabled: false
Boxcar width: 0
XAxis mode: Wavelengths
Number of Pixels in Spectrum: 2048
>>>>>Begin Spectral Data<<<<<
341.393	-4.94
341.776	-4.94
342.16	-4.94
342.543	-56.02
342.927	-67.99
343.31	-55.34
343.693	-74.32
344.077	-65.51
344.46	-51.72
344.843	-46.07
345.226	-58.95
345.61	-22.57
345.993	-19.41
346.376	-20.08
346.759	18.56
347.142	12.68
347.525	42.06
347.908	66.02
348.291	58.33
348.674	101.49
349.057	114.83
349.44	120.93
349.823	133.13
350.206	172.91
350.588	170.87
350.971	201.38
351.354	231.43
351.737	235.73
352.119	263.52
352.502	259.91
352.884	261.49
353.267	275.73
353.65	284.77
354.032	278.44
354.414	302.17
354.797	298.1
355.179	308.49
355.562	327.48
355.944	310.98
356.326	335.61
356.709	328.38
357.091	333.13
357.473	338.78
357.855	331.77
358.238	347.82
358.62	337.65
359.002	330.42
359.384	341.49
359.766	342.17
360.148	318.21
360.53	322.28
360.912	341.04
361.294	316.63
361.676	323.86
362.057	319.34
362.439	329.51
362.821	332.22
363.203	318.21
363.584	324.54
363.966	325.22
364.348	336.74
364.729	329.29
365.111	314.82
365.493	319.34
365.874	332.9
366.256	314.14
366.637	311.88
367.019	319.57
367.4	327.48
367.781	331.54
368.163	301.26
368.544	327.93
368.925	320.47
369.306	302.39
369.688	322.73
370.069	310.53
370.45	307.59
370.831	314.14
371.212	315.5
371.593	329.06
371.974	304.43
372.355	337.65
372.736	306.69
373.117	315.05
373.498	310.3
373.879	306.46
374.26	321.6
374.641	308.27
375.021	324.54
375.402	304.65
375.783	349.85
376.163	320.92
376.544	327.7
376.925	330.19
377.305	332.22
377.686	317.31
378.066	318.66
378.447	319.34
378.827	327.7
379.208	336.06
379.588	342.39
379.968	318.66
380.349	338.1
380.729	354.6
381.109	365.22
381.489	342.62
381.87	324.99
382.25	338.55
382.63	344.43
383.01	349.85
383.39	350.53
383.77	338.55
384.15	347.36
384.53	355.95
384.91	344.65
385.29	339.91
385.67	343.75
386.049	351.43
386.429	336.74
386.809	356.63
387.189	360.02
387.568	372
387.948	351.88
388.328	349.17
388.707	369.74
389.087	364.09
389.466	358.21
389.846	370.41
390.225	356.18
390.605	376.74
390.984	383.07
391.363	386.68
391.743	364.31
392.122	345.1
392.501	390.53
392.881	379
393.26	357.08
393.639	376.97
394.018	374.93
394.397	387.59
394.776	389.4
395.155	394.59
395.534	367.25
395.913	387.14
396.292	402.73
396.671	387.14
397.05	402.96
397.429	408.38
397.808	403.41
398.186	410.86
398.565	396.4
398.944	401.15
399.323	383.07
399.701	399.57
400.08	405.44
400.458	402.96
400.837	406.35
401.215	412.22
401.594	409.06
401.972	399.34
402.351	411.54
402.729	416.74
403.107	413.58
403.486	431.66
403.864	430.53
404.242	407.93
404.62	409.28
404.999	424.2
405.377	414.25
405.755	424.42
406.133	429.62
406.511	428.49
406.889	454.71
407.267	446.8
407.645	442.95
408.023	444.99
408.401	431.66
408.779	450.86
409.156	446.34
409.534	461.26
409.912	448.83
410.29	480.92
410.667	461.49
411.045	460.81
411.422	484.99
411.8	482.28
412.178	470.07
412.555	479.11
412.933	492.67
413.31	487.47
413.687	471.65
414.065	488.6
414.442	499.68
414.819	507.59
415.197	511.88
415.574	497.87
415.951	521.37
416.328	500.35
416.705	505.78
417.082	529.73
417.46	506.91
417.837	513.01
418.214	531.54
418.591	530.64
418.967	517.08
419.344	535.61
419.721	525.44
420.098	528.15
420.475	548.71
420.852	548.94
421.228	547.13
421.605	527.47
421.982	562.73
422.358	545.32
422.735	570.63
423.111	546
423.488	563.18
423.864	545.78
424.241	583.52
424.617	586.23
424.994	568.6
425.37	592.56
425.746	569.05
426.123	584.19
426.499	596.4
426.875	598.88
427.251	617.19
427.627	623.51
428.003	609.28
428.379	606.57
428.756	621.71
429.132	625.32
429.507	614.93
429.883	640.69
430.259	647.24
430.635	655.6
431.011	647.69
431.387	668.71
431.763	675.72
432.138	666.45
432.514	655.15
432.89	674.13
433.265	686.11
433.641	687.24
434.016	701.7
434.392	736.28
434.767	716.85
435.143	708.03
435.518	748.26
435.894	719.78
436.269	750.52
436.644	741.25
437.02	759.1
437.395	755.71
437.77	771.53
438.145	769.95
438.52	793.23
438.895	766.79
439.271	760.23
439.646	788.71
440.021	817.63
440.395	822.15
440.77	797.97
441.145	815.37
441.52	816.28
441.895	815.6
442.27	822.83
442.645	813.34
443.019	812.21
443.394	833.23
443.769	860.57
444.143	832.55
444.518	854.02
444.892	842.04
445.267	889.27
445.641	860.57
446.016	874.36
446.39	880.68
446.764	882.94
447.139	884.98
447.513	912.09
447.887	897.41
448.262	879.55
448.636	917.29
449.01	931.53
449.384	925.43
449.758	894.69
450.132	945.31
450.506	939.21
450.88	961.36
451.254	961.81
451.628	980.12
452.002	974.01
452.376	982.38
452.75	989.61
453.123	993.67
453.497	1019.21
453.871	1036.39
454.244	1033.67
454.618	1018.98
454.992	1024.63
455.365	1038.19
455.739	1049.49
456.112	1087.23
456.486	1084.97
456.859	1118.64
457.232	1101.47
457.606	1101.02
457.979	1132.88
458.352	1143.95
458.725	1163.39
459.099	1172.88
459.472	1193.67
459.845	1211.3
460.218	1208.81
460.591	1239.32
460.964	1221.92
461.337	1253.78
461.71	1266.44
462.083	1301.69
462.456	1307.56
462.829	1324.74
463.201	1315.93
463.574	1355.7
463.947	1368.13
464.32	1376.72
464.692	1403.38
465.065	1423.95
465.438	1451.29
465.81	1446.32
466.183	1482.93
466.555	1506.2
466.928	1530.16
467.3	1562.93
467.672	1555.47
468.045	1599.76
468.417	1579.2
468.789	1616.93
469.161	1668.23
469.534	1671.85
469.906	1724.05
470.278	1701.23
470.65	1762.92
471.022	1818.96
471.394	1843.6
471.766	1853.09
472.138	1929.7
472.51	1935.34
472.882	1982.35
473.253	2011.27
473.625	2046.75
473.997	2115
474.369	2160.88
474.74	2190.71
475.112	2214.66
475.484	2289.91
475.855	2349.57
476.227	2387.08
476.598	2482.9
476.97	2510.47
477.341	2599.28
477.713	2651.94
478.084	2697.13
478.455	2788.88
478.827	2818.03
479.198	2947.07
479.569	2985.49
479.94	3108.2
480.311	3144.58
480.682	3271.13
481.053	3336.21
481.424	3413.27
481.795	3510.9
482.166	3583.21
482.537	3699.59
482.908	3776.65
483.279	3883.77
483.65	3965.57
484.021	4120.6
484.391	4192.01
484.762	4281.72
485.133	4438.1
485.503	4533.24
485.874	4712.45
486.244	4726.01
486.615	4902.5
486.985	4992.89
487.356	5159.44
487.726	5256.61
488.097	5410.28
488.467	5504.29
488.837	5694.12
489.207	5794.68
489.578	5950.61
489.948	6048.23
490.318	6181.11
490.688	6288.68
491.058	6446.64
491.428	6614.77
491.798	6721.66
492.168	6961.43
492.538	7044.14
492.908	7166.39
493.278	7370.68
493.648	7487.51
494.017	7539.04
494.387	7713.95
494.757	7837.79
495.126	8041.85
495.496	8105.8
495.866	8220.38
496.235	8374.05
496.605	8488.62
496.974	8590.31
497.344	8750.08
497.713	8881.6
498.082	9043.41
498.452	9114.14
498.821	9227.13
499.19	9276.62
499.559	9504.86
499.928	9529.04
500.298	9650.17
500.667	9830.96
501.036	9835.48
501.405	10053.55
501.774	10087.22
502.143	10192.75
502.512	10294.9
502.88	10426.65
503.249	10472.07
503.618	10576.7
503.987	10683.14
504.356	10813.53
504.724	10869.57
505.093	10928.1
505.462	10957.25
505.83	11082.22
506.199	11194.31
506.567	11415.32
506.936	11343.91
507.304	11482.44
507.672	11591.14
508.041	11605.82
508.409	11719.04
508.777	11779.61
509.145	11901.41
509.514	11926.49
509.882	12002.65
510.25	11970.33
510.618	12131.91
510.986	12165.36
511.354	12248.07
511.722	12344.56
512.09	12402.41
512.458	12434.96
512.826	12516.99
513.193	12618.68
513.561	12590.66
513.929	12668.62
514.297	12836.98
514.664	12766.25
515.032	12770.09
515.4	12896.41
515.767	12945
516.135	13051.89
516.502	12854.83
516.869	13146.12
517.237	13157.42
517.604	13033.58
517.972	13160.36
518.339	13235.39
518.706	13224.99
519.073	13304.31
519.44	13371.88
519.808	13427.92
520.175	13460.92
520.542	13575.26
520.909	13566.68
521.276	13491.2
521.643	13630.4
522.009	13586.11
522.376	13705.66
522.743	13760.57
523.11	13808.93
523.477	13931.41
523.843	13810.29
524.21	14048.47
524.577	14027
524.943	14019.32
525.31	14052.54
525.676	14078.3
526.043	14104.06
526.409	14107.68
526.776	14166.89
527.142	14261.8
527.508	14218.19
527.874	14236.72
528.241	14245.08
528.607	14209.15
528.973	14354.23
529.339	14263.38
529.705	14388.58
530.071	14402.14
530.437	14481.91
530.803	14384.06
531.169	14401.23
531.535	14352.65
531.901	14310.39
532.267	14350.16
532.632	14439.42
532.998	14427.67
533.364	14336.15
533.73	14410.95
534.095	14361.68
534.461	14385.41
534.826	14378.63
535.192	14268.81
535.557	14408.24
535.923	14264.96
536.288	14271.07
536.653	14300.44
537.019	14165.76
537.384	14157.4
537.749	14231.74
538.114	14099.77
538.479	14126.21
538.845	14179.77
539.21	14083.95
539.575	14088.02
539.94	14080.34
540.305	14118.3
540.67	13940.68
541.034	13937.29
541.399	13934.35
541.764	13886.44
542.129	13891.41
542.494	13864.3
542.858	13847.35
543.223	13815.26
543.587	13875.37
543.952	13733.9
544.316	13700.23
544.681	13678.76
545.045	13727.12
545.41	13757.86
545.774	13629.27
546.138	13577.3
546.503	13575.04
546.867	13594.93
547.231	13566.9
547.595	13455.04
547.959	13512.22
548.324	13398.32
548.688	13400.13
549.052	13382.28
549.416	13311.54
549.779	13255.95
550.143	13208.72
550.507	13244.65
550.871	13218.21
551.235	13126.46
551.599	13191.55
551.962	13060.7
552.326	13236.74
552.689	13211.66
553.053	13011.44
553.417	13083.98
553.78	13116.52
554.143	13031.55
554.507	13099.8
554.87	13081.49
555.234	13093.24
555.597	12923.08
555.96	13011.44
556.323	12927.82
556.686	12937.09
557.05	12978.67
557.413	12969.86
557.776	12907.94
558.139	12926.92
558.502	12849.63
558.865	12875.62
559.228	12891.67
559.59	12886.47
559.953	12864.77
560.316	12942.74
560.679	12905.9
561.041	12970.76
561.404	12954.94
561.767	12960.59
562.129	12883.31
562.492	12985.68
562.854	12947.94
563.217	12891.44
563.579	12946.81
563.941	12935.96
564.304	12963.98
564.666	12978.9
565.028	12966.47
565.39	12977.99
565.753	12992.23
566.115	13093.47
566.477	13012.79
566.839	13034.26
567.201	13062.51
567.563	13067.71
567.925	13161.94
568.287	13093.24
568.648	13153.81
569.01	13161.72
569.372	13200.81
569.734	13142.06
570.095	13220.92
570.457	13163.3
570.819	13169.17
571.18	13183.18
571.542	13258.21
571.903	13208.27
572.265	13216.86
572.626	13291.66
572.987	13351.09
573.349	13340.92
573.71	13331.2
574.071	13402.39
574.432	13326.91
574.794	13421.82
575.155	13473.12
575.516	13276.06
575.877	13380.47
576.238	13389.28
576.599	13402.61
576.96	13395.83
577.32	13402.39
577.681	13481.48
578.042	13460.24
578.403	13375.27
578.763	13377.08
579.124	13505.21
579.485	13475.15
579.845	13461.37
580.206	13463.63
580.566	13451.2
580.927	13473.35
581.287	13523.74
581.648	13470.41
582.008	13431.09
582.368	13521.25
582.728	13492.1
583.089	13372.33
583.449	13369.17
583.809	13415.27
584.169	13441.03
584.529	13396.51
584.889	13431.77
585.249	13319.23
585.609	13368.72
585.969	13273.8
586.329	13380.69
586.688	13406
587.048	13336.17
587.408	13292.11
587.768	13250.3
588.127	13281.26
588.487	13222.05
588.846	13300.92
589.206	13303.41
589.565	13245.78
589.925	13289.17
590.284	13243.97
590.643	13307.93
591.003	13305.67
591.362	13321.71
591.721	13214.82
592.08	13268.15
592.44	13239.45
592.799	13323.97
593.158	13234.03
593.517	13218.66
593.876	13237.19
594.235	13194.48
594.593	13120.59
594.952	13271.77
595.311	13134.37
595.67	13133.69
596.029	13277.42
596.387	13252.34
596.746	13215.73
597.104	13146.12
597.463	13090.76
597.822	13202.62
598.18	13204.2
598.538	13161.26
598.897	13212.34
599.255	13065.67
599.613	13214.82
599.972	13224.31
600.33	13281.26
600.688	13170.76
601.046	13222.28
601.404	13294.82
601.762	13285.78
602.12	13201.49
602.478	13232
602.836	13173.02
603.194	13140.25
603.552	13164.2
603.91	13145.45
604.268	13157.42
604.625	13110.19
604.983	13163.98
605.341	13127.82
605.698	13231.09
606.056	13227.25
606.413	13198.55
606.771	13266.12
607.128	13241.26
607.485	13175.28
607.843	13145.9
608.2	13188.61
608.557	13168.95
608.914	13260.24
609.272	13208.04
609.629	13309.51
609.986	13298.44
610.343	13247.36
610.7	13325.33
611.057	13246.23
611.414	13300.7
611.771	13279.45
612.127	13330.07
612.484	13312.67
612.841	13393.35
613.198	13307.25
613.554	13319
613.911	13413.23
614.267	13256.18
614.624	13348.83
614.98	13381.15
615.337	13455.04
615.693	13309.28
616.05	13437.42
616.406	13504.98
616.762	13420.01
617.118	13481.48
617.475	13488.71
617.831	13422.5
618.187	13506.34
618.543	13516.73
618.899	13632.21
619.255	13521.25
619.611	13523.74
619.967	13608.71
620.323	13572.55
620.678	13580.46
621.034	13519.22
621.39	13514.93
621.746	13439.45
622.101	13639.67
622.457	13540.69
622.812	13537.98
623.168	13596.28
623.523	13557.64
623.879	13656.17
624.234	13570.29
624.589	13535.72
624.945	13583.4
625.3	13520.8
625.655	13498.43
626.01	13514.93
626.365	13625.66
626.72	13525.77
627.075	13491.88
627.43	13599.22
627.785	13532.1
628.14	13481.26
628.495	13539.11
628.85	13568.71
629.205	13475.83
629.559	13503.18
629.914	13429.28
630.269	13425.89
630.623	13377.98
630.978	13447.58
631.332	13436.96
631.687	13592.44
632.041	13415.27
632.396	13460.92
632.75	13436.29
633.104	13412.56
633.459	13358.32
633.813	13326.23
634.167	13385.66
634.521	13324.88
634.875	13318.32
635.229	13336.63
635.583	13236.06
635.937	13262.05
636.291	13260.47
636.645	13300.24
636.999	13231.54
637.352	13202.84
637.706	13143.19
638.06	13264.31
638.413	13196.74
638.767	13094.83
639.121	13141.38
639.474	13065
639.828	13047.82
640.181	13061.61
640.534	13073.13
640.888	13034.49
641.241	13045.33
641.594	13017.09
641.947	13056.41
642.301	13038.56
642.654	13090.76
643.007	12976.86
643.36	13038.78
643.713	13032.45
644.066	13048.72
644.419	12966.24
644.771	12901.84
645.124	12847.6
645.477	12678.11
645.83	12730.99
646.182	12623.88
646.535	12568.96
646.888	12642.63
647.24	12577.78
647.593	12725.8
647.945	12587.27
648.298	12514.28
648.65	12519.47
649.002	12388.18
649.355	12514.28
649.707	12481.51
650.059	12610.09
650.411	12709.07
650.763	12812.12
651.115	12851.67
651.467	12803.08
651.819	12789.97
652.171	12881.95
652.523	12807.15
652.875	12847.83
653.227	12809.63
653.578	12806.25
653.93	12949.07
654.282	12832.23
654.633	12729.64
654.985	12853.7
655.337	12792.69
655.688	12790.2
656.039	12845.34
656.391	12737.77
656.742	12705.23
657.094	12701.39
657.445	12797.21
657.796	12890.76
658.147	12748.39
658.498	12767.6
658.849	12850.76
659.2	12818.45
659.551	12734.83
659.902	12834.72
660.253	12817.09
660.604	12858.67
660.955	12793.59
661.306	12879.46
661.656	12807.6
662.007	12855.06
662.358	12857.09
662.708	12965.79
663.059	12825.45
663.409	12708.62
663.76	12878.33
664.11	12840.82
664.461	12904.32
664.811	12912.68
665.161	12821.39
665.511	12867.94
665.862	12888.95
666.212	12890.99
666.562	12868.84
666.912	12856.87
667.262	12911.33
667.612	12868.84
667.962	12857.77
668.312	12738.45
668.662	12877.2
669.011	12871.78
669.361	12828.84
669.711	12807.6
670.06	12766.25
670.41	12826.13
670.76	12818.67
671.109	12781.16
671.459	12823.19
671.808	12714.04
672.157	12822.06
672.507	12698.23
672.856	12660.71
673.205	12696.64
673.554	12784.78
673.904	12674.27
674.253	12725.34
674.602	12784.55
674.951	12554.05
675.3	12490.32
675.649	12682.86
675.998	12644.67
676.346	12646.48
676.695	12808.51
677.044	12564.44
677.393	12681.05
677.741	12608.06
678.09	12629.53
678.438	12572.35
678.787	12568.96
679.135	12563.77
679.484	12559.7
679.832	12498.23
680.181	12382.53
680.529	12436.54
680.877	12463.43
681.225	12372.58
681.573	12442.86
681.922	12410.55
682.27	12340.49
682.618	12388.63
682.966	12320.83
683.314	12348.86
683.661	12302.53
684.009	12195.41
684.357	12220.5
684.705	12171.46
685.053	12172.82
685.4	12135.3
685.748	12159.48
686.095	12092.82
686.443	12051.24
686.79	12045.36
687.138	12101.18
687.485	12056.66
687.832	12006.27
688.18	12025.47
688.527	11918.13
688.874	11965.59
689.221	11850.34
689.568	11825.48
689.915	11779.83
690.262	11778.48
690.609	11761.53
690.956	11759.72
691.303	11644.47
691.65	11578.03
691.997	11572.83
692.344	11574.19
692.69	11580.51
693.037	11504.81
693.383	11420.29
693.73	11510.91
694.077	11408.32
694.423	11402.67
694.769	11237.25
695.116	11266.4
695.462	11199.28
695.808	11188.89
696.155	11239.05
696.501	11134.42
696.847	11107.98
697.193	11049
697.539	11080.19
697.885	11025.95
698.231	10943.47
698.577	10967.42
698.923	10897.37
699.269	10872.74
699.614	10816.92
699.96	10768.56
700.306	10747.77
700.651	10689.01
700.997	10636.58
701.342	10580.77
701.688	10600.88
702.033	10556.81
702.379	10553.88
702.724	10503.48
703.069	10510.71
703.415	10377.38
703.76	10400.21
704.105	10383.94
704.45	10360.21
704.795	10312.53
705.14	10292.86
705.485	10280.89
705.83	10224.39
706.175	10194.56
706.52	10130.38
706.865	10141.23
707.209	10068.69
707.554	10044.28
707.899	10010.61
708.243	10036.6
708.588	10016.26
708.932	9934.68
709.277	9910.5
709.621	9908.47
709.966	9908.02
710.31	9824.4
710.654	9764.07
710.998	9775.59
711.342	9785.53
711.687	9780.56
712.031	9670.96
712.375	9575.6
712.719	9680.23
713.063	9655.82
713.407	9663.28
713.75	9627.8
714.094	9581.92
714.438	9599.55
714.782	9605.65
715.125	9586.22
715.469	9580.57
715.812	9456.73
716.156	9440.91
716.499	9445.88
716.843	9468.93
717.186	9426.22
717.53	9493.34
717.873	9427.58
718.216	9429.84
718.559	9370.86
718.902	9330.18
719.246	9325.43
719.589	9358.43
719.932	9203.85
720.275	9247.92
720.617	9255.83
720.96	9258.32
721.303	9259.22
721.646	9226.45
721.989	9199.56
722.331	9266.45
722.674	9156.4
723.016	9164.76
723.359	9196.17
723.701	9189.39
724.044	9193.68
724.386	9079.79
724.729	9156.4
725.071	9120.47
725.413	9090.86
725.755	9132.22
726.097	9094.7
726.439	9061.48
726.782	9109.17
727.124	9159.56
727.465	9020.36
727.807	9070.98
728.149	9038.21
728.491	9056.06
728.833	9026.91
729.175	9037.76
729.516	8950.08
729.858	9011.54
730.199	8996.18
730.541	8976.74
730.882	9003.63
731.224	9008.83
731.565	9045.44
731.906	9007.25
732.248	9015.61
732.589	9022.84
732.93	9000.47
733.271	9010.41
733.612	9007.02
733.953	9047.7
734.294	8994.37
734.635	8989.62
734.976	8999.34
735.317	8933.58
735.658	9024.42
735.999	8943.75
736.339	8997.31
736.68	9049.96
737.021	8920.47
737.361	8922.96
737.702	8990.3
738.042	8964.99
738.383	9038.89
738.723	9094.25
739.063	8983.52
739.404	9020.58
739.744	8981.26
740.084	9045.44
740.424	9036.4
740.764	9040.24
741.104	9169.28
741.444	9051.54
741.784	9082.73
742.124	9179.9
742.464	9157.98
742.804	9147.36
743.143	9125.44
743.483	9205.89
743.823	9146.23
744.162	9210.18
744.502	9343.96
744.841	9268.03
745.181	9293.57
745.52	9299.67
745.86	9406.79
746.199	9436.84
746.538	9453.56
746.877	9493.11
747.216	9524.52
747.556	9569.72
747.895	9621.7
748.234	9652.2
748.573	9766.33
748.911	9769.26
749.25	9842.26
749.589	9841.13
749.928	9953.21
750.267	10022.14
750.605	10100.55
750.944	10093.55
751.283	10200.44
751.621	10327.89
751.96	10341.9
752.298	10405.18
752.636	10584.61
752.975	10652.63
753.313	10739.86
753.651	10916.58
753.989	10916.35
754.327	11061.66
754.666	11108.66
755.004	11280.86
755.342	11470.01
755.679	11596.11
756.017	11575.54
756.355	11739.83
756.693	11921.07
757.031	12068.86
757.368	12206.94
757.706	12399.02
758.044	12449.19
758.381	12669.07
