Data from hue_10_FLMS001491_94.txt Node
Date: Mon Feb 06 15:32:50 GMT 2017
User: dcchb
Spectrometer: FLMS00149
Trigger mode: 0
Integration Time (sec): 2.000000E-2
Scans to average: 10
Electric dark correction enabled: true
Nonlinearity correction enabled: false
Boxcar width: 0
XAxis mode: Wavelengths
Number of Pixels in Spectrum: 2048
>>>>>Begin Spectral Data<<<<<
341.393	-1.81
341.776	-1.81
342.16	-1.81
342.543	-71.41
342.927	-66.44
343.31	-46.33
343.693	-68.02
344.077	-62.37
344.46	-74.57
344.843	-45.2
345.226	-48.13
345.61	-42.71
345.993	-20.11
346.376	-19.89
346.759	14.69
347.142	34.12
347.525	39.32
347.908	68.02
348.291	75.25
348.674	85.87
349.057	110.05
349.44	128.13
349.823	133.78
350.206	148.24
350.588	194.8
350.971	206.32
351.354	214.91
351.737	249.48
352.119	243.16
352.502	248.36
352.884	269.82
353.267	267.11
353.65	277.51
354.032	267.11
354.414	315.92
354.797	306.88
355.179	310.73
355.562	305.3
355.944	313.89
356.326	323.83
356.709	331.06
357.091	308.92
357.473	328.35
357.855	338.3
358.238	351.4
358.62	327.22
359.002	314.57
359.384	331.74
359.766	330.39
360.148	343.72
360.53	334
360.912	345.98
361.294	331.52
361.676	324.74
362.057	326.32
362.439	355.02
362.821	331.97
363.203	326.55
363.584	323.16
363.966	323.16
364.348	299.2
364.729	304.85
365.111	318.41
365.493	314.34
365.874	311.18
366.256	317.05
366.637	318.86
367.019	302.82
367.4	302.36
367.781	306.88
368.163	323.38
368.544	304.62
368.925	319.31
369.306	333.1
369.688	299.43
370.069	327.22
370.45	289.71
370.831	294
371.212	295.36
371.593	296.94
371.974	300.56
372.355	307.79
372.736	316.83
373.117	305.98
373.498	315.47
373.879	317.28
374.26	319.77
374.641	323.83
375.021	318.86
375.402	332.65
375.783	335.36
376.163	311.86
376.544	338.52
376.925	312.08
377.305	327.67
377.686	323.16
378.066	316.83
378.447	311.86
378.827	310.27
379.208	325.19
379.588	332.19
379.968	313.89
380.349	324.06
380.729	341.69
381.109	334.23
381.489	316.6
381.87	338.3
382.25	345.08
382.63	328.58
383.01	327.67
383.39	347.56
383.77	331.29
384.15	309.14
384.53	328.13
384.91	328.35
385.29	339.88
385.67	336.49
386.049	317.96
386.429	364.28
386.809	353.21
387.189	345.75
387.568	339.43
387.948	342.36
388.328	348.69
388.707	339.43
389.087	366.77
389.466	350.5
389.846	349.82
390.225	362.02
390.605	350.5
390.984	351.18
391.363	343.04
391.743	359.76
392.122	333.78
392.501	356.83
392.881	362.25
393.26	358.86
393.639	340.1
394.018	347.56
394.397	371.29
394.776	352.31
395.155	366.32
395.534	360.67
395.913	386.66
396.292	388.92
396.671	386.43
397.05	384.4
397.429	376.71
397.808	379.43
398.186	374
398.565	362.93
398.944	400.22
399.323	381.23
399.701	383.94
400.08	391.4
400.458	376.49
400.837	390.95
401.215	395.47
401.594	368.8
401.972	377.62
402.351	392.76
402.729	397.28
403.107	380.78
403.486	396.83
403.864	392.31
404.242	384.85
404.62	401.57
404.999	412.87
405.377	399.31
405.755	402.93
406.133	407.67
406.511	415.58
406.889	399.54
407.267	424.17
407.645	419.2
408.023	423.49
408.401	407.22
408.779	427.11
409.156	425.75
409.534	430.05
409.912	421.91
410.29	455.13
410.667	429.14
411.045	455.81
411.422	433.66
411.8	430.5
412.178	445.41
412.555	453.55
412.933	433.43
413.31	474.11
413.687	450.84
414.065	476.15
414.442	464.17
414.819	463.04
415.197	479.08
415.574	467.33
415.951	455.36
416.328	475.24
416.705	455.58
417.082	484.51
417.46	467.56
417.837	505.75
418.214	484.51
418.591	460.33
418.967	475.69
419.344	490.61
419.721	480.89
420.098	478.41
420.475	493.32
420.852	509.14
421.228	497.16
421.605	502.59
421.982	493.77
422.358	507.11
422.735	520.44
423.111	493.77
423.488	484.06
423.864	529.48
424.241	526.31
424.617	535.58
424.994	512.3
425.37	539.65
425.746	522.7
426.123	526.77
426.499	538.06
426.875	528.57
427.251	558.18
427.627	540.55
428.003	537.84
428.379	556.6
428.756	564.28
429.132	559.53
429.507	568.12
429.883	580.78
430.259	584.17
430.635	570.15
431.011	582.58
431.387	607.67
431.763	596.82
432.138	601.34
432.514	605.41
432.89	609.93
433.265	623.94
433.641	621.45
434.016	617.38
434.392	614
434.767	629.14
435.143	642.47
435.518	650.38
435.894	652.64
436.269	667.55
436.644	649.02
437.02	671.62
437.395	666.42
437.77	667.1
438.145	680.66
438.52	680.66
438.895	669.36
439.271	674.11
439.646	683.6
440.021	688.12
440.395	690.15
440.77	710.72
441.145	703.48
441.52	706.65
441.895	713.65
442.27	721.79
442.645	723.82
443.019	721.56
443.394	720.43
443.769	716.82
444.143	741.45
444.518	765.18
444.892	725.18
445.267	739.64
445.641	733.99
446.016	748.68
446.39	765.86
446.764	760.21
447.139	772.64
447.513	766.53
447.887	764.27
448.262	760.66
448.636	759.75
449.01	764.95
449.384	787.55
449.758	781.45
450.132	781
450.506	788.68
450.88	800.66
451.254	808.11
451.628	813.76
452.002	816.7
452.376	815.57
452.75	841.79
453.123	836.59
453.497	843.59
453.871	844.05
454.244	874.33
454.618	844.95
454.992	861.67
455.365	880.65
455.739	898.06
456.112	877.94
456.486	898.96
456.859	896.93
457.232	917.49
457.606	917.49
457.979	936.7
458.352	926.98
458.725	923.37
459.099	912.52
459.472	958.84
459.845	977.15
460.218	997.49
460.591	958.17
460.964	953.87
461.337	1020.76
461.71	1013.98
462.083	1011.72
462.456	1035.45
462.829	1039.29
463.201	1043.81
463.574	1067.32
463.947	1084.72
464.32	1092.63
464.692	1081.55
465.065	1109.12
465.438	1135.34
465.81	1135.56
466.183	1157.26
466.555	1167.2
466.928	1148.67
467.3	1159.29
467.672	1196.8
468.045	1226.86
468.417	1220.53
468.789	1240.19
469.161	1246.07
469.534	1257.82
469.906	1269.12
470.278	1290.59
470.65	1285.84
471.022	1321.32
471.394	1348.44
471.766	1364.94
472.138	1359.06
472.51	1395.44
472.882	1424.14
473.253	1432.05
473.625	1482.45
473.997	1476.12
474.369	1478.83
474.74	1493.75
475.112	1528.32
475.484	1578.72
475.855	1566.51
476.227	1565.83
476.598	1632.05
476.97	1661.2
477.341	1672.27
477.713	1726.51
478.084	1752.95
478.455	1776.68
478.827	1788.65
479.198	1842.66
479.569	1827.07
479.94	1887.18
480.311	1905.94
480.682	1968.08
481.053	1996.11
481.424	2044.24
481.795	2080.4
482.166	2096.89
482.537	2094.41
482.908	2186.84
483.279	2177.57
483.65	2247.4
484.021	2252.82
484.391	2340.96
484.762	2356.32
485.133	2369.2
485.503	2365.14
485.874	2458.92
486.244	2499.14
486.615	2519.48
486.985	2530.1
487.356	2621.4
487.726	2608.29
488.097	2714.73
488.467	2714.73
488.837	2785.69
489.207	2832.69
489.578	2840.38
489.948	2920.6
490.318	2891.45
490.688	2946.59
491.058	3030.43
491.428	3044.44
491.798	3041.28
492.168	3135.96
492.538	3158.34
492.908	3197.43
493.278	3224.32
493.648	3270.42
494.017	3261.16
494.387	3298.9
494.757	3332.34
495.126	3373.02
495.496	3391.1
495.866	3427.71
496.235	3440.81
496.605	3498.67
496.974	3502.28
497.344	3567.14
497.713	3617.31
498.082	3611.66
498.452	3654.82
498.821	3631.77
499.19	3660.69
499.559	3701.15
499.928	3755.83
500.298	3758.09
500.667	3794.93
501.036	3810.97
501.405	3875.6
501.774	3833.8
502.143	3888.49
502.512	3897.52
502.88	3920.12
503.249	3916.73
503.618	3956.28
503.987	4011.87
504.356	4005.09
504.724	4023.62
505.093	4024.07
505.462	4045.54
505.83	4064.53
506.199	4121.7
506.567	4130.74
506.936	4147.91
507.304	4181.13
507.672	4208.7
508.041	4196.95
508.409	4218.19
508.777	4291.86
509.145	4290.73
509.514	4317.85
509.882	4336.84
510.25	4350.62
510.618	4409.83
510.986	4386.1
511.354	4400.79
511.722	4434.91
512.09	4493.22
512.458	4462.71
512.826	4486.44
513.193	4499.99
513.561	4511.07
513.929	4569.37
514.297	4579.54
514.664	4580.22
515.032	4638.97
515.4	4648.47
515.767	4678.75
516.135	4675.58
516.502	4650.95
516.869	4742.25
517.237	4687.33
517.604	4721.68
517.972	4748.35
518.339	4743.38
518.706	4761
519.073	4804.62
519.44	4822.7
519.808	4886.2
520.175	4840.78
520.542	4937.5
520.909	4952.86
521.276	4857.05
521.643	4935.69
522.009	5015.91
522.376	5013.43
522.743	5056.82
523.11	5055.01
523.477	5117.15
523.843	5068.12
524.21	5192.86
524.577	5188.11
524.943	5203.03
525.31	5192.41
525.676	5264.95
526.043	5288.45
526.409	5330.26
526.776	5356.02
527.142	5333.19
527.508	5325.06
527.874	5447.77
528.241	5474.43
528.607	5438.73
528.973	5532.96
529.339	5511.04
529.705	5555.79
530.071	5586.29
530.437	5630.36
530.803	5674.65
531.169	5667.2
531.535	5660.42
531.901	5704.48
532.267	5678.27
532.632	5756.01
532.998	5786.97
533.364	5789
533.73	5800.75
534.095	5900.18
534.461	5867.64
534.826	5905.38
535.192	5929.56
535.557	5965.04
535.923	5976.57
536.288	5989.9
536.653	6052.72
537.019	6040.52
537.384	6038.94
537.749	6127.52
538.114	6152.38
538.479	6118.03
538.845	6164.58
539.21	6125.71
539.575	6161.65
539.94	6223.34
540.305	6279.61
540.67	6262.89
541.034	6302.21
541.399	6297.91
541.764	6351.7
542.129	6279.16
542.494	6421.75
542.858	6446.38
543.223	6476.44
543.587	6472.15
543.952	6470.79
544.316	6526.83
544.681	6553.73
545.045	6539.49
545.41	6605.48
545.774	6595.98
546.138	6616.78
546.503	6689.77
546.867	6577.23
547.231	6726.83
547.595	6714.4
547.959	6737.68
548.324	6766.83
548.688	6793.27
549.052	6866.71
549.416	6822.87
549.779	6879.82
550.143	6869.65
550.507	6917.56
550.871	6953.94
551.235	7000.49
551.599	6987.84
551.962	7005.24
552.326	7015.86
552.689	7070.1
553.053	7042.3
553.417	7096.99
553.78	7121.62
554.143	7073.49
554.507	7183.54
554.87	7160.49
555.234	7266.25
555.597	7170.88
555.96	7234.84
556.323	7290.66
556.686	7296.08
557.05	7332.69
557.413	7356.87
557.776	7302.86
558.139	7397.77
558.502	7439.35
558.865	7454.95
559.228	7448.39
559.59	7495.85
559.953	7494.94
560.316	7539.91
560.679	7556.19
561.041	7651.1
561.404	7694.26
561.767	7682.28
562.129	7661.49
562.492	7811.32
562.854	7773.58
563.217	7767.48
563.579	7831.88
563.941	7862.39
564.304	7868.49
564.666	7854.48
565.028	7832.56
565.39	7912.11
565.753	7938.1
566.115	7969.73
566.477	8009.28
566.839	8055.38
567.201	8158.66
567.563	8133.35
567.925	8157.53
568.287	8177.86
568.648	8146.23
569.01	8230.74
569.372	8354.13
569.734	8215.6
570.095	8411.3
570.457	8341.25
570.819	8442.49
571.18	8460.34
571.542	8509.61
571.903	8468.48
572.265	8586.89
572.626	8533.79
572.987	8683.39
573.349	8667.34
573.71	8700.56
574.071	8736.04
574.432	8835.7
574.794	8938.97
575.155	8930.61
575.516	8975.13
575.877	9043.6
576.238	9133.32
576.599	9161.34
576.96	9208.57
577.32	9252.86
577.681	9329.92
578.042	9394.56
578.403	9484.5
578.763	9554.78
579.124	9649.92
579.485	9728.56
579.845	9892.17
580.206	9867.09
580.566	10030.02
580.927	10040.41
581.287	10200.64
581.648	10302.78
582.008	10464.36
582.368	10586.39
582.728	10717.91
583.089	10790.22
583.449	10913.61
583.809	11075.42
584.169	11290.1
584.529	11433.6
584.889	11622.97
585.249	11698.22
585.609	11785.68
585.969	12103.64
586.329	12261.37
586.688	12451.65
587.048	12623.17
587.408	12789.49
587.768	13010.28
588.127	13253.44
588.487	13395.13
588.846	13650.94
589.206	13848.9
589.565	14001.89
589.925	14347.42
590.284	14463.8
590.643	14777.01
591.003	14995.09
591.362	15361.18
591.721	15534.28
592.08	15788.29
592.44	16085.45
592.799	16336.75
593.158	16544.88
593.517	16840.01
593.876	17121.81
594.235	17309.6
594.593	17619.42
594.952	17986.87
595.311	18144.61
595.67	18447.2
596.029	18912.05
596.387	19113.4
596.746	19483.78
597.104	19614.4
597.463	19922.64
597.822	20207.15
598.18	20434.72
598.538	20759.45
598.897	21104.3
599.255	21253.68
599.613	21759.88
599.972	21925.98
600.33	22162.58
600.688	22343.82
601.046	22694.32
601.404	23111.71
601.762	23307.18
602.12	23674.18
602.478	23907.17
602.836	24172.7
603.194	24357.33
603.552	24614.04
603.91	24849.74
604.268	25274.36
604.625	25179
604.983	25650.17
605.341	25793.22
605.698	26140.78
606.056	26491.28
606.413	26681.78
606.771	26860.54
607.128	27159.74
607.485	27253.52
607.843	27495.1
608.2	27925.37
608.557	28198.81
608.914	28248.07
609.272	28459.59
609.629	28819.13
609.986	29163.75
610.343	29136.64
610.7	29550.64
611.057	29708.15
611.414	29745.88
611.771	30026.1
612.127	30390.39
612.484	30493.89
612.841	30825.63
613.198	30826.08
613.554	30968.45
613.911	31360.76
614.267	31598.49
614.624	31569.34
614.98	31779.28
615.337	32064.47
615.693	32341.52
616.05	32238.02
616.406	32492.7
616.762	32568.86
617.118	32753.26
617.475	32901.28
617.831	33124.78
618.187	33141.05
618.543	33357.32
618.899	33721.6
619.255	33728.15
619.611	33860.58
619.967	34015.38
620.323	34161.14
620.678	34147.58
621.034	34204.52
621.39	34329.27
621.746	34360.45
622.101	34999.08
622.457	34669.37
622.812	34828.24
623.168	34980.1
623.523	35225.74
623.879	35273.42
624.234	35132.64
624.589	35429.8
624.945	35521.55
625.3	35644.94
625.655	35603.81
626.01	35703.69
626.365	35722.68
626.72	35865.27
627.075	35912.5
627.43	35965.16
627.785	35978.04
628.14	36196.79
628.495	36172.38
628.85	36192.04
629.205	36092.84
629.559	36359.95
629.914	36363.11
630.269	36357.91
630.623	36383
630.978	36222.55
631.332	36420.96
631.687	36515.88
632.041	36434.3
632.396	36491.24
632.75	36453.96
633.104	36556.33
633.459	36392.04
633.813	36451.24
634.167	36609.43
634.521	36530.11
634.875	36628.42
635.229	36620.51
635.583	36412.6
635.937	36425.48
636.291	36470
636.645	36569.89
636.999	36461.64
637.352	36549.77
637.706	36378.25
638.06	36547.29
638.413	36444.47
638.767	36523.56
639.121	36546.84
639.474	36233.4
639.828	36489.89
640.181	36535.08
640.534	36515.42
640.888	36392.49
641.241	36284.24
641.594	36476.56
641.947	36563.56
642.301	36433.84
642.654	36534.86
643.007	36418.93
643.36	36425.48
643.713	36423.68
644.066	36497.35
644.419	36436.78
644.771	36026.85
645.124	35787.99
645.477	35816.23
645.83	35585.05
646.182	35381.44
646.535	35422.8
646.888	35353.42
647.24	35252.63
647.593	35452.63
647.945	35544.6
648.298	35328.56
648.65	35139.87
649.002	35096.7
649.355	35348
649.707	35370.82
650.059	35298.73
650.411	35800.41
650.763	35898.04
651.115	36298.25
651.467	36111.82
651.819	36120.63
652.171	36088.32
652.523	35990.69
652.875	35857.59
653.227	35761.55
653.578	36138.26
653.93	35950.24
654.282	35795.67
654.633	35711.6
654.985	35862.33
655.337	35922.45
655.688	35929.22
656.039	35931.03
656.391	35655.33
656.742	35633.64
657.094	35752.51
657.445	36027.3
657.796	35797.7
658.147	35709.57
658.498	35778.49
658.849	35829.11
659.2	35766.97
659.551	35651.94
659.902	35859.4
660.253	35744.37
660.604	35726.74
660.955	35569.91
661.306	35704.82
661.656	35730.81
662.007	35523.13
662.358	35648.55
662.708	35659.63
663.059	35720.19
663.409	35350.48
663.76	35684.71
664.11	35729.46
664.461	35611.04
664.811	35780.98
665.161	35619.18
665.511	35553.64
665.862	35578.5
666.212	35741.43
666.562	35650.59
666.912	35598.39
667.262	35525.17
667.612	35691.94
667.962	35605.62
668.312	35545.28
668.662	35667.76
669.011	35660.08
669.361	35512.96
669.711	35477.49
670.06	35410.14
670.41	35512.74
670.76	35455.11
671.109	35608.1
671.459	35501.89
671.808	35285.85
672.157	35520.42
672.507	35167.66
672.856	35407.66
673.205	35425.28
673.554	35409.92
673.904	35373.53
674.253	35424.61
674.602	35465.06
674.951	34887.22
675.3	34564.51
675.649	35289.69
675.998	35230.26
676.346	35284.04
676.695	35364.95
677.044	35035.91
677.393	35063.26
677.741	35248.56
678.09	35025.52
678.438	34888.12
678.787	35075.01
679.135	35073.2
679.484	34842.02
679.832	34906.43
680.181	34748.01
680.529	35079.76
680.877	35058.51
681.225	34778.52
681.573	35055.35
681.922	34763.83
682.27	34668.24
682.618	34776.71
682.966	34648.35
683.314	34687.22
683.661	34663.72
684.009	34298.53
684.357	34275.26
684.705	34279.1
685.053	34230.96
685.4	34250.4
685.748	33922.95
686.095	33995.94
686.443	33942.38
686.79	33890.18
687.138	33995.26
687.485	33977.19
687.832	33846.34
688.18	33773.8
688.527	33602.28
688.874	33610.42
689.221	33599.34
689.568	33543.75
689.915	33400.48
690.262	33454.94
690.609	33209.52
690.956	33173.59
691.303	33195.29
691.65	33107.6
691.997	33045.01
692.344	32802.53
692.69	32853.83
693.037	32821.96
693.383	32622.19
693.73	32644.79
694.077	32577.67
694.423	32629.2
694.769	32432.59
695.116	32436.89
695.462	32279.15
695.808	32269.21
696.155	32286.16
696.501	31978.14
696.847	32014.75
697.193	31767.3
697.539	31862.67
697.885	31676
698.231	31586.97
698.577	31621.09
698.923	31642.56
699.269	31306.75
699.614	31292.28
699.96	31247.31
700.306	31200.08
700.651	31167.09
700.997	30960.77
701.342	30964.61
701.688	30943.37
702.033	30695.24
702.379	30847.55
702.724	30646.43
703.069	30695.69
703.415	30493.21
703.76	30323.27
704.105	30347.9
704.45	30384.96
704.795	30070.4
705.14	30066.1
705.485	30046.67
705.83	29887.8
706.175	29897.97
706.52	29815.94
706.865	29757.18
707.209	29751.99
707.554	29579.34
707.899	29538.43
708.243	29482.39
708.588	29503.18
708.932	29297.99
709.277	29232
709.621	29269.74
709.966	29127.6
710.31	29139.8
710.654	29001.5
710.998	29028.62
711.342	28865.91
711.687	28743.65
712.031	28776.19
712.375	28706.59
712.719	28660.49
713.063	28704.33
713.407	28678.34
713.75	28536.88
714.094	28426.82
714.438	28455.07
714.782	28527.84
715.125	28336.43
715.469	28270.22
715.812	28199.48
716.156	28015.53
716.499	28010.79
716.843	27972.82
717.186	27881.75
717.53	28010.34
717.873	27944.8
718.216	27919.72
718.559	27741.42
718.902	27552.04
719.246	27808.53
719.589	27654.41
719.932	27468.2
720.275	27482.44
720.617	27484.25
720.96	27462.33
721.303	27432.05
721.646	27330.58
721.989	27236.57
722.331	27319.73
722.674	27178.27
723.016	27145.27
723.359	27196.57
723.701	27143.47
724.044	26966.75
724.386	26829.58
724.729	27007.43
725.071	26902.12
725.413	26915.22
725.755	26938.73
726.097	26865.06
726.439	26620.09
726.782	26636.36
727.124	26716.59
727.465	26522.69
727.807	26623.93
728.149	26488.8
728.491	26522.47
728.833	26632.97
729.175	26437.04
729.516	26369.48
729.858	26343.26
730.199	26408.12
730.541	26273.89
730.882	26195.47
731.224	26244.96
731.565	26136.49
731.906	26127
732.248	26202.47
732.589	25985.98
732.93	25848.81
733.271	25930.39
733.612	25934.46
733.953	25941.69
734.294	25763.62
734.635	25745.31
734.976	25939.66
735.317	25574.47
735.658	25641.13
735.999	25665.31
736.339	25561.59
736.68	25676.16
737.021	25620.12
737.361	25496.5
737.702	25580.12
738.042	25576.28
738.383	25386.68
738.723	25479.78
739.063	25275.95
739.404	25391.42
739.744	25229.85
740.084	25214.48
740.424	25245.44
740.764	25173.8
741.104	25235.27
741.444	25106.23
741.784	25061.26
742.124	25069.62
742.464	25083.18
742.804	24957.99
743.143	24905.56
743.483	25027.82
743.823	24871.66
744.162	24836.41
744.502	24941.49
744.841	24738.11
745.181	24894.26
745.52	24766.58
745.86	24809.07
746.199	24719.58
746.538	24733.81
746.877	24757.77
747.216	24637.32
747.556	24626.92
747.895	24589.41
748.234	24506.7
748.573	24446.59
748.911	24494.95
749.25	24378.34
749.589	24317.1
749.928	24242.75
750.267	24373.6
750.605	24222.41
750.944	24306.25
751.283	24160.04
751.621	24135.18
751.96	24074.17
752.298	24092.47
752.636	24077.78
752.975	23826.04
753.313	23920.05
753.651	24041.85
753.989	23794.18
754.327	23897.68
754.666	23700.85
755.004	23681.64
755.342	23732.26
755.679	23716.66
756.017	23574.3
756.355	23569.32
756.693	23455.43
757.031	23538.36
757.368	23406.16
757.706	23375.66
758.044	23360.29
758.381	23321.42
758.719	23269.44
759.056	23177.92
759.394	23209.33
759.731	23005.04
760.068	23073.97
760.405	22916.69
760.743	22810.7
761.08	22836.46
