Data from hue_210_FLMS001491_00010.txt Node
Date: Tue Feb 07 16:40:42 GMT 2017
User: dcchb
Spectrometer: FLMS00149
Trigger mode: 0
Integration Time (sec): 2.000000E-2
Scans to average: 10
Electric dark correction enabled: true
Nonlinearity correction enabled: false
Boxcar width: 0
XAxis mode: Wavelengths
Number of Pixels in Spectrum: 2048
>>>>>Begin Spectral Data<<<<<
341.393	-1.31
341.776	-1.31
342.16	-1.31
342.543	-63.46
342.927	-76.34
343.31	-57.81
343.693	-63.01
344.077	-65.72
344.46	-46.06
344.843	-59.39
345.226	-47.41
345.61	-25.04
345.993	-23.46
346.376	-1.31
346.759	16.77
347.142	36.2
347.525	30.55
347.908	35.3
348.291	61.28
348.674	94.05
349.057	115.07
349.44	126.37
349.823	137.89
350.206	158.23
350.588	190.32
350.971	213.37
351.354	231.22
351.737	239.81
352.119	248.4
352.502	267.61
352.884	275.52
353.267	278.23
353.65	300.15
354.032	296.08
354.414	297.44
354.797	305.35
355.179	320.03
355.562	342.41
355.944	314.16
356.326	321.16
356.709	336.76
357.091	311.45
357.473	337.66
357.855	336.08
358.238	352.8
358.62	332.69
359.002	325.91
359.384	346.47
359.766	333.59
360.148	334.95
360.53	309.19
360.912	339.92
361.294	320.71
361.676	316.64
362.057	336.98
362.439	318.68
362.821	348.96
363.203	323.65
363.584	338.79
363.966	330.88
364.348	317.77
364.729	318.23
365.111	326.36
365.493	316.64
365.874	334.5
366.256	338.11
366.637	328.62
367.019	323.42
367.4	306.47
367.781	321.16
368.163	314.38
368.544	303.09
368.925	315.51
369.306	314.84
369.688	315.06
370.069	310.54
370.45	306.93
370.831	314.61
371.212	301.05
371.593	299.7
371.974	301.05
372.355	318.45
372.736	320.71
373.117	325.91
373.498	308.51
373.879	321.39
374.26	302.63
374.641	310.77
375.021	309.19
375.402	335.85
375.783	318.9
376.163	324.1
376.544	322.52
376.925	323.65
377.305	341.28
377.686	337.43
378.066	318.23
378.447	330.66
378.827	325.01
379.208	318.45
379.588	348.73
379.968	336.08
380.349	332.46
380.729	323.2
381.109	339.47
381.489	344.21
381.87	348.28
382.25	352.58
382.63	350.32
383.01	340.6
383.39	343.76
383.77	354.84
384.15	337.89
384.53	357.32
384.91	370.2
385.29	320.94
385.67	355.06
386.049	348.73
386.429	352.8
386.809	361.16
387.189	362.97
387.568	363.87
387.948	370.88
388.328	358.9
388.707	357.77
389.087	380.6
389.466	367.04
389.846	370.43
390.225	369.3
390.605	360.94
390.984	379.69
391.363	352.8
391.743	329.53
392.122	373.14
392.501	350.09
392.881	381.73
393.26	370.88
393.639	384.21
394.018	390.31
394.397	375.17
394.776	374.72
395.155	386.47
395.534	382.41
395.913	384.21
396.292	385.57
396.671	389.41
397.05	398.68
397.429	394.16
397.808	399.81
398.186	420.6
398.565	414.72
398.944	402.29
399.323	405
399.701	413.59
400.08	412.69
400.458	411.78
400.837	418.34
401.215	419.47
401.594	414.27
401.972	414.04
402.351	442.29
402.729	442.52
403.107	421.95
403.486	446.13
403.864	436.87
404.242	428.28
404.62	446.36
404.999	461.95
405.377	471.22
405.755	467.6
406.133	448.62
406.511	479.58
406.889	498.11
407.267	486.36
407.645	486.36
408.023	494.49
408.401	483.87
408.779	502.4
409.156	522.51
409.534	532.23
409.912	529.75
410.29	526.58
410.667	541.5
411.045	547.37
411.422	549.63
411.8	563.64
412.178	569.07
412.555	579.69
412.933	596.64
413.31	582.63
413.687	609.07
414.065	600.48
414.442	642.29
414.819	638.22
415.197	630.99
415.574	660.82
415.951	657.43
416.328	666.01
416.705	659.01
417.082	701.04
417.46	680.02
417.837	688.61
418.214	730.87
418.591	727.93
418.967	718.67
419.344	750.98
419.721	753.24
420.098	751.44
420.475	769.97
420.852	789.17
421.228	797.08
421.605	812.9
421.982	810.19
422.358	838.44
422.735	847.7
423.111	853.35
423.488	866.46
423.864	885.67
424.241	902.17
424.617	942.84
424.994	918.66
425.37	925.22
425.746	951.66
426.123	979.45
426.499	994.59
426.875	1019.9
427.251	1041.82
427.627	1048.15
428.003	1047.47
428.379	1064.87
428.756	1054.25
429.132	1087.02
429.507	1086.79
429.883	1120.24
430.259	1135.83
430.635	1126.79
431.011	1128.83
431.387	1154.36
431.763	1177.19
432.138	1164.53
432.514	1213.34
432.89	1242.27
433.265	1249.95
433.641	1281.59
434.016	1295.83
434.392	1327.01
434.767	1366.79
435.143	1346.67
435.518	1404.53
435.894	1417.41
436.269	1436.61
436.644	1460.57
437.02	1475.26
437.395	1480.23
437.77	1525.43
438.145	1545.99
438.52	1572.66
438.895	1591.41
439.271	1615.59
439.646	1659.43
440.021	1704.4
440.395	1684.29
440.77	1724.74
441.145	1728.13
441.52	1767.91
441.895	1754.8
442.27	1792.54
442.645	1813.78
443.019	1835.47
443.394	1869.37
443.769	1888.35
444.143	1875.02
444.518	1885.87
444.892	1911.18
445.267	1930.16
445.641	1954.34
446.016	1990.95
446.39	1982.82
446.764	2012.19
447.139	2032.76
447.513	2027.79
447.887	2030.95
448.262	2077.5
448.636	2039.54
449.01	2119.31
449.384	2119.76
449.758	2138.97
450.132	2172.64
450.506	2158.18
450.88	2198.4
451.254	2210.61
451.628	2219.42
452.002	2232.07
452.376	2269.81
452.75	2275.69
453.123	2296.03
453.497	2329.25
453.871	2352.97
454.244	2402.24
454.618	2369.7
454.992	2431.39
455.365	2442.01
455.739	2478.17
456.112	2508.45
456.486	2545.29
456.859	2570.14
457.232	2639.07
457.606	2601.56
457.979	2670.48
458.352	2696.69
458.725	2696.24
459.099	2731.27
459.472	2777.14
459.845	2798.16
460.218	2865.5
460.591	2847.2
460.964	2872.74
461.337	2946.41
461.71	2992.51
462.083	3037.93
462.456	3001.32
462.829	3022.34
463.201	3080.64
463.574	3111.15
463.947	3118.38
464.32	3240.64
464.692	3262.78
465.065	3253.74
465.438	3239.05
465.81	3331.03
466.183	3347.07
466.555	3433.62
466.928	3428.65
467.3	3457.13
467.672	3507.52
468.045	3598.14
468.417	3597.01
468.789	3636.33
469.161	3632.72
469.534	3716.78
469.906	3770.79
470.278	3804.69
470.65	3830.45
471.022	3953.16
471.394	3985.47
471.766	4000.62
472.138	4046.04
472.51	4107.28
472.882	4194.73
473.253	4235.41
473.625	4243.55
473.997	4340.95
474.369	4403.09
474.74	4392.7
475.112	4462.07
475.484	4521.05
475.855	4630.88
476.227	4658.68
476.598	4766.47
476.97	4769.86
477.341	4935.96
477.713	4930.31
478.084	4991.1
478.455	5136.18
478.827	5128.04
479.198	5263.18
479.569	5276.51
479.94	5402.39
480.311	5412.33
480.682	5546.11
481.053	5641.93
481.424	5710.4
481.795	5749.95
482.166	5864.75
482.537	5896.16
482.908	6018.19
483.279	6032.65
483.65	6145.64
484.021	6261.8
484.391	6314.68
484.762	6369.37
485.133	6423.38
485.503	6490.72
485.874	6618.63
486.244	6696.82
486.615	6785.17
486.985	6850.48
487.356	6984.04
487.726	6962.12
488.097	7100.65
488.467	7091.16
488.837	7217.03
489.207	7314.88
489.578	7437.13
489.948	7467.19
490.318	7499.28
490.688	7593.29
491.058	7725.94
491.428	7765.71
491.798	7880.74
492.168	7961.64
492.538	7996.44
492.908	8087.74
493.278	8173.84
493.648	8193.73
494.017	8279.6
494.387	8318.69
494.757	8312.14
495.126	8374.74
495.496	8460.38
495.866	8410.22
496.235	8553.49
496.605	8588.52
496.974	8607.5
497.344	8695.18
497.713	8730.21
498.082	8747.38
498.452	8767.04
498.821	8880.26
499.19	8835.52
499.559	8930.88
499.928	8920.71
500.298	9029.41
500.667	8996.42
501.036	8921.16
501.405	9028.51
501.774	9124.77
502.143	9202.96
502.512	9218.33
502.88	9211.33
503.249	9149.18
503.618	9262.62
503.987	9338.78
504.356	9352.56
504.724	9407.25
505.093	9398.21
505.462	9436.63
505.83	9434.82
506.199	9438.89
506.567	9511.43
506.936	9546.23
507.304	9678.66
507.672	9606.57
508.041	9637.3
508.409	9675.49
508.777	9743.29
509.145	9763.18
509.514	9694.93
509.882	9780.8
510.25	9703.74
510.618	9798.43
510.986	9785.1
511.354	9873.46
511.722	9863.96
512.09	9859.44
512.458	9930.85
512.826	9890.63
513.193	9950.97
513.561	9964.3
513.929	10002.72
514.297	10086.78
514.664	10054.47
515.032	10025.99
515.4	10061.25
515.767	10108.25
516.135	10100.57
516.502	9982.83
516.869	10138.53
517.237	10164.75
517.604	10100.34
517.972	10148.7
518.339	10139.44
518.706	10133.79
519.073	10201.36
519.44	10183.28
519.808	10314.12
520.175	10143.05
520.542	10308.7
520.909	10276.16
521.276	10200
521.643	10299.66
522.009	10302.37
522.376	10373.1
522.743	10261.47
523.11	10349.15
523.477	10474.34
523.843	10409.03
524.21	10475.02
524.577	10425.08
524.943	10518.41
525.31	10469.15
525.676	10475.93
526.043	10515.92
526.409	10535.13
526.776	10642.7
527.142	10566.54
527.508	10499.43
527.874	10531.06
528.241	10571.74
528.607	10519.09
528.973	10556.37
529.339	10473.67
529.705	10533.32
530.071	10603.83
530.437	10515.7
530.803	10514.57
531.169	10538.52
531.535	10504.4
531.901	10496.94
532.267	10439.09
532.632	10479.09
532.998	10466.89
533.364	10465.53
533.73	10448.13
534.095	10489.71
534.461	10484.51
534.826	10520.22
535.192	10393.22
535.557	10437.51
535.923	10386.89
536.288	10404.29
536.653	10395.7
537.019	10322.26
537.384	10264.41
537.749	10356.38
538.114	10211.98
538.479	10207.01
538.845	10204.97
539.21	10145.76
539.575	10149.15
539.94	10163.62
540.305	10143.73
540.67	10183.96
541.034	10058.53
541.399	10021.93
541.764	9988.93
542.129	10011.98
542.494	9923.62
542.858	9990.29
543.223	9862.38
543.587	9865.77
543.952	9813.34
544.316	9785.1
544.681	9794.59
545.045	9755.04
545.41	9743.97
545.774	9701.26
546.138	9645.66
546.503	9746.9
546.867	9628.94
547.231	9692.44
547.595	9686.79
547.959	9655.83
548.324	9580.36
548.688	9508.72
549.052	9461.04
549.416	9471.43
549.779	9470.08
550.143	9475.27
550.507	9446.12
550.871	9362.28
551.235	9384.43
551.599	9362.73
551.962	9331.32
552.326	9270.99
552.689	9311.89
553.053	9200.93
553.417	9228.05
553.78	9257.2
554.143	9176.07
554.507	9151.44
554.87	9146.69
555.234	9179.01
555.597	9136.3
555.96	9143.3
556.323	9130.42
556.686	9095.62
557.05	9152.12
557.413	9049.97
557.776	9056.53
558.139	9102.63
558.502	9018.34
558.865	9059.69
559.228	9023.31
559.59	9062.4
559.953	9023.08
560.316	9063.98
560.679	9031.22
561.041	9047.94
561.404	9054.49
561.767	9125.9
562.129	8936.08
562.492	9087.26
562.854	9012.69
563.217	9002.29
563.579	9009.97
563.941	9059.24
564.304	9048.39
564.666	9141.27
565.028	9067.83
565.39	9054.49
565.753	9093.14
566.115	9114.83
566.477	9145.79
566.839	9129.97
567.201	9133.81
567.563	9114.83
567.925	9155.73
568.287	9091.1
568.648	9160.25
569.01	9115.51
569.372	9173.81
569.734	9147.82
570.095	9161.38
570.457	9207.03
570.819	9173.59
571.18	9224.21
571.542	9217.2
571.903	9234.83
572.265	9248.84
572.626	9298.78
572.987	9293.58
573.349	9228.73
573.71	9382.39
574.071	9256.07
574.432	9262.85
574.794	9357.54
575.155	9314.37
575.516	9351.21
575.877	9327.03
576.238	9350.76
576.599	9431.66
576.96	9423.75
577.32	9430.98
577.681	9433.92
578.042	9447.03
578.403	9442.05
578.763	9482.5
579.124	9461.26
579.485	9467.36
579.845	9456.97
580.206	9419
580.566	9425.33
580.927	9539
581.287	9484.99
581.648	9534.48
582.008	9504.2
582.368	9576.29
582.728	9579.23
583.089	9505.56
583.449	9584.42
583.809	9626.91
584.169	9584.42
584.529	9534.03
584.889	9649.28
585.249	9616.96
585.609	9637.53
585.969	9633.24
586.329	9582.62
586.688	9599.79
587.048	9626
587.408	9555.72
587.768	9659.9
588.127	9615.16
588.487	9624.87
588.846	9598.89
589.206	9665.55
589.565	9607.47
589.925	9639.79
590.284	9660.58
590.643	9737.41
591.003	9729.73
591.362	9759.56
591.721	9734.48
592.08	9663.07
592.44	9753.01
592.799	9746.23
593.158	9712.1
593.517	9708.04
593.876	9771.08
594.235	9743.74
594.593	9808.15
594.952	9741.93
595.311	9677.98
595.67	9748.71
596.029	9755.49
596.387	9795.27
596.746	9788.49
597.104	9706.91
597.463	9721.37
597.822	9754.81
598.18	9738.77
598.538	9785.55
598.897	9776.28
599.255	9757.75
599.613	9834.81
599.972	9785.1
600.33	9838.43
600.688	9738.77
601.046	9816.28
601.404	9852.44
601.762	9820.58
602.12	9883.85
602.478	9783.29
602.836	9820.35
603.194	9833.46
603.552	9819.45
603.91	9759.11
604.268	9871.87
604.625	9794.81
604.983	9776.51
605.341	9811.76
605.698	9847.92
606.056	9871.42
606.413	9848.6
606.771	9848.82
607.128	9833.23
607.485	9817.41
607.843	9851.08
608.2	9844.76
608.557	9952.32
608.914	9877.07
609.272	9909.61
609.629	9945.32
609.986	9920.69
610.343	9883.4
610.7	10010.63
611.057	10055.37
611.414	9950.74
611.771	9906.67
612.127	9942.15
612.484	9988.48
612.841	10085.65
613.198	10012.21
613.554	10061.7
613.911	10034.81
614.267	10025.09
614.624	10023.51
614.98	10052.21
615.337	10106.22
615.693	10090.4
616.05	10071.64
616.406	10066.67
616.762	10030.06
617.118	10044.07
617.475	10049.95
617.831	10058.08
618.187	10045.65
618.543	10121.36
618.899	10127.01
619.255	10089.49
619.611	10071.87
619.967	10119.55
620.323	10136.27
620.678	10091.75
621.034	10075.94
621.39	10168.59
621.746	10061.7
622.101	10261.47
622.457	10136.72
622.812	10167.01
623.168	10186.89
623.523	10160.45
623.879	10118.87
624.234	10088.36
624.589	10224.86
624.945	10201.13
625.3	10202.49
625.655	10165.42
626.01	10181.02
626.365	10170.85
626.72	10099.21
627.075	10171.75
627.43	10201.81
627.785	10108.7
628.14	10104.18
628.495	10137.85
628.85	10105.09
629.205	10065.31
629.559	10173.33
629.914	10083.85
630.269	10116.84
630.623	10098.53
630.978	10109.38
631.332	10139.44
631.687	10103.73
632.041	10050.63
632.396	10064.86
632.75	10023.51
633.104	9996.62
633.459	10005.65
633.813	9954.58
634.167	9999.55
634.521	9981.25
634.875	9988.48
635.229	9937.41
635.583	9910.06
635.937	9837.07
636.291	9801.82
636.645	9939.44
636.999	9863.06
637.352	9881.36
637.706	9849.5
638.06	9879.78
638.413	9787.81
638.767	9713.23
639.121	9794.36
639.474	9722.27
639.828	9756.85
640.181	9704.42
640.534	9710.07
640.888	9690.18
641.241	9645.21
641.594	9696.51
641.947	9700.58
642.301	9685.89
642.654	9653.8
643.007	9656.29
643.36	9660.81
643.713	9580.13
644.066	9646.12
644.419	9675.49
644.771	9634.59
645.124	9536.29
645.477	9496.06
645.83	9473.92
646.182	9363.64
646.535	9409.51
646.888	9327.93
647.24	9288.61
647.593	9333.58
647.945	9316.18
648.298	9299.46
648.65	9265.34
649.002	9298.1
649.355	9317.09
649.707	9256.97
650.059	9332
650.411	9513.92
650.763	9486.57
651.115	9541.94
651.467	9530.87
651.819	9557.31
652.171	9560.02
652.523	9530.64
652.875	9498.78
653.227	9453.13
653.578	9514.82
653.93	9571.09
654.282	9473.69
654.633	9501.04
654.985	9532.22
655.337	9495.61
655.688	9535.84
656.039	9538.1
656.391	9490.19
656.742	9498.32
657.094	9590.52
657.445	9567.7
657.796	9577.42
658.147	9460.13
658.498	9501.94
658.849	9491.32
659.2	9590.3
659.551	9553.69
659.902	9543.07
660.253	9479.12
660.604	9527.93
660.955	9479.57
661.306	9560.24
661.656	9538.1
662.007	9541.94
662.358	9553.69
662.708	9506.01
663.059	9606.57
663.409	9499.68
663.76	9689.96
664.11	9559.34
664.461	9543.97
664.811	9548.04
665.161	9588.04
665.511	9575.16
665.862	9581.26
666.212	9581.71
666.562	9541.49
666.912	9588.72
667.262	9568.15
667.612	9560.92
667.962	9567.02
668.312	9569.28
668.662	9594.82
669.011	9600.69
669.361	9560.92
669.711	9531.32
670.06	9566.34
670.41	9484.76
670.76	9497.42
671.109	9521.6
671.459	9516.85
671.808	9511.2
672.157	9523.63
672.507	9407.93
672.856	9428.5
673.205	9470.3
673.554	9517.08
673.904	9487.48
674.253	9451.09
674.602	9484.54
674.951	9383.98
675.3	9330.19
675.649	9454.94
675.998	9396.86
676.346	9402.51
676.695	9462.84
677.044	9343.98
677.393	9323.64
677.741	9464.88
678.09	9349.4
678.438	9338.78
678.787	9397.08
679.135	9400.7
679.484	9326.8
679.832	9341.72
680.181	9224.88
680.529	9278.22
680.877	9270.99
681.225	9248.16
681.573	9262.62
681.922	9295.62
682.27	9133.14
682.618	9184.66
682.966	9133.81
683.314	9182.63
683.661	9131.55
684.009	9106.47
684.357	9103.53
684.705	9059.01
685.053	9082.74
685.4	9020.82
685.748	9002.07
686.095	8984.21
686.443	8885.91
686.79	8947.15
687.138	8925.46
687.485	8936.3
687.832	8862.41
688.18	8871.22
688.527	8837.32
688.874	8824.22
689.221	8814.27
689.568	8763.65
689.915	8699.93
690.262	8681.4
690.609	8729.98
690.956	8691.79
691.303	8637.56
691.65	8644.33
691.997	8604.79
692.344	8504.68
692.69	8513.72
693.037	8520.27
693.383	8486.82
693.73	8456.09
694.077	8377.22
694.423	8364.12
694.769	8377.9
695.116	8428.75
695.462	8337
695.808	8316.43
696.155	8300.16
696.501	8228.98
696.847	8242.31
697.193	8212.03
697.539	8256.32
697.885	8088.64
698.231	8126.38
698.577	8054.29
698.923	8075.54
699.269	7988.98
699.614	7983.11
699.96	7947.18
700.306	7901.98
700.651	7893.39
700.997	7886.84
701.342	7901.76
701.688	7797.8
702.033	7753.96
702.379	7755.54
702.724	7716.22
703.069	7796.67
703.415	7651.14
703.76	7640.52
704.105	7655.66
704.45	7576.11
704.795	7593.29
705.14	7591.71
705.485	7584.25
705.83	7564.59
706.175	7550.35
706.52	7463.57
706.865	7461.77
707.209	7436.68
707.554	7400.3
707.899	7375.67
708.243	7366.63
708.588	7368.44
708.932	7266.74
709.277	7275.33
709.621	7295.9
709.966	7319.62
710.31	7266.29
710.654	7240.53
710.998	7189.23
711.342	7188.55
711.687	7186.97
712.031	7177.03
712.375	7102.23
712.719	7113.08
713.063	7176.12
713.407	7142.91
713.75	7124.83
714.094	7026.52
714.438	7063.36
714.782	7077.82
715.125	6986.3
715.469	7057.48
715.812	6956.02
716.156	6906.08
716.499	6951.95
716.843	7056.35
717.186	6952.18
717.53	6965.06
717.873	6987.66
718.216	6940.88
718.559	6900.65
718.902	6874.66
719.246	6875.34
719.589	6834.89
719.932	6791.05
720.275	6772.75
720.617	6851.61
720.96	6798.28
721.303	6784.27
721.646	6807.32
721.989	6778.4
722.331	6800.99
722.674	6777.49
723.016	6858.85
723.359	6756.93
723.701	6789.92
724.044	6723.48
724.386	6715.57
724.729	6793.31
725.071	6734.1
725.413	6736.81
725.755	6737.27
726.097	6754.22
726.439	6645.07
726.782	6664.95
727.124	6715.35
727.465	6652.3
727.807	6661.34
728.149	6706.08
728.491	6627.89
728.833	6634.9
729.175	6641.45
729.516	6638.74
729.858	6662.24
730.199	6682.13
730.541	6626.08
730.882	6647.55
731.224	6648.91
731.565	6579.76
731.906	6610.04
732.248	6622.24
732.589	6597.38
732.93	6586.76
733.271	6651.39
733.612	6602.35
733.953	6621.56
734.294	6617.04
734.635	6589.02
734.976	6608.91
735.317	6610.72
735.658	6601.9
735.999	6591.28
736.339	6618.17
736.68	6703.82
737.021	6621.56
737.361	6655.69
737.702	6649.59
738.042	6610.72
738.383	6692.3
738.723	6673.31
739.063	6668.34
739.404	6661.34
739.744	6713.76
740.084	6669.02
740.424	6720.32
740.764	6753.76
741.104	6738.62
741.444	6714.22
741.784	6712.86
742.124	6824.72
742.464	6748.11
742.804	6777.94
743.143	6801.67
743.483	6813.2
743.823	6813.87
744.162	6838.28
744.502	6885.06
744.841	6959.63
745.181	6930.26
745.52	6947.88
745.86	7013.42
746.199	7025.39
746.538	7057.94
746.877	7109.91
747.216	7178.16
747.556	7167.76
747.895	7209.34
748.234	7262.68
748.573	7233.52
748.911	7286.63
749.25	7410.02
749.589	7504.48
749.928	7549.9
750.267	7601.42
750.605	7604.59
750.944	7725.26
751.283	7753.06
751.621	7799.39
751.96	7935.88
752.298	8066.27
752.636	8117.34
752.975	8183.1
753.313	8256.77
753.651	8441.85
753.989	8459.03
754.327	8601.85
754.666	8707.84
755.004	8847.04
755.342	9051.33
755.679	9092.91
756.017	9182.63
756.355	9381.72
756.693	9456.74
757.031	9641.82
757.368	9688.83
757.706	9899.9
758.044	10001.59
758.381	10273.9
758.719	10402.93
759.056	10517.96
759.394	10694.22
759.731	10773.77
760.068	10975.57
760.405	11160.65
760.743	11326.3
761.08	11530.36
761.417	11667.08
761.754	11893.97
762.091	12090.12
762.428	12161.53
762.765	12312.49
763.102	12472.71
763.438	12673.16
763.775	12888.07
764.112	13094.16
764.449	13282.18
764.785	13387.26
765.122	13514.26
765.458	13716.52
765.795	13880.36
