Data from hue_300_FLMS001491_00028.txt Node
Date: Tue Feb 07 15:50:31 GMT 2017
User: dcchb
Spectrometer: FLMS00149
Trigger mode: 0
Integration Time (sec): 2.000000E-2
Scans to average: 10
Electric dark correction enabled: true
Nonlinearity correction enabled: false
Boxcar width: 0
XAxis mode: Wavelengths
Number of Pixels in Spectrum: 2048
>>>>>Begin Spectral Data<<<<<
341.393	-17.43
341.776	-17.43
342.16	-17.43
342.543	-53.36
342.927	-77.54
343.31	-47.03
343.693	-77.54
344.077	-66.92
344.46	-70.76
344.843	-61.27
345.226	-47.48
345.61	-23.08
345.993	-20.37
346.376	-8.16
346.759	12.85
347.142	31.38
347.525	59.63
347.908	53.53
348.291	74.32
348.674	79.74
349.057	111.16
349.44	136.69
349.823	133.53
350.206	162.23
350.588	191.83
350.971	204.03
351.354	215.56
351.737	211.04
352.119	233.41
352.502	240.64
352.884	271.38
353.267	279.74
353.65	286.07
354.032	280.42
354.414	277.25
354.797	312.28
355.179	314.77
355.562	326.06
355.944	320.87
356.326	331.71
356.709	335.33
357.091	314.77
357.473	326.97
357.855	338.95
358.238	328.55
358.62	357.48
359.002	331.71
359.384	344.37
359.766	348.89
360.148	323.81
360.53	323.13
360.912	305.73
361.294	339.17
361.676	309.34
362.057	300.75
362.439	327.65
362.821	326.52
363.203	309.12
363.584	313.64
363.966	302.34
364.348	314.09
364.729	319.74
365.111	323.81
365.493	302.56
365.874	329.68
366.256	310.47
366.637	317.48
367.019	288.1
367.4	314.09
367.781	314.54
368.163	295.11
368.544	296.24
368.925	307.31
369.306	307.99
369.688	281.09
370.069	303.47
370.45	291.49
370.831	303.92
371.212	301.43
371.593	331.04
371.974	302.34
372.355	301.66
372.736	315.9
373.117	310.25
373.498	298.95
373.879	325.61
374.26	312.73
374.641	289.91
375.021	306.86
375.402	304.14
375.783	323.58
376.163	322
376.544	321.09
376.925	338.27
377.305	321.77
377.686	326.06
378.066	330.58
378.447	318.38
378.827	329.68
379.208	355.89
379.588	322.9
379.968	335.56
380.349	339.17
380.729	326.06
381.109	354.99
381.489	345.5
381.87	335.33
382.25	325.61
382.63	350.02
383.01	336.23
383.39	333.3
383.77	334.88
384.15	328.78
384.53	325.16
384.91	328.32
385.29	352.28
385.67	351.83
386.049	339.4
386.429	364.71
386.809	351.83
387.189	337.14
387.568	362
387.948	341.66
388.328	335.33
388.707	359.28
389.087	348.44
389.466	356.57
389.846	361.54
390.225	363.13
390.605	355.22
390.984	349.34
391.363	363.35
391.743	388.21
392.122	368.55
392.501	370.81
392.881	389.57
393.26	373.07
393.639	385.95
394.018	359.28
394.397	390.24
394.776	376.23
395.155	387.76
395.534	389.11
395.913	375.1
396.292	383.01
396.671	410.81
397.05	394.09
397.429	385.95
397.808	377.36
398.186	391.83
398.565	409.23
398.944	404.03
399.323	410.36
399.701	402
400.08	397.7
400.458	422.79
400.837	427.31
401.215	416.68
401.594	411.71
401.972	397.48
402.351	430.69
402.729	423.46
403.107	431.37
403.486	415.33
403.864	445.84
404.242	435.89
404.62	437.25
404.999	441.09
405.377	486.74
405.755	462.56
406.133	454.2
406.511	481.32
406.889	468.43
407.267	458.72
407.645	455.55
408.023	498.04
408.401	499.39
408.779	475.67
409.156	498.49
409.534	502.11
409.912	494.2
410.29	500.3
410.667	513.4
411.045	527.87
411.422	509.79
411.8	536
412.178	547.08
412.555	545.49
412.933	573.29
413.31	569.22
413.687	586.85
414.065	577.58
414.442	600.18
414.819	622.33
415.197	609.67
415.574	630.46
415.951	647.64
416.328	621.65
416.705	634.08
417.082	649.67
417.46	653.06
417.837	655.77
418.214	668.88
418.591	690.12
418.967	672.04
419.344	693.06
419.721	692.83
420.098	725.83
420.475	710.69
420.852	726.73
421.228	748.65
421.605	726.28
421.982	760.86
422.358	774.87
422.735	759.05
423.111	789.33
423.488	791.36
423.864	794.53
424.241	823
424.617	814.19
424.994	821.19
425.37	817.35
425.746	824.58
426.123	833.4
426.499	862.1
426.875	863.68
427.251	879.95
427.627	901.42
428.003	911.59
428.379	929.66
428.756	898.48
429.132	931.02
429.507	955.2
429.883	961.98
430.259	976.44
430.635	958.14
431.011	985.03
431.387	979.83
431.763	1022.09
432.138	1022.09
432.514	1040.62
432.89	1052.37
433.265	1068.42
433.641	1067.29
434.016	1095.08
434.392	1092.37
434.767	1128.53
435.143	1123.78
435.518	1128.98
435.894	1149.77
436.269	1152.94
436.644	1167.4
437.02	1173.95
437.395	1194.06
437.77	1201.52
438.145	1192.48
438.52	1220.5
438.895	1208.3
439.271	1220.73
439.646	1255.31
440.021	1261.18
440.395	1273.61
440.77	1258.92
441.145	1259.15
441.52	1294.18
441.895	1301.18
442.27	1290.11
442.645	1287.17
443.019	1296.89
443.394	1296.43
443.769	1315.64
444.143	1311.12
444.518	1310.9
444.892	1345.47
445.267	1371.46
445.641	1335.98
446.016	1338.02
446.39	1331.01
446.764	1345.25
447.139	1342.31
447.513	1381.86
447.887	1354.06
448.262	1392.48
448.636	1389.77
449.01	1403.78
449.384	1391.35
449.758	1383.21
450.132	1432.02
450.506	1408.97
450.88	1460.5
451.254	1435.19
451.628	1454.85
452.002	1458.92
452.376	1464.57
452.75	1484.68
453.123	1485.58
453.497	1479.93
453.871	1503.44
454.244	1514.28
454.618	1505.24
454.992	1526.03
455.365	1540.04
455.739	1548.63
456.112	1549.08
456.486	1575.07
456.859	1554.51
457.232	1583.66
457.606	1585.69
457.979	1598.8
458.352	1619.14
458.725	1634.28
459.099	1667.72
459.472	1678.57
459.845	1690.55
460.218	1656.2
460.591	1718.34
460.964	1716.08
461.337	1723.77
461.71	1718.34
462.083	1752.02
462.456	1750.21
462.829	1768.96
463.201	1786.59
463.574	1769.42
463.947	1844.44
464.32	1828.62
464.692	1839.7
465.065	1830.88
465.438	1888.51
465.81	1878.57
466.183	1886.48
466.555	1906.59
466.928	1885.35
467.3	1917.89
467.672	1931.45
468.045	1976.64
468.417	1971.67
468.789	1956.98
469.161	1986.13
469.534	2034.04
469.906	2033.36
470.278	2066.13
470.65	2049.41
471.022	2120.14
471.394	2140.25
471.766	2130.76
472.138	2133.7
472.51	2194.26
472.882	2194.04
473.253	2218.67
473.625	2232.91
473.997	2290.08
474.369	2279.69
474.74	2272.91
475.112	2290.98
475.484	2308.39
475.855	2352
476.227	2417.99
476.598	2420.7
476.97	2433.13
477.341	2488.95
477.713	2461.83
478.084	2505.22
478.455	2566.68
478.827	2545.89
479.198	2581.6
479.569	2585.67
479.94	2661.14
480.311	2654.37
480.682	2728.71
481.053	2775.94
481.424	2775.49
481.795	2820.01
482.166	2799.22
482.537	2837.41
482.908	2925.77
483.279	2892.1
483.65	2942.95
484.021	2970.74
484.391	3013.23
484.762	3061.36
485.133	3027.01
485.503	3079.66
485.874	3113.56
486.244	3132.32
486.615	3119.89
486.985	3161.92
487.356	3211.64
487.726	3255.93
488.097	3301.58
488.467	3296.61
488.837	3328.02
489.207	3367.11
489.578	3425.42
489.948	3403.72
490.318	3433.33
490.688	3448.02
491.058	3507.22
491.428	3512.87
491.798	3481.69
492.168	3591.52
492.538	3573.21
492.908	3659.08
493.278	3655.69
493.648	3629.71
494.017	3671.51
494.387	3700.21
494.757	3737.73
495.126	3752.64
495.496	3757.84
495.866	3746.31
496.235	3778.4
496.605	3848.46
496.974	3822.02
497.344	3879.64
497.713	3862.47
498.082	3898.4
498.452	3928.23
498.821	3925.29
499.19	3964.61
499.559	3960.09
499.928	4011.39
500.298	3976.14
500.667	4022.69
501.036	4007.78
501.405	4041.9
501.774	4030.15
502.143	4104.04
502.512	4046.19
502.88	4143.59
503.249	4119.41
503.618	4092.75
503.987	4132.74
504.356	4122.8
504.724	4141.11
505.093	4171.84
505.462	4204.15
505.83	4245.28
506.199	4225.85
506.567	4240.54
506.936	4234.89
507.304	4302.91
507.672	4271.27
508.041	4286.19
508.409	4347.2
508.777	4344.94
509.145	4353.76
509.514	4368.9
509.882	4391.95
510.25	4346.07
510.618	4406.86
510.986	4429.69
511.354	4426.07
511.722	4454.54
512.09	4512.85
512.458	4513.53
512.826	4486.18
513.193	4548.78
513.561	4538.16
513.929	4562.79
514.297	4555.11
514.664	4577.7
515.032	4539.06
515.4	4587.2
515.767	4591.94
516.135	4627.87
516.502	4599.62
516.869	4661.09
517.237	4625.61
517.604	4618.61
517.972	4672.84
518.339	4672.84
518.706	4708.1
519.073	4659.51
519.44	4730.69
519.808	4764.82
520.175	4724.37
520.542	4820.41
520.909	4753.29
521.276	4774.31
521.643	4819.51
522.009	4855.66
522.376	4845.95
522.743	4853.4
523.11	4882.33
523.477	4925.49
523.843	4908.09
524.21	4937.92
524.577	4981.31
524.943	4994.19
525.31	5049.33
525.676	5077.35
526.043	5031.25
526.409	5124.13
526.776	5153.73
527.142	5161.64
527.508	5150.57
527.874	5182.43
528.241	5243.45
528.607	5205.03
528.973	5256.56
529.339	5261.53
529.705	5323.22
530.071	5253.39
530.437	5354.18
530.803	5368.87
531.169	5419.04
531.535	5392.82
531.901	5415.87
532.267	5380.17
532.632	5490.67
532.998	5449.55
533.364	5492.48
533.73	5524.12
534.095	5585.36
534.461	5576.55
534.826	5567.73
535.192	5645.25
535.557	5665.13
535.923	5692.7
536.288	5687.96
536.653	5718.01
537.019	5708.75
537.384	5724.12
537.749	5788.07
538.114	5805.02
538.479	5821.29
538.845	5825.36
539.21	5834.17
539.575	5898.35
539.94	5861.96
540.305	5975.86
540.67	5918.69
541.034	5982.41
541.399	5991.9
541.764	5999.36
542.129	6016.76
542.494	6042.75
542.858	6132.92
543.223	6068.29
543.587	6193.71
543.952	6111.68
544.316	6155.52
544.681	6205.91
545.045	6196.64
545.41	6251.11
545.774	6283.2
546.138	6290.88
546.503	6331.1
546.867	6291.11
547.231	6388.28
547.595	6410.42
547.959	6356.41
548.324	6348.05
548.688	6389.86
549.052	6487.71
549.416	6469.63
549.779	6473.7
550.143	6489.74
550.507	6573.58
550.871	6619.23
551.235	6601.83
551.599	6577.43
551.962	6655.16
552.326	6669.63
552.689	6706.24
553.053	6625.79
553.417	6637.76
553.78	6786.69
554.143	6750.3
554.507	6734.71
554.87	6748.95
555.234	6887.7
555.597	6790.08
555.96	6848.38
556.323	6780.81
556.686	6858.77
557.05	6891.32
557.413	6890.19
557.776	6898.1
558.139	7022.39
558.502	6975.61
558.865	6967.02
559.228	7058.77
559.59	7027.36
559.953	7047.24
560.316	7077.3
560.679	7085.44
561.041	7156.39
561.404	7160.69
561.767	7179.44
562.129	7206.79
562.492	7248.82
562.854	7258.31
563.217	7234.13
563.579	7279.55
563.941	7267.13
564.304	7384.86
564.666	7332.21
565.028	7380.12
565.39	7485.88
565.753	7394.58
566.115	7473.22
566.477	7537.4
566.839	7490.17
567.201	7541.69
567.563	7610.85
567.925	7616.27
568.287	7668.92
568.648	7627.12
569.01	7703.5
569.372	7728.81
569.734	7737.17
570.095	7789.37
570.457	7860.1
570.819	7886.54
571.18	7873.89
571.542	7921.12
571.903	7943.04
572.265	8002.7
572.626	8032.53
572.987	8065.3
573.349	8131.96
573.71	8209.02
574.071	8162.92
574.432	8262.35
574.794	8344.84
575.155	8327.66
575.516	8377.83
575.877	8519.52
576.238	8555
576.599	8683.59
576.96	8677.71
577.32	8763.81
577.681	8834.77
578.042	8954.76
578.403	9016.46
578.763	9099.17
579.124	9168.09
579.485	9334.87
579.845	9373.28
580.206	9547.29
580.566	9589.55
580.927	9787.51
581.287	9911.12
581.648	9986.83
582.008	10161.51
582.368	10268.4
582.728	10505.23
583.089	10630.43
583.449	10763.76
583.809	10968.04
584.169	11190.19
584.529	11221.15
584.889	11563.96
585.249	11713.11
585.609	11922.6
585.969	12188.13
586.329	12352.19
586.688	12572.75
587.048	12850.71
587.408	13012.28
587.768	13314.65
588.127	13525.94
588.487	13752.6
588.846	14089.32
589.206	14339.48
589.565	14581.28
589.925	14913.7
590.284	15052.01
590.643	15435.05
591.003	15668.03
591.362	15975.14
591.721	16183.5
592.08	16508.69
592.44	16870.04
592.799	17101.22
593.158	17364.03
593.517	17766.28
593.876	18082.66
594.235	18332.6
594.593	18573.27
594.952	18977.1
595.311	19209.18
595.67	19595.61
596.029	20008.49
596.387	20322.15
596.746	20563.5
597.104	20715.36
597.463	21110.15
597.822	21456.13
598.18	21690.02
598.538	22044.14
598.897	22430.12
599.255	22519.83
599.613	23089.99
599.972	23231.9
600.33	23515.29
600.688	23827.82
601.046	24249.05
601.404	24488.37
601.762	24696.95
602.12	25175.35
602.478	25407.89
602.836	25646.3
603.194	25799.29
603.552	26144.37
603.91	26271.82
604.268	26531.93
604.625	26817.57
604.983	27086.72
605.341	27222.53
605.698	27583.88
606.056	27928.95
606.413	28098.89
606.771	28458.88
607.128	28741.81
607.485	28784.75
607.843	29090.28
608.2	29311.97
608.557	29744.95
608.914	29715.57
609.272	30090.48
609.629	30313.3
609.986	30674.19
610.343	30708.54
610.7	31155.99
611.057	31398.24
611.414	31504.91
611.771	31595.53
612.127	31968.4
612.484	32073.93
612.841	32224.66
613.198	32298.78
613.554	32482.96
613.911	32874.36
614.267	32805.89
614.624	33159.33
614.98	33274.8
615.337	33574.91
615.693	33695.81
616.05	33698.75
616.406	34133.54
616.762	34052.18
617.118	34253.31
617.475	34347.77
617.831	34589.8
618.187	34804.71
618.543	34869.34
618.899	35204.02
619.255	35124.47
619.611	35181.65
619.967	35295.09
620.323	35602.2
620.678	35501.86
621.034	35541.64
621.39	35787.05
621.746	35893.94
622.101	36207.83
622.457	36112.24
622.812	36327.15
623.168	36384.78
623.523	36500.71
623.879	36639.91
624.234	36528.73
624.589	36808.72
624.945	36836.97
625.3	36906.57
625.655	36955.16
626.01	37041.26
626.365	37021.82
626.72	37190.86
627.075	37372.77
627.43	37436.28
627.785	37269.27
628.14	37448.48
628.495	37502.04
628.85	37631.75
629.205	37405.09
629.559	37803.05
629.914	37616.61
630.269	37700.45
630.623	37534.13
630.978	37580.23
631.332	37918.3
631.687	37923.04
632.041	37768.24
632.396	37800.79
632.75	37714.69
633.104	38059.54
633.459	37845.3
633.813	37889.14
634.167	37956.49
634.521	37940.9
634.875	38029.03
635.229	37900.44
635.583	37836.49
635.937	37872.2
636.291	37849.6
636.645	37966.43
636.999	37835.36
637.352	38041.01
637.706	37845.53
638.06	38029.93
638.413	37799.2
638.767	37777.74
639.121	37947.9
639.474	37762.37
639.828	37799.66
640.181	37997.62
640.534	37973.21
640.888	37835.59
641.241	37635.82
641.594	37766.21
641.947	38004.85
642.301	37852.76
642.654	37736.61
643.007	37842.14
643.36	37805.53
643.713	37622.94
644.066	37878.52
644.419	37700.9
644.771	37534.58
645.124	37206.45
645.477	37183.4
645.83	36996.74
646.182	36881.71
646.535	36776.41
646.888	36822.28
647.24	36607.6
647.593	36969.62
647.945	36850.08
648.298	36677.65
648.65	36646.01
649.002	36489.63
649.355	36774.15
649.707	36732.79
650.059	36710.42
650.411	37278.31
650.763	37365.32
651.115	37725.31
651.467	37494.81
651.819	37553.11
652.171	37531.41
652.523	37388.14
652.875	37393.34
653.227	37265.88
653.578	37525.76
653.93	37381.81
654.282	37331.19
654.633	37137.98
654.985	37280.12
655.337	37312.21
655.688	37447.8
656.039	37617.06
656.391	37352.66
656.742	37228.6
657.094	37295.49
657.445	37400.57
657.796	37337.97
658.147	37393.56
658.498	37336.17
658.849	37182.95
659.2	37255.49
659.551	37150.41
659.902	37369.84
660.253	37263.62
660.604	37343.85
660.955	37137.3
661.306	37289.16
661.656	37161.25
662.007	37097.98
662.358	37233.34
662.708	37206.23
663.059	37221.14
663.409	37011.65
663.76	37216.39
664.11	37155.38
664.461	37209.84
664.811	37250.29
665.161	37194.93
665.511	37062.95
665.862	37024.08
666.212	37140.46
666.562	37288.48
666.912	37233.57
667.262	37241.03
667.612	37220.91
667.962	37170.97
668.312	37116.74
668.662	37430.17
669.011	37178.88
669.361	37147.47
669.711	37171.88
670.06	37014.37
670.41	36969.62
670.76	37021.15
671.109	37051.88
671.459	37041.03
671.808	37027.92
672.157	36848.49
672.507	36838.33
672.856	36875.16
673.205	36933.24
673.554	36926.23
673.904	36969.62
674.253	37108.15
674.602	36878.78
674.951	36434.49
675.3	36170.09
675.649	36805.11
675.998	36723.98
676.346	36798.55
676.695	36878.78
677.044	36662.06
677.393	36686.69
677.741	36763.75
678.09	36707.03
678.438	36633.36
678.787	36655.28
679.135	36749.74
679.484	36413.93
679.832	36502.06
680.181	36329.19
680.529	36366.47
680.877	36393.37
681.225	36399.24
681.573	36548.16
681.922	36217.78
682.27	36224.1
682.618	36166.7
682.966	36029.98
683.314	36206.48
683.661	36020.04
684.009	35885.36
684.357	35848.97
684.705	35793.38
685.053	35830.22
685.4	35827.96
685.748	35581.18
686.095	35583.67
686.443	35485.14
686.79	35485.37
687.138	35499.83
687.485	35453.95
687.832	35314.52
688.18	35450.34
688.527	35126.51
688.874	35120.4
689.221	35087.41
689.568	34957.47
689.915	34974.19
690.262	34934.65
690.609	34751.37
690.956	34709.57
691.303	34675.9
691.65	34490.82
691.997	34644.03
692.344	34332.85
692.69	34283.36
693.037	34322.01
693.383	33983.48
693.73	34245.17
694.077	34131.73
694.423	33991.39
694.769	33954.11
695.116	33797.05
695.462	33826.88
695.808	33687.9
696.155	33743.49
696.501	33406.33
696.847	33408.36
697.193	33283.16
697.539	33399.55
697.885	33131.76
698.231	33000.23
698.577	33069.16
698.923	33037.07
699.269	32919.11
699.614	32629.17
699.96	32695.61
700.306	32643.63
700.651	32425.11
700.997	32421.72
701.342	32412.45
701.688	32379.69
702.033	32245.23
702.379	32086.36
702.724	32034.16
703.069	32100.37
703.415	31817.44
703.76	31711
704.105	31757.55
704.45	31730.89
704.795	31480.5
705.14	31362.76
705.485	31382.65
705.83	31322.09
706.175	31345.59
706.52	31279.83
706.865	31104.46
707.209	31124.8
707.554	31134.75
707.899	31157.8
708.243	30818.37
708.588	30796.9
708.932	30584.25
709.277	30732.5
709.621	30626.74
709.966	30426.52
710.31	30489.34
710.654	30278.72
710.998	30300.64
711.342	30265.84
711.687	30248.89
712.031	30032.4
712.375	30015
712.719	30045.51
713.063	29946.53
713.407	29953.76
713.75	29878.06
714.094	29822.69
714.438	29715.57
714.782	29654.11
715.125	29476.26
715.469	29733.88
715.812	29375.47
716.156	29304.29
716.499	29428.8
716.843	29472.64
717.186	29193.55
717.53	29362.82
717.873	29403.49
718.216	29268.35
718.559	29061.58
718.902	29005.08
719.246	29019.32
719.589	28975.71
719.932	28881.02
720.275	28951.07
720.617	28751.31
720.96	28702.72
721.303	28687.35
721.646	28714.7
721.989	28539.33
722.331	28547.24
722.674	28544.98
723.016	28562.16
723.359	28460.47
723.701	28510.63
724.044	28242.84
724.386	28209.4
724.729	28290.75
725.071	28254.6
725.413	28152.45
725.755	28135.05
726.097	27996.3
726.439	28040.14
726.782	27875.85
727.124	27870.43
727.465	27827.26
727.807	27924.21
728.149	27781.16
728.491	27762.63
728.833	27818.68
729.175	27617.32
729.516	27649.64
729.858	27503.88
730.199	27647.38
730.541	27519.47
730.882	27501.62
731.224	27662.52
731.565	27455.3
731.906	27348.18
732.248	27344.56
732.589	27196.54
732.93	27187.96
733.271	27221.63
733.612	27205.81
733.953	27178.24
734.294	27099.15
734.635	26992.48
734.976	27059.6
735.317	26899.6
735.658	27015.53
735.999	26920.39
736.339	26945.93
736.68	27032.71
737.021	26907.74
737.361	26690.57
737.702	26932.37
738.042	26790.68
738.383	26717.01
738.723	26759.27
739.063	26589.56
739.404	26766.95
739.744	26653.96
740.084	26588.88
740.424	26581.65
740.764	26549.33
741.104	26540.06
741.444	26501.2
741.784	26371.71
742.124	26414.19
742.464	26366.51
742.804	26375.1
743.143	26271.37
743.483	26204.48
743.823	26114.31
744.162	26180.53
744.502	26235.67
744.841	26131.26
745.181	26257.36
745.52	26113.64
745.86	26046.07
746.199	26079.74
746.538	25919.74
746.877	26006.29
747.216	25980.31
747.556	25818.73
747.895	25892.62
748.234	25807.88
748.573	25805.39
748.911	25821.67
749.25	25684.27
749.589	25738.73
749.928	25666.19
750.267	25685.4
750.605	25610.15
750.944	25545.74
751.283	25558.62
751.621	25493.09
751.96	25468.23
752.298	25479.75
752.636	25470.04
752.975	25239.08
753.313	25194.11
753.651	25329.93
753.989	25356.14
754.327	25125.64
754.666	25228.23
755.004	25126.77
755.342	25226.65
755.679	25046.32
756.017	24936.04
756.355	25071.85
756.693	24891.75
757.031	24947.79
757.368	24779.43
757.706	24849.26
758.044	24762.94
758.381	24820.79
758.719	24776.5
759.056	24705.76
759.394	24681.58
