Data from hue_140_FLMS001491_00093.txt Node
Date: Tue Feb 07 16:56:40 GMT 2017
User: dcchb
Spectrometer: FLMS00149
Trigger mode: 0
Integration Time (sec): 2.000000E-2
Scans to average: 10
Electric dark correction enabled: true
Nonlinearity correction enabled: false
Boxcar width: 0
XAxis mode: Wavelengths
Number of Pixels in Spectrum: 2048
>>>>>Begin Spectral Data<<<<<
341.393	-17.03
341.776	-17.03
342.16	-17.03
342.543	-55.22
342.927	-39.18
343.31	-62
343.693	-45.73
344.077	-73.3
344.46	-80.31
344.843	-68.11
345.226	-39.63
345.61	-27.43
345.993	-17.03
346.376	-3.7
346.759	19.58
347.142	32.23
347.525	27.03
347.908	69.52
348.291	76.98
348.674	84.66
349.057	107.26
349.44	129.86
349.823	131.89
350.206	170.76
350.588	200.59
350.971	194.03
351.354	234.49
351.737	253.02
352.119	249.4
352.502	264.09
352.884	276.74
353.267	287.14
353.65	276.74
354.032	298.66
354.414	318.55
354.797	307.93
355.179	327.59
355.562	308.16
355.944	332.56
356.326	338.66
356.709	322.17
357.091	342.73
357.473	349.51
357.855	297.31
358.238	341.83
358.62	321.49
359.002	322.84
359.384	340.02
359.766	342.05
360.148	331.66
360.53	355.84
360.912	338.21
361.294	332.79
361.676	332.34
362.057	346.57
362.439	319.68
362.821	323.3
363.203	328.49
363.584	328.04
363.966	325.33
364.348	316.97
364.729	326.91
365.111	320.36
365.493	327.36
365.874	302.28
366.256	307.7
366.637	310.87
367.019	305.44
367.4	334.6
367.781	303.64
368.163	307.93
368.544	303.41
368.925	301.38
369.306	333.69
369.688	324.2
370.069	332.56
370.45	313.35
370.831	337.53
371.212	321.71
371.593	304.09
371.974	326.01
372.355	316.52
372.736	326.01
373.117	315.61
373.498	327.14
373.879	329.4
374.26	295.27
374.641	305.9
375.021	308.83
375.402	319
375.783	317.87
376.163	327.59
376.544	334.6
376.925	325.78
377.305	333.47
377.686	319.91
378.066	340.25
378.447	333.47
378.827	327.14
379.208	322.84
379.588	338.44
379.968	318.32
380.349	326.01
380.729	322.84
381.109	357.65
381.489	339.34
381.87	321.94
382.25	349.51
382.63	329.4
383.01	336.18
383.39	341.38
383.77	323.3
384.15	345.44
384.53	348.61
384.91	343.64
385.29	368.04
385.67	350.19
386.049	356.74
386.429	374.14
386.809	363.75
387.189	351.09
387.568	360.81
387.948	361.49
388.328	365.33
388.707	354.71
389.087	350.87
389.466	378.21
389.846	374.37
390.225	360.13
390.605	371.88
390.984	375.95
391.363	374.82
391.743	374.14
392.122	351.32
392.501	382.5
392.881	360.58
393.26	383.18
393.639	364.2
394.018	372.11
394.397	391.32
394.776	389.28
395.155	385.89
395.534	388.83
395.913	367.59
396.292	383.63
396.671	366.69
397.05	380.7
397.429	384.31
397.808	399.23
398.186	378.44
398.565	403.29
398.944	394.93
399.323	404.2
399.701	372.11
400.08	384.09
400.458	388.38
400.837	407.14
401.215	401.26
401.594	406.91
401.972	410.98
402.351	407.36
402.729	387.25
403.107	403.75
403.486	414.14
403.864	444.42
404.242	409.85
404.62	406.68
404.999	420.24
405.377	405.78
405.755	431.77
406.133	441.49
406.511	415.27
406.889	429.28
407.267	437.19
407.645	434.25
408.023	465.89
408.401	418.44
408.779	417.98
409.156	441.26
409.534	461.37
409.912	447.36
410.29	468.83
410.667	481.48
411.045	486.46
411.422	481.26
411.8	476.29
412.178	474.25
412.555	486.91
412.933	492.78
413.31	478.77
413.687	474.03
414.065	507.7
414.442	483.52
414.819	495.72
415.197	516.29
415.574	498.66
415.951	486.68
416.328	486.23
416.705	495.95
417.082	538.66
417.46	498.66
417.837	515.61
418.214	525.55
418.591	529.17
418.967	515.38
419.344	518.55
419.721	536.17
420.098	526.68
420.475	539.11
420.852	535.72
421.228	554.25
421.605	544.99
421.982	555.61
422.358	565.78
422.735	552.9
423.111	567.13
423.488	544.53
423.864	557.87
424.241	595.61
424.617	601.26
424.994	550.41
425.37	579.34
425.746	588.6
426.123	601.26
426.499	585.21
426.875	593.12
427.251	600.35
427.627	629.28
428.003	616.17
428.379	632.67
428.756	635.15
429.132	613.68
429.507	627.7
429.883	639.45
430.259	638.99
430.635	646.9
431.011	645.1
431.387	656.4
431.763	629.5
432.138	654.81
432.514	700.91
432.89	677.19
433.265	691.2
433.641	690.07
434.016	715.83
434.392	693
434.767	681.03
435.143	732.55
435.518	704.53
435.894	730.07
436.269	731.65
436.644	730.07
437.02	749.73
437.395	726.9
437.77	746.11
438.145	763.51
438.52	734.36
438.895	773.91
439.271	754.02
439.646	783.4
440.021	796.5
440.395	791.53
440.77	765.32
441.145	782.95
441.52	815.04
441.895	813
442.27	806
442.645	811.19
443.019	833.34
443.394	851.42
443.769	820.46
444.143	834.47
444.518	836.05
444.892	840.8
445.267	842.15
445.641	867.46
446.016	862.49
446.39	837.18
446.764	879.67
447.139	871.08
447.513	871.3
447.887	863.4
448.262	885.32
448.636	911.08
449.01	904.75
449.384	919.67
449.758	911.98
450.132	928.48
450.506	905.2
450.88	942.94
451.254	911.98
451.628	953.34
452.002	955.6
452.376	960.12
452.75	953.56
453.123	964.41
453.497	991.98
453.871	994.47
454.244	993.34
454.618	1015.93
454.992	1038.08
455.365	1029.94
455.739	1052.77
456.112	1078.76
456.486	1066.33
456.859	1076.5
457.232	1115.14
457.606	1085.54
457.979	1120.34
458.352	1124.63
458.725	1137.06
459.099	1136.38
459.472	1191.52
459.845	1184.74
460.218	1180.45
460.591	1208.7
460.964	1200.11
461.337	1232.2
461.71	1248.47
462.083	1290.05
462.456	1263.16
462.829	1311.52
463.201	1345.19
463.574	1302.93
463.947	1351.52
464.32	1356.72
464.692	1377.73
465.065	1384.06
465.438	1398.52
465.81	1428.8
466.183	1444.4
466.555	1480.55
466.928	1496.37
467.3	1535.47
467.672	1544.73
468.045	1601
468.417	1611.4
468.789	1628.8
469.161	1641.91
469.534	1642.58
469.906	1703.83
470.278	1696.14
470.65	1742.47
471.022	1782.24
471.394	1823.6
471.766	1856.14
472.138	1902.01
472.51	1922.8
472.882	1933.2
473.253	2001.22
473.625	2096.81
473.997	2078.05
474.369	2095.91
474.74	2156.47
475.112	2204.38
475.484	2249.12
475.855	2318.95
476.227	2374.77
476.598	2445.5
476.97	2483.47
477.341	2554.65
477.713	2625.38
478.084	2679.17
478.455	2756.9
478.827	2831.48
479.198	2876.45
479.569	2956.67
479.94	3019.27
480.311	3131.58
480.682	3191.92
481.053	3296.78
481.424	3389.88
481.795	3456.55
482.166	3560.27
482.537	3622.19
482.908	3757.56
483.279	3832.36
483.65	3907.61
484.021	4073.71
484.391	4145.34
484.762	4213.82
485.133	4331.55
485.503	4403.42
485.874	4593.24
486.244	4688.15
486.615	4824.42
486.985	4941.25
487.356	5073.45
487.726	5175.82
488.097	5337.85
488.467	5382.6
488.837	5579.66
489.207	5687.45
489.578	5830.04
489.948	5979.19
490.318	6082.92
490.688	6169.24
491.058	6346.42
491.428	6510.03
491.798	6607.43
492.168	6789.57
492.538	6897.14
492.908	7032.72
493.278	7166.96
493.648	7249.44
494.017	7418.25
494.387	7564.01
494.757	7568.76
495.126	7767.85
495.496	7851.23
495.866	8058.23
496.235	8211.45
496.605	8236.99
496.974	8370.99
497.344	8499.8
497.713	8553.36
498.082	8708.84
498.452	8794.26
498.821	8934.14
499.19	9033.12
499.559	9121.94
499.928	9283.51
500.298	9361.25
500.667	9554.69
501.036	9474.02
501.405	9670.62
501.774	9746.78
502.143	9801.69
502.512	9914.91
502.88	10001.23
503.249	10024.74
503.618	10111.51
503.987	10268.57
504.356	10282.81
504.724	10435.12
505.093	10471.5
505.462	10524.84
505.83	10640.54
506.199	10710.37
506.567	10796.69
506.936	10823.36
507.304	10973.41
507.672	11036.91
508.041	11083.01
508.409	11212.28
508.777	11181.32
509.145	11354.87
509.514	11379.73
509.882	11411.59
510.25	11469.9
510.618	11554.64
510.986	11564.36
511.354	11720.96
511.722	11728.87
512.09	11831.24
512.458	11802.99
512.826	12028.53
513.193	11918.25
513.561	12020.16
513.929	12031.92
514.297	12088.86
514.664	12153.95
515.032	12185.58
515.4	12311
515.767	12257.45
516.135	12341.06
516.502	12194.62
516.869	12456.76
517.237	12456.76
517.604	12449.98
517.972	12535.86
518.339	12614.05
518.706	12572.24
519.073	12654.05
519.44	12669.19
519.808	12774.95
520.175	12660.15
520.542	12835.96
520.909	12888.16
521.276	12781.27
521.643	12966.13
522.009	12948.5
522.376	12932.68
522.743	13076.63
523.11	13066.24
523.477	13182.62
523.843	13145.33
524.21	13280.92
524.577	13194.37
524.943	13254.71
525.31	13260.58
525.676	13369.96
526.043	13427.36
526.409	13424.2
526.776	13486.79
527.142	13475.04
527.508	13488.37
527.874	13557.75
528.241	13525.21
528.607	13562.5
528.973	13573.57
529.339	13521.82
529.705	13615.83
530.071	13630.52
530.437	13650.18
530.803	13620.57
531.169	13692.89
531.535	13608.6
531.901	13578.32
532.267	13624.87
532.632	13628.03
532.998	13669.61
533.364	13575.6
533.73	13591.65
534.095	13547.13
534.461	13618.99
534.826	13552.33
535.192	13570.86
535.557	13669.16
535.923	13519.56
536.288	13487.47
536.653	13506
537.019	13448.6
537.384	13465.55
537.749	13528.6
538.114	13495.15
538.479	13369.06
538.845	13366.12
539.21	13295.84
539.575	13371.77
539.94	13259
540.305	13332.22
540.67	13343.75
541.034	13186.46
541.399	13242.96
541.764	13195.73
542.129	13140.36
542.494	13087.03
542.858	13096.97
543.223	13037.09
543.587	13130.42
543.952	13032.57
544.316	12947.6
544.681	12935.62
545.045	12903.53
545.41	12982.4
545.774	12936.07
546.138	12819.92
546.503	12819.69
546.867	12751.44
547.231	12795.06
547.595	12740.82
547.959	12690.2
548.324	12723.87
548.688	12657.66
549.052	12676.87
549.416	12547.16
549.779	12520.04
550.143	12517.1
550.507	12645.01
550.871	12515.52
551.235	12386.71
551.599	12534.73
551.962	12426.93
552.326	12343.09
552.689	12448.85
553.053	12334.73
553.417	12305.58
553.78	12460.15
554.143	12302.87
554.507	12279.82
554.87	12245.24
555.234	12435.29
555.597	12226.26
555.96	12254.28
556.323	12209.09
556.686	12220.16
557.05	12194.62
557.413	12269.42
557.776	12195.53
558.139	12186.04
558.502	12173.38
558.865	12184.91
559.228	12207.73
559.59	12189.88
559.953	12143.32
560.316	12225.81
560.679	12226.49
561.041	12192.14
561.404	12265.36
561.767	12258.12
562.129	12190.56
562.492	12260.84
562.854	12190.56
563.217	12195.3
563.579	12219.03
563.941	12213.83
564.304	12187.84
564.666	12317.56
565.028	12294.28
565.39	12244.34
565.753	12313.94
566.115	12319.59
566.477	12334.73
566.839	12294.96
567.201	12368.86
567.563	12379.48
567.925	12361.17
568.287	12425.35
568.648	12388.74
569.01	12387.84
569.372	12445.46
569.734	12385.13
570.095	12413.37
570.457	12551.45
570.819	12548.51
571.18	12506.93
571.542	12441.4
571.903	12578.34
572.265	12520.04
572.626	12438.91
572.987	12574.05
573.349	12529.76
573.71	12511.22
574.071	12536.99
574.432	12570.43
574.794	12621.96
575.155	12611.11
575.516	12571.34
575.877	12629.87
576.238	12565.91
576.599	12674.61
576.96	12645.91
577.32	12672.8
577.681	12622.41
578.042	12638.45
578.403	12553.03
578.763	12621.28
579.124	12597.55
579.485	12632.13
579.845	12612.46
580.206	12647.72
580.566	12664.22
580.927	12641.62
581.287	12684.1
581.648	12614.72
582.008	12707.38
582.368	12592.13
582.728	12648.17
583.089	12658.11
583.449	12565.01
583.809	12649.3
584.169	12646.81
584.529	12541.73
584.889	12707.6
585.249	12554.84
585.609	12540.38
585.969	12683.2
586.329	12529.76
586.688	12529.53
587.048	12539.92
587.408	12561.39
587.768	12609.08
588.127	12547.83
588.487	12521.62
588.846	12623.99
589.206	12470.77
589.565	12401.62
589.925	12552.13
590.284	12562.97
590.643	12405.46
591.003	12497.21
591.362	12571.34
591.721	12423.77
592.08	12488.17
592.44	12426.48
592.799	12462.86
593.158	12431.9
593.517	12454.28
593.876	12465.58
594.235	12432.81
594.593	12364.79
594.952	12428.06
595.311	12330.44
595.67	12363.43
596.029	12498.34
596.387	12410.44
596.746	12406.37
597.104	12358.23
597.463	12375.86
597.822	12433.94
598.18	12372.02
598.538	12332.47
598.897	12436.42
599.255	12334.73
599.613	12484.33
599.972	12457.89
600.33	12384.45
600.688	12390.32
601.046	12398.01
601.404	12460.83
601.762	12353.49
602.12	12433.03
602.478	12420.38
602.836	12407.72
603.194	12442.75
603.552	12416.31
603.91	12355.07
604.268	12428.06
604.625	12386.93
604.983	12373.38
605.341	12322.08
605.698	12418.57
606.056	12411.57
606.413	12458.34
606.771	12396.65
607.128	12361.85
607.485	12364.34
607.843	12445.01
608.2	12461.51
608.557	12431.68
608.914	12344.68
609.272	12427.16
609.629	12487.5
609.986	12457.21
610.343	12463.99
610.7	12509.87
611.057	12512.35
611.414	12467.84
611.771	12519.59
612.127	12564.78
612.484	12552.81
612.841	12604.56
613.198	12508.29
613.554	12511.22
613.911	12666.02
614.267	12628.96
614.624	12570.21
614.98	12646.36
615.337	12662.18
615.693	12653.59
616.05	12600.94
616.406	12714.16
616.762	12617.89
617.118	12733.59
617.475	12675.51
617.831	12662.18
618.187	12745.12
618.543	12650.66
618.899	12721.39
619.255	12722.52
619.611	12759.13
619.967	12728.62
620.323	12779.24
620.678	12745.34
621.034	12715.51
621.39	12735.85
621.746	12747.6
622.101	12856.07
622.457	12721.61
622.812	12730.65
623.168	12807.04
623.523	12741.95
623.879	12753.7
624.234	12752.12
624.589	12773.82
624.945	12759.58
625.3	12710.77
625.655	12756.19
626.01	12838.22
626.365	12755.74
626.72	12742.18
627.075	12753.48
627.43	12768.85
627.785	12671.22
628.14	12731.11
628.495	12736.08
628.85	12679.81
629.205	12667.15
629.559	12757.09
629.914	12710.99
630.269	12741.95
630.623	12727.49
630.978	12672.35
631.332	12743.08
631.687	12673.93
632.041	12616.76
632.396	12645.68
632.75	12633.26
633.104	12664.67
633.459	12496.31
633.813	12597.1
634.167	12562.52
634.521	12501.73
634.875	12535.86
635.229	12591.67
635.583	12422.19
635.937	12496.08
636.291	12476.2
636.645	12406.82
636.999	12446.37
637.352	12512.81
637.706	12328.18
638.06	12421.06
638.413	12381.28
638.767	12361.4
639.121	12320.72
639.474	12238.01
639.828	12281.63
640.181	12353.26
640.534	12254.06
640.888	12336.31
641.241	12267.39
641.594	12268.97
641.947	12263.55
642.301	12289.31
642.654	12280.04
643.007	12233.04
643.36	12296.54
643.713	12224.23
644.066	12286.37
644.419	12153.72
644.771	12104.91
645.124	12059.71
645.477	11939.94
645.83	11808.87
646.182	11804.8
646.535	11860.17
646.888	11851.81
647.24	11777.68
647.593	11866.95
647.945	11797.57
648.298	11761.19
648.65	11749.21
649.002	11694.52
649.355	11698.59
649.707	11770.45
650.059	11819.04
650.411	11921.64
650.763	11979.94
651.115	12089.99
651.467	12070.33
651.819	12072.37
652.171	12014.51
652.523	11967.51
652.875	11984.46
653.227	11976.1
653.578	12015.42
653.93	12051.12
654.282	11974.06
654.633	11919.15
654.985	12017.68
655.337	12033.05
655.688	11942.65
656.039	11970.45
656.391	11976.32
656.742	12046.6
657.094	11954.63
657.445	12066.94
657.796	12002.54
658.147	12007.51
658.498	12019.71
658.849	12005.7
659.2	11953.95
659.551	11976.78
659.902	12010.9
660.253	12044.57
660.604	12051.35
660.955	12089.99
661.306	12149.2
661.656	12000.28
662.007	12064.46
662.358	11975.65
662.708	12006.83
663.059	12051.8
663.409	11958.47
663.76	12069.43
664.11	12035.53
664.461	12145.13
664.811	12108.07
665.161	12089.31
665.511	12046.38
665.862	12050.67
666.212	12170.67
666.562	12122.99
666.912	12088.86
667.262	12125.7
667.612	12030.11
667.962	12092.48
668.312	12019.49
668.662	12098.13
669.011	12012.03
669.361	12058.36
669.711	12055.42
670.06	12047.51
670.41	12064
670.76	12024.46
671.109	12050.67
671.459	12022.88
671.808	11989.2
672.157	12098.58
672.507	11989.88
672.856	11923.22
673.205	11951.92
673.554	11961.63
673.904	11933.16
674.253	12012.48
674.602	11907.17
674.951	11789.21
675.3	11760.28
675.649	11938.58
675.998	11833.28
676.346	11832.15
676.695	11943.56
677.044	11823.79
677.393	11888.19
677.741	11886.38
678.09	11933.84
678.438	11828.98
678.787	11911.01
679.135	11872.6
679.484	11767.74
679.832	11843.67
680.181	11723.9
680.529	11745.6
680.877	11692.94
681.225	11650.46
681.573	11717.57
681.922	11694.52
682.27	11626.95
682.618	11537.01
682.966	11576.11
683.314	11603.45
683.661	11564.13
684.009	11470.35
684.357	11517.35
684.705	11474.42
685.053	11513.74
685.4	11401.88
685.748	11432.16
686.095	11342.44
686.443	11296.12
686.79	11356.23
687.138	11325.95
687.485	11316.23
687.832	11282.33
688.18	11289.56
688.527	11237.36
688.874	11278.04
689.221	11161.66
689.568	11177.25
689.915	11169.79
690.262	11148.77
690.609	11116.01
690.956	11010.25
691.303	10974.99
691.65	10937.48
691.997	10940.42
692.344	10887.09
692.69	10814.09
693.037	10766.41
693.383	10697.71
693.73	10746.75
694.077	10675.79
694.423	10697.94
694.769	10595.57
695.116	10530.94
695.462	10606.42
695.808	10546.76
696.155	10528.23
696.501	10424.73
696.847	10468.79
697.193	10384.27
697.539	10380.89
697.885	10328.01
698.231	10278.29
698.577	10260.44
698.923	10230.83
699.269	10203.04
699.614	10122.81
699.96	10096.6
700.306	10117.16
700.651	10026.77
700.997	9923.72
701.342	9934.12
701.688	9979.99
702.033	9916.26
702.379	9903.16
702.724	9898.19
703.069	9822.71
703.415	9724.41
703.76	9782.26
704.105	9698.64
704.45	9735.48
704.795	9683.95
705.14	9627.23
705.485	9608.48
705.83	9619.78
706.175	9576.84
706.52	9565.31
706.865	9499.55
707.209	9447.58
707.554	9488.93
707.899	9403.51
708.243	9358.54
708.588	9469.27
708.932	9309.5
709.277	9283.06
709.621	9294.36
709.966	9227.92
710.31	9295.49
710.654	9174.82
710.998	9164.65
711.342	9180.46
711.687	9190.86
712.031	9121.71
712.375	9057.08
712.719	9078.09
713.063	9039.23
713.407	9048.26
713.75	9027.25
714.094	9074.7
714.438	9006.68
714.782	8969.17
715.125	8986.35
715.469	8985.22
715.812	8951.09
716.156	8859.57
716.499	8793.81
716.843	8854.82
717.186	8853.02
717.53	8844.2
717.873	8859.57
718.216	8850.53
718.559	8807.37
718.902	8722.17
719.246	8800.81
719.589	8759.91
719.932	8703.42
720.275	8681.04
720.617	8672.91
720.96	8660.7
721.303	8691.44
721.646	8646.24
721.989	8622.51
722.331	8713.13
722.674	8608.28
723.016	8638.11
723.359	8597.2
723.701	8598.33
724.044	8581.61
724.386	8584.55
724.729	8627.26
725.071	8613.7
725.413	8550.88
725.755	8521.95
726.097	8564.89
726.439	8510.43
726.782	8494.16
727.124	8503.19
727.465	8497.54
727.807	8537.54
728.149	8514.72
728.491	8458.68
728.833	8527.6
729.175	8489.18
729.516	8445.57
729.858	8443.54
730.199	8406.02
730.541	8422.52
730.882	8420.26
731.224	8423.2
731.565	8411.9
731.906	8439.92
732.248	8405.57
732.589	8414.61
732.93	8394.5
733.271	8427.26
733.612	8401.95
733.953	8457.77
734.294	8388.62
734.635	8398.56
734.976	8439.69
735.317	8405.12
735.658	8410.77
735.999	8365.8
736.339	8401.5
736.68	8415.74
737.021	8382.97
737.361	8401.05
737.702	8457.09
738.042	8453.48
738.383	8450.54
738.723	8449.41
739.063	8503.42
739.404	8545
739.744	8449.41
740.084	8463.87
740.424	8498.9
740.764	8502.74
741.104	8564.66
741.444	8496.87
741.784	8551.33
742.124	8518.79
742.464	8469.3
742.804	8554.94
743.143	8573.7
743.483	8593.81
743.823	8599.46
744.162	8609.41
744.502	8716.97
744.841	8662.74
745.181	8740.7
745.52	8753.13
745.86	8769.63
746.199	8828.61
746.538	8845.11
746.877	8882.85
747.216	8977.31
747.556	8974.82
747.895	9090.75
748.234	9106.12
748.573	9088.94
748.911	9135.72
749.25	9257.3
749.589	9271.76
749.928	9376.39
750.267	9445.99
750.605	9466.56
750.944	9555.14
751.283	9641.47
751.621	9697.29
751.96	9707.91
752.298	9879.88
752.636	10047.79
752.975	10062.93
753.313	10136.37
753.651	10219.99
753.989	10271.51
754.327	10397.16
754.666	10459.75
755.004	10680.31
755.342	10765.28
755.679	10837.14
756.017	10944.03
756.355	11129.79
756.693	11196.23
757.031	11350.35
757.368	11415.43
757.706	11617.91
758.044	11704.01
758.381	11912.14
758.719	11984.01
759.056	12173.38
759.394	12351.23
