Data from hue_90_FLMS001491_63.txt Node
Date: Mon Feb 06 15:25:28 GMT 2017
User: dcchb
Spectrometer: FLMS00149
Trigger mode: 0
Integration Time (sec): 2.000000E-2
Scans to average: 10
Electric dark correction enabled: true
Nonlinearity correction enabled: false
Boxcar width: 0
XAxis mode: Wavelengths
Number of Pixels in Spectrum: 2048
>>>>>Begin Spectral Data<<<<<
341.393	-19.22
341.776	-19.22
342.16	-19.22
342.543	-70.52
342.927	-58.54
343.31	-91.99
343.693	-61.03
344.077	-65.32
344.46	-58.54
344.843	-46.34
345.226	-47.24
345.61	-32.56
345.993	-11.54
346.376	-15.61
346.759	8.35
347.142	25.3
347.525	53.77
347.908	59.42
348.291	84.28
348.674	85.86
349.057	113.2
349.44	128.57
349.823	146.42
350.206	165.41
350.588	192.52
350.971	208.34
351.354	240.43
351.737	237.27
352.119	247.44
352.502	258.28
352.884	267.78
353.267	294.67
353.65	270.49
354.032	306.87
354.414	290.37
354.797	323.82
355.179	286.08
355.562	303.71
355.944	338.06
356.326	323.37
356.709	341.67
357.091	324.27
357.473	354.55
357.855	334.67
358.238	345.51
358.62	352.52
359.002	320.88
359.384	335.12
359.766	322.46
360.148	326.98
360.53	330.37
360.912	327.66
361.294	336.7
361.676	323.59
362.057	330.15
362.439	339.41
362.821	311.39
363.203	334.67
363.584	330.6
363.966	319.07
364.348	306.87
364.729	315.46
365.111	331.05
365.493	310.49
365.874	303.93
366.256	300.99
366.637	306.64
367.019	313.2
367.4	304.61
367.781	321.11
368.163	323.14
368.544	313.2
368.925	299.19
369.306	307.77
369.688	300.99
370.069	321.11
370.45	323.14
370.831	312.07
371.212	298.51
371.593	307.1
371.974	310.94
372.355	324.27
372.736	323.14
373.117	296.02
373.498	314.1
373.879	319.3
374.26	334.44
374.641	304.61
375.021	318.62
375.402	340.32
375.783	323.37
376.163	325.63
376.544	310.71
376.925	348.68
377.305	303.25
377.686	323.37
378.066	315.68
378.447	329.92
378.827	356.36
379.208	347.1
379.588	332.86
379.968	323.14
380.349	343.03
380.729	341.9
381.109	304.16
381.489	329.69
381.87	352.97
382.25	344.38
382.63	352.29
383.01	337.83
383.39	339.41
383.77	346.87
384.15	331.73
384.53	338.51
384.91	345.74
385.29	347.77
385.67	357.04
386.049	346.87
386.429	347.77
386.809	357.72
387.189	341.45
387.568	364.72
387.948	358.85
388.328	371.05
388.707	358.62
389.087	343.25
389.466	368.56
389.846	363.82
390.225	353.42
390.605	374.89
390.984	359.98
391.363	363.37
391.743	392.52
392.122	368.56
392.501	377.38
392.881	383.03
393.26	379.18
393.639	373.76
394.018	368.11
394.397	371.95
394.776	394.33
395.155	391.39
395.534	387.09
395.913	388.22
396.292	405.4
396.671	383.7
397.05	401.33
397.429	399.07
397.808	408.11
398.186	404.5
398.565	413.99
398.944	406.08
399.323	426.19
399.701	389.35
400.08	401.56
400.458	421.9
400.837	392.52
401.215	386.64
401.594	390.03
401.972	394.33
402.351	410.14
402.729	408.34
403.107	437.94
403.486	410.37
403.864	428.9
404.242	427.09
404.62	403.37
404.999	429.35
405.377	430.03
405.755	425.96
406.133	435
406.511	425.96
406.889	463.93
407.267	446.53
407.645	444.04
408.023	463.25
408.401	459.86
408.779	444.72
409.156	436.36
409.534	463.48
409.912	465.96
410.29	470.71
410.667	472.97
411.045	483.14
411.422	465.06
411.8	464.15
412.178	487.66
412.555	502.35
412.933	495.34
413.31	482.01
413.687	470.48
414.065	496.92
414.442	476.36
414.819	493.76
415.197	489.24
415.574	515.68
415.951	500.99
416.328	498.5
416.705	503.93
417.082	515.23
417.46	523.36
417.837	521.78
418.214	531.72
418.591	544.38
418.967	550.25
419.344	543.93
419.721	524.72
420.098	537.37
420.475	535.79
420.852	556.81
421.228	557.94
421.605	549.12
421.982	551.38
422.358	561.78
422.735	564.04
423.111	575.79
423.488	580.54
423.864	581.89
424.241	609.91
424.617	593.42
424.994	586.86
425.37	600.65
425.746	604.04
426.123	584.83
426.499	631.38
426.875	619.63
427.251	622.12
427.627	626.64
428.003	639.07
428.379	633.64
428.756	652.85
429.132	634.77
429.507	638.61
429.883	653.08
430.259	650.14
430.635	666.18
431.011	680.42
431.387	696.69
431.763	672.51
432.138	699.63
432.514	705.05
432.89	676.13
433.265	693.53
433.641	726.29
434.016	695.56
434.392	699.63
434.767	713.87
435.143	722.23
435.518	725.39
435.894	749.8
436.269	727.42
436.644	757.48
437.02	756.8
437.395	766.07
437.77	755.45
438.145	795.9
438.52	797.48
438.895	778.95
439.271	757.48
439.646	778.95
440.021	792.06
440.395	809
440.77	808.1
441.145	826.4
441.52	851.04
441.895	839.06
442.27	829.57
442.645	833.86
443.019	843.81
443.394	862.11
443.769	844.03
444.143	849.23
444.518	895.33
444.892	896.46
445.267	888.55
445.641	896.23
446.016	906.18
446.39	904.82
446.764	916.12
447.139	896.01
447.513	926.74
447.887	896.46
448.262	910.92
448.636	950.7
449.01	922.45
449.384	934.88
449.758	957.02
450.132	954.09
450.506	934.42
450.88	965.16
451.254	966.29
451.628	963.8
452.002	1015.1
452.376	986.4
452.75	1009.22
453.123	1020.3
453.497	1024.82
453.871	1033.41
454.244	1051.26
454.618	1065.95
454.992	1048.77
455.365	1080.64
455.739	1099.62
456.112	1110.01
456.486	1078.6
456.859	1122.89
457.232	1155.66
457.606	1135.1
457.979	1176.23
458.352	1166.28
458.725	1188.88
459.099	1201.54
459.472	1219.16
459.845	1224.13
460.218	1259.16
460.591	1258.71
460.964	1240.18
461.337	1285.38
461.71	1326.73
462.083	1313.85
462.456	1327.41
462.829	1331.7
463.201	1370.57
463.574	1394.53
463.947	1401.98
464.32	1434.98
464.692	1447.63
465.065	1474.75
465.438	1471.81
465.81	1523.79
466.183	1531.02
466.555	1570.57
466.928	1571.24
467.3	1570.34
467.672	1608.31
468.045	1675.65
468.417	1651.02
468.789	1687.17
469.161	1703.9
469.534	1723.56
469.906	1791.58
470.278	1800.84
470.65	1812.59
471.022	1890.33
471.394	1926.71
471.766	1937.11
472.138	1984.57
472.51	2007.16
472.882	2060.95
473.253	2091.46
473.625	2136.88
473.997	2188.85
474.369	2238.57
474.74	2239.93
475.112	2326.48
475.484	2368.51
475.855	2458.68
476.227	2469.75
476.598	2546.81
476.97	2601.95
477.341	2686.02
477.713	2750.2
478.084	2789.29
478.455	2908.38
478.827	2948.83
479.198	3086.46
479.569	3113.58
479.94	3214.82
480.311	3255.49
480.682	3422.95
481.053	3500.23
481.424	3606.22
481.795	3694.58
482.166	3758.31
482.537	3819.09
482.908	3960.79
483.279	4073.55
483.65	4176.6
484.021	4272.64
484.391	4407.33
484.762	4497.49
485.133	4580.43
485.503	4710.37
485.874	4872.4
486.244	4995.56
486.615	5127.31
486.985	5250.47
487.356	5382.9
487.726	5446.85
488.097	5707.86
488.467	5779.49
488.837	5920.73
489.207	6098.81
489.578	6226.49
489.948	6353.94
490.318	6555.07
490.688	6620.15
491.058	6806.81
491.428	6953.48
491.798	7067.14
492.168	7255.61
492.538	7406.34
492.908	7501.48
493.278	7679.56
493.648	7805.88
494.017	7966.78
494.387	8152.09
494.757	8203.61
495.126	8379.88
495.496	8489.93
495.866	8598.4
496.235	8733.54
496.605	8918.62
496.974	9058.28
497.344	9226.18
497.713	9270.48
498.082	9460.08
498.452	9557.25
498.821	9657.36
499.19	9806.96
499.559	9943.68
499.928	10030.23
500.298	10179.83
500.667	10329.43
501.036	10286.04
501.405	10447.85
501.774	10596.09
502.143	10627.5
502.512	10780.72
502.88	10926.48
503.249	10935.97
503.618	11084.89
503.987	11084.44
504.356	11273.36
504.724	11399.46
505.093	11365.11
505.462	11501.83
505.83	11619.57
506.199	11783.86
506.567	11925.1
506.936	11903.18
507.304	12044.41
507.672	12075.37
508.041	12099.78
508.409	12247.12
508.777	12306.55
509.145	12523.27
509.514	12407.57
509.882	12532.76
510.25	12594.01
510.618	12705.19
510.986	12670.16
511.354	12778.41
511.722	12892.53
512.09	13103.37
512.458	12999.42
512.826	13029.47
513.193	13196.25
513.561	13179.3
513.929	13307.88
514.297	13451.84
514.664	13444.6
515.032	13505.62
515.4	13484.38
515.767	13534.55
516.135	13591.72
516.502	13566.63
516.869	13738.38
517.237	13774.31
517.604	13817.7
517.972	13840.53
518.339	13978.38
518.706	13934.08
519.073	13960.52
519.44	14042.78
519.808	14204.36
520.175	14014.08
520.542	14243.45
520.909	14205.49
521.276	14171.36
521.643	14304.02
522.009	14396.67
522.376	14373.85
522.743	14398.93
523.11	14640.5
523.477	14586.49
523.843	14624.01
524.21	14748.52
524.577	14752.37
524.943	14776.32
525.31	14852.25
525.676	14880.05
526.043	14961.17
526.409	14837.11
526.776	14963.66
527.142	15007.95
527.508	14981.74
527.874	15074.17
528.241	15135.86
528.607	15010.89
528.973	15119.14
529.339	15134.28
529.705	15112.13
530.071	15169.53
530.437	15229.19
530.803	15245.46
531.169	15204.11
531.535	15219.02
531.901	15163.2
532.267	15165.91
532.632	15275.29
532.998	15227.38
533.364	15224.44
533.73	15211.34
534.095	15226.48
534.461	15186.93
534.826	15267.16
535.192	15209.98
535.557	15146.93
535.923	15168.4
536.288	15227.38
536.653	15219.92
537.019	15016.54
537.384	15087.05
537.749	15022.64
538.114	15063.09
538.479	14959.37
538.845	15079.14
539.21	14952.36
539.575	14908.07
539.94	14929.54
540.305	14962.76
540.67	14828.07
541.034	14830.56
541.399	14791.01
541.764	14775.64
542.129	14738.36
542.494	14802.53
542.858	14702.42
543.223	14739.94
543.587	14717.34
543.952	14614.74
544.316	14638.25
544.681	14554.63
545.045	14579.72
545.41	14541.07
545.774	14627.85
546.138	14454.07
546.503	14467.85
546.867	14371.81
547.231	14461.3
547.595	14295.2
547.959	14344.69
548.324	14255.66
548.688	14317.12
549.052	14295.43
549.416	14237.58
549.779	14158.03
550.143	14115.09
550.507	14136.11
550.871	14108.32
551.235	14078.26
551.599	14067.41
551.962	14054.98
552.326	14063.57
552.689	14061.76
553.053	13949
553.417	13866.06
553.78	14066.28
554.143	13885.5
554.507	13864.25
554.87	13886.17
555.234	13926.17
555.597	13856.57
555.96	13816.8
556.323	13821.77
556.686	13802.11
557.05	13911.26
557.413	13737.25
557.776	13749.91
558.139	13820.87
558.502	13774.09
558.865	13728.66
559.228	13751.49
559.59	13786.97
559.953	13787.87
560.316	13828.32
560.679	13774.54
561.041	13807.08
561.404	13820.41
561.767	13859.73
562.129	13703.13
562.492	13793.3
562.854	13810.24
563.217	13777.02
563.579	13731.38
563.941	13785.39
564.304	13811.83
564.666	13817.93
565.028	13862.9
565.39	13814.99
565.753	13858.6
566.115	13908.09
566.477	13878.94
566.839	13928.43
567.201	13877.59
567.563	13952.16
567.925	14034.19
568.287	13992.16
568.648	13965.27
569.01	14048.43
569.372	14119.84
569.734	14006.4
570.095	14031.03
570.457	14099.73
570.819	14057.02
571.18	14084.59
571.542	14103.8
571.903	14047.75
572.265	14186.05
572.626	14111.71
572.987	14135.66
573.349	14202.32
573.71	14224.02
574.071	14196.45
574.432	14185.83
574.794	14258.59
575.155	14276.22
575.516	14163.46
575.877	14196.45
576.238	14264.92
576.599	14259.72
576.96	14161.42
577.32	14238.26
577.681	14197.35
578.042	14291.14
578.403	14171.36
578.763	14273.28
579.124	14211.59
579.485	14312.15
579.845	14305.15
580.206	14269.89
580.566	14206.17
580.927	14272.6
581.287	14221.31
581.648	14227.86
582.008	14303.79
582.368	14243.23
582.728	14317.35
583.089	14248.2
583.449	14194.41
583.809	14239.16
584.169	14219.95
584.529	14122.33
584.889	14306.95
585.249	14090.69
585.609	14129.56
585.969	14202.32
586.329	14172.95
586.688	14236.67
587.048	14080.75
587.408	14090.91
587.768	14148.77
588.127	14097.02
588.487	14005.49
588.846	14200.97
589.206	14029.45
589.565	14064.47
589.925	14073.06
590.284	14067.41
590.643	14062.67
591.003	14054.53
591.362	14127.3
591.721	14022.44
592.08	13969.79
592.44	13975.21
592.799	14019.28
593.158	14026.96
593.517	13997.13
593.876	14031.71
594.235	13913.07
594.593	13999.84
594.952	13917.59
595.311	14042.1
595.67	13935.89
596.029	13990.8
596.387	13941.99
596.746	13987.41
597.104	14026.28
597.463	13887.53
597.822	13946.51
598.18	13889.11
598.538	13920.75
598.897	13916.23
599.255	13848.66
599.613	14027.41
599.972	13956.23
600.33	13899.73
600.688	13861.54
601.046	13888.89
601.404	13964.82
601.762	13921.88
602.12	13871.49
602.478	13944.7
602.836	13885.27
603.194	13869.9
603.552	13854.08
603.91	13834.42
604.268	13901.09
604.625	13836.68
604.983	13887.53
605.341	13818.38
605.698	13912.39
606.056	13930.02
606.413	13918.26
606.771	13983.57
607.128	13912.39
607.485	13853.86
607.843	13859.51
608.2	13907.64
608.557	13965.04
608.914	13945.61
609.272	13938.38
609.629	13910.58
609.986	14019.05
610.343	13987.41
610.7	14118.71
611.057	14037.58
611.414	13973.4
611.771	14001.43
612.127	14131.37
612.484	14105.38
612.841	14132.04
613.198	14034.65
613.554	14097.69
613.911	14157.13
614.267	14115.55
614.624	14057.92
614.98	14181.08
615.337	14265.37
615.693	14146.05
616.05	14127.52
616.406	14237.58
616.762	14052.5
617.118	14223.11
617.475	14165.94
617.831	14202.55
618.187	14225.6
618.543	14199.84
618.899	14335.2
619.255	14272.38
619.611	14264.47
619.967	14289.78
620.323	14290.91
620.678	14228.54
621.034	14332.94
621.39	14197.8
621.746	14246.39
622.101	14354.18
622.457	14297.24
622.812	14258.37
623.168	14316.45
623.523	14334.3
623.879	14310.57
624.234	14221.53
624.589	14352.38
624.945	14226.96
625.3	14322.77
625.655	14296.33
626.01	14267.63
626.365	14295.88
626.72	14240.52
627.075	14287.97
627.43	14271.48
627.785	14254.07
628.14	14274.19
628.495	14234.64
628.85	14257.24
629.205	14200.06
629.559	14289.78
629.914	14179.27
630.269	14210.91
630.623	14176.34
630.978	14149.22
631.332	14288.2
631.687	14169.56
632.041	14127.75
632.396	14166.17
632.75	14113.29
633.104	14106.51
633.459	14050.92
633.813	14011.59
634.167	14057.92
634.521	14100.86
634.875	14072.61
635.229	13911.26
635.583	13888.66
635.937	14021.76
636.291	13953.97
636.645	13964.14
636.999	13802.79
637.352	13954.2
637.706	13846.85
638.06	13967.3
638.413	13906.29
638.767	13817.93
639.121	13899.06
639.474	13765.27
639.828	13754.2
640.181	13840.75
640.534	13782.67
640.888	13723.24
641.241	13679.4
641.594	13671.72
641.947	13666.52
642.301	13704.94
642.654	13648.21
643.007	13679.63
643.36	13613.19
643.713	13663.36
644.066	13733.41
644.419	13564.6
644.771	13512.85
645.124	13487.54
645.477	13403.93
645.83	13326.42
646.182	13265.4
646.535	13227.43
646.888	13274.44
647.24	13178.17
647.593	13256.81
647.945	13279.86
648.298	13174.33
648.65	13158.51
649.002	13130.26
649.355	13157.61
649.707	13203.25
650.059	13255.68
650.411	13390.59
650.763	13386.07
651.115	13519.86
651.467	13477.15
651.819	13492.74
652.171	13519.18
652.523	13435.79
652.875	13464.26
653.227	13388.56
653.578	13546.3
653.93	13483.02
654.282	13421.55
654.633	13323.25
654.985	13419.97
655.337	13433.98
655.688	13545.62
656.039	13556.69
656.391	13434.66
656.742	13481.89
657.094	13473.76
657.445	13550.14
657.796	13505.62
658.147	13500.2
658.498	13414.77
658.849	13490.25
659.2	13475.79
659.551	13438.05
659.902	13487.09
660.253	13487.54
660.604	13513.53
660.955	13434.43
661.306	13520.53
661.656	13527.31
662.007	13440.31
662.358	13502
662.708	13585.17
663.059	13469.01
663.409	13497.26
663.76	13535.9
664.11	13571.15
664.461	13528.9
664.811	13567.54
665.161	13578.84
665.511	13511.5
665.862	13538.16
666.212	13613.64
666.562	13704.71
666.912	13564.6
667.262	13582.91
667.612	13564.15
667.962	13500.42
668.312	13624.26
668.662	13631.72
669.011	13492.29
669.361	13539.06
669.711	13610.25
670.06	13561.89
670.41	13493.19
670.76	13461.33
671.109	13469.91
671.459	13532.51
671.808	13452.97
672.157	13504.49
672.507	13387.88
672.856	13477.37
673.205	13464.04
673.554	13485.51
673.904	13423.59
674.253	13448.22
674.602	13425.17
674.951	13233.76
675.3	13175.91
675.649	13406.86
675.998	13336.13
676.346	13391.27
676.695	13457.94
677.044	13261.11
677.393	13291.39
677.741	13400.09
678.09	13253.42
678.438	13238.51
678.787	13241.22
679.135	13233.76
679.484	13151.28
679.832	13183.82
680.181	13221.56
680.529	13172.29
680.877	13179.3
681.225	13078.74
681.573	13203.48
681.922	13046.2
682.27	12984.5
682.618	13005.52
682.966	13027.44
683.314	13012.53
683.661	12919.87
684.009	12920.32
684.357	12888.91
684.705	12862.7
685.053	12806.2
685.4	12812.98
685.748	12746.09
686.095	12765.98
686.443	12725.08
686.79	12717.39
687.138	12657.96
687.485	12651.63
687.832	12616.83
688.18	12655.02
688.527	12496.15
688.874	12507.91
689.221	12490.28
689.568	12415.03
689.915	12463.84
690.262	12392.2
690.609	12399.66
690.956	12301.36
691.303	12329.61
691.65	12185.65
691.997	12262.26
692.344	12125.77
692.69	12132.55
693.037	12190.63
693.383	12069.5
693.73	12002.61
694.077	11998.31
694.423	11943.63
694.769	11989.05
695.116	11887.58
695.462	11917.41
695.808	11780.92
696.155	11815.04
696.501	11740.47
696.847	11633.13
697.193	11570.76
697.539	11604.65
697.885	11500.93
698.231	11415.05
698.577	11417.99
698.923	11394.49
699.269	11399.91
699.614	11366.92
699.96	11353.59
700.306	11314.04
700.651	11220.48
700.997	11201.05
701.342	11055.97
701.688	11054.61
702.033	11064.55
702.379	11059.81
702.724	10979.81
703.069	10967.61
703.415	10828.18
703.76	10802.41
704.105	10899.59
704.45	10764.67
704.795	10778.01
705.14	10721.51
705.485	10676.32
705.83	10620.27
706.175	10632.25
706.52	10575.53
706.865	10509.09
707.209	10558.13
707.554	10497.34
707.899	10575.75
708.243	10463.21
708.588	10414.18
708.932	10390.45
709.277	10378.24
709.621	10338.47
709.966	10308.42
710.31	10300.28
710.654	10188.64
710.998	10197.23
711.342	10248.76
711.687	10196.78
712.031	10188.64
712.375	10061.42
712.719	10140.51
713.063	10098.7
713.407	10106.16
713.75	10091.02
714.094	10026.16
714.438	10063.68
714.782	9989.1
715.125	9940.29
715.469	9987.97
715.812	9932.15
716.156	9906.39
716.499	9880.18
716.843	9892.83
717.186	9805.83
717.53	9834.76
717.873	9867.3
718.216	9921.53
718.559	9737.36
718.902	9689.45
719.246	9726.06
719.589	9713.85
719.932	9702.78
720.275	9645.83
720.617	9640.64
720.96	9675.89
721.303	9644.03
721.646	9649.9
721.989	9615.78
722.331	9610.58
722.674	9630.69
723.016	9660.75
723.359	9552.5
723.701	9574.65
724.044	9534.2
724.386	9474.31
724.729	9578.49
725.071	9509.79
725.413	9511.6
725.755	9538.94
726.097	9537.81
726.439	9446.97
726.782	9484.03
727.124	9552.5
727.465	9472.73
727.807	9464.14
728.149	9456.23
728.491	9511.15
728.833	9433.64
729.175	9453.75
729.516	9444.03
729.858	9441.77
730.199	9369.23
730.541	9393.64
730.882	9414.88
731.224	9414.65
731.565	9375.33
731.906	9399.74
732.248	9382.79
732.589	9333.3
732.93	9281.1
733.271	9376.91
733.612	9345.95
733.953	9388.44
734.294	9352.06
734.635	9324.94
734.976	9364.94
735.317	9280.42
735.658	9354.54
735.999	9382.11
736.339	9345.73
736.68	9404.03
737.021	9362.9
737.361	9331.49
737.702	9444.03
738.042	9430.7
738.383	9432.05
738.723	9468.66
739.063	9452.39
739.404	9429.79
739.744	9480.87
740.084	9507.76
740.424	9489
740.764	9484.71
741.104	9523.58
741.444	9458.72
741.784	9467.08
742.124	9522.9
742.464	9532.62
742.804	9542.79
743.143	9557.7
743.483	9653.29
743.823	9615.1
744.162	9638.15
744.502	9653.07
744.841	9616
745.181	9839.28
745.52	9754.08
745.86	9836.11
746.199	9796.79
746.538	9892.83
746.877	9958.37
747.216	9930.35
747.556	10058.48
747.895	10088.08
748.234	10139.83
748.573	10225.93
748.911	10188.87
749.25	10298.25
749.589	10345.48
749.928	10362.2
750.267	10505.47
750.605	10560.39
750.944	10581.63
751.283	10624.11
751.621	10754.28
751.96	10847.16
752.298	10942.3
752.636	11067.49
752.975	11166.25
753.313	11208.5
753.651	11430.87
753.989	11532.56
754.327	11649.4
754.666	11735.27
755.004	11885.78
755.342	12022.04
755.679	12217.07
756.017	12332.32
756.355	12476.27
756.693	12525.31
757.031	12754.45
757.368	12803.72
757.706	12936.14
