Data from hue_10_FLMS001491_34.txt Node
Date: Mon Feb 06 15:31:49 GMT 2017
User: dcchb
Spectrometer: FLMS00149
Trigger mode: 0
Integration Time (sec): 2.000000E-2
Scans to average: 10
Electric dark correction enabled: true
Nonlinearity correction enabled: false
Boxcar width: 0
XAxis mode: Wavelengths
Number of Pixels in Spectrum: 2048
>>>>>Begin Spectral Data<<<<<
341.393	-1.65
341.776	-1.65
342.16	-1.65
342.543	-52.5
342.927	-65.83
343.31	-66.51
343.693	-76
344.077	-61.09
344.46	-70.58
344.843	-47.98
345.226	-50.24
345.61	-30.58
345.993	-3.46
346.376	-6.4
346.759	11
347.142	32.47
347.525	37.22
347.908	66.14
348.291	56.65
348.674	92.36
349.057	116.99
349.44	118.8
349.823	153.15
350.206	158.57
350.588	193.82
350.971	196.76
351.354	219.81
351.737	251
352.119	240.38
352.502	264.1
352.884	261.62
353.267	283.76
353.65	286.02
354.032	288.06
354.414	311.56
354.797	312.24
355.179	312.24
355.562	330.99
355.944	317.89
356.326	314.05
356.709	340.03
357.091	341.62
357.473	352.24
357.855	323.31
358.238	341.84
358.62	344.78
359.002	338.45
359.384	331.45
359.766	321.95
360.148	340.94
360.53	344.1
360.912	323.08
361.294	338.23
361.676	333.03
362.057	337.77
362.439	330.99
362.821	338.23
363.203	316.76
363.584	331.9
363.966	345.68
364.348	336.42
364.729	320.37
365.111	306.36
365.493	315.63
365.874	308.85
366.256	308.62
366.637	340.03
367.019	321.05
367.4	305.23
367.781	313.59
368.163	316.98
368.544	319.69
368.925	305.01
369.306	316.53
369.688	304.1
370.069	315.18
370.45	293.03
370.831	315.4
371.212	303.42
371.593	316.53
371.974	313.59
372.355	322.86
372.736	316.08
373.117	289.87
373.498	319.47
373.879	306.81
374.26	316.08
374.641	319.47
375.021	331.67
375.402	314.5
375.783	314.72
376.163	302.97
376.544	334.84
376.925	323.99
377.305	327.15
377.686	319.92
378.066	341.84
378.447	331.9
378.827	328.96
379.208	312.24
379.588	328.06
379.968	346.13
380.349	323.08
380.729	338.45
381.109	338.45
381.489	326.93
381.87	335.51
382.25	325.12
382.63	346.13
383.01	348.39
383.39	312.24
383.77	344.55
384.15	348.17
384.53	361.73
384.91	343.42
385.29	337.77
385.67	344.1
386.049	358.34
386.429	312.01
386.809	353.14
387.189	344.78
387.568	338.23
387.948	338.68
388.328	345.68
388.707	345.68
389.087	364.67
389.466	363.31
389.846	349.98
390.225	347.72
390.605	357.66
390.984	352.24
391.363	341.84
391.743	354.5
392.122	344.55
392.501	378
392.881	345.01
393.26	375.74
393.639	367.83
394.018	345.23
394.397	377.32
394.776	369.19
395.155	367.38
395.534	373.25
395.913	388.17
396.292	356.08
396.671	367.83
397.05	375.29
397.429	365.34
397.808	366.47
398.186	365.34
398.565	388.85
398.944	359.02
399.323	369.19
399.701	386.36
400.08	362.41
400.458	397.21
400.837	377.32
401.215	391.33
401.594	385
401.972	392.91
402.351	392.46
402.729	383.87
403.107	393.59
403.486	392.69
403.864	391.78
404.242	373.7
404.62	398.56
404.999	391.33
405.377	396.53
405.755	407.38
406.133	414.83
406.511	417.09
406.889	381.39
407.267	416.42
407.645	418.22
408.023	390.65
408.401	413.25
408.779	433.82
409.156	423.87
409.534	411.22
409.912	437.88
410.29	432.69
410.667	424.55
411.045	451.22
411.422	448.96
411.8	429.07
412.178	433.14
412.555	447.38
412.933	426.13
413.31	436.98
413.687	443.08
414.065	431.33
414.442	448.28
414.819	445.34
415.197	460.26
415.574	461.16
415.951	472.91
416.328	435.85
416.705	468.62
417.082	466.58
417.46	475.62
417.837	498.22
418.214	460.93
418.591	476.53
418.967	483.31
419.344	511.78
419.721	493.93
420.098	475.85
420.475	483.53
420.852	489.63
421.228	494.61
421.605	497.77
421.982	531.67
422.358	522.18
422.735	512.91
423.111	517.88
423.488	516.07
423.864	513.14
424.241	520.59
424.617	524.21
424.994	513.59
425.37	509.29
425.746	542.29
426.123	545.68
426.499	532.12
426.875	511.55
427.251	536.86
427.627	552.01
428.003	530.31
428.379	528.96
428.756	542.97
429.132	559.24
429.507	555.62
429.883	561.04
430.259	565.34
430.635	550.88
431.011	576.86
431.387	562.85
431.763	599.46
432.138	578.67
432.514	593.36
432.89	588.84
433.265	591.55
433.641	589.74
434.016	601.95
434.392	615.96
434.767	631.55
435.143	632.23
435.518	635.62
435.894	624.09
436.269	637.88
436.644	657.77
437.02	644.88
437.395	646.24
437.77	661.15
438.145	666.13
438.52	664.54
438.895	648.73
439.271	654.83
439.646	661.38
440.021	681.27
440.395	660.7
440.77	668.61
441.145	660.03
441.52	683.98
441.895	700.02
442.27	690.08
442.645	709.06
443.019	699.8
443.394	682.4
443.769	727.82
444.143	701.61
444.518	718.78
444.892	715.84
445.267	719.01
445.641	733.7
446.016	745.45
446.39	741.6
446.764	749.51
447.139	733.24
447.513	739.34
447.887	731.21
448.262	748.38
448.636	761.04
449.01	760.59
449.384	776.41
449.758	756.75
450.132	757.2
450.506	760.81
450.88	771.21
451.254	787.03
451.628	793.58
452.002	799.23
452.376	780.93
452.75	800.59
453.123	799.23
453.497	793.35
453.871	820.25
454.244	839
454.618	827.03
454.992	813.92
455.365	825.22
455.739	883.97
456.112	881.94
456.486	857.99
456.859	858.66
457.232	856.4
457.606	867.25
457.979	877.42
458.352	887.36
458.725	886.91
459.099	910.19
459.472	952.67
459.845	905.44
460.218	933.69
460.591	961.49
460.964	947.02
461.337	966.68
461.71	975.04
462.083	970.07
462.456	1008.26
462.829	993.58
463.201	1034.48
463.574	1024.76
463.947	1001.48
464.32	1027.02
464.692	1031.54
465.065	1042.61
465.438	1056.4
465.81	1092.56
466.183	1084.87
466.555	1093.01
466.928	1116.51
467.3	1100.69
467.672	1119.67
468.045	1151.09
468.417	1134.81
468.789	1148.15
469.161	1199.9
469.534	1188.15
469.906	1233.34
470.278	1212.55
470.65	1259.56
471.022	1250.97
471.394	1273.79
471.766	1279.22
472.138	1323.06
472.51	1334.36
472.882	1344.53
473.253	1344.53
473.625	1381.14
473.997	1405.09
474.369	1390.4
474.74	1414.58
475.112	1453.45
475.484	1469.27
475.855	1490.51
476.227	1535.93
476.598	1530.06
476.97	1569.61
477.341	1612.99
477.713	1632.43
478.084	1642.15
478.455	1667.68
478.827	1679.89
479.198	1733.67
479.569	1733.44
479.94	1808.92
480.311	1811.63
480.682	1862.48
481.053	1907
481.424	1923.27
481.795	1933.21
482.166	1954.23
482.537	2029.93
482.908	2024.28
483.279	2065.41
483.65	2150.61
484.021	2177.05
484.391	2192.19
484.762	2216.59
485.133	2233.99
485.503	2301.11
485.874	2289.36
486.244	2325.07
486.615	2385.4
486.985	2465.4
487.356	2486.42
487.726	2505.4
488.097	2544.27
488.467	2595.79
488.837	2624.27
489.207	2637.15
489.578	2700.88
489.948	2728.22
490.318	2781.1
490.688	2816.13
491.058	2838.95
491.428	2859.52
491.798	2886.63
492.168	2952.17
492.538	2974.54
492.908	3047.98
493.278	3062.45
493.648	3083.24
494.017	3124.82
494.387	3153.97
494.757	3136.8
495.126	3233.52
495.496	3243.69
495.866	3277.36
496.235	3277.36
496.605	3331.82
496.974	3358.94
497.344	3382.21
497.713	3370.46
498.082	3436.68
498.452	3479.84
498.821	3502.66
499.19	3480.52
499.559	3573.39
499.928	3558.71
500.298	3584.24
500.667	3641.64
501.036	3648.2
501.405	3682.09
501.774	3657.91
502.143	3727.74
502.512	3782.2
502.88	3768.19
503.249	3747.85
503.618	3821.98
503.987	3810.45
504.356	3816.33
504.724	3876.89
505.093	3868.53
505.462	3917.57
505.83	3900.62
506.199	3937.9
506.567	4018.35
506.936	3989.2
507.304	4004.34
507.672	4016.55
508.041	4054.06
508.409	4104.45
508.777	4092.03
509.145	4164.79
509.514	4126.6
509.882	4138.13
510.25	4166.15
510.618	4204.79
510.986	4203.21
511.354	4238.24
511.722	4262.87
512.09	4285.69
512.458	4288.4
512.826	4296.09
513.193	4320.04
513.561	4305.8
513.929	4323.66
514.297	4380.15
514.664	4433.26
515.032	4407.05
515.4	4460.83
515.767	4434.16
516.135	4489.98
516.502	4460.15
516.869	4503.77
517.237	4553.48
517.604	4524.56
517.972	4579.7
518.339	4570.2
518.706	4637.55
519.073	4593.71
519.44	4660.37
519.808	4670.32
520.175	4671.22
520.542	4733.36
520.909	4711.44
521.276	4699.92
521.643	4732.23
522.009	4785.79
522.376	4780.37
522.743	4798.45
523.11	4812.68
523.477	4917.09
523.843	4911.44
524.21	4925.68
524.577	4975.84
524.943	5005.9
525.31	4977.65
525.676	5013.81
526.043	5077.31
526.409	5074.15
526.776	5074.15
527.142	5082.28
527.508	5150.75
527.874	5173.8
528.241	5221.26
528.607	5228.49
528.973	5288.83
529.339	5266.01
529.705	5320.69
530.071	5363.63
530.437	5378.77
530.803	5382.61
531.169	5426
531.535	5431.88
531.901	5449.73
532.267	5454.7
532.632	5546.9
532.998	5510.29
533.364	5564.08
533.73	5574.47
534.095	5616.05
534.461	5630.29
534.826	5660.57
535.192	5627.35
535.557	5738.31
535.923	5694.92
536.288	5761.36
536.653	5802.71
537.019	5738.31
537.384	5835.26
537.749	5812.21
538.114	5837.29
538.479	5821.02
538.845	5875.93
539.21	5877.74
539.575	5905.08
539.94	5945.31
540.305	5951.19
540.67	5948.47
541.034	6006.1
541.399	6018.75
541.764	6063.95
542.129	6134.91
542.494	6123.38
542.858	6104.85
543.223	6158.41
543.587	6197.28
543.952	6167
544.316	6190.73
544.681	6301.01
545.045	6272.76
545.41	6310.05
545.774	6343.27
546.138	6359.08
546.503	6324.51
546.867	6404.73
547.231	6423.49
547.595	6422.36
547.959	6469.14
548.324	6470.95
548.688	6475.69
549.052	6465.52
549.416	6533.77
549.779	6548.68
550.143	6609.47
550.507	6635.46
550.871	6683.37
551.235	6661
551.599	6662.58
551.962	6691.5
552.326	6729.02
552.689	6719.07
553.053	6722.46
553.417	6792.97
553.78	6815.8
554.143	6766.31
554.507	6852.63
554.87	6914.55
555.234	6981.67
555.597	6856.47
555.96	6940.54
556.323	6993.64
556.686	6973.76
557.05	7004.49
557.413	7036.13
557.776	7012.4
558.139	7083.36
558.502	7060.08
558.865	7088.56
559.228	7117.48
559.59	7158.61
559.953	7145.05
560.316	7221.21
560.679	7263.92
561.041	7255.11
561.404	7285.39
561.767	7341.21
562.129	7304.14
562.492	7406.29
562.854	7406.97
563.217	7416.91
563.579	7472.5
563.941	7469.79
564.304	7504.59
564.666	7572.39
565.028	7578.71
565.39	7642.67
565.753	7550.24
566.115	7651.48
566.477	7739.39
566.839	7738.26
567.201	7797.01
567.563	7712.72
567.925	7800.85
568.287	7724.25
568.648	7872.72
569.01	7852.6
569.372	7951.81
569.734	7917.01
570.095	7938.93
570.457	7947.52
570.819	8041.07
571.18	8077.23
571.542	8093.5
571.903	8162.43
572.265	8165.14
572.626	8192.71
572.987	8271.8
573.349	8316.32
573.71	8356.77
574.071	8370.78
574.432	8449.42
574.794	8521.29
575.155	8527.61
575.516	8550.21
575.877	8622.3
576.238	8733.26
576.599	8735.07
576.96	8817.1
577.32	8824.33
577.681	8957.89
578.042	9007.15
578.403	9096.87
578.763	9153.36
579.124	9198.33
579.485	9397.2
579.845	9440.81
580.206	9489.17
580.566	9606.68
580.927	9684.19
581.287	9879.22
581.648	9923.74
582.008	10048.03
582.368	10200.11
582.728	10289.38
583.089	10372.99
583.449	10524.4
583.809	10692.3
584.169	10836.71
584.529	10938.85
584.889	11234.44
585.249	11339.52
585.609	11422.91
585.969	11658.61
586.329	11823.8
586.688	12035.55
587.048	12210.68
587.408	12345.59
587.768	12659.03
588.127	12832.36
588.487	13061.51
588.846	13332.69
589.206	13425.11
589.565	13622.4
589.925	14044.31
590.284	14144.64
590.643	14499.44
591.003	14683.39
591.362	14977.84
591.721	15197.5
592.08	15451.27
592.44	15750.48
592.799	15959.06
593.158	16288.09
593.517	16546.84
593.876	16844.46
594.235	17131.91
594.593	17408.51
594.952	17610.09
595.311	17836.52
595.67	18132.11
596.029	18580.91
596.387	18845.54
596.746	19048.24
597.104	19338.4
597.463	19532.07
597.822	19919.63
598.18	20127.76
598.538	20515.32
598.897	20833.28
599.255	20895.88
599.613	21509.65
599.972	21614.73
600.33	22004.55
600.688	22284.99
601.046	22532.9
601.404	22862.15
601.762	23086.33
602.12	23472.76
602.478	23759.08
602.836	24006.08
603.194	24177.82
603.552	24517.7
603.91	24656
604.268	24958.6
604.625	25102.09
604.983	25566.26
605.341	25726.26
605.698	26044.89
606.056	26283.76
606.413	26497.54
606.771	26830.64
607.128	27160.57
607.485	27120.12
607.843	27447.8
608.2	27676.94
608.557	28031.96
608.914	28185.63
609.272	28441.44
609.629	28780.19
609.986	29039.84
610.343	29141.08
610.7	29549.89
611.057	29646.16
611.414	29815.42
611.771	29939.48
612.127	30318.91
612.484	30472.35
612.841	30686.58
613.198	30908.72
613.554	30970.41
613.911	31264.87
614.267	31343.96
614.624	31566.33
614.98	31748.7
615.337	31916.6
615.693	32159.76
616.05	32227.1
616.406	32586.42
616.762	32552.52
617.118	32712.06
617.475	32826.41
617.831	33121.77
618.187	33119.06
618.543	33465.26
618.899	33706.39
619.255	33682.66
619.611	33820.96
619.967	34011.92
620.323	34209.88
620.678	34162.65
621.034	34251.68
621.39	34264.79
621.746	34493.71
622.101	34803.99
622.457	34751.33
622.812	34881.95
623.168	35027.26
623.523	35074.71
623.879	35291.88
624.234	35130.31
624.589	35237.42
624.945	35449.39
625.3	35461.6
625.655	35520.13
626.01	35683.28
626.365	35699.1
626.72	35775.49
627.075	35894.13
627.43	35942.49
627.785	35937.97
628.14	35923.28
628.495	36075.82
628.85	36240.56
629.205	36035.37
629.559	36361.69
629.914	36177.96
630.269	36355.36
630.623	36261.57
630.978	36292.31
631.332	36356.71
631.687	36572.53
632.041	36420.67
632.396	36664.73
632.75	36470.16
633.104	36569.36
633.459	36424.06
633.813	36604.84
634.167	36563.26
634.521	36521
634.875	36666.76
635.229	36556.93
635.583	36506.31
635.937	36494.11
636.291	36518.29
636.645	36448.46
636.999	36414.79
637.352	36590.38
637.706	36421.34
638.06	36652.98
638.413	36518.97
638.767	36510.61
639.121	36623.6
639.474	36429.25
639.828	36496.14
640.181	36507.67
640.534	36602.13
640.888	36511.06
641.241	36408.24
641.594	36418.41
641.947	36489.59
642.301	36511.29
642.654	36534.56
643.007	36538.63
643.36	36486.43
643.713	36389.03
644.066	36529.82
644.419	36324.85
644.771	36157.4
645.124	35859.55
645.477	35821.81
645.83	35532.55
646.182	35450.3
646.535	35375.04
646.888	35496.4
647.24	35196.97
647.593	35583.17
647.945	35392.67
648.298	35413.46
648.65	35040.36
649.002	35098.67
649.355	35299.57
649.707	35225.44
650.059	35331.43
650.411	35727.35
650.763	35785.43
651.115	36130.05
651.467	36007.12
651.819	35991.53
652.171	35978.87
652.523	36003.28
652.875	36035.14
653.227	35848.93
653.578	36114.01
653.93	35946.33
654.282	35910.17
654.633	35866.1
654.985	35915.14
655.337	35841.92
655.688	35839.21
656.039	36055.48
656.391	35611.65
656.742	35807.58
657.094	35851.19
657.445	35880.79
657.796	35878.31
658.147	35743.85
658.498	35785.66
658.849	35827.69
659.2	35721.02
659.551	35721.48
659.902	35894.35
660.253	35699.1
660.604	35790.85
660.955	35569.84
661.306	35739.1
661.656	35623.63
662.007	35667.47
662.358	35708.14
662.708	35741.36
663.059	35585.43
663.409	35388.6
663.76	35678.77
664.11	35674.25
664.461	35702.04
664.811	35627.47
665.161	35618.65
665.511	35533.68
665.862	35590.18
666.212	35681.48
666.562	35711.98
666.912	35705.43
667.262	35596.28
667.612	35634.02
667.962	35506.57
668.312	35576.17
668.662	35665.43
669.011	35581.14
669.361	35493.23
669.711	35479.22
670.06	35408.94
670.41	35422.95
670.76	35328.94
671.109	35506.79
671.459	35586.56
671.808	35417.98
672.157	35472.67
672.507	35344.31
672.856	35331.43
673.205	35287.82
673.554	35421.14
673.904	35200.36
674.253	35405.78
674.602	35335.5
674.951	34750.88
675.3	34711.11
675.649	35088.72
675.998	35156.75
676.346	35225.44
676.695	35338.21
677.044	35040.14
677.393	35033.13
677.741	35129.4
678.09	35120.14
678.438	35052.79
678.787	35037.88
679.135	34996.07
679.484	34841.05
679.832	35057.31
680.181	34760.15
680.529	34821.39
680.877	34777.77
681.225	34735.74
681.573	34874.49
681.922	34581.62
682.27	34440.83
682.618	34479.7
682.966	34379.59
683.314	34507.95
683.661	34489.87
684.009	34323.09
684.357	34317.67
684.705	34275.19
685.053	34185.02
685.4	34148.64
685.748	34025.25
686.095	34082.42
686.443	34021.41
686.79	33863.67
687.138	33967.17
687.485	33912.26
687.832	33784.35
688.18	33821.19
688.527	33698.7
688.874	33684.47
689.221	33532.83
689.568	33459.39
689.915	33346.62
690.262	33336.68
690.609	33266.4
690.956	33134.65
691.303	33159.06
691.65	32905.28
691.997	32950.02
692.344	32802.68
692.69	32805.17
693.037	32789.12
693.383	32516.59
693.73	32634.1
694.077	32448.12
694.423	32497.38
694.769	32348.46
695.116	32330.15
695.462	32157.5
695.808	32130.16
696.155	32258.29
696.501	32009.48
696.847	31911.41
697.193	31677.97
697.539	31760.22
697.885	31665.09
698.231	31521.81
698.577	31614.01
698.923	31433.23
699.269	31330.63
699.614	31068.27
699.96	31067.81
700.306	31238.2
700.651	30927.93
700.997	30847.93
701.342	30828.72
701.688	30759.57
702.033	30715.73
702.379	30590.76
702.724	30601.16
703.069	30635.06
703.415	30391.45
703.76	30483.2
704.105	30358.23
704.45	30238.23
704.795	30051.12
705.14	29982.19
705.485	29990.55
705.83	29882.31
706.175	29950.1
706.52	29786.72
706.865	29707.62
707.209	29750.79
707.554	29686.61
707.899	29684.8
708.243	29504.46
708.588	29434.41
708.932	29165.26
709.277	29277.13
709.621	29233.29
709.966	28973.4
710.31	29166.39
710.654	28846.4
710.998	28928.43
711.342	28985.83
711.687	28904.71
712.031	28721.43
712.375	28689.34
712.719	28706.52
713.063	28712.39
713.407	28577.94
713.75	28526.18
714.094	28429.92
714.438	28256.59
714.782	28269.02
715.125	28171.17
715.469	28311.28
715.812	28126.65
716.156	27944.96
716.499	27959.65
716.843	27949.03
717.186	27797.62
717.53	27973.21
717.873	28021.34
718.216	27959.87
718.559	27718.75
718.902	27495.93
719.246	27565.76
719.589	27502.94
719.932	27430.62
720.275	27437.63
720.617	27383.16
720.96	27395.59
721.303	27334.35
721.646	27425.2
721.989	27203.73
722.331	27196.05
722.674	27113.57
723.016	27216.84
723.359	27092.1
723.701	27143.4
724.044	26912.22
724.386	26882.84
724.729	26899.11
725.071	26864.76
725.413	26838.09
725.755	26792.45
726.097	26822.73
726.439	26641.26
726.782	26477.88
727.124	26714.03
727.465	26502.51
727.807	26534.6
728.149	26529.85
728.491	26411.66
728.833	26450.53
729.175	26201.27
729.516	26236.75
729.858	26230.2
730.199	26228.62
730.541	26129.41
730.882	26248.73
731.224	26378.44
731.565	25943.65
731.906	26109.53
732.248	26169.41
732.589	25979.81
732.93	26017.78
733.271	25800.38
733.612	25945.46
733.953	25823.66
734.294	25763.32
734.635	25658.69
734.976	25849.65
735.317	25624.34
735.658	25679.48
735.999	25642.19
736.339	25561.74
736.68	25601.52
737.021	25647.16
737.361	25414.63
737.702	25534.85
738.042	25394.74
738.383	25436.1
738.723	25407.4
739.063	25375.08
739.404	25367.4
739.744	25353.16
740.084	25190.23
740.424	25230
740.764	25049.44
741.104	25198.36
741.444	25026.39
741.784	25025.71
742.124	24930.12
742.464	25064.36
742.804	24907.52
743.143	24920.86
743.483	24898.26
743.823	24854.19
744.162	24787.3
744.502	24944.36
744.841	24775.1
745.181	24880.86
745.52	24643.12
745.86	24721.77
746.199	24662.33
746.538	24632.73
746.877	24661.88
747.216	24689.45
747.556	24635.21
747.895	24520.87
748.234	24448.55
748.573	24393.41
748.911	24375.11
749.25	24270.25
749.589	24314.09
749.928	24213.53
750.267	24295.11
750.605	24209.69
750.944	24180.31
751.283	24016.02
751.621	24162.23
751.96	24009.69
752.298	24021.9
752.636	23961.33
752.975	23829.13
753.313	23851.51
753.651	23878.4
753.989	23719.53
754.327	23774.9
754.666	23648.57
755.004	23648.8
755.342	23658.52
755.679	23665.3
756.017	23485.87
756.355	23443.61
756.693	23501.91
757.031	23451.74
757.368	23383.5
757.706	23408.13
758.044	23221.92
758.381	23274.57
758.719	23104.18
759.056	23169.49
759.394	23028.25
759.731	22914.58
760.068	22816.73
760.405	22882.27
760.743	22802.49
761.08	22862.38
761.417	22691.99
