Data from hue_140_FLMS001491_00014.txt Node
Date: Tue Feb 07 16:55:29 GMT 2017
User: dcchb
Spectrometer: FLMS00149
Trigger mode: 0
Integration Time (sec): 2.000000E-2
Scans to average: 10
Electric dark correction enabled: true
Nonlinearity correction enabled: false
Boxcar width: 0
XAxis mode: Wavelengths
Number of Pixels in Spectrum: 2048
>>>>>Begin Spectral Data<<<<<
341.393	6.14
341.776	6.14
342.16	6.14
342.543	-42.67
342.927	-62.1
343.31	-70.46
343.693	-79.5
344.077	-49.45
344.46	-76.34
344.843	-51.03
345.226	-24.82
345.61	-30.69
345.993	-32.73
346.376	-11.93
346.759	6.6
347.142	24.45
347.525	50.66
347.908	61.51
348.291	82.53
348.674	87.27
349.057	113.94
349.44	113.03
349.823	137.21
350.206	151
350.588	195.29
350.971	195.52
351.354	227.38
351.737	238.68
352.119	264.89
352.502	249.3
352.884	267.38
353.267	276.42
353.65	296.98
354.032	294.5
354.414	295.63
354.797	302.41
355.179	325.46
355.562	338.56
355.944	337.21
356.326	342.63
356.709	341.28
357.091	338.34
357.473	361.39
357.855	341.28
358.238	333.59
358.62	334.27
359.002	345.12
359.384	347.83
359.766	342.86
360.148	350.99
360.53	344.44
360.912	350.32
361.294	322.75
361.676	309.64
362.057	324.1
362.439	344.67
362.821	332.69
363.203	328.85
363.584	332.24
363.966	323.42
364.348	334.27
364.729	329.3
365.111	343.76
365.493	316.87
365.874	306.47
366.256	331.56
366.637	317.32
367.019	323.42
367.4	325.91
367.781	320.03
368.163	318
368.544	316.64
368.925	320.94
369.306	315.51
369.688	324.55
370.069	326.14
370.45	316.64
370.831	305.12
371.212	321.62
371.593	296.53
371.974	321.39
372.355	324.1
372.736	313.93
373.117	321.84
373.498	340.15
373.879	312.35
374.26	329.07
374.641	317.55
375.021	310.77
375.402	337.21
375.783	325.91
376.163	307.6
376.544	342.41
376.925	333.14
377.305	343.31
377.686	332.69
378.066	339.02
378.447	338.11
378.827	339.02
379.208	340.15
379.588	336.08
379.968	337.21
380.349	312.58
380.729	334.95
381.109	339.47
381.489	325.68
381.87	325.46
382.25	349.86
382.63	350.99
383.01	348.28
383.39	347.15
383.77	351.45
384.15	348.06
384.53	351.9
384.91	359.35
385.29	364.55
385.67	349.19
386.049	347.15
386.429	348.28
386.809	343.99
387.189	376.76
387.568	368.39
387.948	370.65
388.328	360.94
388.707	372.69
389.087	363.42
389.466	365.91
389.846	373.59
390.225	373.14
390.605	362.74
390.984	360.48
391.363	370.2
391.743	376.3
392.122	368.17
392.501	377.89
392.881	387.38
393.26	393.7
393.639	363.42
394.018	355.97
394.397	381.28
394.776	386.25
395.155	388.28
395.534	389.64
395.913	373.37
396.292	369.52
396.671	398.45
397.05	397.32
397.429	410.65
397.808	406.59
398.186	392.57
398.565	415.4
398.944	392.57
399.323	395.74
399.701	424.44
400.08	409.3
400.458	398.45
400.837	413.82
401.215	400.94
401.594	405.91
401.972	407.94
402.351	413.14
402.729	429.41
403.107	400.48
403.486	414.95
403.864	406.36
404.242	435.29
404.62	426.7
404.999	414.49
405.377	428.28
405.755	425.12
406.133	425.12
406.511	423.08
406.889	427.6
407.267	443.19
407.645	432.35
408.023	446.36
408.401	432.8
408.779	443.65
409.156	461.5
409.534	457.88
409.912	462.86
410.29	459.01
410.667	466.24
411.045	468.96
411.422	474.15
411.8	464.44
412.178	466.7
412.555	472.12
412.933	471.67
413.31	488.84
413.687	478.67
414.065	497.2
414.442	496.75
414.819	503.53
415.197	504.44
415.574	472.57
415.951	508.5
416.328	507.15
416.705	537.2
417.082	509.18
417.46	513.48
417.837	513.48
418.214	510.31
418.591	530.65
418.967	523.42
419.344	524.77
419.721	524.77
420.098	521.38
420.475	518.67
420.852	546.47
421.228	561.61
421.605	547.6
421.982	542.85
422.358	531.1
422.735	565.45
423.111	568.39
423.488	573.81
423.864	574.49
424.241	576.98
424.617	570.2
424.994	564.32
425.37	581.27
425.746	577.43
426.123	556.86
426.499	596.64
426.875	589.63
427.251	601.38
427.627	620.82
428.003	622.17
428.379	611.55
428.756	622.4
429.132	618.56
429.507	654.26
429.883	655.17
430.259	615.39
430.635	644.09
431.011	665.34
431.387	656.75
431.763	664.43
432.138	644.32
432.514	666.92
432.89	678.22
433.265	668.5
433.641	677.09
434.016	672.34
434.392	689.74
434.767	693.13
435.143	712.57
435.518	710.98
435.894	698.33
436.269	709.4
436.644	707.82
437.02	734.94
437.395	753.24
437.77	747.14
438.145	762.06
438.52	789.4
438.895	752.11
439.271	756.18
439.646	776.97
440.021	803.41
440.395	801.83
440.77	781.94
441.145	805.9
441.52	801.38
441.895	826.69
442.27	789.4
442.645	805.22
443.019	832.11
443.394	809.29
443.769	844.99
444.143	825.33
444.518	843.18
444.892	838.21
445.267	887.48
445.641	863.97
446.016	854.48
446.39	866.23
446.764	857.19
447.139	888.38
447.513	871.21
447.887	856.07
448.262	905.78
448.636	902.39
449.01	920.47
449.384	931.54
449.758	934.93
450.132	926.35
450.506	930.64
450.88	931.09
451.254	936.29
451.628	951.2
452.002	945.33
452.376	965.21
452.75	973.35
453.123	999.11
453.497	991.2
453.871	1013.12
454.244	1022.16
454.618	1025.78
454.992	1030.75
455.365	1035.27
455.739	1054.7
456.112	1059
456.486	1101.48
456.859	1102.16
457.232	1106.45
457.606	1131.99
457.979	1096.74
458.352	1153.68
458.725	1146.45
459.099	1165.66
459.472	1184.87
459.845	1184.19
460.218	1200.46
460.591	1239.56
460.964	1230.52
461.337	1275.26
461.71	1265.09
462.083	1281.14
462.456	1325.43
462.829	1302.61
463.201	1345.32
463.574	1315.94
463.947	1373.34
464.32	1364.53
464.692	1396.16
465.065	1413.11
465.438	1428.48
465.81	1466.22
466.183	1451.98
466.555	1510.96
466.928	1537.86
467.3	1525.43
467.672	1541.92
468.045	1586.89
468.417	1608.36
468.789	1613.33
469.161	1635.25
469.534	1672.77
469.906	1719.32
470.278	1715.93
470.65	1767.91
471.022	1790.05
471.394	1829.82
471.766	1861.01
472.138	1908.24
472.51	1926.32
472.882	1973.32
473.253	1995.7
473.625	2077.73
473.997	2130.38
474.369	2101.46
474.74	2176.71
475.112	2249.47
475.484	2277.04
475.855	2300.09
476.227	2337.61
476.598	2450.6
476.97	2495.12
477.341	2588.67
477.713	2650.82
478.084	2691.05
478.455	2743.47
478.827	2821.21
479.198	2937.37
479.569	2954.77
479.94	3097.59
480.311	3120.41
480.682	3209.9
481.053	3371.25
481.424	3403.79
481.795	3493.96
482.166	3575.54
482.537	3661.19
482.908	3818.47
483.279	3880.17
483.65	3974.18
484.021	4056.21
484.391	4184.11
484.762	4287.61
485.133	4376.88
485.503	4473.15
485.874	4622.07
486.244	4713.14
486.615	4841.05
486.985	5010.76
487.356	5150.42
487.726	5222.05
488.097	5359.45
488.467	5407.58
488.837	5615.71
489.207	5696.62
489.578	5870.4
489.948	5965.54
490.318	6127.56
490.688	6230.39
491.058	6376.15
491.428	6518.52
491.798	6695.46
492.168	6873.76
492.538	6884.83
492.908	7065.17
493.278	7190.36
493.648	7293.41
494.017	7479.39
494.387	7570.69
494.757	7714.42
495.126	7841.87
495.496	7863.79
495.866	8083.22
496.235	8123.67
496.605	8289.77
496.974	8343.1
497.344	8533.38
497.713	8628.29
498.082	8749.87
498.452	8856.31
498.821	8971.11
499.19	8989.64
499.559	9197.77
499.928	9254.26
500.298	9377.65
500.667	9530.64
501.036	9539.9
501.405	9649.96
501.774	9716.17
502.143	9836.17
502.512	9909.39
502.88	10001.59
503.249	10053.34
503.618	10068.93
503.987	10243.61
504.356	10323.39
504.724	10414.23
505.093	10516.6
505.462	10571.97
505.83	10563.15
506.199	10723.15
506.567	10835.01
506.936	10838.18
507.304	10984.61
507.672	11039.3
508.041	11117.49
508.409	11242.68
508.777	11265.28
509.145	11367.2
509.514	11385.05
509.882	11484.94
510.25	11449.23
510.618	11572.39
510.986	11564.94
511.354	11706.85
511.722	11775.33
512.09	11832.05
512.458	11830.24
512.826	11901.42
513.193	11957.47
513.561	11955.21
513.929	12057.58
514.297	12153.17
514.664	12275.65
515.032	12230.23
515.4	12300.74
515.767	12261.64
516.135	12344.35
516.502	12311.36
516.869	12526.04
517.237	12523.1
517.604	12508.41
517.972	12556.77
518.339	12573.72
518.706	12592.71
519.073	12582.99
519.44	12667.05
519.808	12780.05
520.175	12627.28
520.542	12836.99
520.909	12882.19
521.276	12850.33
521.643	12898.69
522.009	13024.33
522.376	13012.36
522.743	13035.86
523.11	13163.31
523.477	13182.07
523.843	13164.22
524.21	13275.17
524.577	13387.26
524.943	13281.73
525.31	13362.85
525.676	13459.8
526.043	13453.47
526.409	13423.64
526.776	13575.73
527.142	13478.33
527.508	13561.27
527.874	13527.37
528.241	13587.71
528.607	13523.98
528.973	13628.38
529.339	13563.08
529.705	13641.27
530.071	13596.52
530.437	13691.89
530.803	13679.68
531.169	13746.57
531.535	13660.7
531.901	13627.48
532.267	13655.73
532.632	13701.6
532.998	13669.06
533.364	13768.95
533.73	13620.93
534.095	13684.43
534.461	13724.43
534.826	13670.64
535.192	13637.42
535.557	13782.28
535.923	13630.19
536.288	13610.76
536.653	13577.54
537.019	13526.47
537.384	13506.58
537.749	13569.4
538.114	13457.32
538.479	13473.36
538.845	13461.61
539.21	13331.44
539.575	13421.38
539.94	13323.08
540.305	13485.56
540.67	13351.56
541.034	13330.54
541.399	13315.4
541.764	13340.71
542.129	13218.45
542.494	13267.49
542.858	13208.06
543.223	13153.82
543.587	13185.46
543.952	13077.66
544.316	13096.87
544.681	12992.92
545.045	12979.59
545.41	13073.14
545.774	12933.71
546.138	12906.6
546.503	12877.9
546.867	12815.07
547.231	12839.03
547.595	12926.03
547.959	12785.24
548.324	12789.99
548.688	12741.85
549.052	12790.21
549.416	12681.74
549.779	12653.49
550.143	12660.27
550.507	12623.21
550.871	12627.51
551.235	12579.82
551.599	12663.21
551.962	12587.28
552.326	12582.54
552.689	12545.48
553.053	12416.21
553.417	12407.4
553.78	12516.55
554.143	12406.95
554.507	12445.59
554.87	12427.29
555.234	12457.12
555.597	12329.21
555.96	12334.41
556.323	12419.15
556.686	12306.61
557.05	12328.53
557.413	12396.1
557.776	12326.05
558.139	12351.81
558.502	12298.93
558.865	12235.65
559.228	12292.83
559.59	12304.35
559.953	12315.42
560.316	12325.82
560.679	12316.1
561.041	12401.98
561.404	12303.45
561.767	12279.72
562.129	12355.42
562.492	12408.3
562.854	12303
563.217	12256.22
563.579	12359.49
563.941	12336.44
564.304	12429.77
564.666	12422.54
565.028	12363.33
565.39	12424.35
565.753	12460.96
566.115	12425.03
566.477	12461.86
566.839	12462.31
567.201	12481.07
567.563	12393.16
567.925	12591.35
568.287	12593.38
568.648	12524.68
569.01	12500.96
569.372	12558.36
569.734	12544.35
570.095	12613.72
570.457	12540.05
570.819	12641.07
571.18	12578.69
571.542	12613.72
571.903	12693.27
572.265	12676.09
572.626	12696.21
572.987	12667.73
573.349	12777.79
573.71	12714.51
574.071	12753.15
574.432	12751.57
574.794	12727.17
575.155	12699.14
575.516	12719.48
575.877	12786.6
576.238	12759.93
576.599	12770.55
576.96	12795.41
577.32	12708.86
577.681	12756.32
578.042	12745.92
578.403	12852.59
578.763	12785.92
579.124	12790.67
579.485	12817.11
579.845	12790.67
580.206	12783.44
580.566	12819.14
580.927	12754.06
581.287	12898.01
581.648	12777.11
582.008	12797.22
582.368	12821.17
582.728	12791.8
583.089	12721.52
583.449	12749.31
583.809	12828.18
584.169	12813.26
584.529	12755.64
584.889	12828.18
585.249	12785.02
585.609	12709.76
585.969	12781.18
586.329	12754.28
586.688	12717
587.048	12685.13
587.408	12699.82
587.768	12695.75
588.127	12671.57
588.487	12597.68
588.846	12690.56
589.206	12620.73
589.565	12662.08
589.925	12703.89
590.284	12696.88
590.643	12625.25
591.003	12669.54
591.362	12690.56
591.721	12668.64
592.08	12590.67
592.44	12561.75
592.799	12599.26
593.158	12606.72
593.517	12578.69
593.876	12707.73
594.235	12545.93
594.593	12511.13
594.952	12596.32
595.311	12492.82
595.67	12582.54
596.029	12577.56
596.387	12585.7
596.746	12610.33
597.104	12533.05
597.463	12533.5
597.822	12489.66
598.18	12521.75
598.538	12470.22
598.897	12540.5
599.255	12395.87
599.613	12606.94
599.972	12488.75
600.33	12577.56
600.688	12507.74
601.046	12603.1
601.404	12621.18
601.762	12578.92
602.12	12590.45
602.478	12592.71
602.836	12558.36
603.194	12523.1
603.552	12547.74
603.91	12442.2
604.268	12566.94
604.625	12449.88
604.983	12572.82
605.341	12505.93
605.698	12607.39
606.056	12521.97
606.413	12560.39
606.771	12619.37
607.128	12600.39
607.485	12510.45
607.843	12573.72
608.2	12644.46
608.557	12660.5
608.914	12606.04
609.272	12688.97
609.629	12614.4
609.986	12739.82
610.343	12713.61
610.7	12724.68
611.057	12673.38
611.414	12717.9
611.771	12700.95
612.127	12706.83
612.484	12759.48
612.841	12771.46
613.198	12727.62
613.554	12675.42
613.911	12820.95
614.267	12759.48
614.624	12838.12
614.98	12783.44
615.337	12833.6
615.693	12830.21
616.05	12878.8
616.406	12913.83
616.762	12879.25
617.118	12948.4
617.475	12862.3
617.831	12877.67
618.187	12924
618.543	12916.09
618.899	12893.94
619.255	12897.78
619.611	12902.3
619.967	12972.13
620.323	12991.57
620.678	12952.7
621.034	12890.32
621.39	12941.4
621.746	12844.9
622.101	12968.74
622.457	12938.69
622.812	12986.59
623.168	13016.88
623.523	12921.28
623.879	13019.59
624.234	12911.79
624.589	12955.18
624.945	12949.08
625.3	12935.07
625.655	12937.1
626.01	12932.81
626.365	12962.64
626.72	12929.19
627.075	12993.83
627.43	12876.09
627.785	12938.69
628.14	12981.4
628.495	12994.95
628.85	12930.55
629.205	12936.43
629.559	12968.74
629.914	12872.92
630.269	12855.07
630.623	12867.95
630.978	12859.37
631.332	12876.99
631.687	12880.83
632.041	12877.9
632.396	12771.91
632.75	12736.2
633.104	12782.53
633.459	12767.39
633.813	12744.34
634.167	12722.65
634.521	12641.97
634.875	12712.25
635.229	12756.77
635.583	12584.8
635.937	12686.26
636.291	12573.05
636.645	12627.73
636.999	12570.56
637.352	12673.83
637.706	12546.61
638.06	12593.38
638.413	12473.16
638.767	12578.47
639.121	12645.59
639.474	12378.47
639.828	12514.74
640.181	12511.35
640.534	12455.08
640.888	12447.4
641.241	12439.26
641.594	12499.37
641.947	12507.28
642.301	12442.65
642.654	12465.48
643.007	12471.58
643.36	12359.04
643.713	12350.9
644.066	12471.58
644.419	12458.7
644.771	12214.18
645.124	12187.97
645.477	12169.67
645.83	12062.1
646.182	12013.06
646.535	12050.35
646.888	12037.69
647.24	12025.04
647.593	12007.18
647.945	12029.33
648.298	11951.37
648.65	11927.64
649.002	11895.77
649.355	11965.6
649.707	11940.97
650.059	12004.25
650.411	12088.09
650.763	12135.99
651.115	12350.68
651.467	12201.76
651.819	12212.83
652.171	12249.66
652.523	12143
652.875	12184.13
653.227	12160.63
653.578	12227.97
653.93	12255.77
654.282	12190.23
654.633	12154.07
654.985	12170.57
655.337	12188.65
655.688	12237.91
656.039	12244.01
656.391	12126.5
656.742	12146.16
657.094	12229.78
657.445	12222.09
657.796	12168.08
658.147	12180.74
658.498	12234.3
658.849	12243.79
659.2	12219.83
659.551	12112.49
659.902	12127.63
660.253	12272.94
660.604	12242.88
660.955	12206.95
661.306	12231.36
661.656	12181.87
662.007	12204.92
662.358	12268.65
662.708	12338.25
663.059	12267.29
663.409	12118.14
663.76	12265.03
664.11	12307.06
664.461	12278.36
664.811	12321.07
665.161	12222.09
665.511	12227.52
665.862	12259.61
666.212	12214.64
666.562	12299.38
666.912	12209.89
667.262	12286.72
667.612	12267.52
667.962	12307.97
668.312	12237.91
668.662	12233.39
669.011	12215.54
669.361	12230.46
669.711	12211.25
670.06	12226.16
670.41	12278.36
670.76	12188.87
671.109	12236.78
671.459	12306.39
671.808	12192.49
672.157	12286.27
672.507	12174.86
672.856	12160.4
673.205	12203.11
673.554	12230.91
673.904	12126.73
674.253	12223.22
674.602	12273.84
674.951	12026.84
675.3	11959.95
675.649	12089.44
675.998	12099.39
676.346	12073.85
676.695	12110.91
677.044	12075.66
677.393	12118.82
677.741	12081.53
678.09	12042.89
678.438	12029.1
678.787	12046.28
679.135	12081.76
679.484	11901.88
679.832	11965.38
680.181	11912.27
680.529	11892.84
680.877	11962.44
681.225	11826.4
681.573	11964.02
681.922	11818.94
682.27	11856.23
682.618	11774.87
682.966	11756.57
683.314	11811.03
683.661	11804.48
684.009	11573.75
684.357	11665.72
684.705	11635.44
685.053	11713.63
685.4	11561.55
685.748	11564.94
686.095	11540.98
686.443	11504.15
686.79	11459.85
687.138	11451.04
687.485	11524.94
687.832	11439.52
688.18	11458.05
688.527	11366.07
688.874	11427.76
689.221	11341.21
689.568	11272.97
689.915	11289.46
690.262	11310.48
690.609	11219.41
690.956	11216.7
691.303	11153.65
691.65	11157.26
691.997	11080.88
692.344	11083.82
692.69	10987.78
693.037	11049.7
693.383	10898.06
693.73	10891.73
694.077	10846.99
694.423	10774
694.769	10844.28
695.116	10810.83
695.462	10742.13
695.808	10691.29
696.155	10729.25
696.501	10618.29
696.847	10559.31
697.193	10532.42
697.539	10617.39
697.885	10488.58
698.231	10468.92
698.577	10440.22
698.923	10424.4
699.269	10351.86
699.614	10291.75
699.96	10235.25
700.306	10256.27
700.651	10167.23
700.997	10242.26
701.342	10140.34
701.688	10103.28
702.033	10031.42
702.379	10062.38
702.724	9971.53
703.069	10044.98
703.415	9855.15
703.76	9927.92
704.105	9907.8
704.45	9919.56
704.795	9817.19
705.14	9742.39
705.485	9755.27
705.83	9763.85
706.175	9732.89
706.52	9756.85
706.865	9641.14
707.209	9682.5
707.554	9654.93
707.899	9611.54
708.243	9580.36
708.588	9515.72
708.932	9493.58
709.277	9480.47
709.621	9449.29
709.966	9373.81
710.31	9403.18
710.654	9331.55
710.998	9362.96
711.342	9337.65
711.687	9334.94
712.031	9286.58
712.375	9222.17
712.719	9213.59
713.063	9239.12
713.407	9286.8
713.75	9232.57
714.094	9173.59
714.438	9158.67
714.782	9142.85
715.125	9061.05
715.469	9111.22
715.812	9005.68
716.156	9027.38
716.499	9005.23
716.843	9017.43
717.186	8970.88
717.53	9012.91
717.873	8977.21
718.216	8963.87
718.559	8905.8
718.902	8927.04
719.246	8925.46
719.589	8948.28
719.932	8846.36
720.275	8821.05
720.617	8842.52
720.96	8866.93
721.303	8825.35
721.646	8800.49
721.989	8737.44
722.331	8878.9
722.674	8861.96
723.016	8825.35
723.359	8824.67
723.701	8764.56
724.044	8708.06
724.386	8729.08
724.729	8749.42
725.071	8742.19
725.413	8736.31
725.755	8723.88
726.097	8711
726.439	8668.06
726.782	8626.93
727.124	8738.12
727.465	8670.1
727.807	8663.09
728.149	8613.38
728.491	8623.54
728.833	8617.22
729.175	8640.95
729.516	8620.38
729.858	8609.99
730.199	8636.43
730.541	8580.61
730.882	8577.22
731.224	8615.86
731.565	8610.89
731.906	8631.68
732.248	8636.2
732.589	8523.21
732.93	8522.98
733.271	8526.82
733.612	8573.15
733.953	8540.16
734.294	8540.38
734.635	8535.64
734.976	8550.33
735.317	8485.02
735.658	8477.79
735.999	8487.73
736.339	8506.03
736.68	8615.18
737.021	8576.31
737.361	8546.94
737.702	8588.52
738.042	8565.01
738.383	8571.57
738.723	8650.66
739.063	8572.7
739.404	8603.21
739.744	8655.86
740.084	8620.15
740.424	8659.25
740.764	8673.03
741.104	8710.77
741.444	8696.54
741.784	8701.96
742.124	8685.24
742.464	8720.72
742.804	8753.26
743.143	8732.69
743.483	8752.35
743.823	8789.42
744.162	8790.55
744.502	8861.96
744.841	8791.68
745.181	8890.88
745.52	8862.86
745.86	8989.18
746.199	8946.25
746.538	9053.14
746.877	9087.94
747.216	9123.87
747.556	9110.09
747.895	9158.45
748.234	9183.3
748.573	9203.87
748.911	9212.91
749.25	9324.77
749.589	9341.27
749.928	9470.98
750.267	9565.89
750.605	9569.28
750.944	9601.37
751.283	9642.05
751.621	9816.51
751.96	9879.56
752.298	9987.8
752.636	10105.31
752.975	10124.3
753.313	10217.4
753.651	10386.66
753.989	10322.71
754.327	10499.65
754.666	10544.17
755.004	10709.59
755.342	10843.83
755.679	10975.12
756.017	11046.53
756.355	11147.32
756.693	11297.6
757.031	11517.71
757.368	11588.21
757.706	11757.47
758.044	11884.02
758.381	12034.08
758.719	12204.02
759.056	12339.38
