Data from hue_28_FLMS001491_00049.txt Node
Date: Tue Feb 07 17:17:21 GMT 2017
User: dcchb
Spectrometer: FLMS00149
Trigger mode: 0
Integration Time (sec): 2.000000E-2
Scans to average: 10
Electric dark correction enabled: true
Nonlinearity correction enabled: false
Boxcar width: 0
XAxis mode: Wavelengths
Number of Pixels in Spectrum: 2048
>>>>>Begin Spectral Data<<<<<
341.393	-18.71
341.776	-18.71
342.16	-18.71
342.543	-46.96
342.927	-52.84
343.31	-75.66
343.693	-66.85
344.077	-74.53
344.46	-57.81
344.843	-42.67
345.226	-35.44
345.61	-33.4
345.993	-2.9
346.376	-4.03
346.759	17.67
347.142	-0.86
347.525	31.68
347.908	70.1
348.291	69.87
348.674	99.93
349.057	104.9
349.44	114.16
349.823	145.12
350.206	153.26
350.588	188.74
350.971	233.26
351.354	219.47
351.737	237.55
352.119	245.69
352.502	252.01
352.884	279.81
353.267	301.05
353.65	310.54
354.032	313.93
354.414	313.03
354.797	327.27
355.179	318.9
355.562	338.56
355.944	307.6
356.326	332.46
356.709	338.56
357.091	336.98
357.473	350.09
357.855	336.98
358.238	351.9
358.62	342.41
359.002	344.21
359.384	364.1
359.766	334.5
360.148	348.73
360.53	357.1
360.912	330.2
361.294	340.37
361.676	345.8
362.057	346.25
362.439	312.8
362.821	324.55
363.203	338.34
363.584	313.48
363.966	317.32
364.348	319.58
364.729	329.75
365.111	324.78
365.493	320.26
365.874	318.9
366.256	321.84
366.637	298.11
367.019	320.26
367.4	319.81
367.781	302.63
368.163	317.77
368.544	318
368.925	310.09
369.306	330.43
369.688	297.89
370.069	292.69
370.45	299.24
370.831	302.18
371.212	319.81
371.593	307.83
371.974	291.56
372.355	303.99
372.736	339.02
373.117	331.56
373.498	337.21
373.879	308.28
374.26	322.97
374.641	312.8
375.021	318.9
375.402	324.78
375.783	321.39
376.163	319.81
376.544	335.85
376.925	326.14
377.305	322.29
377.686	318.9
378.066	331.79
378.447	330.88
378.827	359.13
379.208	331.79
379.588	329.75
379.968	333.82
380.349	327.27
380.729	336.53
381.109	346.47
381.489	315.97
381.87	325.91
382.25	346.93
382.63	338.34
383.01	326.59
383.39	363.42
383.77	347.38
384.15	329.75
384.53	360.03
384.91	328.62
385.29	349.86
385.67	357.1
386.049	364.33
386.429	357.55
386.809	340.6
387.189	344.21
387.568	350.54
387.948	329.98
388.328	378.11
388.707	363.65
389.087	332.46
389.466	360.03
389.846	360.03
390.225	365.68
390.605	373.59
390.984	345.8
391.363	370.2
391.743	366.59
392.122	382.63
392.501	379.47
392.881	373.82
393.26	364.33
393.639	392.35
394.018	371.11
394.397	390.31
394.776	366.36
395.155	404.55
395.534	376.98
395.913	379.24
396.292	391.44
396.671	400.26
397.05	402.97
397.429	379.69
397.808	390.77
398.186	381.28
398.565	418.56
398.944	424.66
399.323	380.15
399.701	383.54
400.08	404.1
400.458	417.66
400.837	409.52
401.215	424.21
401.594	404.55
401.972	436.64
402.351	394.38
402.729	399.13
403.107	429.41
403.486	413.82
403.864	406.81
404.242	433.03
404.62	425.57
404.999	426.7
405.377	407.26
405.755	421.5
406.133	439.58
406.511	429.18
406.889	427.38
407.267	435.51
407.645	441.16
408.023	430.31
408.401	447.49
408.779	439.13
409.156	454.72
409.534	436.64
409.912	473.02
410.29	461.27
410.667	432.8
411.045	452.23
411.422	444.1
411.8	472.12
412.178	458.56
412.555	444.55
412.933	468.96
413.31	468.96
413.687	482.52
414.065	468.96
414.442	473.7
414.819	481.39
415.197	492.46
415.574	480.71
415.951	510.31
416.328	475.51
416.705	504.89
417.082	485.91
417.46	501.05
417.837	510.54
418.214	506.92
418.591	497.66
418.967	509.41
419.344	506.02
419.721	508.28
420.098	529.52
420.475	513.7
420.852	504.21
421.228	525.9
421.605	539.92
421.982	514.61
422.358	508.28
422.735	539.69
423.111	551.89
423.488	532.68
423.864	528.84
424.241	557.09
424.617	548.28
424.994	560.03
425.37	563.42
425.746	567.71
426.123	565
426.499	533.81
426.875	569.52
427.251	570.87
427.627	588.73
428.003	581.72
428.379	582.17
428.756	596.41
429.132	614.04
429.507	581.95
429.883	619.46
430.259	620.82
430.635	602.29
431.011	614.72
431.387	632.34
431.763	644.32
432.138	617.65
432.514	641.38
432.89	643.19
433.265	670.08
433.641	666.92
434.016	666.92
434.392	647.93
434.767	658.1
435.143	658.33
435.518	662.85
435.894	700.14
436.269	685.9
436.644	712.57
437.02	701.72
437.395	701.49
437.77	721.83
438.145	720.25
438.52	735.62
438.895	712.57
439.271	698.78
439.646	737.2
440.021	739.23
440.395	744.43
440.77	743.75
441.145	753.02
441.52	755.5
441.895	766.12
442.27	761.15
442.645	760.02
443.019	768.38
443.394	788.04
443.769	746.01
444.143	758.67
444.518	789.85
444.892	791.66
445.267	792.34
445.641	802.28
446.016	786.46
446.39	807.03
446.764	832.11
447.139	816.29
447.513	789.17
447.887	799.12
448.262	827.82
448.636	801.15
449.01	831.21
449.384	830.3
449.758	847.03
450.132	840.7
450.506	842.28
450.88	837.76
451.254	857.19
451.628	844.77
452.002	863.97
452.376	899
452.75	889.28
453.123	893.35
453.497	925.22
453.871	905.78
454.244	914.82
454.618	924.31
454.992	924.99
455.365	950.3
455.739	961.37
456.112	965.21
456.486	979.45
456.859	967.25
457.232	985.1
457.606	1000.69
457.979	1019.68
458.352	987.36
458.725	1032.33
459.099	1026.46
459.472	1044.99
459.845	1041.37
460.218	1043.86
460.591	1075.27
460.964	1077.98
461.337	1121.14
461.71	1124.76
462.083	1108.71
462.456	1115.95
462.829	1126.11
463.201	1157.98
463.574	1148.94
463.947	1173.57
464.32	1191.2
464.692	1182.38
465.065	1214.25
465.438	1235.04
465.81	1216.96
466.183	1251.31
466.555	1266.22
466.928	1262.61
467.3	1261.7
467.672	1305.77
468.045	1326.34
468.417	1331.08
468.789	1333.57
469.161	1353.91
469.534	1368.37
469.906	1416.05
470.278	1400.46
470.65	1419.67
471.022	1466.44
471.394	1488.59
471.766	1510.29
472.138	1520.23
472.51	1575.59
472.882	1587.57
473.253	1579.44
473.625	1628.25
473.997	1677.74
474.369	1629.15
474.74	1654.91
475.112	1727.23
475.484	1760.67
475.855	1760
476.227	1803.16
476.598	1875.7
476.97	1869.82
477.341	1913.44
477.713	1926.32
478.084	1978.3
478.455	2015.58
478.827	2016.26
479.198	2084.96
479.569	2106.43
479.94	2144.17
480.311	2209.93
480.682	2265.75
481.053	2323.82
481.424	2329.25
481.795	2356.14
482.166	2404.5
482.537	2491.05
482.908	2508.68
483.279	2551.84
483.65	2626.19
484.021	2688.33
484.391	2701.67
484.762	2737.6
485.133	2733.3
485.503	2837.26
485.874	2912.73
486.244	2935.33
486.615	2980.08
486.985	3082.67
487.356	3086.29
487.726	3159.96
488.097	3221.88
488.467	3268.21
488.837	3295.77
489.207	3383
489.578	3438.82
489.948	3482.66
490.318	3554.3
490.688	3579.38
491.058	3637.46
491.428	3719.94
491.798	3776.44
492.168	3822.31
492.538	3875.65
492.908	3872.03
493.278	3956.55
493.648	3985.7
494.017	4099.37
494.387	4147.5
494.757	4143.89
495.126	4202.64
495.496	4210.33
495.866	4265.01
496.235	4337.78
496.605	4340.27
496.974	4421.62
497.344	4477.21
497.713	4537.78
498.082	4513.82
498.452	4568.28
498.821	4630.2
499.19	4628.62
499.559	4678.79
499.928	4768.5
500.298	4774.38
500.667	4806.7
501.036	4818.45
501.405	4876.07
501.774	4832.01
502.143	4946.58
502.512	4957.2
502.88	5005.79
503.249	4998.78
503.618	5099.34
503.987	5082.17
504.356	5140.02
504.724	5195.39
505.093	5161.94
505.462	5246.46
505.83	5271.09
506.199	5295.04
506.567	5341.37
506.936	5346.79
507.304	5406.68
507.672	5473.8
508.041	5503.4
508.409	5477.41
508.777	5537.3
509.145	5565.09
509.514	5619.1
509.882	5586.11
510.25	5636.5
510.618	5740
510.986	5696.62
511.354	5710.63
511.722	5811.87
512.09	5811.19
512.458	5797.4
512.826	5927.12
513.193	5907.23
513.561	5903.62
513.929	5951.98
514.297	5997.62
514.664	6043.5
515.032	6061.8
515.4	6111.75
515.767	6128.47
516.135	6127.34
516.502	6087.57
516.869	6252.99
517.237	6245.75
517.604	6277.39
517.972	6248.69
518.339	6320.1
518.706	6296.37
519.073	6299.54
519.44	6385.64
519.808	6420.44
520.175	6385.86
520.542	6480.1
520.909	6519.42
521.276	6524.16
521.643	6550.6
522.009	6635.57
522.376	6584.95
522.743	6647.55
523.11	6688.45
523.477	6751.05
523.843	6778.85
524.21	6865.62
524.577	6899.75
524.943	6901.56
525.31	6972.29
525.676	6993.53
526.043	7073.3
526.409	7066.52
526.776	7110.14
527.142	7166.41
527.508	7183.36
527.874	7245.95
528.241	7295.44
528.607	7329.34
528.973	7371.37
529.339	7399.4
529.705	7434.65
530.071	7453.18
530.437	7540.18
530.803	7537.92
531.169	7526.4
531.535	7587.64
531.901	7653.17
532.267	7620.41
532.632	7752.83
532.998	7696.56
533.364	7747.41
533.73	7746.73
534.095	7831.47
534.461	7873.28
534.826	7887.97
535.192	7986.95
535.557	7993.05
535.923	7990.79
536.288	8044.58
536.653	8087.74
537.019	8120.05
537.384	8084.12
537.749	8161.41
538.114	8135.65
538.479	8166.61
538.845	8195.53
539.21	8284.8
539.575	8308.75
539.94	8348.07
540.305	8477.79
540.67	8384.91
541.034	8439.37
541.399	8503.55
541.764	8479.82
542.129	8523.21
542.494	8525.92
542.858	8590.1
543.223	8612.92
543.587	8641.4
543.952	8656.54
544.316	8718.91
544.681	8684.11
545.045	8829.87
545.41	8860.83
545.774	8853.82
546.138	8847.27
546.503	8909.19
546.867	8873.48
547.231	8980.82
547.595	9090.42
547.959	9046.58
548.324	9135.4
548.688	9095.85
549.052	9115.06
549.416	9171.55
549.779	9209.07
550.143	9236.86
550.507	9319.12
550.871	9333.36
551.235	9362.51
551.599	9412.22
551.962	9501.94
552.326	9461.94
552.689	9528.83
553.053	9486.8
553.417	9530.87
553.78	9615.61
554.143	9618.77
554.507	9672.33
554.87	9679.34
555.234	9760.69
555.597	9720.24
555.96	9742.84
556.323	9784.42
556.686	9791.2
557.05	9866.45
557.413	9852.21
557.776	9942.83
558.139	9958.65
558.502	9993.9
558.865	10063.73
559.228	10086.33
559.59	10084.97
559.953	10067.8
560.316	10287
560.679	10185.76
561.041	10261.47
561.404	10264.63
561.767	10354.35
562.129	10311.41
562.492	10442.03
562.854	10399.54
563.217	10451.52
563.579	10477.73
563.941	10576.94
564.304	10575.58
564.666	10596.6
565.028	10674.56
565.39	10739.87
565.753	10690.38
566.115	10721.79
566.477	10805.63
566.839	10830.04
567.201	10977.83
567.563	10903.71
567.925	11088.34
568.287	10964.5
568.648	10977.61
569.01	11034.33
569.372	11097.15
569.734	11168.79
570.095	11234.1
570.457	11288.33
570.819	11276.36
571.18	11308.45
571.542	11394.77
571.903	11462.34
572.265	11464.15
572.626	11576.01
572.987	11544.37
573.349	11703.69
573.71	11698.27
574.071	11763.8
574.432	11891.26
574.794	12032.49
575.155	12016
575.516	12011.7
575.877	12084.24
576.238	12180.06
576.599	12312.49
576.96	12342.32
577.32	12434.07
577.681	12477.68
578.042	12686.04
578.403	12678.81
578.763	12765.13
579.124	12881.51
579.485	13020.72
579.845	13146.82
580.206	13209.19
580.566	13285.34
580.927	13501.16
581.287	13579.12
581.648	13705.44
582.008	13907.02
582.368	13995.38
582.728	14137.98
583.089	14288.25
583.449	14372.09
583.809	14685.76
584.169	14856.37
584.529	14916.26
584.889	15263.6
585.249	15349.92
585.609	15550.37
585.969	15851.83
586.329	15966.63
586.688	16235.77
587.048	16421.31
587.408	16632.37
587.768	16880.5
588.127	17085.02
588.487	17290.89
588.846	17612.01
589.206	17833.25
589.565	18107.14
589.925	18411.08
590.284	18641.59
590.643	18969.26
591.003	19243.83
591.362	19627.1
591.721	19801.33
592.08	20050.36
592.44	20250.58
592.799	20632.72
593.158	20806.5
593.517	21228.64
593.876	21390.67
594.235	21708.85
594.593	21965.11
594.952	22408.72
595.311	22604.87
595.67	22969.38
596.029	23318.75
596.387	23681.45
596.746	23960.54
597.104	24079.41
597.463	24405.95
597.822	24798.71
598.18	25051.14
598.538	25147.4
598.897	25665.81
599.255	25731.8
599.613	26454.26
599.972	26544.43
600.33	26880.24
600.688	27069.61
601.046	27383.96
601.404	27745.53
601.762	27967.89
602.12	28404.27
602.478	28644.26
602.836	28869.79
603.194	29045.61
603.552	29305.71
603.91	29644.91
604.268	29915.41
604.625	30113.37
604.983	30429.75
605.341	30546.81
605.698	31054.59
606.056	31195.38
606.413	31567.57
606.771	31830.17
607.128	32071.74
607.485	32179.99
607.843	32339.31
608.2	32799.86
608.557	33099.29
608.914	33123.69
609.272	33358.26
609.629	33742.43
609.986	34004.12
610.343	34038.02
610.7	34432.58
611.057	34489.76
611.414	34680.26
611.771	34818.34
612.127	35061.27
612.484	35343.52
612.841	35723.85
613.198	35605.66
613.554	35836.84
613.911	36206.77
614.267	36308.24
614.624	36468.91
614.98	36695.8
615.337	36919.98
615.693	37178.27
616.05	37129.24
616.406	37376.01
616.762	37463.01
617.118	37612.61
617.475	37846.96
617.831	37922.44
618.187	38109.55
618.543	38335.08
618.899	38673.83
619.255	38659.14
619.611	38630.89
619.967	38857.33
620.323	39169.18
620.678	38916.53
621.034	39016.42
621.39	39138.9
621.746	39206.7
622.101	39699.34
622.457	39573.24
622.812	39776.85
623.168	39787.47
623.523	39776.62
623.879	40011.87
624.234	39910.18
624.589	40067.46
624.945	40095.71
625.3	40358.08
625.655	40329.83
626.01	40445.53
626.365	40529.82
626.72	40566.66
627.075	40569.15
627.43	40657.5
627.785	40674.91
628.14	40770.95
628.495	40902.7
628.85	40948.34
629.205	40819.99
629.559	41055.91
629.914	40955.58
630.269	40961.9
630.623	41052.07
630.978	41060.88
631.332	41252.97
631.687	41422.46
632.041	41244.16
632.396	41269.47
632.75	41226.98
633.104	41327.54
633.459	41345.85
633.813	41287.77
634.167	41196.93
634.521	41215.91
634.875	41356.24
635.229	41195.8
635.583	41308.79
635.937	41179.98
636.291	41200.77
636.645	41280.54
636.999	41211.61
637.352	41237.15
637.706	41287.77
638.06	41347.88
638.413	41206.19
638.767	41157.6
639.121	41224.5
639.474	41081
639.828	41095.46
640.181	41128
640.534	41159.19
640.888	41175
641.241	40926.2
641.594	41088.23
641.947	41207.32
642.301	40969.81
642.654	41105.85
643.007	41125.74
643.36	41173.2
643.713	41015.24
644.066	41380.42
644.419	40908.35
644.771	40693.44
645.124	40339.32
645.477	40297.06
645.83	40147.24
646.182	39998.09
646.535	39912.44
646.888	39998.31
647.24	39709.51
647.593	39986.34
647.945	39847.13
648.298	39773.23
648.65	39607.81
649.002	39555.61
649.355	39836.51
649.707	39808.71
650.059	39961.48
650.411	40303.84
650.763	40322.6
651.115	40775.24
651.467	40716.71
651.819	40608.69
652.171	40409.15
652.523	40422.71
652.875	40459.09
653.227	40307.68
653.578	40434.69
653.93	40503.16
654.282	40365.31
654.633	40265.65
654.985	40372.31
655.337	40326.21
655.688	40392.65
656.039	40648.69
656.391	40184.75
656.742	40343.16
657.094	40350.39
657.445	40431.97
657.796	40323.28
658.147	40248.25
658.498	40330.51
658.849	40404.4
659.2	40285.08
659.551	40201.7
659.902	40322.82
660.253	40322.6
660.604	40354.46
660.955	40217.29
661.306	40275.14
661.656	40140
662.007	40290.06
662.358	40341.81
662.708	40238.08
663.059	40237.18
663.409	40044.41
663.76	40299.55
664.11	40220.23
664.461	40387.23
664.811	40289.83
665.161	40364.86
665.511	40109.04
665.862	40197.63
666.212	40224.97
666.562	40335.25
666.912	40161.25
667.262	40173.22
667.612	40119.67
667.962	40211.64
668.312	40109.95
668.662	40195.14
669.011	40201.25
669.361	40087.58
669.711	40117.18
670.06	40039.22
670.41	40038.09
670.76	40133
671.109	40085.99
671.459	40049.84
671.808	39918.09
672.157	39948.82
672.507	39785.21
672.856	39837.86
673.205	39967.81
673.554	39968.93
673.904	39878.32
674.253	40008.48
674.602	39928.03
674.951	39324.66
675.3	39143.19
675.649	39688.49
675.998	39630.86
676.346	39724.87
676.695	39881.25
677.044	39627.47
677.393	39721.48
677.741	39770.75
678.09	39509.06
678.438	39498.44
678.787	39617.53
679.135	39665.21
679.484	39481.94
679.832	39518.55
680.181	39392.45
680.529	39459.34
680.877	39295.96
681.225	39253.25
681.573	39485.56
681.922	39296.41
682.27	39092.8
682.618	39148.17
682.966	39125.79
683.314	39276.52
683.661	39043.08
684.009	38925.8
684.357	38729.87
684.705	38776.42
685.053	38855.97
685.4	38809.87
685.748	38639.7
686.095	38540.95
686.443	38518.13
686.79	38395.87
687.138	38372.37
687.485	38327.85
687.832	38317.68
688.18	38258.25
688.527	38023.9
688.874	38076.1
689.221	38025.48
689.568	37941.87
689.915	37926.95
690.262	37764.02
690.609	37626.62
690.956	37534.42
691.303	37648.77
691.65	37403.8
691.997	37373.07
692.344	37186.64
692.69	37053.08
693.037	37124.26
693.383	36942.8
693.73	37012.63
694.077	36818.06
694.423	36747.55
694.769	36678.63
695.116	36579.65
695.462	36622.13
695.808	36437.05
696.155	36497.16
696.501	36265.3
696.847	36157.96
697.193	35948.48
697.539	36109.6
697.885	35908.25
698.231	35849.04
698.577	35754.58
698.923	35675.71
699.269	35651.31
699.614	35379.23
699.96	35356.4
700.306	35294.71
700.651	35104.2
700.997	35139.91
701.342	34903.08
701.688	35023.3
702.033	34929.97
702.379	34815.62
702.724	34780.6
703.069	34886.81
703.415	34310.55
703.76	34580.83
704.105	34441.62
704.45	34375.64
704.795	34075.76
705.14	34095.87
705.485	34094.06
705.83	33934.74
706.175	33911.92
706.52	33799.83
706.865	33754.64
707.209	33776.33
707.554	33588.31
707.899	33654.52
708.243	33461.31
708.588	33361.65
708.932	33168.44
709.277	33312.39
709.621	33324.36
709.966	32983.13
710.31	33099.96
710.654	32833.53
710.998	32843.92
711.342	32985.62
711.687	32707.66
712.031	32584.27
712.375	32570.03
712.719	32610.94
713.063	32577.94
713.407	32692.29
713.75	32334.33
714.094	32444.16
714.438	32316.03
714.782	32285.07
715.125	32090.27
715.469	32272.64
715.812	32105.64
716.156	31883.05
716.499	31896.6
716.843	32005.08
717.186	31854.12
717.53	31779.32
717.873	31821.35
718.216	31718.3
718.559	31666.33
718.902	31391.99
719.246	31473.11
719.589	31400.8
719.932	31327.13
720.275	31247.81
720.617	31169.17
720.96	31180.69
721.303	31168.71
721.646	31055.27
721.989	30962.84
722.331	31034.48
722.674	30848.27
723.016	30971.21
723.359	30895.28
723.701	30916.29
724.044	30787.26
724.386	30575.06
724.729	30703.19
725.071	30610.31
725.413	30566.02
725.755	30565.11
726.097	30494.38
726.439	30265.69
726.782	30392.01
727.124	30464.33
727.465	30227.95
727.807	30313.82
728.149	30192.69
728.491	30192.02
728.833	30218.23
729.175	30011.23
729.516	29960.16
729.858	29881.97
730.199	30053.26
730.541	29925.13
730.882	29848.52
731.224	29860.95
731.565	29689.43
731.906	29790.9
732.248	29741.18
732.589	29648.98
732.93	29431.81
733.271	29587.06
733.612	29603.33
733.953	29540.06
734.294	29448.99
734.635	29391.81
734.976	29360.63
735.317	29113.63
735.658	29179.61
735.999	29229.56
736.339	29138.26
736.68	29148.65
737.021	29028.66
737.361	28955.44
737.702	29093.29
738.042	28922.67
738.383	28939.62
738.723	29009
739.063	28861.2
739.404	28934.87
739.744	28885.38
740.084	28648.33
740.424	28702.56
740.764	28627.76
741.104	28751.6
741.444	28561.1
741.784	28455.79
742.124	28519.74
742.464	28420.31
742.804	28465.06
743.143	28363.14
743.483	28320.88
743.823	28332.86
744.162	28186.42
744.502	28451.27
744.841	28159.75
745.181	28263.25
745.52	28069.81
745.86	28184.84
746.199	28127.66
746.538	28143.71
746.877	28073.43
747.216	28170.15
747.556	27977.39
747.895	27980.1
748.234	27771.74
748.573	27823.49
748.911	27783.04
749.25	27699.2
749.589	27602.25
749.928	27661.69
750.267	27668.92
750.605	27493.56
750.944	27536.27
751.283	27465.53
751.621	27501.47
751.96	27311.87
752.298	27369.94
752.636	27332.43
752.975	27168.37
753.313	27203.39
753.651	27323.84
753.989	27045.66
754.327	27124.75
754.666	27032.78
755.004	26876.4
755.342	27065.55
755.679	26887.02
756.017	26709.4
756.355	26835.72
756.693	26649.29
757.031	26774.93
757.368	26500.14
757.706	26460.14
758.044	26374.49
758.381	26408.84
758.719	26313.7
759.056	26422.85
759.394	26256.53
759.731	26013.37
760.068	26125.68
