Data from hue_90_FLMS001491_62.txt Node
Date: Mon Feb 06 15:25:27 GMT 2017
User: dcchb
Spectrometer: FLMS00149
Trigger mode: 0
Integration Time (sec): 2.000000E-2
Scans to average: 10
Electric dark correction enabled: true
Nonlinearity correction enabled: false
Boxcar width: 0
XAxis mode: Wavelengths
Number of Pixels in Spectrum: 2048
>>>>>Begin Spectral Data<<<<<
341.393	7.25
341.776	7.25
342.16	7.25
342.543	-64.16
342.927	-66.42
343.31	-61.23
343.693	-66.42
344.077	-47.22
344.46	-68.91
344.843	-72.98
345.226	-43.83
345.61	-24.39
345.993	-9.93
346.376	0.01
346.759	-6.09
347.142	27.13
347.525	33.91
347.908	74.59
348.291	60.58
348.674	101.93
349.057	102.84
349.44	121.82
349.823	141.03
350.206	146.22
350.588	195.26
350.971	231.19
351.354	232.1
351.737	239.1
352.119	258.31
352.502	267.58
352.884	280.91
353.267	280.68
353.65	309.61
354.032	279.78
354.414	291.08
354.797	303.96
355.179	337.63
355.562	317.52
355.944	320.23
356.326	319.55
356.709	348.71
357.091	348.48
357.473	347.12
357.855	343.51
358.238	356.61
358.62	326.11
359.002	362.94
359.384	341.7
359.766	352.32
360.148	348.71
360.53	345.09
360.912	344.41
361.294	350.74
361.676	356.16
362.057	339.21
362.439	348.03
362.821	316.62
363.203	343.06
363.584	333.34
363.966	327.69
364.348	334.69
364.729	326.56
365.111	324.75
365.493	322.72
365.874	322.49
366.256	320.01
366.637	334.69
367.019	317.29
367.4	324.3
367.781	332.89
368.163	322.49
368.544	305.99
368.925	317.75
369.306	303.73
369.688	310.06
370.069	333.56
370.45	312.32
370.831	308.03
371.212	312.77
371.593	320.46
371.974	309.61
372.355	331.3
372.736	311.87
373.117	334.24
373.498	309.16
373.879	309.61
374.26	313.9
374.641	333.56
375.021	315.03
375.402	352.55
375.783	320.01
376.163	328.37
376.544	337.18
376.925	346.22
377.305	340.34
377.686	334.02
378.066	348.25
378.447	332.43
378.827	339.21
379.208	331.3
379.588	342.83
379.968	349.61
380.349	341.25
380.729	345.99
381.109	321.14
381.489	352.1
381.87	354.58
382.25	350.51
382.63	343.73
383.01	350.51
383.39	353.68
383.77	337.18
384.15	347.8
384.53	345.32
384.91	362.26
385.29	350.97
385.67	365.65
386.049	345.99
386.429	356.61
386.809	348.93
387.189	386.9
387.568	352.1
387.948	362.72
388.328	358.65
388.707	370.85
389.087	373.11
389.466	372.21
389.846	377.63
390.225	394.35
390.605	367.24
390.984	357.52
391.363	394.35
391.743	392.09
392.122	370.17
392.501	370.4
392.881	406.78
393.26	382.38
393.639	403.39
394.018	386.67
394.397	393.45
394.776	376.5
395.155	374.47
395.534	385.99
395.913	398.42
396.292	400.46
396.671	406.33
397.05	410.4
397.429	413.34
397.808	390.74
398.186	405.2
398.565	399.33
398.944	411.08
399.323	395.94
399.701	402.94
400.08	406.56
400.458	406.11
400.837	404.75
401.215	406.33
401.594	414.24
401.972	427.8
402.351	414.92
402.729	420.79
403.107	413.56
403.486	438.19
403.864	428.93
404.242	424.41
404.62	435.26
404.999	434.13
405.377	427.12
405.755	438.87
406.133	452.88
406.511	441.13
406.889	438.19
407.267	463.05
407.645	453.34
408.023	462.15
408.401	456.73
408.779	463.28
409.156	487.01
409.534	470.96
409.912	463.05
410.29	479.78
410.667	450.85
411.045	470.96
411.422	457.86
411.8	461.47
412.178	497.4
412.555	488.36
412.933	503.5
413.31	490.85
413.687	494.24
414.065	506.44
414.442	505.76
414.819	503.28
415.197	512.09
415.574	522.03
415.951	497.4
416.328	517.29
416.705	534.92
417.082	538.98
417.46	551.19
417.837	541.92
418.214	533.33
418.591	520.9
418.967	545.54
419.344	556.38
419.721	555.48
420.098	552.32
420.475	540.11
420.852	575.37
421.228	568.81
421.605	536.05
421.982	556.16
422.358	554.58
422.735	571.07
423.111	582.82
423.488	594.35
423.864	596.83
424.241	599.09
424.617	614.24
424.994	584.86
425.37	608.13
425.746	577.4
426.123	615.59
426.499	603.84
426.875	614.91
427.251	622.14
427.627	638.42
428.003	613.33
428.379	639.32
428.756	632.09
429.132	650.62
429.507	644.52
429.883	661.01
430.259	668.02
430.635	670.73
431.011	671.63
431.387	660.11
431.763	698.53
432.138	696.72
432.514	704.85
432.89	712.09
433.265	703.27
433.641	727.45
434.016	722.26
434.392	736.04
434.767	717.74
435.143	736.94
435.518	745.31
435.894	762.03
436.269	772.88
436.644	758.64
437.02	768.13
437.395	761.58
437.77	750.28
438.145	811.97
438.52	795.93
438.895	822.82
439.271	767.45
439.646	812.2
440.021	796.38
440.395	840.67
440.77	841.8
441.145	829.6
441.52	850.16
441.895	842.25
442.27	864.17
442.645	845.64
443.019	850.61
443.394	877.73
443.769	877.73
444.143	862.59
444.518	879.99
444.892	875.47
445.267	880.89
445.641	887
446.016	904.85
446.39	905.98
446.764	909.14
447.139	907.11
447.513	927.45
447.887	922.25
448.262	931.52
448.636	932.19
449.01	915.24
449.384	936.94
449.758	963.83
450.132	945.75
450.506	976.26
450.88	962.47
451.254	965.41
451.628	974.68
452.002	997.28
452.376	1005.64
452.75	1017.61
453.123	1033.89
453.497	1057.61
453.871	1055.81
454.244	1067.33
454.618	1050.83
454.992	1077.27
455.365	1086.77
455.739	1097.39
456.112	1126.54
456.486	1118.85
456.859	1134.9
457.232	1162.47
457.606	1167.67
457.979	1171.28
458.352	1216.25
458.725	1225.97
459.099	1221.9
459.472	1261
459.845	1245.63
460.218	1243.15
460.591	1261.68
460.964	1263.03
461.337	1262.58
461.71	1319.08
462.083	1320.66
462.456	1311.39
462.829	1329.47
463.201	1384.84
463.574	1377.83
463.947	1347.55
464.32	1424.38
464.692	1452.86
465.065	1467.77
465.438	1478.85
465.81	1493.08
466.183	1527.66
466.555	1516.58
466.928	1573.08
467.3	1567.66
467.672	1646.75
468.045	1634.77
468.417	1672.51
468.789	1661.44
469.161	1718.39
469.534	1751.61
469.906	1801.77
470.278	1811.49
470.65	1814.88
471.022	1909.79
471.394	1915.67
471.766	1919.74
472.138	1970.36
472.51	2048.32
472.882	2077.93
473.253	2096.46
473.625	2141.88
473.997	2219.84
474.369	2230.01
474.74	2284.25
475.112	2312.95
475.484	2388.2
475.855	2448.54
476.227	2456.9
476.598	2581.87
476.97	2642.66
477.341	2704.35
477.713	2749.09
478.084	2802.2
478.455	2888.3
478.827	2954.29
479.198	3071.35
479.569	3108.18
479.94	3188.86
480.311	3294.16
480.682	3418.68
481.053	3488.51
481.424	3617.32
481.795	3719.46
482.166	3789.52
482.537	3843.08
482.908	3972.11
483.279	4091.88
483.65	4171.88
484.021	4325.32
484.391	4446.45
484.762	4456.39
485.133	4629.04
485.503	4696.84
485.874	4852.09
486.244	4989.04
486.615	5113.33
486.985	5225.87
487.356	5446.65
487.726	5535.24
488.097	5714.44
488.467	5765.51
488.837	5955.34
489.207	6059.74
489.578	6236.01
489.948	6337.93
490.318	6516.23
490.688	6610.01
491.058	6793.73
491.428	6958.7
491.798	7108.53
492.168	7273.95
492.538	7390.55
492.908	7552.36
493.278	7771.34
493.648	7785.35
494.017	8001.61
494.387	8117.77
494.757	8244.32
495.126	8448.83
495.496	8539
495.866	8581.03
496.235	8756.62
496.605	8972.43
496.974	9077.74
497.344	9227.57
497.713	9296.72
498.082	9452.87
498.452	9629.82
498.821	9682.47
499.19	9757.5
499.559	9966.98
499.928	10039.75
500.298	10138.5
500.667	10306.18
501.036	10354.77
501.405	10537.59
501.774	10557.93
502.143	10647.64
502.512	10812.84
502.88	10830.92
503.249	10974.64
503.618	11093.73
503.987	11140.29
504.356	11260.51
504.724	11364.01
505.093	11458.92
505.462	11557.45
505.83	11538.24
506.199	11740.95
506.567	12019.36
506.936	11872.24
507.304	12019.36
507.672	12166.25
508.041	12159.69
508.409	12271.56
508.777	12387.03
509.145	12463.19
509.514	12438.78
509.882	12546.8
510.25	12678.32
510.618	12732.11
510.986	12781.82
511.354	12904.99
511.722	12964.64
512.09	12965.1
512.458	13015.72
512.826	13155.15
513.193	13244.19
513.561	13270.4
513.929	13333.45
514.297	13354.92
514.664	13454.35
515.032	13506.78
515.4	13451.64
515.767	13614.35
516.135	13628.36
516.502	13574.57
516.869	13740.67
517.237	13771.86
517.604	13761.69
517.972	13932.3
518.339	14026.09
518.706	13917.16
519.073	14017.05
519.44	14052.98
519.808	14082.36
520.175	14065.18
520.542	14230.37
520.909	14296.14
521.276	14258.17
521.643	14312.86
522.009	14439.41
522.376	14416.58
522.743	14483.93
523.11	14584.94
523.477	14670.14
523.843	14621.78
524.21	14789
524.577	14811.15
524.943	14779.74
525.31	14735.45
525.676	14832.84
526.043	14945.84
526.409	14851.6
526.776	14937.7
527.142	14980.86
527.508	14970.47
527.874	14969.56
528.241	15053.18
528.607	15066.74
528.973	15135.21
529.339	15090.46
529.705	15264.25
530.071	15297.47
530.437	15191.48
530.803	15233.51
531.169	15285.71
531.535	15203
531.901	15189.9
532.267	15125.04
532.632	15251.82
532.998	15269.22
533.364	15247.52
533.73	15112.16
534.095	15261.08
534.461	15148.77
534.826	15308.31
535.192	15134.53
535.557	15262.21
535.923	15173.4
536.288	15115.77
536.653	15180.41
537.019	15101.54
537.384	15112.39
537.749	15145.15
538.114	15081.43
538.479	15096.11
538.845	15047.08
539.21	14896.57
539.575	14955.55
539.94	14945.61
540.305	14877.36
540.67	14815.67
541.034	14850.25
541.399	14793.07
541.764	14794.43
542.129	14748.78
542.494	14794.65
542.858	14750.13
543.223	14737.93
543.587	14633.53
543.952	14599.86
544.316	14639.63
544.681	14560.76
545.045	14586.52
545.41	14631.04
545.774	14575.68
546.138	14489.12
546.503	14448.22
546.867	14322.12
547.231	14404.38
547.595	14426.08
547.959	14382.01
548.324	14333.2
548.688	14273.54
549.052	14318.96
549.416	14140.66
549.779	14151.73
550.143	14132.07
550.507	14176.82
550.871	14158.51
551.235	14077.16
551.599	14048.91
551.962	14082.81
552.326	14054.79
552.689	14107.89
553.053	13937.73
553.417	13927.56
553.78	14148.12
554.143	13866.32
554.507	13936.82
554.87	13923.49
555.234	13910.16
555.597	13891.85
555.96	13865.41
556.323	13838.75
556.686	13747.9
557.05	13817.05
557.413	13761.69
557.776	13764.17
558.139	13765.98
558.502	13834.9
558.865	13710.16
559.228	13844.62
559.59	13830.84
559.953	13814.34
560.316	13841.01
560.679	13811.18
561.041	13895.92
561.404	13755.13
561.767	13899.54
562.129	13728.69
562.492	13902.47
562.854	13822.7
563.217	13721.46
563.579	13810.27
563.941	13857.28
564.304	13829.48
564.666	13904.73
565.028	13849.37
565.39	13845.98
565.753	13895.92
566.115	13806.43
566.477	13910.38
566.839	13884.85
567.201	14016.59
567.563	13989.48
567.925	14028.12
568.287	13954.68
568.648	13984.73
569.01	14010.04
569.372	14037.84
569.734	14017.72
570.095	14089.36
570.457	14088.01
570.819	14095.69
571.18	14033.32
571.542	14096.14
571.903	13996.93
572.265	14105.18
572.626	14084.39
572.987	14107.67
573.349	14114.9
573.71	14143.37
574.071	14153.54
574.432	14240.09
574.794	14376.59
575.155	14246.65
575.516	14150.38
575.877	14211.84
576.238	14254.33
576.599	14302.91
576.96	14275.12
577.32	14217.72
577.681	14281.45
578.042	14276.7
578.403	14252.97
578.763	14288
579.124	14252.97
579.485	14298.62
579.845	14318.28
580.206	14333.87
580.566	14272.86
580.927	14220.88
581.287	14361.67
581.648	14217.04
582.008	14250.49
582.368	14220.43
582.728	14276.93
583.089	14237.61
583.449	14250.49
583.809	14221.56
584.169	14224.05
584.529	14215.69
584.889	14248.91
585.249	14183.37
585.609	14209.81
585.969	14213.43
586.329	14143.6
586.688	14146.08
587.048	14239.19
587.408	14119.64
587.768	14070.38
588.127	14152.64
588.487	13999.87
588.846	14114.9
589.206	14095.46
589.565	14039.42
589.925	14110.38
590.284	14093.2
590.643	14146.99
591.003	14039.87
591.362	14070.15
591.721	13983.83
592.08	14025.18
592.44	14015.24
592.799	14032.64
593.158	13943.83
593.517	14014.79
593.876	14044.84
594.235	13919.87
594.593	14029.7
594.952	14012.08
595.311	13959.65
595.67	13935.01
596.029	14001.91
596.387	14109.7
596.746	14094.56
597.104	13996.03
597.463	14014.11
597.822	13993.09
598.18	13880.1
598.538	13918.97
598.897	14057.27
599.255	13813.66
599.613	14055.01
599.972	13928.24
600.33	13977.05
600.688	13861.12
601.046	13943.83
601.404	14012.98
601.762	13945.64
602.12	13908.57
602.478	13975.47
602.836	13952.19
603.194	13923.94
603.552	13914.22
603.91	13803.94
604.268	13957.84
604.625	13903.6
604.983	13809.59
605.341	13841.91
605.698	13906.09
606.056	13883.49
606.413	13874
606.771	13976.82
607.128	13940.21
607.485	13882.36
607.843	13844.62
608.2	13884.85
608.557	13941.12
608.914	13977.95
609.272	13973.88
609.629	14005.3
609.986	14121.9
610.343	13981.34
610.7	14037.61
611.057	14018.85
611.414	14045.75
611.771	14092.07
612.127	14041.9
612.484	14064.73
612.841	14052.98
613.198	14016.37
613.554	14105.41
613.911	14129.81
614.267	14148.57
614.624	14170.94
614.98	14186.31
615.337	14219.75
615.693	14097.27
616.05	14119.87
616.406	14212.3
616.762	14180.21
617.118	14163.03
617.475	14164.84
617.831	14235.12
618.187	14212.07
618.543	14147.89
618.899	14393.08
619.255	14259.07
619.611	14303.37
619.967	14285.06
620.323	14301.78
620.678	14267.21
621.034	14330.94
621.39	14281.9
621.746	14260.66
622.101	14406.87
622.457	14330.71
622.812	14347.43
623.168	14380.65
623.523	14368.68
623.879	14355.57
624.234	14157.83
624.589	14450.71
624.945	14434.44
625.3	14352.41
625.655	14302.46
626.01	14357.6
626.365	14358.51
626.72	14232.86
627.075	14250.26
627.43	14317.6
627.785	14235.8
628.14	14373.42
628.495	14286.87
628.85	14182.69
629.205	14139.98
629.559	14306.98
629.914	14090.27
630.269	14275.57
630.623	14137.27
630.978	14151.73
631.332	14290.49
631.687	14201.9
632.041	14154.44
632.396	14229.7
632.75	14094.11
633.104	14044.39
633.459	14111.96
633.813	14110.15
634.167	14053.88
634.521	13996.71
634.875	14076.48
635.229	13985.64
635.583	13950.83
635.937	13929.14
636.291	13952.42
636.645	13980.66
636.999	13911.06
637.352	13986.09
637.706	13915.13
638.06	13934.79
638.413	13878.07
638.767	13850.27
639.121	13876.49
639.474	13776.6
639.828	13816.83
640.181	13832.42
640.534	13826.09
640.888	13705.87
641.241	13720.33
641.594	13752.87
641.947	13758.97
642.301	13664.51
642.654	13703.16
643.007	13731.86
643.36	13700.44
643.713	13657.73
644.066	13725.3
644.419	13682.59
644.771	13529.83
645.124	13455.93
645.477	13470.17
645.83	13347.46
646.182	13288.93
646.535	13197.86
646.888	13253.68
647.24	13185.66
647.593	13315.14
647.945	13278.76
648.298	13168.03
648.65	13200.12
649.002	13187.24
649.355	13208.93
649.707	13187.92
650.059	13178.42
650.411	13334.13
650.763	13409.15
651.115	13594.68
651.467	13500.68
651.819	13484.41
652.171	13537.74
652.523	13447.12
652.875	13447.57
653.227	13470.62
653.578	13515.14
653.93	13513.33
654.282	13419.77
654.633	13501.13
654.985	13488.02
655.337	13451.86
655.688	13463.16
656.039	13518.53
656.391	13400.79
656.742	13470.85
657.094	13465.87
657.445	13486.44
657.796	13500.22
658.147	13478.76
658.498	13474.01
658.849	13438.53
659.2	13503.39
659.551	13465.87
659.902	13463.39
660.253	13484.86
660.604	13451.86
660.955	13464.97
661.306	13540.9
661.656	13464.52
662.007	13403.5
662.358	13534.35
662.708	13504.07
663.059	13499.55
663.409	13447.57
663.76	13592.88
664.11	13545.65
664.461	13562.37
664.811	13585.19
665.161	13577.96
665.511	13557.4
665.862	13615.02
666.212	13589.26
666.562	13625.42
666.912	13565.76
667.262	13631.97
667.612	13551.52
667.962	13571.86
668.312	13518.98
668.662	13592.88
669.011	13627.9
669.361	13608.47
669.711	13503.16
670.06	13565.31
670.41	13587.45
670.76	13532.77
671.109	13521.24
671.459	13530.05
671.808	13607.57
672.157	13482.82
672.507	13495.48
672.856	13436.95
673.205	13489.15
673.554	13499.09
673.904	13462.03
674.253	13532.77
674.602	13455.25
674.951	13247.12
675.3	13183.4
675.649	13399.44
675.998	13364.86
676.346	13439.21
676.695	13410.96
677.044	13365.76
677.393	13353.34
677.741	13392.66
678.09	13333.9
678.438	13284.18
678.787	13296.39
679.135	13281.25
679.484	13200.12
679.832	13194.47
680.181	13230.85
680.529	13177.52
680.877	13112.66
681.225	13095.04
681.573	13234.47
681.922	13060.46
682.27	13078.77
682.618	13131.87
682.966	13032.67
683.314	13005.32
683.661	12940.69
684.009	12844.65
684.357	12903.18
684.705	12863.18
685.053	12849.62
685.4	12808.26
685.748	12727.36
686.095	12832.45
686.443	12771.43
686.79	12672.68
687.138	12779.57
687.485	12744.99
687.832	12664.54
688.18	12626.8
688.527	12596.52
688.874	12535.28
689.221	12550.87
689.568	12529.85
689.915	12489.86
690.262	12428.84
690.609	12346.81
690.956	12269.07
691.303	12324.89
691.65	12265.68
691.997	12258
692.344	12183.65
692.69	12115.18
693.037	12120.15
693.383	12018.23
693.73	12065.01
694.077	11905.69
694.423	11989.53
694.769	11924.9
695.116	11939.59
695.462	11828.18
695.808	11845.8
696.155	11812.13
696.501	11794.73
696.847	11750.89
697.193	11615.53
697.539	11517.45
697.885	11576.43
698.231	11522.2
698.577	11501.18
698.923	11476.1
699.269	11351.13
699.614	11336.67
699.96	11298.25
700.306	11282.66
700.651	11163.34
700.997	11234.3
701.342	11126.73
701.688	11124.24
702.033	11050.57
702.379	11063.45
702.724	10972.16
703.069	10983
703.415	10873.17
703.76	10860.97
704.105	10805.38
704.45	10825.27
704.795	10811.71
705.14	10750.47
705.485	10703.69
705.83	10689.45
706.175	10655.33
706.52	10598.38
706.865	10586.4
707.209	10492.17
707.554	10527.65
707.899	10570.58
708.243	10439.06
708.588	10465.28
708.932	10448.33
709.277	10444.03
709.621	10394.77
709.966	10319.97
710.31	10303.92
710.654	10206.3
710.998	10297.82
711.342	10213.3
711.687	10255.79
712.031	10119.75
712.375	10065.51
712.719	10173.76
713.063	10091.27
713.407	10131.27
713.75	10010.15
714.094	10097.6
714.438	10012.18
714.782	9977.38
715.125	9950.03
715.469	10071.39
715.812	9901.22
716.156	9886.08
716.499	9851.96
716.843	9848.57
717.186	9839.08
717.53	9871.62
717.873	9882.01
718.216	9866.65
718.559	9817.84
718.902	9710.95
719.246	9737.16
719.589	9752.3
719.932	9722.47
720.275	9677.5
720.617	9726.99
720.96	9659.87
721.303	9715.24
721.646	9729.25
721.989	9576.26
722.331	9709.59
722.674	9658.52
723.016	9609.03
723.359	9591.63
723.701	9621
724.044	9579.42
724.386	9511.63
724.729	9587.78
725.071	9516.15
725.413	9530.84
725.755	9576.94
726.097	9550.72
726.439	9435.7
726.782	9509.37
727.124	9573.32
727.465	9509.82
727.807	9469.82
728.149	9516.37
728.491	9428.47
728.833	9439.77
729.175	9424.17
729.516	9455.36
729.858	9430.73
730.199	9432.08
730.541	9390.05
730.882	9480.22
731.224	9466.21
731.565	9383.72
731.906	9364.97
732.248	9451.52
732.589	9314.35
732.93	9312.31
733.271	9329.26
733.612	9371.52
733.953	9418.52
734.294	9350.73
734.635	9339.66
734.976	9437.73
735.317	9269.37
735.658	9386.66
735.999	9385.3
736.339	9399.99
736.68	9391.18
737.021	9390.05
737.361	9366.32
737.702	9427.11
738.042	9415.36
738.383	9443.38
738.723	9431.18
739.063	9472.08
739.404	9527.22
739.744	9419.43
740.084	9483.15
740.424	9536.03
740.764	9488.13
741.104	9583.49
741.444	9483.38
741.784	9552.31
742.124	9547.79
742.464	9575.81
742.804	9552.98
743.143	9621.68
743.483	9681.34
743.823	9657.39
744.162	9653.32
744.502	9711.4
744.841	9738.97
745.181	9716.37
745.52	9702.58
745.86	9858.29
746.199	9863.48
746.538	9925.63
746.877	10052.18
747.216	10033.42
747.556	10042.69
747.895	10116.36
748.234	10088.11
748.573	10113.87
748.911	10293.53
749.25	10268.9
749.589	10364.71
749.928	10418.72
750.267	10554.31
750.605	10631.15
750.944	10639.73
751.283	10698.72
751.621	10807.64
751.96	10872.04
752.298	11035.66
752.636	11110.68
752.975	11194.75
753.313	11276.33
753.651	11480.39
753.989	11508.86
754.327	11639.71
754.666	11764.9
755.004	11985.46
755.342	12027.04
755.679	12157.21
756.017	12281.27
756.355	12464.55
756.693	12542.28
757.031	12728.49
757.368	12818.89
757.706	12991.76
