Data from hue_26_FLMS001491_00079.txt Node
Date: Tue Feb 07 17:14:31 GMT 2017
User: dcchb
Spectrometer: FLMS00149
Trigger mode: 0
Integration Time (sec): 2.000000E-2
Scans to average: 10
Electric dark correction enabled: true
Nonlinearity correction enabled: false
Boxcar width: 0
XAxis mode: Wavelengths
Number of Pixels in Spectrum: 2048
>>>>>Begin Spectral Data<<<<<
341.393	-20.51
341.776	-20.51
342.16	-20.51
342.543	-67.51
342.927	-72.03
343.31	-51.02
343.693	-60.51
344.077	-67.06
344.46	-55.99
344.843	-61.86
345.226	-29.77
345.61	-27.51
345.993	-28.42
346.376	2.77
346.759	-1.75
347.142	12.94
347.525	51.13
347.908	36.44
348.291	87.51
348.674	101.3
349.057	91.81
349.44	129.77
349.823	136.1
350.206	147.85
350.588	208.41
350.971	193.72
351.354	231.24
351.737	229.88
352.119	249.54
352.502	252.93
352.884	257.9
353.267	290.9
353.65	294.74
354.032	288.18
354.414	303.1
354.797	297.68
355.179	308.97
355.562	306.49
355.944	328.86
356.326	317.34
356.709	345.58
357.091	328.86
357.473	340.39
357.855	340.39
358.238	338.8
358.62	339.26
359.002	329.31
359.384	332.7
359.766	355.75
360.148	346.26
360.53	327.73
360.912	310.78
361.294	314.4
361.676	338.13
362.057	344.91
362.439	317.11
362.821	325.7
363.203	299.71
363.584	324.79
363.966	326.38
364.348	308.07
364.729	320.5
365.111	319.6
365.493	295.87
365.874	326.15
366.256	301.52
366.637	321.18
367.019	305.13
367.4	313.27
367.781	296.55
368.163	315.08
368.544	324.12
368.925	318.92
369.306	317.34
369.688	312.36
370.069	329.77
370.45	308.75
370.831	335.64
371.212	312.82
371.593	327.05
371.974	313.04
372.355	294.74
372.736	311.91
373.117	311.01
373.498	321.63
373.879	338.8
374.26	312.82
374.641	323.44
375.021	310.33
375.402	328.64
375.783	312.59
376.163	315.98
376.544	324.79
376.925	318.92
377.305	320.05
377.686	312.59
378.066	315.3
378.447	342.87
378.827	323.44
379.208	322.31
379.588	319.14
379.968	346.26
380.349	317.56
380.729	329.31
381.109	351.23
381.489	333.16
381.87	331.8
382.25	333.16
382.63	338.8
383.01	328.41
383.39	344.23
383.77	350.1
384.15	345.13
384.53	346.71
384.91	339.48
385.29	356.88
385.67	352.82
386.049	346.94
386.429	356.88
386.809	377.9
387.189	343.78
387.568	366.6
387.948	353.04
388.328	362.53
388.707	342.19
389.087	341.29
389.466	361.85
389.846	353.04
390.225	362.53
390.605	371.8
390.984	352.59
391.363	370.67
391.743	386.94
392.122	352.82
392.501	377.67
392.881	363.44
393.26	362.98
393.639	362.76
394.018	378.8
394.397	370.67
394.776	367.28
395.155	379.26
395.534	369.54
395.913	383.32
396.292	388.97
396.671	391.46
397.05	392.14
397.429	374.51
397.808	377
398.186	382.19
398.565	391.23
398.944	411.12
399.323	371.8
399.701	398.01
400.08	389.65
400.458	388.75
400.837	402.76
401.215	396.66
401.594	408.18
401.972	406.6
402.351	403.89
402.729	423.77
403.107	416.09
403.486	407.05
403.864	429.42
404.242	401.4
404.62	421.29
404.999	426.26
405.377	402.76
405.755	430.55
406.133	420.16
406.511	414.28
406.889	418.8
407.267	440.72
407.645	422.42
408.023	422.87
408.401	443.43
408.779	442.53
409.156	431.23
409.534	438.46
409.912	467.61
410.29	438.92
410.667	445.92
411.045	456.54
411.422	455.41
411.8	459.48
412.178	443.89
412.555	479.59
412.933	455.19
413.31	468.07
413.687	494.73
414.065	468.74
414.442	495.86
414.819	481.4
415.197	487.5
415.574	488.63
415.951	490.21
416.328	498.8
416.705	474.39
417.082	505.81
417.46	492.7
417.837	503.77
418.214	499.93
418.591	517.78
418.967	525.24
419.344	505.81
419.721	513.49
420.098	528.63
420.475	525.92
420.852	519.82
421.228	525.24
421.605	535.64
421.982	514.85
422.358	526.37
422.735	551.91
423.111	545.13
423.488	556.88
423.864	559.36
424.241	551.91
424.617	533.15
424.994	559.14
425.37	570.44
425.746	565.47
426.123	563.88
426.499	571.11
426.875	551.45
427.251	570.89
427.627	587.39
428.003	621.06
428.379	599.81
428.756	587.16
429.132	590.55
429.507	581.74
429.883	607.5
430.259	588.29
430.635	607.5
431.011	598.68
431.387	598.23
431.763	614.73
432.138	635.97
432.514	624.9
432.89	655.41
433.265	659.47
433.641	663.77
434.016	669.87
434.392	668.51
434.767	677.1
435.143	688.17
435.518	675.29
435.894	688.17
436.269	692.24
436.644	710.32
437.02	719.59
437.395	696.54
437.77	713.03
438.145	723.43
438.52	720.72
438.895	709.87
439.271	730.88
439.646	739.25
440.021	724.78
440.395	762.52
440.77	762.3
441.145	752.35
441.52	773.14
441.895	750.09
442.27	769.98
442.645	757.32
443.019	750.77
443.394	767.95
443.769	774.5
444.143	777.44
444.518	809.75
444.892	772.01
445.267	820.37
445.641	790.09
446.016	803.43
446.39	793.26
446.764	801.84
447.139	811.11
447.513	821.73
447.887	825.12
448.262	860.37
448.636	827.38
449.01	835.97
449.384	836.87
449.758	854.72
450.132	855.85
450.506	837.32
450.88	874.84
451.254	878.68
451.628	860.15
452.002	881.62
452.376	889.75
452.75	897.66
453.123	893.14
453.497	901.95
453.871	925.23
454.244	928.39
454.618	933.14
454.992	952.12
455.365	947.15
455.739	981.5
456.112	982.63
456.486	971.56
456.859	1020.14
457.232	997.32
457.606	1000.03
457.979	1016.07
458.352	1044.77
458.725	1042.51
459.099	1039.13
459.472	1061.72
459.845	1068.05
460.218	1066.47
460.591	1108.28
460.964	1085.9
461.337	1097.88
461.71	1144.21
462.083	1130.65
462.456	1117.99
462.829	1142.4
463.201	1125.45
463.574	1160.25
463.947	1217.88
464.32	1188.73
464.692	1212.91
465.065	1222.17
465.438	1236.18
465.81	1240.93
466.183	1254.94
466.555	1291.1
466.928	1268.5
467.3	1301.04
467.672	1318.44
468.045	1347.37
468.417	1389.85
468.789	1380.59
469.161	1400.7
469.534	1425.56
469.906	1416.97
470.278	1442.05
470.65	1460.36
471.022	1501.71
471.394	1502.84
471.766	1553.01
472.138	1527.93
472.51	1581.71
472.882	1608.6
473.253	1639.79
473.625	1654.02
473.997	1682.05
474.369	1720.24
474.74	1688.15
475.112	1740.35
475.484	1773.34
475.855	1821.03
476.227	1826.9
476.598	1886.11
476.97	1860.8
477.341	1922.04
477.713	1996.61
478.084	1983.73
478.455	2047.01
478.827	2073
479.198	2125.2
479.569	2149.6
479.94	2182.37
480.311	2232.99
480.682	2268.92
481.053	2334.68
481.424	2391.41
481.795	2395.7
482.166	2436.15
482.537	2473.89
482.908	2578.52
483.279	2575.13
483.65	2639.99
484.021	2695.35
484.391	2747.1
484.762	2798.63
485.133	2794.33
485.503	2861.9
485.874	2903.03
486.244	2912.3
486.615	2988
486.985	3036.13
487.356	3122.01
487.726	3135.12
488.097	3221.89
488.467	3274.55
488.837	3305.05
489.207	3345.28
489.578	3464.82
489.948	3472.06
490.318	3492.85
490.688	3573.3
491.058	3591.37
491.428	3664.59
491.798	3687.19
492.168	3815.1
492.538	3814.19
492.908	3851.93
493.278	3925.15
493.648	3965.38
494.017	4014.19
494.387	4006.96
494.757	4088.76
495.126	4124.24
495.496	4123.11
495.866	4218.25
496.235	4227.97
496.605	4277.01
496.974	4312.49
497.344	4387.51
497.713	4379.83
498.082	4386.83
498.452	4476.32
498.821	4518.58
499.19	4600.39
499.559	4548.86
499.928	4603.1
500.298	4678.58
500.667	4677.67
501.036	4685.58
501.405	4699.59
501.774	4726.26
502.143	4776.2
502.512	4805.13
502.88	4844
503.249	4869.98
503.618	4936.2
503.987	4926.03
504.356	5006.03
504.724	4991.11
505.093	5029.98
505.462	5035.63
505.83	5067.95
506.199	5161.05
506.567	5153.82
506.936	5195.63
507.304	5206.7
507.672	5233.82
508.041	5252.12
508.409	5297.32
508.777	5331.67
509.145	5340.48
509.514	5355.4
509.882	5403.3
510.25	5378.45
510.618	5477.43
510.986	5454.83
511.354	5544.32
511.722	5580.7
512.09	5574.15
512.458	5579.8
512.826	5645.11
513.193	5639.91
513.561	5664.54
513.929	5761.94
514.297	5807.59
514.664	5776.18
515.032	5819.56
515.4	5837.87
515.767	5850.52
516.135	5850.52
516.502	5878.77
516.869	5906.34
517.237	5913.12
517.604	5900.47
517.972	5981.82
518.339	5983.4
518.706	5970.29
519.073	6000.12
519.44	6053.46
519.808	6133.23
520.175	6156.96
520.542	6203.28
520.909	6169.39
521.276	6139.56
521.643	6223.17
522.009	6253.45
522.376	6274.02
522.743	6356.73
523.11	6346.1
523.477	6379.32
523.843	6458.19
524.21	6541.35
524.577	6537.29
524.943	6512.88
525.31	6591.52
525.676	6658.64
526.043	6655.47
526.409	6672.42
526.776	6739.31
527.142	6732.08
527.508	6841.68
527.874	6868.58
528.241	6897.73
528.607	6895.69
528.973	6937.5
529.339	6970.27
529.705	6996.71
530.071	7094.33
530.437	7067.44
530.803	7129.81
531.169	7181.56
531.535	7140.43
531.901	7201.22
532.267	7220.43
532.632	7266.31
532.998	7328.9
533.364	7313.08
533.73	7376.13
534.095	7404.61
534.461	7452.74
534.826	7486.87
535.192	7543.36
535.557	7529.35
535.923	7502.91
536.288	7621.55
536.653	7638.73
537.019	7632.4
537.384	7660.42
537.749	7786.07
538.114	7751.04
538.479	7750.59
538.845	7739.97
539.21	7764.15
539.575	7838.95
539.94	7829.23
540.305	7969.79
540.67	7918.94
541.034	7965.95
541.399	8043.91
541.764	8004.59
542.129	8089.79
542.494	8057.92
542.858	8154.64
543.223	8160.97
543.587	8173.4
543.952	8212.27
544.316	8218.82
544.681	8266.28
545.045	8294.98
545.41	8354.87
545.774	8337.69
546.138	8349.67
546.503	8476.22
546.867	8447.97
547.231	8481.42
547.595	8540.4
547.959	8548.53
548.324	8607.51
548.688	8580.4
549.052	8567.97
549.416	8669.89
549.779	8677.34
550.143	8698.81
550.507	8716.44
550.871	8778.36
551.235	8831.91
551.599	8856.32
551.962	8936.32
552.326	8894.06
552.689	8948.07
553.053	8889.54
553.417	8961.4
553.78	9033.72
554.143	9016.54
554.507	9044.34
554.87	9078.91
555.234	9136.99
555.597	9100.61
555.96	9163.21
556.323	9205.92
556.686	9258.12
557.05	9268.74
557.413	9288.17
557.776	9357.55
558.139	9408.62
558.502	9405.68
558.865	9410.43
559.228	9476.87
559.59	9532.01
559.953	9529.75
560.316	9635.06
560.679	9633.02
561.041	9707.37
561.404	9605
561.767	9723.64
562.129	9727.48
562.492	9782.4
562.854	9789.4
563.217	9791.89
563.579	9860.14
563.941	9884.09
564.304	9894.03
564.666	9940.13
565.028	10029.62
565.39	10019.45
565.753	10047.93
566.115	10101.49
566.477	10094.03
566.839	10146.91
567.201	10275.72
567.563	10232.56
567.925	10311.42
568.287	10304.19
568.648	10311.65
569.01	10408.14
569.372	10477.07
569.734	10477.97
570.095	10556.16
570.457	10583.28
570.819	10590.51
571.18	10673.22
571.542	10771.52
571.903	10757.74
572.265	10823.05
572.626	10923.84
572.987	10871.86
573.349	10927.68
573.71	10985.08
574.071	11057.17
574.432	11101.91
574.794	11167.45
575.155	11278.86
575.516	11187.11
575.877	11354.56
576.238	11461.68
576.599	11524.95
576.96	11580.54
577.32	11656.7
577.681	11754.1
578.042	11823.93
578.403	11921.78
578.763	12006.29
579.124	12061.89
579.485	12181.88
579.845	12340.3
580.206	12432.27
580.566	12557.69
580.927	12613.96
581.287	12867.97
581.648	12900.51
582.008	13164.68
582.368	13371.46
582.728	13433.83
583.089	13526.93
583.449	13650.32
583.809	13858
584.169	14046.24
584.529	14184.99
584.889	14467.7
585.249	14605.77
585.609	14730.74
585.969	15078.08
586.329	15265.19
586.688	15412.76
587.048	15674.22
587.408	15848.68
587.768	16049.13
588.127	16316.46
588.487	16542.9
588.846	16927.07
589.206	17071.92
589.565	17269.21
589.925	17629.42
590.284	17891.34
590.643	18156.19
591.003	18439.35
591.362	18774.93
591.721	18989.84
592.08	19393.67
592.44	19681.12
592.799	19924.28
593.158	20194.1
593.517	20418.05
593.876	20847.87
594.235	21032.95
594.593	21388.65
594.952	21630.45
595.311	21927.84
595.67	22373.48
596.029	22676.3
596.387	22884.65
596.746	23239.67
597.104	23358.54
597.463	23761.92
597.822	24191.74
598.18	24532.52
598.538	24724.38
598.897	25034.65
599.255	25220.86
599.613	25773.84
599.972	25894.06
600.33	26282.08
600.688	26482.52
601.046	26949.18
601.404	27333.58
601.762	27535.6
602.12	27890.62
602.478	28164.29
602.836	28442.7
603.194	28504.84
603.552	28964.04
603.91	29072.96
604.268	29382.11
604.625	29638.6
604.983	29903
605.341	30094.86
605.698	30486.94
606.056	30903.65
606.413	31056.87
606.771	31441.26
607.128	31669.05
607.485	31776.17
607.843	32004.64
608.2	32402.14
608.557	32706.77
608.914	32805.97
609.272	33219.97
609.629	33414.55
609.986	33730.02
610.343	33681.2
610.7	34176.11
611.057	34218.59
611.414	34474.18
611.771	34728.63
612.127	34990.55
612.484	35068.96
612.841	35462.17
613.198	35417.2
613.554	35677.99
613.911	36016.06
614.267	36214.25
614.624	36313.23
614.98	36549.6
615.337	36825.3
615.693	36868.69
616.05	37016.26
616.406	37369.7
616.762	37329.47
617.118	37499.18
617.475	37649.46
617.831	37870.7
618.187	38007.19
618.543	38055.33
618.899	38510
619.255	38548.65
619.611	38632.71
619.967	38866.15
620.323	38972.37
620.678	38968.3
621.034	39113.38
621.39	39244.22
621.746	39152.02
622.101	39711.1
622.457	39431.79
622.812	39667.71
623.168	39897.99
623.523	39952.68
623.879	40166.23
624.234	39952.45
624.589	40211.43
624.945	40342.95
625.3	40424.98
625.655	40340.24
626.01	40526.22
626.365	40562.38
626.72	40629.95
627.075	40869.26
627.43	40802.15
627.785	40782.49
628.14	40969.83
628.495	40952.2
628.85	41074.46
629.205	40987.91
629.559	41378.4
629.914	41105.87
630.269	41177.05
630.623	41164.4
630.978	41184.96
631.332	41421.34
631.687	41451.4
632.041	41305.64
632.396	41319.65
632.75	41303.6
633.104	41420.89
633.459	41266.09
633.813	41321.46
634.167	41268.35
634.521	41228.12
634.875	41374.56
635.229	41236.03
635.583	41162.82
635.937	41341.34
636.291	41359.19
636.645	41335.69
636.999	41341.12
637.352	41429.7
637.706	41269.48
638.06	41544.73
638.413	41360.78
638.767	41271.06
639.121	41488.23
639.474	41224.96
639.828	41284.62
640.181	41389.02
640.534	41363.26
640.888	41254.79
641.241	41163.27
641.594	41208.92
641.947	41357.16
642.301	41216.83
642.654	41240.55
643.007	41336.37
643.36	41302.02
643.713	41192.65
644.066	41401
644.419	41012.31
644.771	40944.52
645.124	40557.41
645.477	40535.49
645.83	40330.3
646.182	40207.36
646.535	40075.84
646.888	40141.15
647.24	40034.26
647.593	40247.81
647.945	40188.83
648.298	39970.76
648.65	39885.79
649.002	39870.65
649.355	39957.88
649.707	40049.62
650.059	40047.82
650.411	40669.95
650.763	40609.38
651.115	40995.14
651.467	40883.73
651.819	40926.66
652.171	40900.9
652.523	40958.75
652.875	40868.59
653.227	40755.82
653.578	40922.14
653.93	40755.6
654.282	40662.72
654.633	40624.98
654.985	40582.72
655.337	40739.32
655.688	40692.32
656.039	40912.43
656.391	40458.88
656.742	40652.32
657.094	40677.86
657.445	40756.5
657.796	40611.19
658.147	40567.13
658.498	40611.87
658.849	40762.15
659.2	40693.9
659.551	40621.14
659.902	40653.9
660.253	40631.08
660.604	40658.42
660.955	40417.75
661.306	40606.67
661.656	40557.41
662.007	40447.13
662.358	40460.46
662.708	40529.16
663.059	40510.18
663.409	40270.41
663.76	40567.13
664.11	40546.34
664.461	40541.36
664.811	40533.91
665.161	40537.75
665.511	40409.62
665.862	40401.03
666.212	40598.09
666.562	40586.79
666.912	40335.72
667.262	40423.4
667.612	40287.36
667.962	40525.32
668.312	40493.91
668.662	40587.01
669.011	40356.74
669.361	40425.66
669.711	40380.69
670.06	40104.31
670.41	40282.39
670.76	40239.45
671.109	40304.99
671.459	40214.82
671.808	40265.44
672.157	40238.09
672.507	40045.11
672.856	39994.26
673.205	40103.41
673.554	40177.76
673.904	40112.45
674.253	40227.47
674.602	40184.76
674.951	39407.83
675.3	39495.52
675.649	39975.5
675.998	39919.23
676.346	39979.8
676.695	40170.07
677.044	39831.55
677.393	40003.52
677.741	40082.17
678.09	39932.79
678.438	39691.22
678.787	39884.43
679.135	39822.74
679.484	39630.2
679.832	39876.3
680.181	39654.16
680.529	39768.73
680.877	39506.59
681.225	39521.73
681.573	39666.36
681.922	39443.54
682.27	39424.56
682.618	39387.27
682.966	39324.22
683.314	39342.52
683.661	39331.9
684.009	38928.75
684.357	39049.88
684.705	38853.95
685.053	39051.23
685.4	38887.62
685.748	38796.55
686.095	38672.71
686.443	38610.11
686.79	38660.73
687.138	38584.13
687.485	38551.59
687.832	38378.03
688.18	38375.09
688.527	38087.42
688.874	38249.22
689.221	38209.67
689.568	38152.73
689.915	37960.41
690.262	37996.8
690.609	37838.38
690.956	37826.86
691.303	37830.47
691.65	37725.39
691.997	37642.91
692.344	37363.14
692.69	37426.19
693.037	37435.23
693.383	37081.34
693.73	37237.04
694.077	37075.01
694.423	37045.86
694.769	36805.19
695.116	36867.34
695.462	36739.88
695.808	36603.39
696.155	36767.23
696.501	36436.84
696.847	36431.87
697.193	36196.17
697.539	36356.84
697.885	36023.29
698.231	36161.37
698.577	36090.41
698.923	35962.73
699.269	35840.7
699.614	35644.54
699.96	35550.99
700.306	35576.3
700.651	35440.48
700.997	35327.49
701.342	35235.29
701.688	35175.85
702.033	35211.33
702.379	35290.43
702.724	34967.72
703.069	35013.6
703.415	34648.19
703.76	34730.44
704.105	34727.73
704.45	34612.93
704.795	34437.12
705.14	34339.72
705.485	34262.43
705.83	34153.06
706.175	34264.01
706.52	34120.06
706.865	33990.58
707.209	34038.94
707.554	33752.62
707.899	33844.36
708.243	33746.97
708.588	33613.64
708.932	33460.87
709.277	33530.02
709.621	33505.84
709.966	33175.46
710.31	33311.27
710.654	32993.54
710.998	33111.73
711.342	33057.49
711.687	32875.58
712.031	32887.1
712.375	32749.7
712.719	32799.65
713.063	32804.17
713.407	32824.05
713.75	32592.19
714.094	32614.57
714.438	32474.23
714.782	32570.27
715.125	32290.96
715.469	32306.55
715.812	32169.38
716.156	32076.95
716.499	32148.82
716.843	32148.14
717.186	31840.12
717.53	32023.62
717.873	32093
718.216	31977.07
718.559	31771.2
718.902	31605.55
719.246	31702.5
719.589	31574.14
719.932	31412.34
720.275	31433.13
720.617	31490.75
720.96	31388.61
721.303	31349.51
721.646	31342.96
721.989	31108.62
722.331	31111.1
722.674	31207.6
723.016	31025.91
723.359	31028.17
723.701	31148.62
724.044	30926.93
724.386	30835.18
724.729	30851
725.071	30721.73
725.413	30810.77
725.755	30758.8
726.097	30643.77
726.439	30371.24
726.782	30522.19
727.124	30660.27
727.465	30458.46
727.807	30413.49
728.149	30293.5
728.491	30328.3
728.833	30457.79
729.175	30300.05
729.516	30124.91
729.858	30178.25
730.199	30162.88
730.541	30055.54
730.882	29994.3
731.224	30035.42
731.565	29832.72
731.906	29869.33
732.248	29886.28
732.589	29840.85
732.93	29709.33
733.271	29640.18
733.612	29674.3
733.953	29647.64
734.294	29448.32
734.635	29458.26
734.976	29508.66
735.317	29320.87
735.658	29366.97
735.999	29412.39
736.339	29388.89
736.68	29370.58
737.021	29293.98
737.361	29107.09
737.702	29384.14
738.042	29184.83
738.383	29201.32
738.723	29155.22
739.063	28931.05
739.404	29047.43
739.744	28925.62
740.084	28907.09
740.424	28971.72
740.764	28968.79
741.104	28951.16
741.444	28783.48
741.784	28691.28
742.124	28708.23
742.464	28818.28
742.804	28647.21
743.143	28597.5
743.483	28526.54
743.823	28458.52
744.162	28455.58
744.502	28461.46
744.841	28436.37
745.181	28547.33
745.52	28408.8
745.86	28361.8
746.199	28298.52
746.538	28235.7
746.877	28383.49
747.216	28206.09
747.556	28086.78
747.895	28233.44
748.234	27983.5
748.573	28039.55
748.911	28039.55
749.25	27984.63
749.589	27900.34
749.928	27786.67
750.267	27917.97
750.605	27829.61
750.944	27665.32
751.283	27622.83
751.621	27640.69
751.96	27671.42
752.298	27608.6
752.636	27501.03
752.975	27449.28
753.313	27334.25
753.651	27474.14
753.989	27308.94
754.327	27157.53
754.666	27165.44
755.004	27221.04
755.342	27156.63
755.679	27132.45
756.017	27028.95
756.355	27032.79
756.693	27034.37
757.031	26889.52
757.368	26824.66
757.706	26869.86
758.044	26759.13
758.381	26702.63
758.719	26617.89
759.056	26755.29
759.394	26491.11
759.731	26322.08
760.068	26368.85
760.405	26304.9
