Data from hue_34_FLMS001491_00066.txt Node
Date: Tue Feb 07 17:25:58 GMT 2017
User: dcchb
Spectrometer: FLMS00149
Trigger mode: 0
Integration Time (sec): 2.000000E-2
Scans to average: 10
Electric dark correction enabled: true
Nonlinearity correction enabled: false
Boxcar width: 0
XAxis mode: Wavelengths
Number of Pixels in Spectrum: 2048
>>>>>Begin Spectral Data<<<<<
341.393	0.86
341.776	0.86
342.16	0.86
342.543	-44.79
342.927	-48.4
343.31	-64.67
343.693	-86.14
344.077	-70.1
344.46	-59.93
344.843	-45.01
345.226	-38.46
345.61	-10.89
345.993	-5.69
346.376	5.16
346.759	8.54
347.142	20.07
347.525	21.43
347.908	67.07
348.291	58.49
348.674	87.41
349.057	112.72
349.44	134.42
349.823	132.38
350.206	177.81
350.588	189.78
350.971	221.42
351.354	229.78
351.737	229.78
352.119	233.85
352.502	279.27
352.884	293.51
353.267	284.24
353.65	288.76
354.032	299.38
354.414	316.79
354.797	317.92
355.179	345.71
355.562	329.89
355.944	322.21
356.326	331.47
356.709	353.85
357.091	342.1
357.473	347.97
357.855	345.26
358.238	346.84
358.62	344.81
359.002	359.04
359.384	355.2
359.766	364.24
360.148	355.43
360.53	352.72
360.912	343.23
361.294	339.84
361.676	331.93
362.057	343.45
362.439	333.06
362.821	338.03
363.203	331.93
363.584	324.69
363.966	343.9
364.348	326.05
364.729	330.12
365.111	320.85
365.493	323.11
365.874	323.79
366.256	327.18
366.637	317.01
367.019	307.75
367.4	335.99
367.781	334.19
368.163	320.4
368.544	305.03
368.925	300.74
369.306	325.15
369.688	326.5
370.069	327.18
370.45	317.92
370.831	313.17
371.212	333.73
371.593	326.5
371.974	316.11
372.355	321.31
372.736	313.62
373.117	351.13
373.498	320.85
373.879	332.38
374.26	324.47
374.641	310.46
375.021	329.67
375.402	320.63
375.783	305.71
376.163	340.74
376.544	347.52
376.925	331.47
377.305	324.47
377.686	347.29
378.066	342.77
378.447	343.68
378.827	361.08
379.208	345.03
379.588	342.77
379.968	364.24
380.349	351.36
380.729	356.33
381.109	348.65
381.489	345.49
381.87	345.26
382.25	334.19
382.63	350.68
383.01	340.29
383.39	363.79
383.77	350.46
384.15	369.89
384.53	355.43
384.91	337.8
385.29	379.61
385.67	360.17
386.049	341.87
386.429	356.56
386.809	354.07
387.189	354.52
387.568	352.94
387.948	361.08
388.328	356.11
388.707	366.5
389.087	358.82
389.466	361.76
389.846	379.16
390.225	350.91
390.605	383.22
390.984	374.41
391.363	376.44
391.743	358.59
392.122	366.73
392.501	368.08
392.881	383.9
393.26	408.99
393.639	376.22
394.018	385.26
394.397	403.56
394.776	382.77
395.155	383.45
395.534	379.16
395.913	370.57
396.292	382.09
396.671	376.22
397.05	382.77
397.429	398.59
397.808	388.42
398.186	404.47
398.565	396.11
398.944	411.92
399.323	377.12
399.701	410.57
400.08	392.49
400.458	404.01
400.837	405.14
401.215	423.45
401.594	411.02
401.972	422.55
402.351	392.72
402.729	424.35
403.107	429.55
403.486	407.63
403.864	423
404.242	433.39
404.62	420.74
404.999	430.45
405.377	429.78
405.755	431.81
406.133	418.48
406.511	418.03
406.889	428.19
407.267	453.28
407.645	443.56
408.023	437.91
408.401	443.79
408.779	422.77
409.156	439.72
409.534	455.76
409.912	469.78
410.29	468.42
410.667	455.99
411.045	465.26
411.422	463.45
411.8	446.95
412.178	456.44
412.555	467.06
412.933	482.66
413.31	509.1
413.687	488.08
414.065	476.56
414.442	476.56
414.819	491.7
415.197	493.96
415.574	504.8
415.951	524.92
416.328	505.93
416.705	504.35
417.082	506.61
417.46	504.8
417.837	508.64
418.214	525.59
418.591	526.72
418.967	530.34
419.344	520.17
419.721	530.57
420.098	525.59
420.475	511.36
420.852	530.11
421.228	522.43
421.605	528.53
421.982	549.77
422.358	546.16
422.735	546.38
423.111	564.01
423.488	563.78
423.864	566.04
424.241	598.13
424.617	557.46
424.994	582.99
425.37	584.58
425.746	581.86
426.123	584.58
426.499	604.24
426.875	594.52
427.251	582.99
427.627	587.06
428.003	599.94
428.379	626.16
428.756	599.49
429.132	612.82
429.507	616.44
429.883	633.61
430.259	632.94
430.635	623.44
431.011	629.32
431.387	648.3
431.763	657.12
432.138	656.44
432.514	665.02
432.89	673.39
433.265	655.53
433.641	662.99
434.016	653.5
434.392	668.64
434.767	676.78
435.143	685.59
435.518	668.64
435.894	729.43
436.269	705.02
436.644	721.52
437.02	741.86
437.395	718.36
437.77	721.97
438.145	734.63
438.52	764.01
438.895	760.39
439.271	735.08
439.646	752.03
440.021	749.99
440.395	757
440.77	775.53
441.145	771.91
441.52	786.83
441.895	782.08
442.27	800.39
442.645	763.78
443.019	798.81
443.394	793.16
443.769	814.85
444.143	808.3
444.518	825.25
444.892	814.85
445.267	823.21
445.641	810.11
446.016	844.68
446.39	822.53
446.764	841.52
447.139	838.35
447.513	848.75
447.887	862.99
448.262	848.3
448.636	859.37
449.01	857.79
449.384	874.74
449.758	872.25
450.132	871.12
450.506	906.6
450.88	894.85
451.254	895.3
451.628	900.72
452.002	924.23
452.376	938.69
452.75	931.91
453.123	946.83
453.497	944.57
453.871	942.08
454.244	946.83
454.618	970.55
454.992	989.99
455.365	997.45
455.739	1022.76
456.112	1015.75
456.486	1025.92
456.859	1019.37
457.232	1060.49
457.606	1029.76
457.979	1056.43
458.352	1081.29
458.725	1077.67
459.099	1080.61
459.472	1083.09
459.845	1102.3
460.218	1138.46
460.591	1128.06
460.964	1121.28
461.337	1187.27
461.71	1175.52
462.083	1164.45
462.456	1204.45
462.829	1191.56
463.201	1227.95
463.574	1221.17
463.947	1220.04
464.32	1235.63
464.692	1255.07
465.065	1272.01
465.438	1316.99
465.81	1307.72
466.183	1326.48
466.555	1349.98
466.928	1369.87
467.3	1371.45
467.672	1406.93
468.045	1425.23
468.417	1452.57
468.789	1457.77
469.161	1450.77
469.534	1469.3
469.906	1528.51
470.278	1540.93
470.65	1573.25
471.022	1604.21
471.394	1629.97
471.766	1612.12
472.138	1654.6
472.51	1704.32
472.882	1738.22
473.253	1734.6
473.625	1735.05
473.997	1834.71
474.369	1855.95
474.74	1873.35
475.112	1877.65
475.484	1952.22
475.855	1957.42
476.227	2003.29
476.598	2075.16
476.97	2074.71
477.341	2170.52
477.713	2191.54
478.084	2196.74
478.455	2285.77
478.827	2305.89
479.198	2397.86
479.569	2404.41
479.94	2501.59
480.311	2505.43
480.682	2599.89
481.053	2681.92
481.424	2759.66
481.795	2780.9
482.166	2869.26
482.537	2913.55
482.908	2979.31
483.279	3059.31
483.65	3121.23
484.021	3228.8
484.391	3274
484.762	3386.08
485.133	3420.21
485.503	3486.42
485.874	3561.22
486.244	3626.98
486.615	3735
486.985	3786.52
487.356	3937.93
487.726	3950.36
488.097	4040.98
488.467	4077.59
488.837	4232.84
489.207	4285.49
489.578	4405.49
489.948	4475.09
490.318	4574.53
490.688	4650
491.058	4781.75
491.428	4787.85
491.798	4970.45
492.168	5024.46
492.538	5092.25
492.908	5175.87
493.278	5302.64
493.648	5336.77
494.017	5452.24
494.387	5551.22
494.757	5586.7
495.126	5693.14
495.496	5746.25
495.866	5799.81
496.235	5942.4
496.605	6011.1
496.974	6054.94
497.344	6150.76
497.713	6230.08
498.082	6288.61
498.452	6353.46
498.821	6444.99
499.19	6505.32
499.559	6654.25
499.928	6700.8
500.298	6781.25
500.667	6761.14
501.036	6870.06
501.405	6908.02
501.774	6950.28
502.143	7096.95
502.512	7089.94
502.88	7180.33
503.249	7200.22
503.618	7201.35
503.987	7341.91
504.356	7406.99
504.724	7477.73
505.093	7562.02
505.462	7568.12
505.83	7697.16
506.199	7717.27
506.567	7847.66
506.936	7857.6
507.304	7942.57
507.672	8061.89
508.041	8092.4
508.409	8126.98
508.777	8146.86
509.145	8212.85
509.514	8258.95
509.882	8312.28
510.25	8339.17
510.618	8394.09
510.986	8463.01
511.354	8584.36
511.722	8587.53
512.09	8652.61
512.458	8681.09
512.826	8719.95
513.193	8807.86
513.561	8831.14
513.929	8874.07
514.297	8968.99
514.664	9012.38
515.032	9071.36
515.4	9189.55
515.767	9248.98
516.135	9233.84
516.502	9252.6
516.869	9377.79
517.237	9390.67
517.604	9332.14
517.972	9430.67
518.339	9501.4
518.706	9557.22
519.073	9564.68
519.44	9684.45
519.808	9695.52
520.175	9754.05
520.542	9865.46
520.909	9832.92
521.276	9863.88
521.643	10018.68
522.009	10085.12
522.376	10163.08
522.743	10194.49
523.11	10233.13
523.477	10409.63
523.843	10415.28
524.21	10516.07
524.577	10538.66
524.943	10521.71
525.31	10571.43
525.676	10761.71
526.043	10713.35
526.409	10802.84
526.776	10930.29
527.142	10982.95
527.508	11038.31
527.874	11084.41
528.241	11177.97
528.607	11221.58
528.973	11263.39
529.339	11272.88
529.705	11382.71
530.071	11476.72
530.437	11619.54
530.803	11631.74
531.169	11697.05
531.535	11650.5
531.901	11768.46
532.267	11831.06
532.632	11865.18
532.998	11840.78
533.364	11903.6
533.73	11987.21
534.095	12072.41
534.461	12048.45
534.826	12177.72
535.192	12232.63
535.557	12267.21
535.923	12279.86
536.288	12297.26
536.653	12374.1
537.019	12371.16
537.384	12525.28
537.749	12554.88
538.114	12703.35
538.479	12627.87
538.845	12755.33
539.21	12662.45
539.575	12839.17
539.94	12859.51
540.305	12941.76
540.67	12939.28
541.034	12969.56
541.399	13064.25
541.764	13108.77
542.129	13086.39
542.494	13201.19
542.858	13210.68
543.223	13250
543.587	13318.03
543.952	13311.25
544.316	13329.32
544.681	13351.7
545.045	13472.15
545.41	13586.72
545.774	13577.91
546.138	13607.28
546.503	13701.29
546.867	13710.56
547.231	13865.58
547.595	13932.02
547.959	13858.35
548.324	13924.56
548.688	13932.47
549.052	14079.36
549.416	14094.5
549.779	14066.03
550.143	14167.49
550.507	14235.97
550.871	14264.22
551.235	14372.91
551.599	14418.34
551.962	14437.32
552.326	14475.28
552.689	14501.95
553.053	14484.55
553.417	14438.22
553.78	14752.34
554.143	14579.91
554.507	14776.29
554.87	14800.7
555.234	14874.37
555.597	14845.89
555.96	14922.96
556.323	14964.76
556.686	15076.17
557.05	15096.06
557.413	15129.96
557.776	15215.6
558.139	15285.43
558.502	15299.89
558.865	15360.23
559.228	15406.33
559.59	15516.16
559.953	15474.8
560.316	15626.44
560.679	15680.45
561.041	15761.13
561.404	15775.81
561.767	15913.66
562.129	15853.55
562.492	16077.28
562.854	15991.4
563.217	15964.96
563.579	16107.1
563.941	16176.48
564.304	16282.02
564.666	16397.04
565.028	16323.14
565.39	16413.76
565.753	16451.28
566.115	16537.38
566.477	16588.45
566.839	16613.31
567.201	16797.48
567.563	16739.63
567.925	16904.15
568.287	16851.94
568.648	16903.69
569.01	17049.23
569.372	17298.71
569.734	17157.92
570.095	17254.42
570.457	17343.23
570.819	17370.35
571.18	17403.57
571.542	17562.89
571.903	17606.5
572.265	17680.17
572.626	17666.61
572.987	17719.94
573.349	17944.57
573.71	18004.46
574.071	18028.86
574.432	18062.08
574.794	18296.2
575.155	18325.58
575.516	18318.35
575.877	18409.19
576.238	18488.74
576.599	18648.05
576.96	18756.07
577.32	18889.18
577.681	19025.67
578.042	19188.61
578.403	19233.12
578.763	19313.35
579.124	19523.96
579.485	19670.85
579.845	19948.13
580.206	19929.83
580.566	19992.88
580.927	20137.73
581.287	20397.61
581.648	20495.01
582.008	20688.91
582.368	20906.07
582.728	21009.35
583.089	21157.14
583.449	21385.16
583.809	21580.86
584.169	21734.53
584.529	21868.99
584.889	22236.44
585.249	22359.6
585.609	22432.59
585.969	22751
586.329	22920.94
586.688	23204.55
587.048	23348.04
587.408	23467.59
587.768	23812.89
588.127	23947.8
588.487	24126.1
588.846	24551.4
589.206	24722.02
589.565	24882.92
589.925	25152.52
590.284	25235.45
590.643	25620.07
591.003	25886.73
591.362	26170.57
591.721	26347.06
592.08	26635.87
592.44	26958.12
592.799	27186.81
593.158	27265.23
593.517	27701.38
593.876	27960.58
594.235	28038.99
594.593	28181.82
594.952	28557.85
595.311	28742.03
595.67	29021.12
596.029	29380.43
596.387	29646.18
596.746	29856.8
597.104	30088.21
597.463	30131.82
597.822	30720.51
598.18	30696.55
598.538	30891.35
598.897	31267.16
599.255	31220.38
599.613	32017.87
599.972	31871.89
600.33	32209.96
600.688	32214.25
601.046	32655.14
601.404	32862.14
601.762	32962.71
602.12	33369.02
602.478	33473.43
602.836	33616.47
603.194	33710.03
603.552	33979.18
603.91	34034.77
604.268	34401.99
604.625	34514.76
604.983	34664.81
605.341	34888.31
605.698	35208.52
606.056	35306.15
606.413	35551.34
606.771	35744.33
607.128	35941.16
607.485	35861.84
607.843	36066.35
608.2	36414.14
608.557	36663.63
608.914	36736.62
609.272	36912.43
609.629	37154.69
609.986	37276.49
610.343	37310.39
610.7	37731.17
611.057	37694.11
611.414	37960.99
611.771	38001.9
612.127	38332.51
612.484	38383.13
612.841	38586.51
613.198	38640.75
613.554	38719.84
613.911	38922.32
614.267	39045.26
614.624	39132.26
614.98	39314.63
615.337	39596.2
615.693	39485.25
616.05	39409.77
616.406	39839.36
616.762	39867.38
617.118	39830.1
617.475	40218.34
617.831	40174.04
618.187	40204.32
618.543	40414.49
618.899	40637.99
619.255	40663.97
619.611	40725.21
619.967	40856.06
620.323	41155.03
620.678	41003.85
621.034	40880.24
621.39	41076.39
621.746	41153.68
622.101	41553.22
622.457	41406.1
622.812	41443.39
623.168	41730.39
623.523	41610.16
623.879	41743.27
624.234	41606.1
624.589	41795.24
624.945	41907.56
625.3	41956.14
625.655	42011.73
626.01	41988.91
626.365	42099.64
626.72	42050.15
627.075	42244.27
627.43	42094.44
627.785	42182.13
628.14	42241.33
628.495	42241.78
628.85	42157.72
629.205	42104.16
629.559	42465.06
629.914	42247.43
630.269	42172.18
630.623	42200.88
630.978	42223.48
631.332	42355.68
631.687	42556.8
632.041	42184.16
632.396	42364.27
632.75	42293.31
633.104	42439.75
633.459	42307.09
633.813	42274.1
634.167	42246.76
634.521	42370.37
634.875	42350.03
635.229	42300.54
635.583	42088.79
635.937	42229.13
636.291	42255.57
636.645	42276.36
636.999	42252.18
637.352	42259.19
637.706	42121.11
638.06	42355.68
638.413	42190.26
638.767	42068.91
639.121	42144.39
639.474	42023.03
639.828	42114.1
640.181	42122.69
640.534	42049.47
640.888	41985.97
641.241	41836.37
641.594	41986.88
641.947	42118.17
642.301	41766.09
642.654	41993.43
643.007	42012.86
643.36	42021.9
643.713	41864.39
644.066	41999.98
644.419	41823.04
644.771	41567.23
645.124	41262.6
645.477	41120.01
645.83	40879.79
646.182	40849.73
646.535	40630.98
646.888	40715.5
647.24	40420.59
647.593	40774.48
647.945	40603.18
648.298	40505.79
648.65	40358.44
649.002	40237.32
649.355	40494.94
649.707	40555.95
650.059	40716.4
650.411	41053.12
650.763	40979.67
651.115	41520.22
651.467	41311.19
651.819	41431.41
652.171	41232.32
652.523	41219.89
652.875	41209.95
653.227	41156.62
653.578	41402.71
653.93	41331.07
654.282	41219.66
654.633	41000.69
654.985	41016.05
655.337	41199.1
655.688	41105.54
656.039	41176.05
656.391	40920.24
656.742	41037.3
657.094	41059.22
657.445	41172.21
657.796	41252.66
658.147	41030.29
658.498	41062.15
658.849	41089.27
659.2	40957.98
659.551	40807.25
659.902	41083.62
660.253	41052.44
660.604	40891.09
660.955	40835.27
661.306	41065.77
661.656	40884.76
662.007	40900.35
662.358	40813.57
662.708	40813.35
663.059	40813.57
663.409	40623.97
663.76	40869.39
664.11	40915.49
664.461	40827.36
664.811	40946.45
665.161	40746.23
665.511	40725.44
665.862	40748.72
666.212	40870.52
666.562	40809.51
666.912	40690.87
667.262	40791.2
667.612	40741.71
667.962	40828.26
668.312	40734.93
668.662	40851.99
669.011	40687.02
669.361	40717.53
669.711	40564.31
670.06	40586.91
670.41	40670.53
670.76	40528.61
671.109	40707.81
671.459	40543.52
671.808	40575.84
672.157	40603.64
672.507	40416.3
672.856	40436.18
673.205	40584.88
673.554	40455.17
673.904	40440.93
674.253	40609.96
674.602	40443.19
674.951	39906.48
675.3	39737.67
675.649	40263.76
675.998	40273.93
676.346	40179.24
676.695	40440.25
677.044	40091.78
677.393	40258.11
677.741	40196.64
678.09	40252.91
678.438	40167.94
678.787	40295.62
679.135	40245.23
679.484	39831.45
679.832	40123.42
680.181	39947.61
680.529	39985.8
680.877	39871.23
681.225	39748.07
681.573	40060.6
681.922	39708.07
682.27	39508.3
682.618	39675.52
682.966	39541.97
683.314	39630.1
683.661	39515.75
684.009	39399.6
684.357	39265.14
684.705	39239.15
685.053	39279.15
685.4	39234.63
685.748	39038.25
686.095	39066.28
686.443	39013.62
686.79	38962.55
687.138	38953.74
687.485	38891.59
687.832	38695.66
688.18	38749
688.527	38523.24
688.874	38593.52
689.221	38346.29
689.568	38323.92
689.915	38394.2
690.262	38263.36
690.609	38240.99
690.956	37996.02
691.303	38040.77
691.65	37856.59
691.997	37971.61
692.344	37598.97
692.69	37643.04
693.037	37738.4
693.383	37394
693.73	37575.01
694.077	37329.6
694.423	37388.58
694.769	37034.92
695.116	37130.73
695.462	36979.55
695.808	36987.91
696.155	37005.99
696.501	36756.96
696.847	36754.25
697.193	36544.08
697.539	36663.4
697.885	36356.29
698.231	36245.56
698.577	36253.02
698.923	36179.12
699.269	36130.76
699.614	35907.26
699.96	35888.05
700.306	36000.14
700.651	35679.02
700.997	35546.37
701.342	35512.02
701.688	35506.59
702.033	35393.38
702.379	35377.11
702.724	35202.2
703.069	35247.39
703.415	34803.11
703.76	34826.16
704.105	34934.86
704.45	34912.94
704.795	34568.09
705.14	34532.83
705.485	34498.71
705.83	34265.5
706.175	34390.92
706.52	34343.91
706.865	34145.05
707.209	34326.74
707.554	34034.32
707.899	34194.31
708.243	33858.95
708.588	33814.21
708.932	33697.6
709.277	33629.58
709.621	33665.74
709.966	33590.26
710.31	33597.94
710.654	33129.03
710.998	33416.03
711.342	33243.83
711.687	33242.25
712.031	32995.7
712.375	33016.49
712.719	33027.11
713.063	32908.7
713.407	32920
713.75	32750.73
714.094	32842.26
714.438	32753.22
714.782	32726.33
715.125	32551.87
715.469	32650.4
715.812	32442.95
716.156	32287.02
716.499	32233.69
716.843	32275.49
717.186	32120.02
717.53	32162.95
717.873	32292.44
718.216	32152.11
718.559	31937.42
718.902	31776.52
719.246	31862.85
719.589	31720.25
719.932	31679.12
720.275	31653.36
720.617	31649.07
720.96	31518.9
721.303	31539.69
721.646	31612.69
721.989	31383.99
722.331	31367.27
722.674	31257.67
723.016	31374.73
723.359	31407.04
723.701	31177.89
724.044	31140.83
724.386	30944
724.729	31090.44
725.071	30941.74
725.413	31035.75
725.755	31063.55
726.097	30780.17
726.439	30558.02
726.782	30769.32
727.124	30872.59
727.465	30722.54
727.807	30691.81
728.149	30587.4
728.491	30561.64
728.833	30625.82
729.175	30428.31
729.516	30333.85
729.858	30284.13
730.199	30307.64
730.541	30206.85
730.882	30247.3
731.224	30296.34
731.565	30058.6
731.906	30102.89
732.248	30048.66
732.589	30005.27
732.93	29751.49
733.271	29856.57
733.612	29870.58
733.953	29940.41
734.294	29777.71
734.635	29770.25
734.976	29762.79
735.317	29652.74
735.658	29508.33
735.999	29585.62
736.339	29403.03
736.68	29542.68
737.021	29426.53
737.361	29294.55
737.702	29427.43
738.042	29296.36
738.383	29324.16
738.723	29235.8
739.063	29208.68
739.404	29219.75
739.744	29045.52
740.084	29052.75
740.424	29091.85
740.764	29006.65
741.104	29189.25
741.444	28967.78
741.784	28789.03
742.124	28967.33
742.464	28806.43
742.804	28927.78
743.143	28878.97
743.483	28695.25
743.823	28617.74
744.162	28672.65
744.502	28677.62
744.841	28533.44
745.181	28608.92
745.52	28433.56
745.86	28509.72
746.199	28432.2
746.538	28386.1
746.877	28467.01
747.216	28410.06
747.556	28387.91
747.895	28316.05
748.234	28104.08
748.573	28110.86
748.911	28145.43
749.25	28054.14
749.589	28005.55
749.928	28032.67
750.267	27955.83
750.605	27910.41
750.944	27738.89
751.283	27848.26
751.621	27796.06
751.96	27728.95
752.298	27624.77
752.636	27726.69
752.975	27535.96
753.313	27444.89
753.651	27587.93
753.989	27408.05
754.327	27288.96
754.666	27174.38
755.004	27262.07
755.342	27294.16
755.679	27120.15
756.017	27060.04
756.355	27098.68
756.693	26985.24
757.031	27018.46
757.368	26878.12
