Data from hue_160_FLMS001491_00052.txt Node
Date: Tue Feb 07 16:51:22 GMT 2017
User: dcchb
Spectrometer: FLMS00149
Trigger mode: 0
Integration Time (sec): 2.000000E-2
Scans to average: 10
Electric dark correction enabled: true
Nonlinearity correction enabled: false
Boxcar width: 0
XAxis mode: Wavelengths
Number of Pixels in Spectrum: 2048
>>>>>Begin Spectral Data<<<<<
341.393	-18.49
341.776	-18.49
342.16	-18.49
342.543	-63.23
342.927	-57.13
343.31	-85.61
343.693	-65.72
344.077	-75.21
344.46	-56.91
344.843	-56.68
345.226	-37.92
345.61	-30.92
345.993	-19.62
346.376	-1.09
346.759	-4.48
347.142	10.89
347.525	68.29
347.908	66.03
348.291	71.9
348.674	95.18
349.057	121.85
349.44	128.17
349.823	160.26
350.206	159.13
350.588	192.35
350.971	199.59
351.354	219.92
351.737	226.03
352.119	237.78
352.502	270.09
352.884	269.87
353.267	277.78
353.65	297.44
354.032	302.86
354.414	308.06
354.797	318.68
355.179	316.42
355.562	331.79
355.944	337.21
356.326	329.75
356.709	335.63
357.091	348.96
357.473	343.99
357.855	335.85
358.238	346.93
358.62	345.8
359.002	324.78
359.384	338.34
359.766	320.94
360.148	330.43
360.53	339.92
360.912	340.15
361.294	348.73
361.676	329.53
362.057	337.66
362.439	332.46
362.821	331.11
363.203	347.38
363.584	325.23
363.966	334.5
364.348	318
364.729	304.22
365.111	310.99
365.493	326.59
365.874	304.22
366.256	307.38
366.637	314.61
367.019	308.06
367.4	309.64
367.781	316.19
368.163	302.63
368.544	320.94
368.925	310.54
369.306	325.01
369.688	310.54
370.069	306.7
370.45	297.89
370.831	315.74
371.212	312.35
371.593	308.73
371.974	320.71
372.355	318.23
372.736	308.06
373.117	313.71
373.498	341.95
373.879	303.99
374.26	314.84
374.641	315.74
375.021	309.64
375.402	321.84
375.783	306.25
376.163	312.8
376.544	331.56
376.925	312.12
377.305	305.12
377.686	310.54
378.066	316.64
378.447	333.59
378.827	332.01
379.208	333.59
379.588	351.67
379.968	322.97
380.349	351.9
380.729	318.9
381.109	341.28
381.489	310.54
381.87	343.54
382.25	312.58
382.63	338.56
383.01	332.91
383.39	333.59
383.77	355.29
384.15	347.83
384.53	337.89
384.91	326.36
385.29	342.86
385.67	328.4
386.049	334.95
386.429	353.71
386.809	363.2
387.189	334.95
387.568	351.22
387.948	341.5
388.328	354.61
388.707	363.42
389.087	372.46
389.466	379.69
389.846	362.07
390.225	357.1
390.605	372.91
390.984	383.54
391.363	353.48
391.743	367.94
392.122	402.97
392.501	360.48
392.881	388.73
393.26	373.14
393.639	374.04
394.018	381.73
394.397	382.18
394.776	371.33
395.155	383.99
395.534	388.05
395.913	379.69
396.292	391.67
396.671	390.99
397.05	382.18
397.429	381.05
397.808	387.38
398.186	399.81
398.565	379.47
398.944	393.93
399.323	383.31
399.701	393.48
400.08	405.68
400.458	416.98
400.837	390.99
401.215	393.93
401.594	406.59
401.972	386.7
402.351	423.99
402.729	416.53
403.107	398.45
403.486	386.25
403.864	402.52
404.242	409.07
404.62	400.71
404.999	408.62
405.377	414.04
405.755	419.47
406.133	415.62
406.511	433.25
406.889	430.77
407.267	447.94
407.645	444.32
408.023	421.5
408.401	423.31
408.779	428.05
409.156	435.29
409.534	454.04
409.912	445.91
410.29	461.5
410.667	461.5
411.045	466.24
411.422	465.34
411.8	475.06
412.178	463.08
412.555	462.86
412.933	449.07
413.31	474.61
413.687	486.13
414.065	468.73
414.442	477.32
414.819	499.01
415.197	482.06
415.574	493.14
415.951	474.15
416.328	488.17
416.705	494.04
417.082	508.73
417.46	514.38
417.837	512.8
418.214	533.81
418.591	496.07
418.967	518.45
419.344	510.99
419.721	525.23
420.098	540.82
420.475	516.86
420.852	529.75
421.228	534.27
421.605	536.98
421.982	560.93
422.358	534.72
422.735	559.8
423.111	568.61
423.488	573.59
423.864	550.31
424.241	580.14
424.617	573.13
424.994	556.19
425.37	583.98
425.746	575.62
426.123	594.83
426.499	611.1
426.875	579.91
427.251	604.77
427.627	615.62
428.003	609.74
428.379	615.62
428.756	616.3
429.132	640.25
429.507	624.21
429.883	644.09
430.259	650.19
430.635	644.32
431.011	666.69
431.387	681.83
431.763	666.92
432.138	670.08
432.514	687.48
432.89	685.9
433.265	697.2
433.641	688.39
434.016	701.49
434.392	710.53
434.767	725.22
435.143	726.8
435.518	708.95
435.894	758.21
436.269	729.29
436.644	733.36
437.02	764.77
437.395	748.95
437.77	768.61
438.145	783.75
438.52	774.49
438.895	781.94
439.271	804.32
439.646	799.34
440.021	816.07
440.395	813.58
440.77	808.16
441.145	812
441.52	826.91
441.895	836.86
442.27	862.84
442.645	858.32
443.019	871.88
443.394	855.39
443.769	849.29
444.143	877.99
444.518	867.82
444.892	868.49
445.267	913.92
445.641	899.45
446.016	910.98
446.39	886.12
446.764	908.04
447.139	905.33
447.513	895.84
447.887	924.09
448.262	936.06
448.636	934.71
449.01	965.89
449.384	941.26
449.758	955.5
450.132	970.41
450.506	956.85
450.88	969.96
451.254	988.49
451.628	971.32
452.002	1009.96
452.376	1009.28
452.75	1030.98
453.123	1014.7
453.497	1028.26
453.871	1058.77
454.244	1050.18
454.618	1042.27
454.992	1070.97
455.365	1071.65
455.739	1112.78
456.112	1102.39
456.486	1126.11
456.859	1137.41
457.232	1172.89
457.606	1167.02
457.979	1156.85
458.352	1172.21
458.725	1196.85
459.099	1229.16
459.472	1249.95
459.845	1227.81
460.218	1265.09
460.591	1281.14
460.964	1293.79
461.337	1288.6
461.71	1344.41
462.083	1350.97
462.456	1362.72
462.829	1385.99
463.201	1401.36
463.574	1410.17
463.947	1403.62
464.32	1431.87
464.692	1455.37
465.065	1471.19
465.438	1497.63
465.81	1532.21
466.183	1544.63
466.555	1580.57
466.928	1582.6
467.3	1599.32
467.672	1598.87
468.045	1686.78
468.417	1679.55
468.789	1710.05
469.161	1723.16
469.534	1774.68
469.906	1790.5
470.278	1797.51
470.65	1875.47
471.022	1900.33
471.394	1911.86
471.766	1955.92
472.138	1986.2
472.51	2056.49
472.882	2059.88
473.253	2125.64
473.625	2163.15
473.997	2236.14
474.369	2257.16
474.74	2293.77
475.112	2366.08
475.484	2396.14
475.855	2458.73
476.227	2513.87
476.598	2586.64
476.97	2618.96
477.341	2688.33
477.713	2768.33
478.084	2792.51
478.455	2979.4
478.827	2957.48
479.198	3050.13
479.569	3103.46
479.94	3189.34
480.311	3284.7
480.682	3347.98
481.053	3479.05
481.424	3571.93
481.795	3688.76
482.166	3752.03
482.537	3843.33
482.908	3968.98
483.279	4039.71
483.65	4143.21
484.021	4289.42
484.391	4364.45
484.762	4478.12
485.133	4544.1
485.503	4661.39
485.874	4819.58
486.244	4874.26
486.615	5027.48
486.985	5173.69
487.356	5262.95
487.726	5409.17
488.097	5545.43
488.467	5596.51
488.837	5830.62
489.207	5911.53
489.578	6051.86
489.948	6147.45
490.318	6261.35
490.688	6438.74
491.058	6534.33
491.428	6664.27
491.798	6847.32
492.168	7016.13
492.538	7086.86
492.908	7223.13
493.278	7388.32
493.648	7445.95
494.017	7612.5
494.387	7717.35
494.757	7830.57
495.126	8038.7
495.496	7982.43
495.866	8161.18
496.235	8259.71
496.605	8442.08
496.974	8492.93
497.344	8637.33
497.713	8680.04
498.082	8833.93
498.452	8898.11
498.821	9050.88
499.19	9059.01
499.559	9285.67
499.928	9266.47
500.298	9426.91
500.667	9504.65
501.036	9522.96
501.405	9653.57
501.774	9726.79
502.143	9871.42
502.512	9873
502.88	10060.57
503.249	10086.78
503.618	10151.19
503.987	10177.85
504.356	10307.34
504.724	10376.94
505.093	10426.21
505.462	10458.98
505.83	10581.46
506.199	10595.47
506.567	10703.72
506.936	10750.49
507.304	10857.38
507.672	10947.1
508.041	10957.72
508.409	11041.79
508.777	11121.56
509.145	11217.37
509.514	11225.51
509.882	11333.98
510.25	11282.68
510.618	11373.75
510.986	11461.44
511.354	11529.23
511.722	11576.24
512.09	11738.94
512.458	11614.43
512.826	11735.33
513.193	11753.86
513.561	11707.31
513.929	11816.68
514.297	11908.88
514.664	12001.53
515.032	11965.15
515.4	12053.51
515.767	12078.82
516.135	12161.98
516.502	12005.38
516.869	12252.6
517.237	12273.17
517.604	12194.52
517.972	12310.91
518.339	12312.94
518.706	12267.52
519.073	12267.06
519.44	12364.91
519.808	12458.25
520.175	12366.95
520.542	12500.96
520.909	12527.85
521.276	12467.29
521.643	12538.92
522.009	12564.46
522.376	12678.35
522.743	12674.29
523.11	12756.32
523.477	12881.29
523.843	12819.37
524.21	12943.43
524.577	13011.23
524.943	12881.51
525.31	13014.62
525.676	12946.14
526.043	13012.36
526.409	12989.31
526.776	13076.31
527.142	13058
527.508	13074.27
527.874	13063.43
528.241	13144.78
528.607	13156.98
528.973	13244.21
529.339	13101.84
529.705	13201.28
530.071	13216.64
530.437	13119.02
530.803	13229.53
531.169	13080.38
531.535	13112.69
531.901	13140.26
532.267	13138.45
532.632	13093.48
532.998	13154.95
533.364	13239.47
533.73	13203.99
534.095	13192.92
534.461	13201.28
534.826	13155.63
535.192	13132.13
535.557	13138
535.923	13081.73
536.288	13062.07
536.653	13087.38
537.019	12968.97
537.384	12983.43
537.749	12963.54
538.114	12928.74
538.479	12942.3
538.845	12879.7
539.21	12768.97
539.575	12779.14
539.94	12772.14
540.305	12788.41
540.67	12716.54
541.034	12706.15
541.399	12737.33
541.764	12646.94
542.129	12649.43
542.494	12557
542.858	12665.25
543.223	12590.9
543.587	12559.49
543.952	12486.04
544.316	12432.48
544.681	12399.49
545.045	12438.59
545.41	12459.6
545.774	12372.37
546.138	12341.19
546.503	12246.73
546.867	12251.92
547.231	12295.76
547.595	12260.28
547.959	12186.16
548.324	12147.75
548.688	12158.37
549.052	12101.65
549.416	12046.96
549.779	12048.31
550.143	11991.14
550.507	12016.22
550.871	11934.19
551.235	11923.8
551.599	11915.66
551.962	11893.06
552.326	11851.03
552.689	11893.29
553.053	11756.8
553.417	11774.42
553.78	11865.72
554.143	11785.95
554.507	11802.9
554.87	11685.61
555.234	11791.37
555.597	11601.32
555.96	11688.77
556.323	11666.18
556.686	11643.58
557.05	11688.1
557.413	11629.79
557.776	11551.83
558.139	11662.56
558.502	11621.21
558.865	11594.31
559.228	11609.91
559.59	11625.5
559.953	11590.92
560.316	11641.09
560.679	11605.61
561.041	11653.07
561.404	11653.97
561.767	11686.74
562.129	11637.25
562.492	11669.57
562.854	11581.21
563.217	11653.75
563.579	11637.48
563.941	11700.3
564.304	11686.29
564.666	11633.18
565.028	11678.38
565.39	11711.37
565.753	11702.56
566.115	11684.25
566.477	11679.06
566.839	11682.67
567.201	11738.94
567.563	11677.02
567.925	11795.89
568.287	11703.46
568.648	11729.68
569.01	11725.38
569.372	11857.36
569.734	11720.41
570.095	11821.88
570.457	11879.5
570.819	11866.4
571.18	11793.63
571.542	11908.66
571.903	11881.76
572.265	11826.85
572.626	11978.03
572.987	11844.25
573.349	11956.34
573.71	11919.73
574.071	11909.11
574.432	11965.83
574.794	11957.02
575.155	11994.53
575.516	11914.31
575.877	11960.86
576.238	11971.25
576.599	11993.85
576.96	11977.81
577.32	11959.5
577.681	11951.82
578.042	12039.5
578.403	11965.6
578.763	11981.87
579.124	12004.7
579.485	12044.92
579.845	12033.85
580.206	12028.2
580.566	12026.84
580.927	11949.33
581.287	12023.23
581.648	11914.98
582.008	12003.79
582.368	11908.66
582.728	11999.27
583.089	11917.7
583.449	11988.2
583.809	11947.3
584.169	11962.21
584.529	11925.83
584.889	11971.7
585.249	11899.16
585.609	11892.39
585.969	11956.79
586.329	11907.53
586.688	11849.22
587.048	11935.32
587.408	11833.86
587.768	11873.85
588.127	11761.77
588.487	11820.07
588.846	11890.58
589.206	11828.66
589.565	11871.82
589.925	11757.93
590.284	11862.33
590.643	11838.83
591.003	11849.22
591.362	11828.66
591.721	11806.51
592.08	11789.11
592.44	11765.38
592.799	11834.53
593.158	11844.7
593.517	11795.21
593.876	11780.3
594.235	11713.18
594.593	11731.26
594.952	11727.64
595.311	11675.89
595.67	11705.5
596.029	11783.91
596.387	11719.51
596.746	11788.43
597.104	11673.18
597.463	11685.16
597.822	11738.49
598.18	11643.13
598.538	11723.35
598.897	11759.96
599.255	11649.45
599.613	11811.26
599.972	11720.19
600.33	11723.8
600.688	11661.43
601.046	11707.98
601.404	11738.72
601.762	11679.51
602.12	11751.82
602.478	11714.99
602.836	11661.2
603.194	11702.79
603.552	11640.64
603.91	11562.68
604.268	11648.1
604.625	11752.5
604.983	11736.46
605.341	11580.98
605.698	11679.28
606.056	11698.27
606.413	11723.58
606.771	11714.54
607.128	11698.94
607.485	11658.49
607.843	11705.72
608.2	11683.35
608.557	11818.04
608.914	11731.94
609.272	11840.86
609.629	11760.41
609.986	11815.55
610.343	11745.72
610.7	11916.11
611.057	11796.79
611.414	11890.35
611.771	11818.71
612.127	11832.73
612.484	11852.84
612.841	11874.98
613.198	11773.74
613.554	11825.95
613.911	11894.87
614.267	11901.65
614.624	11851.71
614.98	11878.15
615.337	11921.76
615.693	11870.92
616.05	11941.42
616.406	11938.94
616.762	11903.23
617.118	11910.24
617.475	11924.25
617.831	11905.04
618.187	11907.53
618.543	12019.16
618.899	12053.96
619.255	12052.83
619.611	12002.44
619.967	12062.55
620.323	12004.92
620.678	12022.78
621.034	11965.83
621.39	12008.31
621.746	12005.38
622.101	12099.84
622.457	12008.99
622.812	12025.71
623.168	12058.93
623.523	12039.5
623.879	12160.4
624.234	12063.23
624.589	12112.27
624.945	12104.81
625.3	12050.8
625.655	12139.16
626.01	12063.23
626.365	12145.03
626.72	12091.93
627.075	12042.21
627.43	11973.29
627.785	11948.88
628.14	12067.3
628.495	12006.28
628.85	12032.04
629.205	11959.95
629.559	12006.05
629.914	11942.78
630.269	12040.86
630.623	11911.37
630.978	11865.04
631.332	11941.88
631.687	11989.11
632.041	11921.08
632.396	11912.72
632.75	11888.32
633.104	11813.52
633.459	11904.36
633.813	11865.27
634.167	11879.96
634.521	11904.36
634.875	11825.72
635.229	11870.69
635.583	11794.53
635.937	11735.78
636.291	11754.54
636.645	11710.24
636.999	11691.94
637.352	11741.2
637.706	11655.33
638.06	11707.98
638.413	11668.44
638.767	11611.71
639.121	11562.9
639.474	11638.38
639.828	11579.62
640.181	11628.21
640.534	11554.31
640.888	11596.35
641.241	11570.36
641.594	11524.49
641.947	11608.55
642.301	11590.47
642.654	11597.03
643.007	11516.12
643.36	11590.92
643.713	11499.18
644.066	11619.4
644.419	11417.14
644.771	11447.65
645.124	11365.17
645.477	11367.88
645.83	11253.53
646.182	11218.96
646.535	11175.79
646.888	11170.14
647.24	11118.85
647.593	11172.4
647.945	11186.64
648.298	11035.46
648.65	11106.42
649.002	11053.09
649.355	11125.85
649.707	11087.89
650.059	11214.66
650.411	11334.89
650.763	11320.42
651.115	11482
651.467	11408.56
651.819	11378.73
652.171	11399.06
652.523	11395.22
652.875	11358.39
653.227	11322
653.578	11418.05
653.93	11429.35
654.282	11417.37
654.633	11366.52
654.985	11340.31
655.337	11349.8
655.688	11406.3
656.039	11352.51
656.391	11294.89
656.742	11356.13
657.094	11328.33
657.445	11388.9
657.796	11327.2
658.147	11384.6
658.498	11308.22
658.849	11426.18
659.2	11400.19
659.551	11349.12
659.902	11390.48
660.253	11366.98
660.604	11395.67
660.955	11372.85
661.306	11439.74
661.656	11392.06
662.007	11384.83
662.358	11389.35
662.708	11368.56
663.059	11378.73
663.409	11290.82
663.76	11402.91
664.11	11441.1
664.461	11472.51
664.811	11425.73
665.161	11427.31
665.511	11386.18
665.862	11427.09
666.212	11422.57
666.562	11450.81
666.912	11410.36
667.262	11415.34
667.612	11350.48
667.962	11443.81
668.312	11355.9
668.662	11445.39
669.011	11462.57
669.361	11323.36
669.711	11440.19
670.06	11395
670.41	11449.01
670.76	11436.13
671.109	11462.57
671.459	11472.96
671.808	11386.64
672.157	11304.83
672.507	11397.71
672.856	11332.63
673.205	11391.61
673.554	11443.58
673.904	11287.43
674.253	11351.38
674.602	11328.33
674.951	11153.42
675.3	11148.45
675.649	11308.9
675.998	11276.58
676.346	11220.76
676.695	11280.2
677.044	11197.71
677.393	11302.34
677.741	11239.07
678.09	11196.81
678.438	11120.43
678.787	11191.16
679.135	11197.71
679.484	11120.65
679.832	11225.28
680.181	11105.29
680.529	11158.17
680.877	11094.67
681.225	11090.37
681.573	11144.83
681.922	11083.82
682.27	11017.38
682.618	10952.52
682.966	11012.86
683.314	11039.53
683.661	10953.43
684.009	10784.17
684.357	10864.84
684.705	10824.62
685.053	10811.06
685.4	10866.88
685.748	10767.89
686.095	10783.94
686.443	10756.14
686.79	10730.38
687.138	10739.65
687.485	10706.65
687.832	10615.36
688.18	10717.73
688.527	10629.14
688.874	10624.17
689.221	10578.75
689.568	10604.74
689.915	10518.18
690.262	10531.29
690.609	10419.88
690.956	10470.95
691.303	10385.53
691.65	10338.08
691.997	10372.2
692.344	10266.21
692.69	10288.13
693.037	10198.19
693.383	10185.54
693.73	10160.91
694.077	10107.12
694.423	10155.93
694.769	10087.69
695.116	10020.12
695.462	10017.86
695.808	10018.31
696.155	9996.62
696.501	9896.28
696.847	9857.86
697.193	9801.14
697.539	9830.29
697.885	9791.65
698.231	9795.72
698.577	9758.43
698.923	9696.06
699.269	9578.32
699.614	9573.12
699.96	9546.23
700.306	9541.94
700.651	9461.26
700.997	9475.05
701.342	9406.8
701.688	9411.32
702.033	9368.84
702.379	9317.54
702.724	9297.88
703.069	9303.75
703.415	9282.06
703.76	9221.27
704.105	9210.42
704.45	9246.13
704.795	9110.31
705.14	9077.09
705.485	9063.31
705.83	8978.11
706.175	9015.62
706.52	9002.74
706.865	8982.18
707.209	8935.63
707.554	8931.78
707.899	8953.48
708.243	8866.7
708.588	8802.97
708.932	8765.69
709.277	8751
709.621	8765.24
709.966	8710.32
710.31	8754.84
710.654	8640.95
710.998	8648.85
711.342	8688.18
711.687	8630.32
712.031	8550.78
712.375	8571.12
712.719	8593.04
713.063	8508.75
713.407	8567.05
713.75	8526.15
714.094	8501.29
714.438	8507.16
714.782	8507.16
715.125	8463.77
715.469	8395.3
715.812	8436.43
716.156	8379.71
716.499	8464.9
716.843	8350.33
717.186	8312.14
717.53	8377.22
717.873	8333.83
718.216	8379.71
718.559	8266.72
718.902	8299.49
719.246	8342.42
719.589	8295.64
719.932	8204.35
720.275	8204.12
720.617	8257.23
720.96	8188.08
721.303	8225.59
721.646	8239.83
721.989	8168.87
722.331	8219.26
722.674	8148.3
723.016	8200.5
723.359	8176.55
723.701	8232.82
724.044	8126.61
724.386	8088.42
724.729	8114.63
725.071	8094.52
725.413	8139.94
725.755	8099.72
726.097	8040.06
726.439	8093.16
726.782	8016.55
727.124	8091.36
727.465	8035.99
727.807	8066.5
728.149	8038.93
728.491	8022.66
728.833	8047.74
729.175	7971.36
729.516	8010.68
729.858	7969.78
730.199	7968.65
730.541	8036.67
730.882	8030.11
731.224	8006.39
731.565	7994.86
731.906	7978.82
732.248	8020.17
732.589	8000.06
732.93	7997.8
733.271	7974.75
733.612	7999.38
733.953	8006.16
734.294	7952.6
734.635	8000.28
734.976	7968.19
735.317	7977.69
735.658	7987.85
735.999	8057.23
736.339	8014.29
736.68	8072.6
737.021	8026.95
737.361	7997.12
737.702	8058.36
738.042	8017.46
738.383	8011.13
738.723	8045.03
739.063	8068.98
739.404	8057.23
739.744	8028.31
740.084	7979.04
740.424	8054.29
740.764	8024.69
741.104	8111.02
741.444	8083.9
741.784	8113.05
742.124	8122.09
742.464	8141.98
742.804	8104.24
743.143	8122.77
743.483	8233.72
743.823	8141.52
744.162	8172.03
744.502	8288.86
744.841	8268.98
745.181	8297.68
745.52	8335.42
745.86	8409.09
746.199	8392.14
746.538	8413.61
746.877	8457
747.216	8498.58
747.556	8572.25
747.895	8560.72
748.234	8586.71
748.573	8623.77
748.911	8734.73
749.25	8787.16
749.589	8805.69
749.928	8917.77
750.267	8943.08
750.605	9057.43
750.944	9169.74
751.283	9168.16
751.621	9246.58
751.96	9355.05
752.298	9426.91
752.636	9560.24
752.975	9560.24
753.313	9718.88
753.651	9811.99
753.989	9887.01
754.327	9984.64
754.666	10051.76
755.004	10167.23
755.342	10377.62
755.679	10436.15
756.017	10586.66
756.355	10653.55
756.693	10813.32
757.031	10907.78
757.368	11052.18
757.706	11167.43
758.044	11336.02
758.381	11470.02
758.719	11646.06
759.056	11760.19
759.394	11918.6
