Data from hue_210_FLMS001491_00047.txt Node
Date: Tue Feb 07 16:41:15 GMT 2017
User: dcchb
Spectrometer: FLMS00149
Trigger mode: 0
Integration Time (sec): 2.000000E-2
Scans to average: 10
Electric dark correction enabled: true
Nonlinearity correction enabled: false
Boxcar width: 0
XAxis mode: Wavelengths
Number of Pixels in Spectrum: 2048
>>>>>Begin Spectral Data<<<<<
341.393	-11.93
341.776	-11.93
342.16	-11.93
342.543	-43.35
342.927	-65.72
343.31	-60.97
343.693	-46.96
344.077	-49
344.46	-61.65
344.843	-69.11
345.226	-41.76
345.61	-31.82
345.993	-20.3
346.376	-24.59
346.759	-13.97
347.142	16.54
347.525	53.6
347.908	66.93
348.291	76.2
348.674	101.06
349.057	105.8
349.44	111.45
349.823	137.21
350.206	171.34
350.588	178.34
350.971	197.55
351.354	240.49
351.737	230.09
352.119	237.55
352.502	275.52
352.884	260.83
353.267	255.63
353.65	303.54
354.032	282.75
354.414	300.83
354.797	306.25
355.179	306.02
355.562	309.64
355.944	326.59
356.326	347.38
356.709	330.2
357.091	332.91
357.473	349.19
357.855	336.08
358.238	337.43
358.62	355.06
359.002	327.49
359.384	319.13
359.766	347.83
360.148	330.43
360.53	343.08
360.912	337.66
361.294	326.59
361.676	342.86
362.057	320.26
362.439	307.83
362.821	309.86
363.203	317.55
363.584	318.23
363.966	314.61
364.348	312.12
364.729	329.53
365.111	326.36
365.493	302.63
365.874	305.8
366.256	299.02
366.637	303.09
367.019	308.06
367.4	314.38
367.781	301.96
368.163	296.31
368.544	277.1
368.925	306.25
369.306	302.86
369.688	333.14
370.069	302.41
370.45	300.6
370.831	304.67
371.212	308.96
371.593	291.79
371.974	309.41
372.355	328.62
372.736	332.91
373.117	313.93
373.498	317.55
373.879	306.7
374.26	320.94
374.641	324.55
375.021	296.31
375.402	311.67
375.783	327.04
376.163	322.75
376.544	326.14
376.925	321.39
377.305	325.01
377.686	322.75
378.066	296.31
378.447	336.3
378.827	313.93
379.208	313.03
379.588	337.21
379.968	322.75
380.349	320.03
380.729	306.93
381.109	336.98
381.489	323.88
381.87	320.94
382.25	353.71
382.63	337.21
383.01	346.25
383.39	329.75
383.77	342.18
384.15	343.08
384.53	342.63
384.91	335.17
385.29	341.73
385.67	344.67
386.049	350.32
386.429	353.03
386.809	350.99
387.189	349.41
387.568	342.41
387.948	350.54
388.328	347.6
388.707	368.39
389.087	356.87
389.466	350.32
389.846	381.05
390.225	335.17
390.605	353.71
390.984	367.94
391.363	369.98
391.743	360.94
392.122	369.98
392.501	358.23
392.881	356.64
393.26	364.33
393.639	367.72
394.018	375.63
394.397	378.79
394.776	400.26
395.155	409.3
395.534	399.81
395.913	376.98
396.292	389.86
396.671	365.91
397.05	388.73
397.429	421.95
397.808	412.91
398.186	416.08
398.565	390.31
398.944	391.9
399.323	404.78
399.701	398.45
400.08	402.97
400.458	397.32
400.837	415.17
401.215	406.81
401.594	423.08
401.972	403.42
402.351	427.38
402.729	431.44
403.107	445.91
403.486	424.44
403.864	445.23
404.242	419.01
404.62	445
404.999	428.28
405.377	447.26
405.755	449.52
406.133	435.51
406.511	454.72
406.889	472.12
407.267	458.79
407.645	484.32
408.023	468.96
408.401	484.1
408.779	506.7
409.156	498.79
409.534	507.15
409.912	492.01
410.29	522.74
410.667	530.65
411.045	552.34
411.422	525
411.8	522.51
412.178	545.11
412.555	583.53
412.933	566.81
413.31	581.72
413.687	594.38
414.065	579.24
414.442	606.81
414.819	626.01
415.197	627.6
415.574	623.75
415.951	617.88
416.328	623.98
416.705	642.96
417.082	663.98
417.46	695.84
417.837	697.2
418.214	689.74
418.591	703.07
418.967	681.38
419.344	699.23
419.721	705.79
420.098	728.84
420.475	718.89
420.852	734.94
421.228	741.49
421.605	750.53
421.982	784.43
422.358	807.25
422.735	823.52
423.111	818.78
423.488	843.64
423.864	826.69
424.241	851.32
424.617	889.28
424.994	880.92
425.37	884.76
425.746	898.32
426.123	921.83
426.499	936.74
426.875	974.71
427.251	962.5
427.627	978.32
428.003	988.72
428.379	1018.09
428.756	1013.35
429.132	1041.82
429.507	1022.16
429.883	1033.46
430.259	1078.43
430.635	1083.86
431.011	1082.5
431.387	1133.35
431.763	1134.93
432.138	1127.02
432.514	1184.42
432.89	1188.94
433.265	1203.4
433.641	1213.34
434.016	1237.75
434.392	1275.94
434.767	1303.28
435.143	1312.32
435.518	1329.05
435.894	1370.18
436.269	1389.61
436.644	1405.88
437.02	1423.73
437.395	1426.9
437.77	1469.16
438.145	1503.73
438.52	1495.37
438.895	1535.82
439.271	1521.81
439.646	1576.5
440.021	1586.67
440.395	1641.13
440.77	1587.12
441.145	1666.44
441.52	1674.8
441.895	1694.24
442.27	1743.95
442.645	1727.91
443.019	1743.5
443.394	1728.58
443.769	1750.05
444.143	1764.29
444.518	1817.17
444.892	1814.91
445.267	1859.43
445.641	1889.71
446.016	1862.82
446.39	1889.48
446.764	1919.99
447.139	1907.34
447.513	1904.4
447.887	1949.82
448.262	1925.42
448.636	1997.5
449.01	1992.76
449.384	1993.66
449.758	2065.07
450.132	2030.5
450.506	2044.73
450.88	2055.13
451.254	2063.49
451.628	2105.98
452.002	2123.6
452.376	2151.17
452.75	2171.96
453.123	2205.18
453.497	2235.01
453.871	2214.67
454.244	2272.75
454.618	2303.71
454.992	2309.36
455.365	2291.96
455.739	2400.66
456.112	2377.61
456.486	2408.79
456.859	2437.72
457.232	2468.9
457.606	2489.24
457.979	2500.32
458.352	2542.8
458.725	2578.73
459.099	2582.8
459.472	2609.47
459.845	2636.81
460.218	2684.27
460.591	2688.56
460.964	2723.81
461.337	2780.53
461.71	2855.56
462.083	2808.56
462.456	2835.22
462.829	2854.43
463.201	2902.56
463.574	2926.07
463.947	2950.47
464.32	3037.48
464.692	3046.29
465.065	3056.01
465.438	3109.34
465.81	3155.89
466.183	3169.22
466.555	3257.81
466.928	3206.51
467.3	3246.51
467.672	3338.71
468.045	3394.3
468.417	3389.78
468.789	3432.49
469.161	3451.25
469.534	3509.78
469.906	3564.69
470.278	3606.73
470.65	3665.71
471.022	3712.94
471.394	3752.49
471.766	3800.39
472.138	3838.13
472.51	3897.34
472.882	3982.54
473.253	3994.51
473.625	4019.6
473.997	4147.28
474.369	4096.66
474.74	4158.13
475.112	4194.51
475.484	4287.16
475.855	4331
476.227	4366.03
476.598	4499.59
476.97	4509.75
477.341	4620.71
477.713	4651.22
478.084	4754.27
478.455	4807.83
478.827	4827.26
479.198	4970.53
479.569	4975.28
479.94	5072.68
480.311	5140.02
480.682	5235.61
481.053	5355.61
481.424	5389.96
481.795	5423.63
482.166	5520.35
482.537	5583.85
482.908	5640.57
483.279	5709.72
483.65	5793.34
484.021	5866.55
484.391	5912.66
484.762	5980.68
485.133	6032.88
485.503	6119.2
485.874	6226.32
486.244	6301.12
486.615	6403.26
486.985	6489.36
487.356	6556.25
487.726	6598.29
488.097	6685.29
488.467	6734.55
488.837	6836.25
489.207	6885.96
489.578	6964.15
489.948	6984.94
490.318	7062.46
490.688	7178.84
491.058	7219.06
491.428	7293.18
491.798	7358.49
492.168	7478.04
492.538	7469
492.908	7598.03
493.278	7651.59
493.648	7615.89
494.017	7739.5
494.387	7806.39
494.757	7853.85
495.126	7887.52
495.496	7870.12
495.866	7904.02
496.235	7970.91
496.605	8046.38
496.974	8048.19
497.344	8221.07
497.713	8244.57
498.082	8250.45
498.452	8306.26
498.821	8327.28
499.19	8299.71
499.559	8412.02
499.928	8396.66
500.298	8394.62
500.667	8511.68
501.036	8472.81
501.405	8569.53
501.774	8593.04
502.143	8596.65
502.512	8605.92
502.88	8660.61
503.249	8682.3
503.618	8743.09
503.987	8743.99
504.356	8811.56
504.724	8842.52
505.093	8807.72
505.462	8863.54
505.83	8920.03
506.199	8942.18
506.567	8994.61
506.936	8943.31
507.304	9113.7
507.672	9078
508.041	9116.19
508.409	9152.12
508.777	9105.79
509.145	9165.9
509.514	9112.8
509.882	9245.22
510.25	9177.88
510.618	9203.87
510.986	9229.63
511.354	9357.08
511.722	9292
512.09	9420.36
512.458	9347.37
512.826	9365.45
513.193	9397.54
513.561	9416.52
513.929	9405.9
514.297	9482.73
514.664	9510.07
515.032	9515.27
515.4	9516.63
515.767	9504.88
516.135	9545.55
516.502	9529.06
516.869	9595.72
517.237	9548.94
517.604	9486.12
517.972	9581.26
518.339	9598.43
518.706	9550.07
519.073	9565.44
519.44	9618.77
519.808	9688.15
520.175	9574.25
520.542	9658.55
520.909	9709.17
521.276	9634.14
521.643	9694.02
522.009	9706.45
522.376	9727.24
522.743	9783.51
523.11	9704.87
523.477	9816.51
523.843	9866.45
524.21	9928.59
524.577	9939.22
524.943	9948.48
525.31	9873.68
525.676	9954.36
526.043	9938.09
526.409	9899.44
526.776	9978.99
527.142	9941.7
527.508	9999.1
527.874	10014.69
528.241	9991.64
528.607	9991.87
528.973	9954.58
529.339	9951.42
529.705	9985.32
530.071	10030.29
530.437	10093.11
530.803	9996.84
531.169	10023.28
531.535	9924.75
531.901	9898.99
532.267	9887.92
532.632	9920.69
532.998	9920.69
533.364	9894.47
533.73	9917.97
534.095	9962.04
534.461	9922.72
534.826	9898.54
535.192	9866.22
535.557	9890.4
535.923	9821.48
536.288	9816.28
536.653	9824.64
537.019	9753.68
537.384	9754.14
537.749	9721.82
538.114	9720.92
538.479	9726.34
538.845	9678.88
539.21	9613.8
539.575	9556.4
539.94	9626
540.305	9576.29
540.67	9567.47
541.034	9552.11
541.399	9509.4
541.764	9506.01
542.129	9475.5
542.494	9450.64
542.858	9450.42
543.223	9436.4
543.587	9453.35
543.952	9322.74
544.316	9393.69
544.681	9269.4
545.045	9280.02
545.41	9278.89
545.774	9277.09
546.138	9202.96
546.503	9254.04
546.867	9129.97
547.231	9242.06
547.595	9137.66
547.959	9109.18
548.324	9076.19
548.688	8980.15
549.052	9085.45
549.416	9041.84
549.779	8971.33
550.143	8966.59
550.507	8972.24
550.871	8922.07
551.235	8908.28
551.599	8936.08
551.962	8873.93
552.326	8841.84
552.689	8886.81
553.053	8741.51
553.417	8792.81
553.78	8794.16
554.143	8717.55
554.507	8773.82
554.87	8699.02
555.234	8778.57
555.597	8671.45
555.96	8591.23
556.323	8670.77
556.686	8641.17
557.05	8681.85
557.413	8682.53
557.776	8604.56
558.139	8583.09
558.502	8574.51
558.865	8577.67
559.228	8593.04
559.59	8527.05
559.953	8607.27
560.316	8610.66
560.679	8561.85
561.041	8590.32
561.404	8628.97
561.767	8595.3
562.129	8593.49
562.492	8612.02
562.854	8574.73
563.217	8566.37
563.579	8600.95
563.941	8600.04
564.304	8590.1
564.666	8637.33
565.028	8607.27
565.39	8601.17
565.753	8655.86
566.115	8662.87
566.477	8659.93
566.839	8706.71
567.201	8704.22
567.563	8673.49
567.925	8640.27
568.287	8675.29
568.648	8656.31
569.01	8736.54
569.372	8717.1
569.734	8710.55
570.095	8786.48
570.457	8783.09
570.819	8757.78
571.18	8818.57
571.542	8798
571.903	8828.06
572.265	8761.85
572.626	8802.52
572.987	8850.66
573.349	8843.65
573.71	8915.29
574.071	8899.92
574.432	8875.06
574.794	8879.36
575.155	8912.8
575.516	8876.87
575.877	8901.73
576.238	8924.78
576.599	8924.78
576.96	8963.2
577.32	8915.51
577.681	8976.76
578.042	8948.51
578.403	9006.59
578.763	8950.32
579.124	8991.67
579.485	9036.41
579.845	9023.99
580.206	8988.28
580.566	9042.74
580.927	9038.67
581.287	9120.03
581.648	9045.23
582.008	9094.72
582.368	9047.94
582.728	9109.41
583.089	9000.94
583.449	9050.88
583.809	9059.24
584.169	9094.94
584.529	9029.64
584.889	9150.76
585.249	9076.87
585.609	9040.93
585.969	9146.92
586.329	9081.84
586.688	9146.47
587.048	9125.68
587.408	9106.02
587.768	9069.41
588.127	9114.83
588.487	9166.58
588.846	9225.11
589.206	9110.76
589.565	9109.86
589.925	9192.34
590.284	9138.33
590.643	9196.86
591.003	9216.98
591.362	9184.89
591.721	9120.03
592.08	9186.47
592.44	9227.6
592.799	9254.49
593.158	9193.25
593.517	9238.44
593.876	9214.26
594.235	9167.94
594.593	9240.48
594.952	9301.72
595.311	9196.64
595.67	9221.95
596.029	9282.74
596.387	9255.17
596.746	9249.06
597.104	9249.74
597.463	9240.03
597.822	9263.53
598.18	9200.03
598.538	9203.42
598.897	9221.04
599.255	9125.45
599.613	9281.83
599.972	9273.02
600.33	9237.77
600.688	9178.11
601.046	9229.4
601.404	9267.37
601.762	9268.73
602.12	9375.84
602.478	9363.41
602.836	9295.62
603.194	9221.95
603.552	9262.85
603.91	9278.22
604.268	9257.65
604.625	9228.5
604.983	9312.57
605.341	9227.82
605.698	9285
606.056	9291.78
606.413	9317.54
606.771	9275.5
607.128	9324.32
607.485	9284.77
607.843	9256.07
608.2	9280.7
608.557	9379.23
608.914	9298.33
609.272	9364.32
609.629	9306.46
609.986	9437.76
610.343	9323.19
610.7	9437.99
611.057	9406.35
611.414	9302.85
611.771	9412.68
612.127	9422.39
612.484	9430.08
612.841	9400.25
613.198	9449.51
613.554	9450.42
613.911	9469.4
614.267	9511.2
614.624	9439.57
614.98	9510.53
615.337	9501.26
615.693	9511.43
616.05	9465.1
616.406	9440.92
616.762	9478.66
617.118	9472.56
617.475	9491.54
617.831	9529.28
618.187	9525.44
618.543	9544.42
618.899	9529.28
619.255	9561.6
619.611	9466.23
619.967	9562.28
620.323	9580.81
620.678	9570.86
621.034	9559.34
621.39	9586.46
621.746	9507.81
622.101	9618.77
622.457	9471.66
622.812	9616.29
623.168	9534.03
623.523	9548.94
623.879	9638.66
624.234	9576.29
624.589	9536.06
624.945	9507.14
625.3	9492.9
625.655	9583.75
626.01	9515.05
626.365	9579.68
626.72	9547.59
627.075	9516.85
627.43	9496.52
627.785	9478.89
628.14	9594.82
628.495	9565.44
628.85	9471.88
629.205	9503.97
629.559	9545.55
629.914	9525.67
630.269	9475.73
630.623	9444.54
630.978	9456.06
631.332	9486.12
631.687	9513.92
632.041	9430.3
632.396	9414.94
632.75	9395.73
633.104	9430.3
633.459	9410.42
633.813	9368.84
634.167	9326.58
634.521	9327.03
634.875	9395.73
635.229	9332.45
635.583	9299.46
635.937	9277.54
636.291	9346.69
636.645	9286.13
636.999	9284.09
637.352	9407.03
637.706	9240.7
638.06	9346.69
638.413	9197.99
638.767	9257.43
639.121	9200.48
639.474	9172.23
639.828	9167.48
640.181	9166.81
640.534	9182.63
640.888	9149.41
641.241	9127.26
641.594	9125.23
641.947	9169.97
642.301	9131.1
642.654	9125.23
643.007	9108.73
643.36	9138.11
643.713	9070.54
644.066	9117.54
644.419	9023.53
644.771	9008.62
645.124	8953.93
645.477	8934.5
645.83	8837.32
646.182	8842.75
646.535	8796.87
646.888	8872.13
647.24	8800.94
647.593	8796.42
647.945	8805.23
648.298	8717.78
648.65	8805.01
649.002	8692.7
649.355	8799.59
649.707	8772.24
650.059	8803.43
650.411	8964.1
650.763	8935.4
651.115	9088.62
651.467	9021.5
651.819	9043.42
652.171	9023.08
652.523	8986.7
652.875	8969.52
653.227	8981.28
653.578	8993.03
653.93	9014.72
654.282	9044.32
654.633	9014.27
654.985	8958.45
655.337	8997.55
655.688	8980.37
656.039	9015.62
656.391	8879.13
656.742	8933.37
657.094	9027.83
657.445	9043.42
657.796	8985.34
658.147	9024.21
658.498	8997.55
658.849	8988.51
659.2	9020.6
659.551	8968.62
659.902	8974.95
660.253	8999.35
660.604	8972.01
660.955	8998.68
661.306	9000.26
661.656	9019.24
662.007	9029.41
662.358	9071.22
662.708	9023.53
663.059	9014.95
663.409	8928.4
663.76	9010.43
664.11	8956.87
664.461	9020.14
664.811	9034.16
665.161	9013.14
665.511	9007.49
665.862	9010.2
666.212	9014.95
666.562	8998
666.912	9010.65
667.262	8994.83
667.612	8958.68
667.962	8987.15
668.312	8976.53
668.662	9049.75
669.011	9010.65
669.361	8993.25
669.711	9034.16
670.06	8997.09
670.41	8993.7
670.76	8947.38
671.109	8972.24
671.459	8988.05
671.808	8914.16
672.157	9022.86
672.507	8896.53
672.856	8904.22
673.205	8913.03
673.554	8947.83
673.904	8881.84
674.253	8962.74
674.602	8902.18
674.951	8812.92
675.3	8756.65
675.649	8952.8
675.998	8896.08
676.346	8887.49
676.695	8927.94
677.044	8798.68
677.393	8838.23
677.741	8860.6
678.09	8846.59
678.438	8814.95
678.787	8814.05
679.135	8856.31
679.484	8816.08
679.832	8790.09
680.181	8714.39
680.529	8691.57
680.877	8828.96
681.225	8719.36
681.573	8767.72
681.922	8713.26
682.27	8622.87
682.618	8618.57
682.966	8660.83
683.314	8663.09
683.661	8573.6
684.009	8526.37
684.357	8543.32
684.705	8533.6
685.053	8561.85
685.4	8471.91
685.748	8489.99
686.095	8421.97
686.443	8434.4
686.79	8400.73
687.138	8383.55
687.485	8429.43
687.832	8381.52
688.18	8383.1
688.527	8325.02
688.874	8309.65
689.221	8292.25
689.568	8325.93
689.915	8267.4
690.262	8210.67
690.609	8215.65
690.956	8147.85
691.303	8151.24
691.65	8157.12
691.997	8116.67
692.344	8050
692.69	8008.42
693.037	8036.22
693.383	7982.21
693.73	8006.16
694.077	8005.93
694.423	7971.81
694.769	7894.3
695.116	7884.35
695.462	7861.08
695.808	7835.99
696.155	7772.72
696.501	7758.26
696.847	7779.95
697.193	7726.62
697.539	7672.61
697.885	7671.25
698.231	7642.1
698.577	7607.07
698.923	7588.09
699.269	7526.62
699.614	7519.17
699.96	7485.72
700.306	7462.67
700.651	7386.74
700.997	7383.13
701.342	7337.93
701.688	7384.48
702.033	7364.14
702.379	7310.13
702.724	7299.06
703.069	7271.94
703.415	7218.16
703.76	7187.42
704.105	7166.41
704.45	7175.67
704.795	7171.15
705.14	7139.29
705.485	7090.48
705.83	7051.83
706.175	7122.79
706.52	7034.21
706.865	7060.65
707.209	7010.48
707.554	6936.81
707.899	6986.07
708.243	6881.44
708.588	6907.66
708.932	6886.41
709.277	6872.86
709.621	6830.82
709.966	6776.36
710.31	6858.39
710.654	6789.69
710.998	6781.78
711.342	6829.02
711.687	6743.37
712.031	6682.13
712.375	6680.32
712.719	6669.02
713.063	6708.11
713.407	6709.24
713.75	6648.46
714.094	6631.73
714.438	6642.58
714.782	6665.63
715.125	6566.65
715.469	6646.42
715.812	6570.72
716.156	6514.22
716.499	6585.63
716.843	6527.55
717.186	6483.26
717.53	6527.78
717.873	6479.65
718.216	6529.36
718.559	6483.26
718.902	6472.41
719.246	6485.3
719.589	6430.16
719.932	6396.48
720.275	6467.67
720.617	6454.11
720.96	6450.27
721.303	6441.91
721.646	6476.03
721.989	6408.01
722.331	6424.05
722.674	6440.78
723.016	6442.36
723.359	6363.04
723.701	6431.74
724.044	6398.97
724.386	6370.95
724.729	6361.46
725.071	6386.09
725.413	6391.51
725.755	6337.73
726.097	6309.93
726.439	6297.96
726.782	6351.51
727.124	6369.59
727.465	6329.14
727.807	6337.73
728.149	6301.12
728.491	6278.07
728.833	6298.41
729.175	6283.27
729.516	6294.57
729.858	6311.29
730.199	6285.75
730.541	6343.15
730.882	6326.88
731.224	6274.45
731.565	6281.69
731.906	6267.45
732.248	6331.63
732.589	6250.73
732.93	6280.1
733.271	6274.23
733.612	6307.67
733.953	6283.94
734.294	6243.95
734.635	6308.35
734.976	6304.28
735.317	6257.96
735.658	6280.1
735.999	6294.79
736.339	6255.92
736.68	6314.9
737.021	6286.88
737.361	6259.31
737.702	6366.43
738.042	6276.49
738.383	6281.01
738.723	6330.95
739.063	6295.24
739.404	6352.87
739.744	6332.53
740.084	6372.76
740.424	6394.22
740.764	6349.03
741.104	6448.91
741.444	6376.82
741.784	6353.55
742.124	6451.4
742.464	6405.52
742.804	6434.9
743.143	6476.71
743.483	6537.05
743.823	6446.88
744.162	6506.76
744.502	6568.46
744.841	6544.96
745.181	6674.9
745.52	6587.21
745.86	6668.12
746.199	6667.89
746.538	6660.21
746.877	6783.37
747.216	6768.23
747.556	6780.88
747.895	6821.11
748.234	6931.39
748.573	7000.08
748.911	6974.32
749.25	7011.16
749.589	7025.39
749.928	7156.92
750.267	7254.31
750.605	7215.45
750.944	7299.51
751.283	7396.46
751.621	7519.84
751.96	7457.02
752.298	7570.69
752.636	7722.55
752.975	7779.72
753.313	7910.34
753.651	8035.09
753.989	8046.84
754.327	8170
754.666	8216.1
755.004	8385.58
755.342	8526.37
755.679	8570.89
756.017	8711
756.355	8907.6
756.693	8951.67
757.031	9124.55
757.368	9189.18
757.706	9298.55
758.044	9470.53
758.381	9640.47
758.719	9793.23
759.056	10024.19
759.394	10104.64
759.731	10292.2
760.068	10345.53
760.405	10458.75
760.743	10600.44
761.08	10860.77
761.417	11029.13
761.754	11193.42
762.091	11295.11
762.428	11477.25
762.765	11526.52
763.102	11852.16
763.438	11926.28
763.775	12044.47
764.112	12281.3
764.449	12472.71
764.785	12559.94
765.122	12753.15
765.458	12810.55
765.795	13014.39
766.131	13190.2
766.467	13350.88
766.804	13462.06
767.14	13536.64
767.476	13752.68
767.812	13894.37
768.148	14065.89
768.485	14184.3
768.821	14270.63
