Data from hue_340_FLMS001491_61.txt Node
Date: Mon Feb 06 15:43:25 GMT 2017
User: dcchb
Spectrometer: FLMS00149
Trigger mode: 0
Integration Time (sec): 2.000000E-2
Scans to average: 10
Electric dark correction enabled: true
Nonlinearity correction enabled: false
Boxcar width: 0
XAxis mode: Wavelengths
Number of Pixels in Spectrum: 2048
>>>>>Begin Spectral Data<<<<<
341.393	-19.19
341.776	-19.19
342.16	-19.19
342.543	-63.71
342.927	-90.6
343.31	-82.47
343.693	-75.69
344.077	-71.17
344.46	-54
344.843	-54.45
345.226	-54.67
345.61	-46.54
345.993	-3.6
346.376	14.93
346.759	9.96
347.142	10.64
347.525	48.6
347.908	63.74
348.291	80.01
348.674	103.74
349.057	110.97
349.44	128.37
349.823	140.58
350.206	164.53
350.588	183.06
350.971	202.04
351.354	221.03
351.737	253.11
352.119	240.01
352.502	271.87
352.884	279.1
353.267	288.59
353.65	293.79
354.032	327.69
354.414	302.83
354.797	308.48
355.179	317.07
355.562	317.29
355.944	307.35
356.326	295.83
356.709	326.33
357.091	330.17
357.473	332.21
357.855	359.1
358.238	338.08
358.62	321.36
359.002	336.05
359.384	326.11
359.766	340.12
360.148	338.31
360.53	341.47
360.912	318.65
361.294	350.29
361.676	326.33
362.057	339.89
362.439	320.01
362.821	321.81
363.203	315.49
363.584	302.38
363.966	311.19
364.348	328.14
364.729	299.44
365.111	303.51
365.493	321.81
365.874	328.59
366.256	311.87
366.637	333.11
367.019	315.71
367.4	314.81
367.781	297.41
368.163	293.79
368.544	299.44
368.925	298.09
369.306	340.34
369.688	299.67
370.069	293.79
370.45	301.25
370.831	314.36
371.212	327.01
371.593	318.88
371.974	310.29
372.355	303.73
372.736	326.56
373.117	325.88
373.498	321.59
373.879	310.74
374.26	312.77
374.641	314.13
375.021	309.84
375.402	301.48
375.783	305.99
376.163	327.01
376.544	301.93
376.925	313
377.305	329.05
377.686	336.95
378.066	320.91
378.447	318.2
378.827	318.2
379.208	312.77
379.588	309.61
379.968	320.68
380.349	338.76
380.729	318.65
381.109	333.79
381.489	315.03
381.87	334.02
382.25	326.11
382.63	339.21
383.01	323.62
383.39	342.38
383.77	326.56
384.15	325.66
384.53	337.86
384.91	339.21
385.29	329.5
385.67	349.38
386.049	337.63
386.429	340.34
386.809	336.95
387.189	350.29
387.568	350.06
387.948	351.42
388.328	354.36
388.707	343.06
389.087	331.08
389.466	344.64
389.846	351.64
390.225	347.35
390.605	342.83
390.984	362.49
391.363	370.85
391.743	365.43
392.122	346.45
392.501	355.26
392.881	350.97
393.26	367.24
393.639	373.34
394.018	373.79
394.397	348.48
394.776	363.17
395.155	366.56
395.534	353.68
395.913	343.51
396.292	391.19
396.671	370.4
397.05	376.05
397.429	374.47
397.808	352.1
398.186	379.89
398.565	385.77
398.944	397.07
399.323	382.15
399.701	383.05
400.08	369.95
400.458	385.09
400.837	396.39
401.215	397.07
401.594	398.42
401.972	399.33
402.351	416.27
402.729	395.94
403.107	372.89
403.486	388.48
403.864	409.95
404.242	413.11
404.62	414.47
404.999	400.23
405.377	416.05
405.755	408.36
406.133	414.01
406.511	418.08
406.889	421.92
407.267	420.79
407.645	427.35
408.023	435.93
408.401	432.77
408.779	435.71
409.156	423.96
409.534	432.77
409.912	455.6
410.29	454.24
410.667	455.6
411.045	445.2
411.422	461.02
411.8	459.21
412.178	450.4
412.555	464.86
412.933	470.51
413.31	482.71
413.687	479.1
414.065	468.25
414.442	487.68
414.819	489.49
415.197	491.53
415.574	467.57
415.951	491.75
416.328	489.27
416.705	507.57
417.082	512.54
417.46	525.65
417.837	521.81
418.214	539.43
418.591	524.52
418.967	521.58
419.344	524.52
419.721	540.34
420.098	531.75
420.475	520.23
420.852	547.34
421.228	534.46
421.605	567.68
421.982	563.16
422.358	578.3
422.735	576.04
423.111	586.89
423.488	587.57
423.864	585.76
424.241	601.81
424.617	602.71
424.994	602.03
425.37	587.34
425.746	595.25
426.123	624.18
426.499	615.59
426.875	588.47
427.251	619.21
427.627	624.4
428.003	623.5
428.379	647.23
428.756	644.97
429.132	642.71
429.507	664.18
429.883	665.99
430.259	652.43
430.635	668.25
431.011	693.78
431.387	664.86
431.763	697.85
432.138	693.33
432.514	690.84
432.89	711.41
433.265	701.24
433.641	730.62
434.016	711.41
434.392	742.82
434.767	738.98
435.143	710.28
435.518	755.02
435.894	762.48
436.269	756.6
436.644	743.27
437.02	776.49
437.395	787.34
437.77	773.78
438.145	781.91
438.52	800.9
438.895	795.7
439.271	819.88
439.646	811.74
440.021	837.51
440.395	844.96
440.77	835.25
441.145	821.46
441.52	863.72
441.895	853.55
442.27	826.89
442.645	827.34
443.019	840.67
443.394	869.6
443.769	863.04
444.143	874.34
444.518	875.92
444.892	871.63
445.267	893.32
445.641	887.45
446.016	888.13
446.39	880.22
446.764	891.97
447.139	883.61
447.513	915.92
447.887	890.61
448.262	878.18
448.636	898.97
449.01	925.87
449.384	922.02
449.758	933.77
450.132	938.29
450.506	930.39
450.88	910.72
451.254	929.26
451.628	943.27
452.002	939.42
452.376	968.12
452.75	982.81
453.123	967.45
453.497	966.09
453.871	970.84
454.244	992.53
454.618	984.62
454.992	992.76
455.365	1009.03
455.739	1008.58
456.112	1023.94
456.486	1030.27
456.859	1026.88
457.232	1034.34
457.606	1057.39
457.979	1061.91
458.352	1059.42
458.725	1086.54
459.099	1065.97
459.472	1117.5
459.845	1121.79
460.218	1117.72
460.591	1097.61
460.964	1134.9
461.337	1148.23
461.71	1158.4
462.083	1172.86
462.456	1184.16
462.829	1183.03
463.201	1181.45
463.574	1194.11
463.947	1206.54
464.32	1218.29
464.692	1206.99
465.065	1227.55
465.438	1253.09
465.81	1275.69
466.183	1276.82
466.555	1327.44
466.928	1312.07
467.3	1299.64
467.672	1310.71
468.045	1329.02
468.417	1356.36
468.789	1340.32
469.161	1358.85
469.534	1397.94
469.906	1408.34
470.278	1422.58
470.65	1413.76
471.022	1473.42
471.394	1458.28
471.766	1476.36
472.138	1480.43
472.51	1488.34
472.882	1513.19
473.253	1574.21
473.625	1563.14
473.997	1599.29
474.369	1609.24
474.74	1632.51
475.112	1651.04
475.484	1673.64
475.855	1710.48
476.227	1722.91
476.598	1740.53
476.97	1730.59
477.341	1765.17
477.713	1810.81
478.084	1794.77
478.455	1857.82
478.827	1874.99
479.198	1912.05
479.569	1907.53
479.94	1937.14
480.311	1981.43
480.682	1969.23
481.053	2065.95
481.424	2070.47
481.795	2061.43
482.166	2158.6
482.537	2139.17
482.908	2179.39
483.279	2182.1
483.65	2224.14
484.021	2292.84
484.391	2298.03
484.762	2340.97
485.133	2323.57
485.503	2378.71
485.874	2453.28
486.244	2448.54
486.615	2449.44
486.985	2491.02
487.356	2547.29
487.726	2584.58
488.097	2620.51
488.467	2611.47
488.837	2690.56
489.207	2697.57
489.578	2737.8
489.948	2775.76
490.318	2759.94
490.688	2803.33
491.058	2846.27
491.428	2855.76
491.798	2901.41
492.168	2922.2
492.538	2953.16
492.908	3007.39
493.278	2987.28
493.648	3017.34
494.017	3017.34
494.387	3096.88
494.757	3149.31
495.126	3125.81
495.496	3124.9
495.866	3187.95
496.235	3184.56
496.605	3213.26
496.974	3231.57
497.344	3225.69
497.713	3279.93
498.082	3298.01
498.452	3356.54
498.821	3342.98
499.19	3339.36
499.559	3385.01
499.928	3378.68
500.298	3374.16
500.667	3438.12
501.036	3415.52
501.405	3487.15
501.774	3474.5
502.143	3493.48
502.512	3500.04
502.88	3513.82
503.249	3533.25
503.618	3530.09
503.987	3572.35
504.356	3579.81
504.724	3585.46
505.093	3606.25
505.462	3627.26
505.83	3664.1
506.199	3699.58
506.567	3697.54
506.936	3664.55
507.304	3738.22
507.672	3754.72
508.041	3772.8
508.409	3790.87
508.777	3784.77
509.145	3777.54
509.514	3804.43
509.882	3869.74
510.25	3907.71
510.618	3853.92
510.986	3854.15
511.354	3901.61
511.722	3938.44
512.09	3921.72
512.458	3858.67
512.826	3959.68
513.193	3930.53
513.561	3970.31
513.929	4004.2
514.297	4000.81
514.664	4059.12
515.032	4034.48
515.4	4075.84
515.767	4067.25
516.135	4089.85
516.502	4066.35
516.869	4116.52
517.237	4143.18
517.604	4117.65
517.972	4154.71
518.339	4176.4
518.706	4145.89
519.073	4173.92
519.44	4149.51
519.808	4240.58
520.175	4215.04
520.542	4224.31
520.909	4272.22
521.276	4262.95
521.643	4268.15
522.009	4308.6
522.376	4334.36
522.743	4343.4
523.11	4391.09
523.477	4436.28
523.843	4413.68
524.21	4429.73
524.577	4440.8
524.943	4472.89
525.31	4476.05
525.676	4527.8
526.043	4519.67
526.409	4579.33
526.776	4599.67
527.142	4559.44
527.508	4602.38
527.874	4634.47
528.241	4682.15
528.607	4683.28
528.973	4721.47
529.339	4687.12
529.705	4747.69
530.071	4787.68
530.437	4764.86
530.803	4811.19
531.169	4827.91
531.535	4857.74
531.901	4857.74
532.267	4965.31
532.632	4858.87
532.998	4959.21
533.364	4976.15
533.73	4978.41
534.095	5024.51
534.461	5037.62
534.826	5072.2
535.192	5066.32
535.557	5112.42
535.923	5096.6
536.288	5099.09
536.653	5143.16
537.019	5122.14
537.384	5175.7
537.749	5209.37
538.114	5183.61
538.479	5175.7
538.845	5262.25
539.21	5226.77
539.575	5240.55
539.94	5260.67
540.305	5309.93
540.67	5314.22
541.034	5404.17
541.399	5400.78
541.764	5431.74
542.129	5417.72
542.494	5440.55
542.858	5428.57
543.223	5487.33
543.587	5550.15
543.952	5508.34
544.316	5550.6
544.681	5574.33
545.045	5584.5
545.41	5626.53
545.774	5670.37
546.138	5678.28
546.503	5713.99
546.867	5662.01
547.231	5763.48
547.595	5732.29
547.959	5771.16
548.324	5774.1
548.688	5783.14
549.052	5781.56
549.416	5815.23
549.779	5803.93
550.143	5846.41
550.507	5893.42
550.871	5908.33
551.235	5899.75
551.599	6013.87
551.962	5979.07
552.326	5978.84
552.689	5967.31
553.053	6013.42
553.417	5983.81
553.78	6100.64
554.143	6087.99
554.507	6133.19
554.87	6115.11
555.234	6187.87
555.597	6157.14
555.96	6209.12
556.323	6220.42
556.686	6227.65
557.05	6217.93
557.413	6272.62
557.776	6216.12
558.139	6314.88
558.502	6315.55
558.865	6274.88
559.228	6337.25
559.59	6402.56
559.953	6380.41
560.316	6404.59
560.679	6451.6
561.041	6459.73
561.404	6499.05
561.767	6574.98
562.129	6527.98
562.492	6607.3
562.854	6552.84
563.217	6553.29
563.579	6630.57
563.941	6667.18
564.304	6689.33
564.666	6690.23
565.028	6690.91
565.39	6712.61
565.753	6831.47
566.115	6821.98
566.477	6776.11
566.839	6772.49
567.201	6907.4
567.563	6850
567.925	6892.49
568.287	6876.44
568.648	6982.88
569.01	6982.88
569.372	6983.11
569.734	7015.65
570.095	7106.49
570.457	7090.45
570.819	7143.1
571.18	7104.23
571.542	7166.83
571.903	7210.9
572.265	7250.22
572.626	7262.87
572.987	7343.1
573.349	7395.07
573.71	7414.51
574.071	7459.03
574.432	7467.84
574.794	7577.22
575.155	7590.55
575.516	7630.55
575.877	7657.21
576.238	7731.79
576.599	7868.51
576.96	7914.16
577.32	7937.21
577.681	7980.82
578.042	8082.06
578.403	8124.09
578.763	8175.84
579.124	8276.63
579.485	8397.76
579.845	8504.42
580.206	8561.37
580.566	8667.36
580.927	8781.25
581.287	8855.37
581.648	8985.99
582.008	9120.23
582.368	9202.26
582.728	9389.82
583.089	9473.44
583.449	9653.77
583.809	9777.61
584.169	9952.75
584.529	10055.79
584.889	10318.39
585.249	10397.93
585.609	10561.09
585.969	10801.99
586.329	10909.56
586.688	11086.73
587.048	11263.45
587.408	11485.81
587.768	11708.86
588.127	11921.73
588.487	12141.16
588.846	12398.78
589.206	12676.74
589.565	12798.55
589.925	13084.19
590.284	13295.94
590.643	13512.43
591.003	13822.93
591.362	14105.63
591.721	14255.23
592.08	14521.21
592.44	14929.79
592.799	15129.56
593.158	15335.43
593.517	15605.25
593.876	15947.39
594.235	16187.84
594.593	16430.54
594.952	16678.22
595.311	17016.74
595.67	17316.62
596.029	17586.44
596.387	17886.78
596.746	18211.96
597.104	18504.84
597.463	18823.47
597.822	19079.29
598.18	19167.19
598.538	19577.35
598.897	19968.75
599.255	20043.78
599.613	20645.35
599.972	20662.75
600.33	21158.33
600.688	21326.46
601.046	21690.29
601.404	21865.65
601.762	22188.81
602.12	22532.98
602.478	22766.2
602.836	23022.46
603.194	23147.2
603.552	23540.19
603.91	23656.34
604.268	24036.22
604.625	24281.18
604.983	24571.35
605.341	24689.99
605.698	24926.59
606.056	25378.33
606.413	25518.67
606.771	25789.84
607.128	26084.3
607.485	26118.88
607.843	26381.69
608.2	26705.98
608.557	27110.04
608.914	27123.82
609.272	27490.59
609.629	27698.04
609.986	28005.61
610.343	28087.41
610.7	28434.07
611.057	28643.55
611.414	28697.56
611.771	28875.64
612.127	29253.26
612.484	29324.44
612.841	29626.35
613.198	29645.34
613.554	29872
613.911	30172.33
614.267	30359.44
614.624	30545.43
614.98	30724.4
615.337	30961.69
615.693	31046.43
616.05	31158.06
616.406	31549.69
616.762	31402.8
617.118	31509.47
617.475	31790.59
617.831	32064.93
618.187	32158.26
618.543	32284.81
618.899	32591.7
619.255	32683.22
619.611	32722.54
619.967	32907.4
620.323	32993.27
620.678	32955.31
621.034	33109.65
621.39	33181.51
621.746	33293.38
622.101	33544.67
622.457	33563.2
622.812	33730.2
623.168	33868.05
623.523	33916.41
623.879	34027.14
624.234	33842.51
624.589	34251.77
624.945	34272.56
625.3	34395.72
625.655	34534.47
626.01	34449.28
626.365	34602.04
626.72	34704.19
627.075	34675.71
627.43	34767.46
627.785	34751.19
628.14	34878.42
628.495	34990.05
628.85	35087
629.205	34988.47
629.559	35283.83
629.914	35066.66
630.269	35226.66
630.623	35196.83
630.978	34994.8
631.332	35282.25
631.687	35351.18
632.041	35294
632.396	35369.71
632.75	35374.68
633.104	35461.45
633.459	35385.75
633.813	35388.69
634.167	35302.14
634.521	35357.73
634.875	35491.74
635.229	35439.76
635.583	35315.92
635.937	35474.34
636.291	35360.89
636.645	35430.72
636.999	35369.03
637.352	35467.78
637.706	35299.65
638.06	35512.53
638.413	35377.61
638.767	35369.71
639.121	35410.38
639.474	35417.84
639.828	35452.42
640.181	35515.46
640.534	35522.47
640.888	35336.49
641.241	35260.56
641.594	35415.81
641.947	35533.09
642.301	35394.56
642.654	35464.62
643.007	35409.25
643.36	35445.41
643.713	35440.44
644.066	35517.27
644.419	35246.32
644.771	35159.54
645.124	34761.13
645.477	34703.51
645.83	34550.97
646.182	34332.67
646.535	34280.02
646.888	34427.81
647.24	34234.82
647.593	34447.24
647.945	34353.46
648.298	34216.52
648.65	34247.25
649.002	34253.35
649.355	34324.31
649.707	34196.4
650.059	34503.51
650.411	34662.83
650.763	34887.46
651.115	35216.26
651.467	35025.53
651.819	35067.34
652.171	34944.18
652.523	34928.81
652.875	34868.02
653.227	34783.05
653.578	34962.71
653.93	35046.1
654.282	34763.62
654.633	34710.97
654.985	34743.06
655.337	34773.11
655.688	34729.04
656.039	34923.84
656.391	34575.83
656.742	34719.55
657.094	34829.83
657.445	34962.71
657.796	34817.18
658.147	34697.18
658.498	34569.27
658.849	34708.93
659.2	34752.55
659.551	34559.33
659.902	34680.01
660.253	34602.27
660.604	34671.42
660.955	34487.69
661.306	34807.46
661.656	34621.25
662.007	34717.97
662.358	34578.77
662.708	34635.94
663.059	34690.85
663.409	34396.17
663.76	34719.78
664.11	34597.52
664.461	34599.1
664.811	34732.43
665.161	34550.29
665.511	34497.86
665.862	34521.14
666.212	34561.82
666.562	34568.6
666.912	34537.41
667.262	34638.88
667.612	34443.18
667.962	34537.86
668.312	34483.4
668.662	34663.51
669.011	34570.63
669.361	34532.21
669.711	34455.15
670.06	34527.69
670.41	34379.68
670.76	34315.72
671.109	34644.3
671.459	34404.99
671.808	34351.65
672.157	34370.86
672.507	34214.93
672.856	34199.34
673.205	34229.85
673.554	34505.32
673.904	34233.69
674.253	34515.72
674.602	34338.77
674.951	33794.83
675.3	33611.33
675.649	34179.68
675.998	34226.68
676.346	34224.2
676.695	34310.07
677.044	34081.15
677.393	34068.95
677.741	34130.87
678.09	34203.86
678.438	33996.86
678.787	34103.75
679.135	34033.24
679.484	33804.77
679.832	34006.13
680.181	33781.72
680.529	33855.62
680.877	33790.54
681.225	33723.87
681.573	34042.73
681.922	33670.09
682.27	33570.2
682.618	33693.37
682.966	33556.87
683.314	33570.88
683.661	33568.4
684.009	33389.64
684.357	33348.29
684.705	33251.34
685.053	33269.2
685.4	33285.47
685.748	33054.51
686.095	33078.01
686.443	32922.76
686.79	33008.41
687.138	33116.66
687.485	33049.77
687.832	32867.85
688.18	33014.29
688.527	32738.81
688.874	32706.27
689.221	32576.56
689.568	32669.44
689.915	32553.96
690.262	32544.02
690.609	32534.75
690.956	32344.93
691.303	32292.95
691.65	32180.18
691.997	32092.73
692.344	32008.21
692.69	31897.93
693.037	31965.05
693.383	31646.64
693.73	31857.03
694.077	31536.36
694.423	31584.95
694.769	31509.24
695.116	31493.65
695.462	31452.52
695.808	31333.88
696.155	31361.22
696.501	31178.4
696.847	31060.89
697.193	30990.39
697.539	31073.32
697.885	30889.82
698.231	30780
698.577	30725.53
698.923	30559.21
699.269	30643.73
699.614	30360.12
699.96	30265.21
700.306	30297.07
700.651	30246
700.997	30087.58
701.342	30039.45
701.688	30159.22
702.033	29911.54
702.379	29956.74
702.724	29904.31
703.069	29860.25
703.415	29530.31
703.76	29563.76
704.105	29639.91
704.45	29545.23
704.795	29410.77
705.14	29329.86
705.485	29243.09
705.83	29050.55
706.175	29150.89
706.52	29016.65
706.865	28951.12
707.209	28992.25
707.554	28832.7
707.899	29009.65
708.243	28775.75
708.588	28766.49
708.932	28572.6
709.277	28512.94
709.621	28521.3
709.966	28378.7
710.31	28518.81
710.654	28132.16
710.998	28299.38
711.342	28153.4
711.687	28252.38
712.031	28062.33
712.375	28087.86
712.719	27982.78
713.063	27989.79
713.407	27993.63
713.75	27871.6
714.094	27863.01
714.438	27636.58
714.782	27782.11
715.125	27586.86
715.469	27733.07
715.812	27422.8
716.156	27315
716.499	27384.38
716.843	27512.06
717.186	27242.69
717.53	27352.74
717.873	27266.42
718.216	27205.4
718.559	27074.56
718.902	27020.77
719.246	27014.67
719.589	26900.55
719.932	27009.7
720.275	26816.48
720.617	26827.33
720.96	26738.29
721.303	26786.43
721.646	26667.34
721.989	26650.84
722.331	26472.76
722.674	26501.24
723.016	26484.74
723.359	26404.97
723.701	26498.75
724.044	26374.91
724.386	26181.92
724.729	26418.53
725.071	26322.71
725.413	26153.45
725.755	26195.94
726.097	26074.36
726.439	25923.4
726.782	25939.45
727.124	26098.99
727.465	25821.26
727.807	25887.24
728.149	25859
728.491	25791.88
728.833	25824.87
729.175	25713.46
729.516	25673.01
729.858	25630.3
730.199	25729.96
730.541	25569.06
730.882	25581.49
731.224	25650.41
731.565	25420.14
731.906	25451.55
732.248	25415.84
732.589	25414.04
732.93	25228.05
733.271	25242.74
733.612	25204.32
733.953	25290.42
734.294	25164.1
734.635	25159.58
734.976	25082.07
735.317	24972.92
735.658	25000.26
735.999	25042.75
736.339	24968.62
736.68	24970.88
737.021	24925.69
737.361	24832.81
737.702	25056.98
738.042	24696.09
738.383	24861.96
738.723	24877.33
739.063	24672.81
739.404	24729.31
739.744	24593.94
740.084	24573.83
740.424	24520.05
740.764	24533.83
741.104	24551.01
741.444	24480.05
741.784	24369.32
742.124	24438.92
742.464	24403.21
742.804	24248.19
743.143	24265.59
743.483	24307.4
743.823	24120.06
744.162	24231.47
744.502	24198.47
744.841	24061.75
745.181	24307.62
745.52	23996.9
745.86	24095.2
746.199	23980.85
746.538	24016.56
746.877	24084.35
747.216	23978.37
747.556	23965.71
747.895	23939.05
748.234	23759.62
748.573	23723.23
748.911	23745.83
749.25	23795.77
749.589	23661.99
749.928	23593.74
750.267	23609.56
750.605	23631.94
750.944	23525.5
751.283	23378.83
751.621	23354.43
751.96	23294.54
752.298	23400.3
752.636	23407.31
752.975	23156.24
753.313	23164.38
753.651	23154.43
753.989	23053.42
754.327	22982.23
754.666	22889.81
755.004	22967.55
755.342	22979.3
755.679	22906.76
756.017	22829.7
756.355	22771.39
756.693	22709.7
757.031	22684.62
757.368	22565.75
757.706	22492.76
758.044	22401.68
758.381	22403.27
758.719	22391.29
759.056	22357.17
759.394	22346.77
759.731	22105.65
760.068	22175.48
760.405	22155.14
