Data from hue_170_FLMS001491_00007.txt Node
Date: Tue Feb 07 16:48:10 GMT 2017
User: dcchb
Spectrometer: FLMS00149
Trigger mode: 0
Integration Time (sec): 2.000000E-2
Scans to average: 10
Electric dark correction enabled: true
Nonlinearity correction enabled: false
Boxcar width: 0
XAxis mode: Wavelengths
Number of Pixels in Spectrum: 2048
>>>>>Begin Spectral Data<<<<<
341.393	-26.09
341.776	-26.09
342.16	-26.09
342.543	-73.54
342.927	-61.11
343.31	-57.05
343.693	-60.44
344.077	-57.72
344.46	-63.6
344.843	-54.33
345.226	-53.66
345.61	-41.45
345.993	-27.44
346.376	2.84
346.759	9.84
347.142	20.92
347.525	53.01
347.908	56.17
348.291	83.51
348.674	94.59
349.057	94.81
349.44	142.5
349.823	127.81
350.206	168.71
350.588	177.52
350.971	204.64
351.354	228.14
351.737	200.12
352.119	245.32
352.502	257.3
352.884	280.35
353.267	288.93
353.65	279.67
354.032	299.1
354.414	287.58
354.797	308.59
355.179	302.49
355.562	321.7
355.944	327.58
356.326	314.24
356.709	338.2
357.091	323.51
357.473	333.68
357.855	345.88
358.238	341.36
358.62	330.06
359.002	342.27
359.384	328.03
359.766	331.87
360.148	328.48
360.53	325.32
360.912	348.14
361.294	348.14
361.676	336.39
362.057	327.8
362.439	345.43
362.821	317.63
363.203	343.39
363.584	297.97
363.966	321.93
364.348	310.4
364.729	305.43
365.111	300.23
365.493	333.45
365.874	319.89
366.256	323.51
366.637	317.86
367.019	310.85
367.4	326.22
367.781	310.18
368.163	316.73
368.544	303.85
368.925	317.63
369.306	314.47
369.688	306.11
370.069	299.33
370.45	321.7
370.831	311.76
371.212	302.94
371.593	316.05
371.974	322.6
372.355	300.23
372.736	314.47
373.117	312.44
373.498	317.63
373.879	321.25
374.26	344.75
374.641	325.99
375.021	316.5
375.402	309.05
375.783	335.26
376.163	329.38
376.544	330.29
376.925	327.35
377.305	340.46
377.686	317.63
378.066	345.2
378.447	346.78
378.827	332.55
379.208	336.39
379.588	340.68
379.968	340.91
380.349	314.47
380.729	346.56
381.109	329.16
381.489	341.81
381.87	340.91
382.25	330.29
382.63	333.68
383.01	314.24
383.39	343.17
383.77	319.44
384.15	352.66
384.53	357.18
384.91	356.05
385.29	370.29
385.67	341.81
386.049	329.38
386.429	343.62
386.809	350.17
387.189	346.56
387.568	374.81
387.948	339.1
388.328	357.18
388.707	357.63
389.087	358.76
389.466	338.42
389.846	356.73
390.225	359.44
390.605	373
390.984	377.74
391.363	369.16
391.743	353.56
392.122	376.16
392.501	362.83
392.881	369.61
393.26	365.09
393.639	375.48
394.018	378.2
394.397	382.26
394.776	369.16
395.155	393.79
395.534	398.08
395.913	388.14
396.292	379.78
396.671	372.55
397.05	380
397.429	390.17
397.808	383.85
398.186	395.37
398.565	393.79
398.944	396.05
399.323	391.08
399.701	400.57
400.08	411.19
400.458	428.14
400.837	409.83
401.215	415.03
401.594	414.13
401.972	430.62
402.351	406.67
402.729	409.83
403.107	421.58
403.486	431.75
403.864	436.05
404.242	417.52
404.62	422.04
404.999	446.22
405.377	423.84
405.755	430.17
406.133	445.54
406.511	444.64
406.889	441.92
407.267	445.54
407.645	466.56
408.023	476.72
408.401	460.68
408.779	477.18
409.156	443.96
409.534	495.93
409.912	471.75
410.29	460.45
410.667	484.18
411.045	496.84
411.422	511.07
411.8	499.1
412.178	494.35
412.555	519.66
412.933	517.63
413.31	529.83
413.687	573.45
414.065	543.62
414.442	520.34
414.819	537.29
415.197	533.67
415.574	550.85
415.951	572.77
416.328	558.08
416.705	561.92
417.082	552.43
417.46	581.35
417.837	579.32
418.214	578.87
418.591	589.49
418.967	611.41
419.344	610.73
419.721	612.31
420.098	606.89
420.475	617.51
420.852	632.2
421.228	645.31
421.605	635.59
421.982	635.36
422.358	656.83
422.735	653.44
423.111	642.14
423.488	670.62
423.864	683.5
424.241	704.29
424.617	690.05
424.994	683.95
425.37	714.91
425.746	729.6
426.123	703.84
426.499	737.28
426.875	716.72
427.251	737.06
427.627	754.01
428.003	768.02
428.379	785.42
428.756	750.16
429.132	763.27
429.507	781.8
429.883	785.87
430.259	808.47
430.635	784.29
431.011	801.91
431.387	844.17
431.763	850.73
432.138	831.74
432.514	845.75
432.89	869.03
433.265	874.45
433.641	872.87
434.016	879.65
434.392	883.49
434.767	896.83
435.143	927.56
435.518	931.18
435.894	952.64
436.269	963.27
436.644	994.68
437.02	992.64
437.395	1016.15
437.77	987.45
438.145	1012.76
438.52	1019.54
438.895	1059.99
439.271	1058.63
439.646	1050.27
440.021	1062.02
440.395	1094.56
440.77	1084.39
441.145	1095.69
441.52	1119.65
441.895	1099.08
442.27	1127.78
442.645	1164.16
443.019	1148.35
443.394	1136.14
443.769	1160.77
444.143	1136.37
444.518	1206.65
444.892	1178.85
445.267	1184.28
445.641	1207.55
446.016	1211.17
446.39	1226.76
446.764	1246.65
447.139	1251.17
447.513	1248.46
447.887	1265.4
448.262	1273.31
448.636	1300.88
449.01	1298.62
449.384	1329.36
449.758	1307.66
450.132	1335.23
450.506	1341.79
450.88	1348.34
451.254	1360.77
451.628	1363.26
452.002	1353.76
452.376	1397.15
452.75	1438.51
453.123	1417.26
453.497	1447.55
453.871	1447.09
454.244	1484.38
454.618	1488.22
454.992	1529.13
455.365	1509.24
455.739	1582.23
456.112	1563.48
456.486	1590.37
456.859	1599.86
457.232	1608.22
457.606	1652.29
457.979	1631.5
458.352	1702.91
458.725	1705.39
459.099	1733.19
459.472	1752.4
459.845	1784.94
460.218	1793.3
460.591	1816.58
460.964	1840.08
461.337	1837.82
461.71	1895.67
462.083	1892.73
462.456	1899.29
462.829	1926.18
463.201	1971.15
463.574	1983.13
463.947	2029.68
464.32	2070.81
464.692	2091.37
465.065	2106.06
465.438	2146.74
465.81	2159.39
466.183	2219.96
466.555	2230.12
466.928	2298.82
467.3	2284.59
467.672	2360.74
468.045	2373.17
468.417	2427.41
468.789	2439.61
469.161	2453.17
469.534	2526.61
469.906	2594.18
470.278	2586.73
470.65	2655.2
471.022	2719.15
471.394	2772.48
471.766	2832.14
472.138	2848.64
472.51	2930.22
472.882	2931.58
473.253	3042.53
473.625	3063.78
473.997	3163.89
474.369	3188.97
474.74	3251.12
475.112	3330.21
475.484	3408.17
475.855	3459.7
476.227	3502.41
476.598	3674.38
476.97	3697.21
477.341	3788.73
477.713	3811.1
478.084	3892.68
478.455	4044.31
478.827	4108.04
479.198	4257.19
479.569	4268.26
479.94	4375.15
480.311	4507.13
480.682	4613.11
481.053	4720.23
481.424	4854.91
481.795	4900.34
482.166	5033.89
482.537	5115.25
482.908	5298.52
483.279	5357.95
483.65	5488.12
484.021	5631.62
484.391	5763.37
484.762	5830.71
485.133	5919.97
485.503	6055.56
485.874	6257.59
486.244	6293.75
486.615	6484.48
486.985	6577.36
487.356	6739.38
487.726	6804.02
488.097	7003.56
488.467	7092.14
488.837	7264.34
489.207	7450.33
489.578	7494.62
489.948	7683.54
490.318	7888.51
490.688	7952.23
491.058	8073.81
491.428	8267.71
491.798	8337.76
492.168	8532.11
492.538	8613.46
492.908	8720.58
493.278	8917.18
493.648	9010.06
494.017	9112.66
494.387	9243.95
494.757	9342.48
495.126	9516.71
495.496	9590.61
495.866	9590.16
496.235	9781.79
496.605	9942.01
496.974	9984.95
497.344	10182.46
497.713	10143.59
498.082	10299.52
498.452	10416.58
498.821	10492.05
499.19	10554.43
499.559	10685.72
499.928	10747.64
500.298	10817.24
500.667	10969.56
501.036	10988.99
501.405	11044.13
501.774	11163.68
502.143	11264.01
502.512	11297.23
502.88	11408.19
503.249	11413.39
503.618	11519.15
503.987	11573.83
504.356	11763.43
504.724	11665.36
505.093	11739.93
505.462	11857.89
505.83	11930.89
506.199	11981.06
506.567	12152.8
506.936	12130.2
507.304	12249.52
507.672	12336.98
508.041	12359.58
508.409	12473.92
508.777	12480.93
509.145	12568.61
509.514	12607.03
509.882	12678.66
510.25	12658.33
510.618	12744.42
510.986	12760.24
511.354	12925.89
511.722	12972.67
512.09	12983.74
512.458	12951.65
512.826	13073.23
513.193	13083.17
513.561	13057.18
513.929	13118.88
514.297	13267.57
514.664	13301.47
515.032	13355.48
515.4	13432.32
515.767	13349.38
516.135	13493.11
516.502	13324.97
516.869	13573.56
517.237	13542.37
517.604	13470.96
517.972	13658.07
518.339	13663.04
518.706	13599.09
519.073	13625.08
519.44	13658.75
519.808	13871.63
520.175	13763.83
520.542	13844.06
520.909	13885.41
521.276	13838.18
521.643	13887.67
522.009	13985.07
522.376	13971.51
522.743	13939.65
523.11	14083.37
523.477	14097.38
523.843	14098.06
524.21	14313.88
524.577	14281.79
524.943	14294.21
525.31	14291.5
525.676	14339.41
526.043	14399.97
526.409	14510.71
526.776	14460.76
527.142	14357.04
527.508	14434.1
527.874	14498.05
528.241	14501.21
528.607	14488.56
528.973	14595.45
529.339	14509.58
529.705	14529.91
530.071	14625.28
530.437	14611.04
530.803	14594.77
531.169	14568.78
531.535	14324.27
531.901	14469.35
532.267	14466.41
532.632	14531.95
532.998	14521.1
533.364	14525.39
533.73	14552.06
534.095	14516.58
534.461	14411.73
534.826	14468
535.192	14522.46
535.557	14453.98
535.923	14288.56
536.288	14356.59
536.653	14403.82
537.019	14197.27
537.384	14231.17
537.749	14251.5
538.114	14271.16
538.479	14215.35
538.845	14223.03
539.21	14116.59
539.575	14148
539.94	14160.66
540.305	14145.74
540.67	13926.09
541.034	14001.11
541.399	13917.05
541.764	13903.04
542.129	13892.87
542.494	13846.09
542.858	13876.6
543.223	13773.55
543.587	13743.95
543.952	13710.73
544.316	13691.29
544.681	13681.8
545.045	13646.1
545.41	13619.66
545.774	13559.32
546.138	13528.81
546.503	13471.19
546.867	13440
547.231	13422.37
547.595	13376.27
547.959	13377.18
548.324	13297.4
548.688	13244.3
549.052	13272.32
549.416	13267.8
549.779	13184.64
550.143	13084.53
550.507	13166.56
550.871	13091.76
551.235	13040.46
551.599	13047.24
551.962	12995.27
552.326	12993.01
552.689	12975.15
553.053	12876.4
553.417	12859.9
553.78	12881.82
554.143	12855.83
554.507	12797.53
554.87	12734.03
555.234	12848.6
555.597	12710.98
555.96	12697.87
556.323	12642.96
556.686	12643.64
557.05	12628.27
557.413	12665.56
557.776	12656.74
558.139	12643.41
558.502	12589.4
558.865	12637.08
559.228	12629.85
559.59	12580.81
559.953	12558.44
560.316	12668.04
560.679	12545.33
561.041	12613.35
561.404	12584.2
561.767	12671.43
562.129	12581.49
562.492	12657.65
562.854	12677.99
563.217	12565.9
563.579	12584.2
563.941	12665.33
564.304	12651.32
564.666	12651.32
565.028	12613.35
565.39	12684.31
565.753	12635.5
566.115	12640.7
566.477	12712.11
566.839	12580.59
567.201	12736.74
567.563	12713.69
567.925	12725.89
568.287	12654.26
568.648	12632.11
569.01	12670.08
569.372	12736.97
569.734	12713.69
570.095	12780.81
570.457	12763.18
570.819	12773.58
571.18	12776.29
571.542	12800.69
571.903	12790.53
572.265	12825.78
572.626	12811.09
572.987	12784.2
573.349	12864.65
573.71	12797.76
574.071	12739.68
574.432	12841.37
574.794	12897.42
575.155	12873.46
575.516	12800.24
575.877	12849.51
576.238	12884.76
576.599	12921.37
576.96	12887.47
577.32	12805.44
577.681	12902.84
578.042	12901.71
578.403	12883.63
578.763	12859.9
579.124	12859.22
579.485	12900.8
579.845	12943.97
580.206	12974.25
580.566	12890.86
580.927	12838.89
581.287	12917.53
581.648	12876.62
582.008	12914.59
582.368	12808.38
582.728	12742.84
583.089	12844.31
583.449	12875.95
583.809	12837.98
584.169	12861.03
584.529	12782.39
584.889	12823.52
585.249	12746.91
585.609	12673.47
585.969	12811.09
586.329	12720.02
586.688	12817.19
587.048	12748.04
587.408	12696.06
587.768	12663.97
588.127	12741.49
588.487	12673.47
588.846	12720.7
589.206	12692.67
589.565	12588.27
589.925	12789.85
590.284	12618.55
590.643	12710.98
591.003	12661.49
591.362	12704.43
591.721	12691.32
592.08	12587.14
592.44	12648.61
592.799	12670.3
593.158	12632.56
593.517	12583.98
593.876	12661.04
594.235	12554.83
594.593	12654.94
594.952	12573.81
595.311	12518.44
595.67	12579.01
596.029	12680.92
596.387	12591.21
596.746	12592.79
597.104	12525.67
597.463	12454.49
597.822	12554.6
598.18	12533.81
598.538	12470.31
598.897	12551.44
599.255	12397.77
599.613	12581.49
599.972	12525.45
600.33	12475.28
600.688	12416.07
601.046	12585.56
601.404	12556.86
601.762	12544.43
602.12	12629.17
602.478	12599.34
602.836	12553.24
603.194	12453.58
603.552	12513.47
603.91	12517.54
604.268	12551.44
604.625	12529.52
604.983	12618.1
605.341	12456.3
605.698	12510.98
606.056	12604.32
606.413	12453.36
606.771	12542.4
607.128	12559.57
607.485	12439.8
607.843	12462.17
608.2	12612.22
608.557	12686.12
608.914	12573.58
609.272	12596.41
609.629	12697.87
609.986	12664.65
610.343	12600.7
610.7	12656.52
611.057	12699.45
611.414	12652.68
611.771	12655.39
612.127	12662.39
612.484	12698.1
612.841	12770.41
613.198	12672.34
613.554	12582.17
613.911	12685.44
614.267	12661.04
614.624	12664.2
614.98	12668.04
615.337	12762.05
615.693	12780.81
616.05	12689.51
616.406	12742.16
616.762	12758.21
617.118	12764.31
617.475	12677.53
617.831	12793.46
618.187	12796.63
618.543	12755.5
618.899	12903.97
619.255	12798.21
619.611	12821.48
619.967	12866
620.323	12777.64
620.678	12803.86
621.034	12765.67
621.39	12868.04
621.746	12842.5
622.101	12916.17
622.457	12836.4
622.812	12812.9
623.168	12877.98
623.523	12970.41
623.879	12944.42
624.234	12743.07
624.589	12868.26
624.945	12858.09
625.3	12958.2
625.655	12881.82
626.01	12865.33
626.365	12879.79
626.72	12797.98
627.075	12814.71
627.43	12799.11
627.785	12850.64
628.14	12822.39
628.495	12773.35
628.85	12827.59
629.205	12780.58
629.559	12850.86
629.914	12758.44
630.269	12775.61
630.623	12722.05
630.978	12698.55
631.332	12758.66
631.687	12701.94
632.041	12714.37
632.396	12724.54
632.75	12691.54
633.104	12644.09
633.459	12670.75
633.813	12698.32
634.167	12536.75
634.521	12617.2
634.875	12648.61
635.229	12594.6
635.583	12552.57
635.937	12522.96
636.291	12478.22
636.645	12593.47
636.999	12501.49
637.352	12498.33
637.706	12496.75
638.06	12526.58
638.413	12486.8
638.767	12379.46
639.121	12461.27
639.474	12378.56
639.828	12339.46
640.181	12376.3
640.534	12357.99
640.888	12376.3
641.241	12303.31
641.594	12298.33
641.947	12296.75
642.301	12329.75
642.654	12280.71
643.007	12292.01
643.36	12253.14
643.713	12310.09
644.066	12337.43
644.419	12109.19
644.771	12237.55
645.124	12013.37
645.477	12013.14
645.83	11941.96
646.182	11977.67
646.535	11912.58
646.888	11885.92
647.24	11848.4
647.593	11871.91
647.945	11896.09
648.298	11839.36
648.65	11792.36
649.002	11750.78
649.355	11923.66
649.707	11878.01
650.059	11856.99
650.411	12028.06
650.763	11993.48
651.115	12136.76
651.467	12186.7
651.819	12122.75
652.171	12045.46
652.523	12134.5
652.875	12081.84
653.227	11959.59
653.578	12174.5
653.93	12141.5
654.282	12058.12
654.633	12154.16
654.985	12095.85
655.337	12101.28
655.688	12105.57
656.039	12153.25
656.391	12038.45
656.742	12175.63
657.094	12152.58
657.445	12158.9
657.796	12171.78
658.147	12041.62
658.498	12169.75
658.849	12162.29
659.2	12082.75
659.551	12093.59
659.902	12165.91
660.253	12172.46
660.604	12082.97
660.955	12088.62
661.306	12193.7
661.656	12130.66
662.007	12182.63
662.358	12195.29
662.708	12191.22
663.059	12167.04
663.409	12055.4
663.76	12259.47
664.11	12163.2
664.461	12217.88
664.811	12172.91
665.161	12221.73
665.511	12081.17
665.862	12199.13
666.212	12217.43
666.562	12143.76
666.912	12193.03
667.262	12247.49
667.612	12172.69
667.962	12228.96
668.312	12181.95
668.662	12225.12
669.011	12243.65
669.361	12172.91
669.711	12197.09
670.06	12158.45
670.41	12127.49
670.76	12162.07
671.109	12176.98
671.459	12097.21
671.808	12131.79
672.157	12177.43
672.507	12085.69
672.856	12109.64
673.205	12046.36
673.554	12095.85
673.904	12127.27
674.253	12035.97
674.602	11995.74
674.951	11955.52
675.3	11792.59
675.649	12086.14
675.998	12066.02
676.346	11977.89
676.695	12044.1
677.044	11908.29
677.393	11966.59
677.741	12013.82
678.09	11941.96
678.438	11912.13
678.787	11954.39
679.135	11949.87
679.484	11852.24
679.832	11931.79
680.181	11756.2
680.529	11814.28
680.877	11753.26
681.225	11740.38
681.573	11790.78
681.922	11740.61
682.27	11691.57
682.618	11753.26
682.966	11708.75
683.314	11672.36
683.661	11641.85
684.009	11547.17
684.357	11549.88
684.705	11485.7
685.053	11536.32
685.4	11497
685.748	11466.04
686.095	11481.41
686.443	11392.37
686.79	11371.58
687.138	11424.46
687.485	11425.59
687.832	11340.39
688.18	11440.96
688.527	11186.95
688.874	11262.43
689.221	11213.17
689.568	11133.62
689.915	11143.11
690.262	11191.02
690.609	11096.78
690.956	11088.2
691.303	11040.29
691.65	10922.78
691.997	10998.03
692.344	10815.66
692.69	10933.85
693.037	10885.04
693.383	10768.21
693.73	10811.14
694.077	10783.12
694.423	10725.49
694.769	10676.68
695.116	10636.23
695.462	10641.43
695.808	10578.38
696.155	10610.24
696.501	10479.4
696.847	10474.2
697.193	10448.44
697.539	10469.23
697.885	10384.26
698.231	10283.25
698.577	10359.63
698.923	10265.17
699.269	10117.6
699.614	10217.26
699.96	10173.64
700.306	10156.24
700.651	10087.77
700.997	10086.87
701.342	9992.63
701.688	9959.19
702.033	9919.41
702.379	9952.41
702.724	9881.22
703.069	9803.03
703.415	9752.19
703.76	9807.33
704.105	9801
704.45	9733.2
704.795	9709.48
705.14	9638.74
705.485	9586.54
705.83	9568.24
706.175	9611.63
706.52	9559.65
706.865	9451.18
707.209	9489.82
707.554	9412.31
707.899	9443.49
708.243	9391.07
708.588	9285.53
708.932	9273.78
709.277	9340.9
709.621	9276.27
709.966	9234.91
710.31	9304.29
710.654	9142.03
710.998	9169.83
711.342	9185.87
711.687	9087.8
712.031	9072.66
712.375	9013.68
712.719	9029.27
713.063	9032.66
713.407	9095.48
713.75	9019.78
714.094	9016.39
714.438	9040.57
714.782	8962.6
715.125	8952.89
715.469	8906.33
715.812	8987.01
716.156	8831.08
716.499	8814.36
716.843	8885.54
717.186	8788.6
717.53	8816.39
717.873	8870.18
718.216	8814.13
718.559	8738.65
718.902	8726.9
719.246	8764.42
719.589	8684.42
719.932	8705.21
720.275	8672.89
720.617	8702.27
720.96	8655.04
721.303	8662.27
721.646	8661.37
721.989	8602.84
722.331	8702.27
722.674	8530.52
723.016	8581.37
723.359	8522.16
723.701	8503.41
724.044	8523.74
724.386	8512.9
724.729	8559.68
725.071	8530.52
725.413	8551.54
725.755	8549.96
726.097	8552.44
726.439	8495.5
726.782	8528.04
727.124	8537.98
727.465	8504.08
727.807	8510.19
728.149	8464.99
728.491	8449.4
728.833	8526.46
729.175	8474.93
729.516	8430.64
729.858	8479
730.199	8454.59
730.541	8478.1
730.882	8438.32
731.224	8500.92
731.565	8450.53
731.906	8451.43
732.248	8491.66
732.589	8443.97
732.93	8371.43
733.271	8422.5
733.612	8450.53
733.953	8452.56
734.294	8418.44
734.635	8442.62
734.976	8465.22
735.317	8459.11
735.658	8424.76
735.999	8415.5
736.339	8408.27
736.68	8520.36
737.021	8497.08
737.361	8403.75
737.702	8454.82
738.042	8413.24
738.383	8525.33
738.723	8512.45
739.063	8495.5
739.404	8565.1
739.744	8495.72
740.084	8509.28
740.424	8488.72
740.764	8467.48
741.104	8585.21
741.444	8509.28
741.784	8544.76
742.124	8652.55
742.464	8658.2
742.804	8660.92
743.143	8695.04
743.483	8644.65
743.823	8681.93
744.162	8705.89
744.502	8714.93
744.841	8714.7
745.181	8879.67
745.52	8778.2
745.86	8882.38
746.199	8950.4
746.538	8943.85
746.877	9000.34
747.216	9043.28
747.556	9063.39
747.895	9139.1
748.234	9180
748.573	9264.74
748.911	9346.32
749.25	9338.86
749.589	9363.72
749.928	9495.47
750.267	9591.97
750.605	9590.61
750.944	9685.07
751.283	9761.68
751.621	9882.58
751.96	9966.42
752.298	10089.35
752.636	10149.01
752.975	10212.51
753.313	10222.01
753.651	10457.25
753.989	10511.49
754.327	10668.1
754.666	10797.13
755.004	10891.14
755.342	11078.48
755.679	11218.82
756.017	11320.06
756.355	11456.1
756.693	11615.19
757.031	11692.7
757.368	11862.19
757.706	11966.14
758.044	12161.39
758.381	12346.02
