Data from hue_100_FLMS001491_00082.txt Node
Date: Tue Feb 07 17:03:45 GMT 2017
User: dcchb
Spectrometer: FLMS00149
Trigger mode: 0
Integration Time (sec): 2.000000E-2
Scans to average: 10
Electric dark correction enabled: true
Nonlinearity correction enabled: false
Boxcar width: 0
XAxis mode: Wavelengths
Number of Pixels in Spectrum: 2048
>>>>>Begin Spectral Data<<<<<
341.393	-17.65
341.776	-17.65
342.16	-17.65
342.543	-64.66
342.927	-75.51
343.31	-65.79
343.693	-82.51
344.077	-56.52
344.46	-57.65
344.843	-39.58
345.226	-59.01
345.61	-44.77
345.993	1.78
346.376	-7.03
346.759	14.66
347.142	20.08
347.525	37.48
347.908	61.89
348.291	76.58
348.674	98.05
349.057	102.34
349.44	114.09
349.823	121.1
350.206	163.13
350.588	192.28
350.971	210.59
351.354	220.3
351.737	236.8
352.119	269.12
352.502	254.43
352.884	274.77
353.267	293.75
353.65	303.92
354.032	297.59
354.414	290.36
354.797	304.14
355.179	311.15
355.562	344.14
355.944	337.36
356.326	321.09
356.709	343.92
357.091	328.1
357.473	336.91
357.855	333.97
358.238	335.78
358.62	342.34
359.002	366.52
359.384	343.47
359.766	341.43
360.148	345.05
360.53	341.88
360.912	342.34
361.294	355.22
361.676	354.99
362.057	338.72
362.439	308.89
362.821	337.36
363.203	356.8
363.584	332.62
363.966	336.23
364.348	318.83
364.729	329
365.111	323.81
365.493	308.89
365.874	324.93
366.256	312.73
366.637	307.76
367.019	321.77
367.4	328.55
367.781	319.96
368.163	325.39
368.544	312.96
368.925	307.99
369.306	344.37
369.688	329.23
370.069	323.58
370.45	300.08
370.831	315.67
371.212	333.97
371.593	319.51
371.974	301.21
372.355	318.38
372.736	327.65
373.117	341.66
373.498	309.79
373.879	325.84
374.26	340.3
374.641	322
375.021	327.42
375.402	311.83
375.783	323.58
376.163	336.69
376.544	321.77
376.925	328.32
377.305	326.06
377.686	337.59
378.066	341.21
378.447	344.6
378.827	343.01
379.208	347.99
379.588	345.27
379.968	334.88
380.349	355.22
380.729	354.99
381.109	340.3
381.489	341.88
381.87	325.84
382.25	357.48
382.63	324.93
383.01	355.22
383.39	365.84
383.77	368.78
384.15	374.43
384.53	361.77
384.91	361.54
385.29	370.81
385.67	330.13
386.049	347.53
386.429	358.15
386.809	353.86
387.189	388.21
387.568	362.45
387.948	361.77
388.328	356.12
388.707	381.43
389.087	361.32
389.466	370.13
389.846	383.92
390.225	388.44
390.605	376.46
390.984	402.9
391.363	381.88
391.743	381.66
392.122	399.06
392.501	391.15
392.881	391.37
393.26	394.99
393.639	380.53
394.018	399.51
394.397	404.03
394.776	386.85
395.155	384.82
395.534	376.46
395.913	410.58
396.292	388.89
396.671	402.22
397.05	409.9
397.429	405.38
397.808	415.78
398.186	396.57
398.565	414.88
398.944	415.78
399.323	411.71
399.701	401.09
400.08	406.06
400.458	436.34
400.837	443.58
401.215	442.22
401.594	414.42
401.972	420.53
402.351	433.86
402.729	428.89
403.107	435.67
403.486	444.03
403.864	448.77
404.242	470.69
404.62	455.55
404.999	436.12
405.377	453.97
405.755	451.71
406.133	466.85
406.511	465.72
406.889	478.6
407.267	442.9
407.645	503.69
408.023	474.31
408.401	478.38
408.779	471.15
409.156	481.77
409.534	482.67
409.912	477.93
410.29	496.68
410.667	475.21
411.045	497.59
411.422	497.36
411.8	500.07
412.178	508.43
412.555	531.26
412.933	552.5
413.31	519.73
413.687	514.76
414.065	540.3
414.442	541.43
414.819	537.81
415.197	531.71
415.574	543.23
415.951	556.34
416.328	556.57
416.705	531.26
417.082	563.12
417.46	567.41
417.837	558.38
418.214	573.97
418.591	544.14
418.967	559.28
419.344	597.7
419.721	601.76
420.098	587.07
420.475	598.37
420.852	586.62
421.228	589.33
421.605	596.11
421.982	609.9
422.358	606.96
422.735	620.52
423.111	623.68
423.488	619.62
423.864	628.2
424.241	613.29
424.617	626.85
424.994	653.74
425.37	652.16
425.746	643.57
426.123	670.24
426.499	649.9
426.875	656
427.251	686.06
427.627	677.69
428.003	679.05
428.379	682.21
428.756	709.78
429.132	696.22
429.507	706.85
429.883	729.9
430.259	728.77
430.635	722.21
431.011	725.83
431.387	759.95
431.763	760.63
432.138	765.6
432.514	743.91
432.89	762.44
433.265	781.65
433.641	786.84
434.016	794.08
434.392	797.46
434.767	808.54
435.143	820.06
435.518	815.77
435.894	808.76
436.269	827.97
436.644	848.99
437.02	853.73
437.395	860.97
437.77	865.26
438.145	878.37
438.52	889.44
438.895	893.51
439.271	872.27
439.646	893.96
440.021	892.15
440.395	908.87
440.77	933.05
441.145	950.91
441.52	943
441.895	936.44
442.27	937.8
442.645	926.95
443.019	931.02
443.394	965.6
443.769	951.59
444.143	970.12
444.518	975.99
444.892	990.45
445.267	968.76
445.641	1016.44
446.016	1000.62
446.39	1017.57
446.764	992.49
447.139	1012.6
447.513	1047.85
447.887	1043.56
448.262	1053.96
448.636	1039.04
449.01	1060.96
449.384	1052.6
449.758	1090.34
450.132	1104.35
450.506	1085.14
450.88	1103.9
451.254	1087.4
451.628	1107.51
452.002	1114.29
452.376	1106.61
452.75	1143.44
453.123	1167.85
453.497	1183.22
453.871	1181.64
454.244	1187.96
454.618	1219.83
454.992	1207.17
455.365	1221.86
455.739	1260.5
456.112	1280.84
456.486	1257.11
456.859	1273.84
457.232	1305.02
457.606	1312.48
457.979	1315.87
458.352	1345.47
458.725	1378.47
459.099	1376.66
459.472	1388.64
459.845	1425.25
460.218	1453.94
460.591	1451.91
460.964	1455.98
461.337	1498.92
461.71	1506.6
462.083	1516.54
462.456	1535.52
462.829	1549.31
463.201	1573.49
463.574	1563.32
463.947	1612.58
464.32	1666.82
464.692	1658.69
465.065	1678.35
465.438	1705.01
465.81	1734.39
466.183	1757.67
466.555	1799.47
466.928	1815.52
467.3	1779.59
467.672	1836.99
468.045	1899.81
468.417	1899.58
468.789	1905.46
469.161	1963.31
469.534	2004.21
469.906	2045.57
470.278	2081.27
470.65	2111.1
471.022	2190.87
471.394	2176.64
471.766	2240.14
472.138	2251.66
472.51	2350.42
472.882	2384.54
473.253	2402.85
473.625	2470.19
473.997	2487.82
474.369	2579.11
474.74	2582.05
475.112	2659.56
475.484	2711.54
475.855	2817.07
476.227	2852.55
476.598	2974.13
476.97	3010.74
477.341	3090.29
477.713	3152.21
478.084	3242.37
478.455	3328.7
478.827	3367.79
479.198	3539.09
479.569	3561.91
479.94	3690.04
480.311	3744.28
480.682	3883.49
481.053	3966.65
481.424	4099.52
481.795	4198.28
482.166	4303.81
482.537	4344.72
482.908	4541.55
483.279	4616.8
483.65	4768.21
484.021	4897.02
484.391	4999.16
484.762	5067.41
485.133	5207.29
485.503	5317.8
485.874	5543.78
486.244	5649.77
486.615	5804.34
486.985	5963.66
487.356	6085.91
487.726	6187.83
488.097	6367.71
488.467	6510.08
488.837	6721.83
489.207	6820.13
489.578	6969.73
489.948	7132.67
490.318	7303.28
490.688	7384.86
491.058	7589.15
491.428	7774.46
491.798	7909.82
492.168	8198.4
492.538	8202.69
492.908	8403.82
493.278	8584.38
493.648	8677.26
494.017	8884.71
494.387	8970.13
494.757	9170.58
495.126	9338.94
495.496	9374.64
495.866	9611.7
496.235	9770.56
496.605	9918.13
496.974	9992.7
497.344	10206.71
497.713	10310.66
498.082	10453.48
498.452	10565.57
498.821	10720.82
499.19	10776.64
499.559	10930.53
499.928	11081.49
500.298	11210.98
500.667	11353.57
501.036	11318.09
501.405	11606.45
501.774	11609.61
502.143	11715.82
502.512	11877.4
502.88	11999.43
503.249	11997.4
503.618	12128.92
503.987	12221.12
504.356	12338.18
504.724	12363.71
505.093	12455.24
505.462	12522.58
505.83	12713.54
506.199	12818.39
506.567	12951.95
506.936	12951.27
507.304	13173.41
507.672	13193.98
508.041	13277.81
508.409	13475.32
508.777	13455.44
509.145	13643.68
509.514	13728.88
509.882	13719.61
510.25	13768.65
510.618	13839.83
510.986	13917.57
511.354	14032.6
511.722	14101.97
512.09	14218.58
512.458	14215.19
512.826	14359.14
513.193	14395.07
513.561	14383.77
513.929	14481.85
514.297	14609.08
514.664	14657.21
515.032	14674.84
515.4	14774.95
515.767	14822.86
516.135	14946.25
516.502	14836.64
516.869	15045.68
517.237	15073.25
517.604	15005.23
517.972	15090.87
518.339	15183.08
518.706	15207.48
519.073	15183.3
519.44	15379
519.808	15410.64
520.175	15389.4
520.542	15555.27
520.909	15533.57
521.276	15497.64
521.643	15674.14
522.009	15671.2
522.376	15818.99
522.743	15708.94
523.11	15940.34
523.477	16073.67
523.843	15994.81
524.21	16132.65
524.577	16219.88
524.943	16197.51
525.31	16235.03
525.676	16334.46
526.043	16341.24
526.409	16432.08
526.776	16515.92
527.142	16512.76
527.508	16489.26
527.874	16533.1
528.241	16538.29
528.607	16511.63
528.973	16700.55
529.339	16547.11
529.705	16804.05
530.071	16821
530.437	16733.54
530.803	16730.83
531.169	16818.29
531.535	16815.57
531.901	16837.27
532.267	16712.07
532.632	16842.24
532.998	16844.5
533.364	16885.63
533.73	16776.25
534.095	16922.01
534.461	16893.99
534.826	16877.95
535.192	16844.95
535.557	16991.84
535.923	16890.38
536.288	16864.39
536.653	16810.15
537.019	16765.86
537.384	16737.38
537.749	16781.9
538.114	16735.58
538.479	16670.04
538.845	16669.36
539.21	16714.56
539.575	16621.68
539.94	16646.54
540.305	16701.91
540.67	16628.24
541.034	16626.43
541.399	16631.4
541.764	16511.18
542.129	16586.88
542.494	16628.46
542.858	16480.44
543.223	16467.56
543.587	16494.68
543.952	16417.85
544.316	16368.81
544.681	16330.39
545.045	16337.85
545.41	16337.62
545.774	16341.46
546.138	16327.23
546.503	16220.11
546.867	16205.65
547.231	16341.46
547.595	16204.29
547.959	16181.47
548.324	16074.58
548.688	16090.62
549.052	16011.53
549.416	16113.45
549.779	16000
550.143	15978.99
550.507	15997.07
550.871	15951.64
551.235	15865.32
551.599	15987.8
551.962	16010.62
552.326	15928.82
552.689	16000.23
553.053	15828.71
553.417	15878.42
553.78	16030.51
554.143	15732.67
554.507	15891.08
554.87	15821.25
555.234	15896.73
555.597	15763.63
555.96	15800.01
556.323	15747.13
556.686	15622.39
557.05	15774.47
557.413	15772.21
557.776	15714.59
558.139	15702.61
558.502	15757.98
558.865	15786.22
559.228	15826.22
559.59	15748.94
559.953	15776.51
560.316	15960
560.679	15840.23
561.041	15826.22
561.404	15882.27
561.767	15903.73
562.129	15879.1
562.492	16009.49
562.854	15896.5
563.217	15746.45
563.579	15915.49
563.941	15988.7
564.304	15990.06
564.666	16065.76
565.028	15945.09
565.39	15963.62
565.753	16064.63
566.115	16077.74
566.477	16096.05
566.839	16102.37
567.201	16162.48
567.563	16188.02
567.925	16227.57
568.287	16157.29
568.648	16169.04
569.01	16185.31
569.372	16372.42
569.734	16289.94
570.095	16346.66
570.457	16295.81
570.819	16388.24
571.18	16332.42
571.542	16421.69
571.903	16395.47
572.265	16494.45
572.626	16391.18
572.987	16391.63
573.349	16457.17
573.71	16454
574.071	16557.95
574.432	16583.04
574.794	16675.47
575.155	16486.09
575.516	16572.42
575.877	16534.68
576.238	16611.74
576.599	16634.11
576.96	16635.69
577.32	16616.94
577.681	16642.02
578.042	16660.32
578.403	16717.05
578.763	16638.4
579.124	16667.33
579.485	16744.62
579.845	16799.53
580.206	16685.86
580.566	16693.54
580.927	16708.46
581.287	16788.91
581.648	16703.26
582.008	16810.83
582.368	16722.92
582.728	16663.94
583.089	16676.14
583.449	16588.24
583.809	16704.39
584.169	16644.51
584.529	16692.64
584.889	16704.84
585.249	16588.24
585.609	16545.75
585.969	16660.1
586.329	16662.81
586.688	16568.58
587.048	16612.19
587.408	16590.27
587.768	16574.68
588.127	16514.34
588.487	16473.21
588.846	16651.51
589.206	16477.73
589.565	16524.96
589.925	16640.21
590.284	16502.14
590.643	16520.67
591.003	16600.67
591.362	16564.06
591.721	16550.72
592.08	16530.16
592.44	16499.42
592.799	16492.19
593.158	16473.89
593.517	16503.04
593.876	16547.79
594.235	16452.87
594.593	16405.64
594.952	16465.98
595.311	16413.33
595.67	16427.79
596.029	16403.83
596.387	16466.88
596.746	16451.97
597.104	16383.72
597.463	16454.91
597.822	16422.14
598.18	16393.21
598.538	16314.8
598.897	16475.7
599.255	16300.56
599.613	16574.68
599.972	16357.06
600.33	16474.57
600.688	16355.02
601.046	16373.1
601.404	16451.52
601.762	16419.43
602.12	16460.33
602.478	16458.97
602.836	16492.65
603.194	16429.6
603.552	16442.03
603.91	16360.9
604.268	16472.53
604.625	16388.02
604.983	16438.64
605.341	16305.76
605.698	16419.43
606.056	16445.64
606.413	16459.2
606.771	16384.85
607.128	16506.2
607.485	16360.22
607.843	16388.02
608.2	16404.51
608.557	16577.61
608.914	16442.7
609.272	16569.93
609.629	16618.07
609.986	16623.26
610.343	16513.21
610.7	16703.71
611.057	16629.14
611.414	16662.81
611.771	16628.46
612.127	16595.24
612.484	16665.52
612.841	16683.37
613.198	16588.01
613.554	16690.38
613.911	16638.4
614.267	16725.18
614.624	16741.45
614.98	16743.94
615.337	16814.9
615.693	16797.27
616.05	16772.41
616.406	16873.2
616.762	16698.74
617.118	16818.96
617.475	16758.18
617.831	16860.32
618.187	16888.79
618.543	16886.99
618.899	16896.25
619.255	16806.76
619.611	16849.47
619.967	16972.63
620.323	17030.94
620.678	16926.76
621.034	16812.19
621.39	16857.83
621.746	16802.47
622.101	17003.59
622.457	16842.47
622.812	16934.89
623.168	16911.39
623.523	16949.36
623.879	17054.44
624.234	16913.88
624.589	16940.09
624.945	16896.25
625.3	16890.6
625.655	16955.68
626.01	16883.37
626.365	17012.86
626.72	16901
627.075	16972.86
627.43	16925.18
627.785	16883.14
628.14	16925.63
628.495	17002.01
628.85	16950.49
629.205	16943.26
629.559	16865.07
629.914	16874.78
630.269	16882.24
630.623	16868.23
630.978	16800.89
631.332	16890.15
631.687	16926.76
632.041	16790.72
632.396	16839.98
632.75	16765.18
633.104	16804.28
633.459	16658.29
633.813	16749.14
634.167	16728.35
634.521	16643.15
634.875	16687.89
635.229	16690.15
635.583	16562.93
635.937	16540.78
636.291	16491.74
636.645	16539.65
636.999	16546.43
637.352	16510.27
637.706	16449.93
638.06	16581.23
638.413	16447
638.767	16364.51
639.121	16419.2
639.474	16379.88
639.828	16356.38
640.181	16390.95
640.534	16372.2
640.888	16404.51
641.241	16271.18
641.594	16409.26
641.947	16423.04
642.301	16305.31
642.654	16305.76
643.007	16309.83
643.36	16316.6
643.713	16285.87
644.066	16311.41
644.419	16161.58
644.771	16048.14
645.124	15920.01
645.477	15886.33
645.83	15865.77
646.182	15715.72
646.535	15681.82
646.888	15738.09
647.24	15649.05
647.593	15726.11
647.945	15621.48
648.298	15637.07
648.65	15656.28
649.002	15547.59
649.355	15677.3
649.707	15703.97
650.059	15689.28
650.411	15892.89
650.763	15865.54
651.115	16162.26
651.467	15943.06
651.819	15969.95
652.171	16018.99
652.523	16004.97
652.875	15973.34
653.227	15858.99
653.578	16034.58
653.93	16061.92
654.282	16014.24
654.633	15890.4
654.985	15930.17
655.337	16001.36
655.688	15931.3
656.039	15999.33
656.391	15925.65
656.742	16033.67
657.094	15914.58
657.445	16051.75
657.796	15994.81
658.147	16013.11
658.498	15936.95
658.849	16024.64
659.2	16025.31
659.551	15978.31
659.902	16104.41
660.253	16033.9
660.604	15991.64
660.955	15851.31
661.306	16059.44
661.656	16024.41
662.007	16034.58
662.358	15958.87
662.708	16034.13
663.059	16035.48
663.409	15960.91
663.76	16050.62
664.11	16059.44
664.461	16034.58
664.811	16053.11
665.161	16019.89
665.511	16046.56
665.862	15958.87
666.212	16106.21
666.562	16025.77
666.912	15947.12
667.262	16071.64
667.612	15976.73
667.962	16097.63
668.312	16046.78
668.662	16108.02
669.011	16020.57
669.361	15941.02
669.711	15987.57
670.06	16016.95
670.41	15922.94
670.76	16028.48
671.109	16077.52
671.459	15950.96
671.808	15963.39
672.157	15958.42
672.507	15883.62
672.856	15726.34
673.205	15911.19
673.554	15948.25
673.904	15825.09
674.253	15934.92
674.602	15887.46
674.951	15686.56
675.3	15611.09
675.649	15821.93
675.998	15844.07
676.346	15831.65
676.695	15859.22
677.044	15743.74
677.393	15785.09
677.741	15807.92
678.09	15738.31
678.438	15693.34
678.787	15717.52
679.135	15723.85
679.484	15754.13
679.832	15673.01
680.181	15536.29
680.529	15554.59
680.877	15534.7
681.225	15516.4
681.573	15629.62
681.922	15471.43
682.27	15452.9
682.618	15448.83
682.966	15362.96
683.314	15477.53
683.661	15311.43
684.009	15240.25
684.357	15245.45
684.705	15193.7
685.053	15326.12
685.4	15236.86
685.748	15143.98
686.095	15122.74
686.443	15109.63
686.79	15057.2
687.138	15154.6
687.485	15026.24
687.832	14929.3
688.18	14945.34
688.527	14844.33
688.874	14723.2
689.221	14873.7
689.568	14779.7
689.915	14774.95
690.262	14670.32
690.609	14744.89
690.956	14614.5
691.303	14568.63
691.65	14520.04
691.997	14538.12
692.344	14493.38
692.69	14462.42
693.037	14355.75
693.383	14267.62
693.73	14311.91
694.077	14250.67
694.423	14168.64
694.769	14196.43
695.116	14159.37
695.462	14109.88
695.808	14079.15
696.155	14015.2
696.501	13922.32
696.847	13808.65
697.193	13770.01
697.539	13848.87
697.885	13698.14
698.231	13655.21
698.577	13705.37
698.923	13659.27
699.269	13509.9
699.614	13436
699.96	13356.68
700.306	13424.93
700.651	13372.95
700.997	13233.3
701.342	13336.12
701.688	13200.3
702.033	13143.58
702.379	13183.13
702.724	13101.1
703.069	13064.49
703.415	12991.95
703.76	12974.09
704.105	12913.08
704.45	12856.36
704.795	12766.87
705.14	12797.15
705.485	12723.03
705.83	12737.72
706.175	12742.46
706.52	12703.82
706.865	12596.02
707.209	12581.34
707.554	12563.94
707.899	12579.98
708.243	12449.59
708.588	12387.44
708.932	12340.66
709.277	12452.07
709.621	12353.32
709.966	12264.28
710.31	12274.23
710.654	12217.5
710.998	12133.89
711.342	12217.5
711.687	12085.53
712.031	12114.46
712.375	12030.62
712.719	12025.64
713.063	11930.96
713.407	11995.81
713.75	11981.58
714.094	12001.69
714.438	11879.66
714.782	11910.39
715.125	11855.25
715.469	11923.05
715.812	11829.49
716.156	11766.22
716.499	11773.45
716.843	11789.72
717.186	11691.19
717.53	11781.36
717.873	11677.63
718.216	11696.61
718.559	11663.62
718.902	11575.49
719.246	11634.02
719.589	11535.04
719.932	11490.52
720.275	11530.74
720.617	11520.12
720.96	11539.1
721.303	11561.48
721.646	11420.46
721.989	11468.6
722.331	11461.14
722.674	11461.82
723.016	11488.03
723.359	11491.65
723.701	11491.2
724.044	11400.8
724.386	11352.89
724.729	11433.34
725.071	11294.36
725.413	11313.57
725.755	11403.06
726.097	11264.99
726.439	11246.23
726.782	11248.26
727.124	11328.71
727.465	11299.56
727.807	11222.5
728.149	11204.2
728.491	11246.46
728.833	11232.67
729.175	11164.65
729.516	11201.94
729.858	11266.57
730.199	11172.33
730.541	11145.89
730.882	11185.44
731.224	11200.13
731.565	11144.99
731.906	11186.12
732.248	11211.88
732.589	11091.43
732.93	11040.59
733.271	11114.26
733.612	11174.82
733.953	11238.09
734.294	11062.96
734.635	11152.22
734.976	11161.71
735.317	11121.49
735.658	11113.58
735.999	11118.55
736.339	11133.92
736.68	11213.91
737.021	11159.68
737.361	11160.36
737.702	11214.14
738.042	11175.27
738.383	11257.75
738.723	11236.51
739.063	11182.05
739.404	11170.98
739.744	11162.62
740.084	11147.93
740.424	11174.82
740.764	11195.61
741.104	11232.9
741.444	11262.5
741.784	11250.98
742.124	11279.22
742.464	11238.55
742.804	11257.75
743.143	11285.32
743.483	11390.18
743.823	11299.34
744.162	11316.28
744.502	11380.01
744.841	11461.14
745.181	11524.87
745.52	11528.48
745.86	11566.45
746.199	11531.19
746.538	11547.24
746.877	11598.76
747.216	11697.97
747.556	11810.06
747.895	11847.12
748.234	11913.78
748.573	11921.47
748.911	11947.68
749.25	12066.77
749.589	12078.98
749.928	12161.01
750.267	12271.74
750.605	12332.53
750.944	12459.53
751.283	12480.55
751.621	12694.55
751.96	12696.36
752.298	12655.01
752.636	12953.08
752.975	12968.44
753.313	12954.21
753.651	13206.86
753.989	13239.62
754.327	13344.03
754.666	13434.19
755.004	13570.46
755.342	13768.42
755.679	13939.72
