Data from hue_90_FLMS001491_83.txt Node
Date: Mon Feb 06 15:25:47 GMT 2017
User: dcchb
Spectrometer: FLMS00149
Trigger mode: 0
Integration Time (sec): 2.000000E-2
Scans to average: 10
Electric dark correction enabled: true
Nonlinearity correction enabled: false
Boxcar width: 0
XAxis mode: Wavelengths
Number of Pixels in Spectrum: 2048
>>>>>Begin Spectral Data<<<<<
341.393	-14.42
341.776	-14.42
342.16	-14.42
342.543	-69.11
342.927	-81.54
343.31	-69.11
343.693	-86.51
344.077	-66.62
344.46	-50.35
344.843	-44.7
345.226	-51.26
345.61	-13.74
345.993	-10.8
346.376	-8.77
346.759	21.28
347.142	23.77
347.525	25.58
347.908	66.26
348.291	74.84
348.674	93.6
349.057	96.54
349.44	132.47
349.823	142.86
350.206	169.98
350.588	187.38
350.971	172.69
351.354	223.54
351.737	228.96
352.119	247.04
352.502	228.28
352.884	248.85
353.267	278.23
353.65	291.11
354.032	300.15
354.414	296.98
354.797	303.76
355.179	303.09
355.562	333.37
355.944	324.1
356.326	337.43
356.709	320.03
357.091	329.3
357.473	338.56
357.855	341.05
358.238	342.18
358.62	333.37
359.002	339.24
359.384	335.85
359.766	340.6
360.148	338.11
360.53	336.53
360.912	330.2
361.294	325.91
361.676	329.98
362.057	348.51
362.439	343.76
362.821	329.75
363.203	343.08
363.584	326.14
363.966	321.16
364.348	326.81
364.729	331.33
365.111	312.58
365.493	330.2
365.874	338.34
366.256	318.9
366.637	311.22
367.019	333.37
367.4	326.81
367.781	299.24
368.163	318.23
368.544	296.76
368.925	336.53
369.306	319.13
369.688	302.86
370.069	308.06
370.45	321.16
370.831	320.26
371.212	321.62
371.593	324.1
371.974	321.39
372.355	324.55
372.736	304.67
373.117	331.11
373.498	318.23
373.879	314.84
374.26	313.03
374.641	331.33
375.021	308.28
375.402	285.68
375.783	347.38
376.163	348.73
376.544	338.34
376.925	329.3
377.305	338.79
377.686	339.02
378.066	331.11
378.447	337.21
378.827	339.69
379.208	355.51
379.588	331.79
379.968	333.82
380.349	358.68
380.729	316.19
381.109	343.99
381.489	329.75
381.87	338.11
382.25	343.31
382.63	336.76
383.01	364.33
383.39	351.45
383.77	326.59
384.15	371.78
384.53	334.72
384.91	354.61
385.29	344.89
385.67	346.7
386.049	348.28
386.429	362.52
386.809	359.58
387.189	344.21
387.568	332.24
387.948	358.9
388.328	369.3
388.707	370.65
389.087	371.33
389.466	389.86
389.846	366.59
390.225	359.58
390.605	376.76
390.984	355.06
391.363	363.42
391.743	366.13
392.122	393.93
392.501	365
392.881	395.96
393.26	387.38
393.639	377.21
394.018	373.59
394.397	386.02
394.776	389.18
395.155	403.87
395.534	369.3
395.913	394.16
396.292	387.6
396.671	407.49
397.05	417.21
397.429	381.28
397.808	399.81
398.186	394.16
398.565	368.39
398.944	399.13
399.323	389.86
399.701	414.72
400.08	397.09
400.458	397.32
400.837	427.38
401.215	416.75
401.594	413.82
401.972	425.79
402.351	414.72
402.729	421.27
403.107	423.31
403.486	423.99
403.864	406.36
404.242	425.79
404.62	429.41
404.999	416.08
405.377	452.01
405.755	445.23
406.133	451.56
406.511	441.61
406.889	435.96
407.267	450.88
407.645	451.78
408.023	450.43
408.401	443.65
408.779	445.91
409.156	462.86
409.534	470.31
409.912	468.05
410.29	480.71
410.667	472.57
411.045	497.43
411.422	478.9
411.8	495.17
412.178	508.05
412.555	486.58
412.933	487.26
413.31	506.92
413.687	524.32
414.065	491.78
414.442	524.1
414.819	508.5
415.197	524.1
415.574	493.81
415.951	524.1
416.328	521.16
416.705	509.86
417.082	536.07
417.46	535.85
417.837	547.37
418.214	535.62
418.591	518.22
418.967	532.46
419.344	550.54
419.721	542.85
420.098	542.85
420.475	548.5
420.852	546.02
421.228	556.19
421.605	569.29
421.982	567.03
422.358	578.11
422.735	601.61
423.111	586.24
423.488	586.47
423.864	582.63
424.241	593.25
424.617	601.83
424.994	605.9
425.37	614.49
425.746	591.44
426.123	617.88
426.499	594.83
426.875	601.16
427.251	621.04
427.627	626.01
428.003	635.73
428.379	645.45
428.756	651.1
429.132	673.02
429.507	672.79
429.883	678.89
430.259	670.99
430.635	694.04
431.011	672.34
431.387	680.02
431.763	681.83
432.138	713.24
432.514	707.14
432.89	716.86
433.265	740.59
433.641	720.02
434.016	735.84
434.392	746.92
434.767	755.05
435.143	776.29
435.518	765.67
435.894	746.24
436.269	763.64
436.644	798.67
437.02	792.11
437.395	783.07
437.77	795.28
438.145	782.17
438.52	790.3
438.895	789.17
439.271	805.67
439.646	825.33
440.021	827.59
440.395	830.08
440.77	835.27
441.145	826.01
441.52	855.39
441.895	865.33
442.27	853.81
442.645	871.88
443.019	881.15
443.394	885.67
443.769	874.37
444.143	877.08
444.518	912.11
444.892	909.85
445.267	906.01
445.641	918.89
446.016	907.36
446.39	893.58
446.764	913.92
447.139	931.32
447.513	960.92
447.887	932.67
448.262	956.4
448.636	959.57
449.01	966.8
449.384	968.38
449.758	960.47
450.132	978.77
450.506	1000.92
450.88	993.69
451.254	1023.74
451.628	1014.48
452.002	1036.63
452.376	1034.14
452.75	1029.85
453.123	1033.46
453.497	1060.81
453.871	1068.04
454.244	1082.73
454.618	1096.28
454.992	1139.9
455.365	1127.7
455.739	1134.93
456.112	1145.1
456.486	1152.78
456.859	1167.92
457.232	1183.51
457.606	1169.05
457.979	1207.24
458.352	1208.37
458.725	1225.32
459.099	1243.17
459.472	1250.4
459.845	1268.26
460.218	1280.91
460.591	1313.45
460.964	1302.16
461.337	1329.72
461.71	1363.17
462.083	1364.3
462.456	1386.67
462.829	1371.98
463.201	1406.11
463.574	1446.56
463.947	1439.33
464.32	1437.97
464.692	1461.92
465.065	1497.4
465.438	1514.58
465.81	1571.98
466.183	1567.91
466.555	1608.59
466.928	1582.15
467.3	1638.19
467.672	1614.46
468.045	1722.93
468.417	1679.32
468.789	1687.91
469.161	1731.97
469.534	1797.51
469.906	1814.23
470.278	1844.29
470.65	1869.82
471.022	1928.35
471.394	1927.9
471.766	1957.73
472.138	1988.24
472.51	2056.71
472.882	2076.82
473.253	2168.35
473.625	2178.74
473.997	2179.65
474.369	2225.97
474.74	2291.06
475.112	2365.4
475.484	2414.22
475.855	2423.03
476.227	2477.49
476.598	2573.99
476.97	2623.93
477.341	2663.48
477.713	2717.94
478.084	2750.48
478.455	2874.32
478.827	2924.26
479.198	3028.44
479.569	3086.97
479.94	3155.89
480.311	3244.02
480.682	3317.02
481.053	3423.46
481.424	3521.08
481.795	3597.24
482.166	3690.57
482.537	3725.37
482.908	3859.15
483.279	3955.19
483.65	4055.75
484.021	4178.46
484.391	4270.21
484.762	4325.13
485.133	4454.39
485.503	4533.48
485.874	4685.79
486.244	4759.69
486.615	4848.05
486.985	5034.26
487.356	5120.81
487.726	5219.11
488.097	5444.64
488.467	5476.51
488.837	5620.69
489.207	5744.98
489.578	5900.45
489.948	6076.72
490.318	6167.11
490.688	6275.58
491.058	6402.36
491.428	6563.71
491.798	6680.09
492.168	6863.82
492.538	6919.63
492.908	7037.15
493.278	7204.15
493.648	7238.04
494.017	7405.5
494.387	7607.75
494.757	7700.63
495.126	7802.78
495.496	7894.07
495.866	8008.42
496.235	8172.48
496.605	8300.39
496.974	8352.14
497.344	8541.96
497.713	8661.51
498.082	8747.83
498.452	8855.4
498.821	8951.22
499.19	9052.69
499.559	9163.42
499.928	9216.98
500.298	9360.25
500.667	9478.89
501.036	9517.53
501.405	9672.1
501.774	9742.84
502.143	9870.07
502.512	9925.21
502.88	10068.7
503.249	10075.71
503.618	10161.81
503.987	10261.92
504.356	10355.48
504.724	10343.73
505.093	10489.48
505.462	10537.84
505.83	10632.08
506.199	10758.4
506.567	10947.78
506.936	10907.33
507.304	11049.47
507.672	11080.65
508.041	11132.86
508.409	11276.81
508.777	11300.54
509.145	11449.23
509.514	11401.32
509.882	11548.21
510.25	11545.05
510.618	11637.25
510.986	11662.56
511.354	11860.52
511.722	11894.64
512.09	11968.32
512.458	11911.14
512.826	12022.55
513.193	12135.09
513.561	12066.39
513.929	12206.28
514.297	12265.03
514.664	12383.9
515.032	12270
515.4	12470.22
515.767	12523.55
516.135	12517.68
516.502	12472.93
516.869	12669.31
517.237	12676.77
517.604	12697.79
517.972	12827.73
518.339	12829.08
518.706	12776.66
519.073	12811.91
519.44	12867.95
519.808	13015.07
520.175	13062.07
520.542	13173.48
520.909	13071.34
521.276	13174.84
521.643	13240.15
522.009	13232.91
522.376	13378.45
522.743	13344.55
523.11	13445.56
523.477	13454.15
523.843	13595.17
524.21	13653.02
524.577	13738.89
524.943	13699.8
525.31	13802.62
525.676	13805.56
526.043	13757.65
526.409	13885.33
526.776	14001.26
527.142	13907.93
527.508	14011.43
527.874	14018.88
528.241	14086.23
528.607	14058.88
528.973	14182.95
529.339	14032.44
529.705	14230.85
530.071	14168.03
530.437	14186.56
530.803	14330.96
531.169	14344.3
531.535	14238.09
531.901	14254.36
532.267	14248.26
532.632	14285.77
532.998	14327.58
533.364	14305.2
533.73	14332.55
534.095	14376.16
534.461	14359.89
534.826	14384.75
535.192	14371.42
535.557	14375.71
535.923	14325.54
536.288	14404.41
536.653	14351.76
537.019	14346.33
537.384	14283.06
537.749	14351.98
538.114	14299.78
538.479	14219.78
538.845	14356.95
539.21	14118.99
539.575	14167.35
539.94	14231.76
540.305	14359.21
540.67	14173
541.034	14222.49
541.399	14137.07
541.764	14237.18
542.129	14223.17
542.494	14121.25
542.858	14183.85
543.223	14108.82
543.587	14104.53
543.952	14013.69
544.316	14061.14
544.681	13959.45
545.045	14029.5
545.41	14025.66
545.774	13992.22
546.138	13910.64
546.503	13945.89
546.867	13922.84
547.231	13959.9
547.595	13905.67
547.959	13941.37
548.324	13834.48
548.688	13862.05
549.052	13935.27
549.416	13830.41
549.779	13761.94
550.143	13796.97
550.507	13774.6
550.871	13759.23
551.235	13716.29
551.599	13731.66
551.962	13773.47
552.326	13722.85
552.689	13711.77
553.053	13652.11
553.417	13656.41
553.78	13749.06
554.143	13655.73
554.507	13594.04
554.87	13650.98
555.234	13767.82
555.597	13650.3
555.96	13629.06
556.323	13707.93
556.686	13637.42
557.05	13688.5
557.413	13631.32
557.776	13655.05
558.139	13735.73
558.502	13652.79
558.865	13554.04
559.228	13732.34
559.59	13739.79
559.953	13697.08
560.316	13714.71
560.679	13679.23
561.041	13763.52
561.404	13817.08
561.767	13779.79
562.129	13778.21
562.492	13897.53
562.854	13758.78
563.217	13758.78
563.579	13805.56
563.941	13844.42
564.304	13888.26
564.666	13898.66
565.028	13912.67
565.39	13925.78
565.753	13935.5
566.115	13947.02
566.477	13957.87
566.839	13919
567.201	14044.19
567.563	13958.32
567.925	14010.3
568.287	14124.87
568.648	14095.49
569.01	14063.85
569.372	14138.2
569.734	14132.33
570.095	14149.05
570.457	14217.97
570.819	14204.64
571.18	14202.61
571.542	14205.54
571.903	14255.71
572.265	14237.63
572.626	14370.74
572.987	14337.29
573.349	14290.74
573.71	14437.4
574.071	14394.69
574.432	14397.86
574.794	14569.38
575.155	14447.12
575.516	14392.88
575.877	14509.94
576.238	14495.71
576.599	14465.42
576.96	14464.52
577.32	14514.24
577.681	14518.76
578.042	14608.7
578.403	14527.34
578.763	14451.19
579.124	14615.03
579.485	14531.41
579.845	14505.42
580.206	14552.65
580.566	14475.37
580.927	14663.39
581.287	14621.35
581.648	14458.65
582.008	14580
582.368	14545.65
582.728	14628.36
583.089	14519.43
583.449	14613.44
583.809	14584.29
584.169	14543.61
584.529	14558.98
584.889	14671.97
585.249	14512.66
585.609	14568.7
585.969	14516.27
586.329	14488.25
586.688	14501.58
587.048	14487.35
587.408	14412.77
587.768	14421.81
588.127	14383.84
588.487	14432.66
588.846	14405.31
589.206	14340.46
589.565	14428.59
589.925	14461.81
590.284	14334.35
590.643	14419.78
591.003	14417.74
591.362	14389.72
591.721	14492.99
592.08	14443.28
592.44	14478.53
592.799	14380.68
593.158	14324.41
593.517	14375.94
593.876	14356.05
594.235	14297.07
594.593	14354.69
594.952	14319.21
595.311	14287.12
595.67	14374.13
596.029	14424.07
596.387	14379.78
596.746	14377.29
597.104	14410.06
597.463	14311.53
597.822	14386.1
598.18	14272.44
598.538	14276.05
598.897	14429.27
599.255	14240.35
599.613	14471.98
599.972	14329.84
600.33	14352.89
600.688	14323.96
601.046	14399.66
601.404	14447.12
601.762	14284.19
602.12	14417.97
602.478	14477.4
602.836	14410.74
603.194	14333.22
603.552	14377.52
603.91	14340.91
604.268	14387.01
604.625	14315.15
604.983	14396.05
605.341	14366.67
605.698	14344.75
606.056	14349.72
606.413	14395.82
606.771	14397.63
607.128	14387.91
607.485	14332.09
607.843	14338.65
608.2	14377.07
608.557	14443.73
608.914	14384.52
609.272	14482.6
609.629	14470.62
609.986	14455.48
610.343	14475.59
610.7	14614.8
611.057	14508.36
611.414	14622.03
611.771	14472.2
612.127	14631.97
612.484	14564.18
612.841	14559.21
613.198	14563.28
613.554	14585.65
613.911	14647.57
614.267	14482.15
614.624	14600.34
614.98	14688.7
615.337	14697.51
615.693	14709.94
616.05	14664.52
616.406	14744.97
616.762	14710.84
617.118	14691.41
617.475	14736.15
617.831	14734.12
618.187	14734.8
618.543	14748.58
618.899	14860.67
619.255	14749.94
619.611	14725.76
619.967	14852.76
620.323	14828.13
620.678	14765.08
621.034	14866.09
621.39	14779.99
621.746	14790.84
622.101	14893.89
622.457	14733.89
622.812	14788.35
623.168	14814.79
623.523	14879.88
623.879	14920.1
624.234	14739.09
624.589	14830.39
624.945	14831.52
625.3	14836.04
625.655	14856.37
626.01	14876.94
626.365	14827
626.72	14765.76
627.075	14789.94
627.43	14683.27
627.785	14659.32
628.14	14811.86
628.495	14787.9
628.85	14845.53
629.205	14759.65
629.559	14829.48
629.914	14618.64
630.269	14700.22
630.623	14670.62
630.978	14694.8
631.332	14687.57
631.687	14697.28
632.041	14654.8
632.396	14734.34
632.75	14631.07
633.104	14686.89
633.459	14567.57
633.813	14589.26
634.167	14575.03
634.521	14577.51
634.875	14587.46
635.229	14476.95
635.583	14478.98
635.937	14409.38
636.291	14334.35
636.645	14419.55
636.999	14408.48
637.352	14416.84
637.706	14407.8
638.06	14418.87
638.413	14389.04
638.767	14281.47
639.121	14352.66
639.474	14284.86
639.828	14318.99
640.181	14300.46
640.534	14263.4
640.888	14321.93
641.241	14193.57
641.594	14287.35
641.947	14214.13
642.301	14217.52
642.654	14316.95
643.007	14171.87
643.36	14219.78
643.713	14110.86
644.066	14253.45
644.419	14129.16
644.771	14024.98
645.124	13904.08
645.477	13981.14
645.83	13863.63
646.182	13666.8
646.535	13758.55
646.888	13670.42
647.24	13654.15
647.593	13710.87
647.945	13670.87
648.298	13641.94
648.65	13625.67
649.002	13550.65
649.355	13695.95
649.707	13635.16
650.059	13665.22
650.411	13818.21
650.763	13793.8
651.115	13990.18
651.467	13891.65
651.819	13883.29
652.171	13946.12
652.523	13947.7
652.875	13909.28
653.227	13856.63
653.578	13949.51
653.93	13918.77
654.282	13872.9
654.633	13875.61
654.985	13909.28
655.337	13897.3
655.688	13844.2
656.039	13967.58
656.391	13785.67
656.742	13784.99
657.094	13876.97
657.445	13929.62
657.796	13951.09
658.147	13877.87
658.498	13870.86
658.849	13882.16
659.2	13885.55
659.551	13840.13
659.902	14013.46
660.253	13866.8
660.604	13964.19
660.955	13872.22
661.306	13975.72
661.656	13915.16
662.007	14019.11
662.358	13957.42
662.708	13918.77
663.059	14006.45
663.409	13890.07
663.76	14067.92
664.11	13867.25
664.461	13901.6
664.811	13968.71
665.161	13927.59
665.511	13975.49
665.862	13965.78
666.212	13941.37
666.562	13971.43
666.912	13977.98
667.262	13987.02
667.612	13972.33
667.962	13954.25
668.312	13943.86
668.662	14032.89
669.011	13987.47
669.361	13992.22
669.711	13894.37
670.06	13893.69
670.41	13911.09
670.76	13827.48
671.109	13846.01
671.459	13826.57
671.808	13882.62
672.157	13876.51
672.507	13693.92
672.856	13731.88
673.205	13766.23
673.554	13831.32
673.904	13710.64
674.253	13819.79
674.602	13737.53
674.951	13591.1
675.3	13468.16
675.649	13688.04
675.998	13680.81
676.346	13681.49
676.695	13735.5
677.044	13639.01
677.393	13691.21
677.741	13688.95
678.09	13673.13
678.438	13621.83
678.787	13694.37
679.135	13637.2
679.484	13516.52
679.832	13582.74
680.181	13499.57
680.529	13599.01
680.877	13552.23
681.225	13500.25
681.573	13573.02
681.922	13472
682.27	13436.75
682.618	13387.49
682.966	13321.27
683.314	13409.18
683.661	13347.26
684.009	13303.65
684.357	13232.69
684.705	13185.46
685.053	13193.14
685.4	13210.54
685.748	13167.38
686.095	13118.57
686.443	13069.08
686.79	13020.49
687.138	13089.87
687.485	13047.83
687.832	13048.06
688.18	13017.78
688.527	12900.27
688.874	12923.77
689.221	12926.93
689.568	12810.78
689.915	12818.46
690.262	12794.51
690.609	12743.44
690.956	12679.48
691.303	12634.29
691.65	12638.81
691.997	12584.8
692.344	12585.47
692.69	12522.42
693.037	12509.09
693.383	12368.08
693.73	12476.1
694.077	12344.58
694.423	12250.57
694.769	12315.42
695.116	12249.66
695.462	12185.03
695.808	12174.41
696.155	12149.1
696.501	12004.7
696.847	12044.92
697.193	11911.14
697.539	12014.19
697.885	11912.95
698.231	11883.57
698.577	11832.73
698.923	11805.61
699.269	11757.25
699.614	11648.78
699.96	11678.38
700.306	11609.91
700.651	11567.87
700.997	11634.54
701.342	11526.29
701.688	11497.59
702.033	11481.32
702.379	11458.05
702.724	11390.48
703.069	11404.94
703.415	11352.96
703.76	11385.28
704.105	11269.8
704.45	11234.78
704.795	11244.27
705.14	11114.78
705.485	11052.41
705.83	11001.79
706.175	10990.26
706.52	10954.1
706.865	10968.12
707.209	10909.59
707.554	10807.22
707.899	10945.74
708.243	10870.72
708.588	10827.33
708.932	10718.86
709.277	10754.34
709.621	10814.67
709.966	10668.69
710.31	10604.06
710.654	10590.5
710.998	10582.14
711.342	10514.79
711.687	10573.78
712.031	10536.04
712.375	10472.99
712.719	10486.55
713.063	10466.89
713.407	10492.65
713.75	10374.23
714.094	10410.84
714.438	10376.49
714.782	10381.01
715.125	10334.69
715.469	10373.78
715.812	10275.93
716.156	10168.59
716.499	10265.54
716.843	10225.08
717.186	10162.49
717.53	10291.75
717.873	10196.16
718.216	10224.41
718.559	10149.61
718.902	10061.92
719.246	10157.52
719.589	10158.42
719.932	10092.21
720.275	10097.86
720.617	10057.63
720.96	10016.73
721.303	10035.71
721.646	10060.34
721.989	9983.06
722.331	9997.97
722.674	10004.07
723.016	9936.5
723.359	9996.39
723.701	9979.67
724.044	9873.91
724.386	9841.37
724.729	9904.19
725.071	9896.73
725.413	9897.18
725.755	9889.95
726.097	9813.34
726.439	9727.24
726.782	9770.63
727.124	9847.69
727.465	9744.42
727.807	9751.65
728.149	9729.05
728.491	9727.24
728.833	9778.99
729.175	9809.05
729.516	9705.78
729.858	9788.49
730.199	9761.82
730.541	9693.8
730.882	9719.79
731.224	9720.46
731.565	9667.36
731.906	9743.51
732.248	9694.25
732.589	9689.51
732.93	9617.64
733.271	9700.35
733.612	9712.1
733.953	9746.23
734.294	9711.43
734.635	9696.06
734.976	9729.5
735.317	9680.24
735.658	9664.2
735.999	9684.76
736.339	9649.73
736.68	9695.61
737.021	9677.75
737.361	9622.84
737.702	9747.81
738.042	9624.42
738.383	9608.38
738.723	9699.9
739.063	9628.04
739.404	9737.87
739.744	9634.14
740.084	9673.46
740.424	9707.58
740.764	9666
741.104	9727.24
741.444	9692.67
741.784	9666.91
742.124	9754.14
742.464	9684.76
742.804	9766.57
743.143	9794.81
743.483	9794.14
743.823	9783.06
744.162	9788.94
744.502	9838.2
744.841	9804.76
745.181	9940.8
745.52	9864.64
745.86	9963.62
746.199	9977.63
746.538	10000.68
746.877	10108.48
747.216	10067.8
747.556	10084.97
747.895	10134.47
748.234	10225.08
748.573	10184.63
748.911	10253.33
749.25	10266.44
749.589	10363.39
749.928	10437.51
750.267	10493.55
750.605	10484.74
750.944	10575.58
751.283	10578.97
751.621	10669.14
751.96	10743.94
752.298	10819.64
752.636	10958.4
752.975	11025.52
753.313	10997.95
753.651	11146.64
753.989	11248.56
754.327	11261.89
754.666	11412.4
755.004	11483.81
755.342	11577.82
755.679	11772.39
756.017	11759.51
756.355	11938.26
756.693	11996.34
757.031	12127.86
757.368	12188.87
