Data from hue_90_FLMS001491_28.txt Node
Date: Mon Feb 06 15:24:54 GMT 2017
User: dcchb
Spectrometer: FLMS00149
Trigger mode: 0
Integration Time (sec): 2.000000E-2
Scans to average: 10
Electric dark correction enabled: true
Nonlinearity correction enabled: false
Boxcar width: 0
XAxis mode: Wavelengths
Number of Pixels in Spectrum: 2048
>>>>>Begin Spectral Data<<<<<
341.393	-15.99
341.776	-15.99
342.16	-15.99
342.543	-55.08
342.927	-53.95
343.31	-81.07
343.693	-78.59
344.077	-73.39
344.46	-67.06
344.843	-38.59
345.226	-35.42
345.61	-37.68
345.993	-11.69
346.376	-3.33
346.759	16.78
347.142	25.37
347.525	49.09
347.908	51.35
348.291	68.08
348.674	98.81
349.057	117.34
349.44	120.28
349.823	160.28
350.206	175.65
350.588	175.19
350.971	215.19
351.354	220.62
351.737	228.07
352.119	251.58
352.502	266.49
352.884	291.35
353.267	268.07
353.65	295.42
354.032	303.1
354.414	321.86
354.797	307.62
355.179	319.6
355.562	321.63
355.944	330.67
356.326	350.33
356.709	335.87
357.091	345.13
357.473	343.32
357.855	334.51
358.238	345.58
358.62	360.05
359.002	345.36
359.384	361.63
359.766	332.25
360.148	339.26
360.53	332.25
360.912	334.06
361.294	345.13
361.676	338.13
362.057	338.8
362.439	323.44
362.821	319.82
363.203	326.15
363.584	325.47
363.966	315.08
364.348	325.25
364.729	330.67
365.111	334.96
365.493	316.66
365.874	306.49
366.256	324.34
366.637	345.13
367.019	318.47
367.4	323.89
367.781	316.43
368.163	299.71
368.544	330.9
368.925	297.22
369.306	310.78
369.688	312.59
370.069	312.59
370.45	320.95
370.831	318.92
371.212	328.18
371.593	289.99
371.974	326.38
372.355	306.04
372.736	328.41
373.117	326.83
373.498	307.62
373.879	313.04
374.26	318.24
374.641	302.42
375.021	314.85
375.402	351.23
375.783	323.89
376.163	309.65
376.544	330.9
376.925	329.99
377.305	329.99
377.686	313.72
378.066	339.48
378.447	341.52
378.827	324.57
379.208	348.75
379.588	329.09
379.968	322.76
380.349	337.67
380.729	339.71
381.109	345.13
381.489	327.96
381.87	334.51
382.25	352.82
382.63	353.72
383.01	342.65
383.39	328.41
383.77	360.5
384.15	349.88
384.53	353.95
384.91	336.54
385.29	351.23
385.67	337
386.049	352.82
386.429	351.46
386.809	377.45
387.189	366.83
387.568	350.33
387.948	367.96
388.328	358.24
388.707	353.04
389.087	374.74
389.466	374.74
389.846	353.49
390.225	381.52
390.605	377.22
390.984	373.61
391.363	378.13
391.743	384.45
392.122	382.19
392.501	392.14
392.881	389.2
393.26	387.16
393.639	383.1
394.018	375.64
394.397	383.1
394.776	372.48
395.155	403.66
395.534	411.57
395.913	397.33
396.292	388.97
396.671	380.39
397.05	393.49
397.429	395.3
397.808	396.43
398.186	384.45
398.565	407.96
398.944	405.02
399.323	422.64
399.701	417.22
400.08	421.97
400.458	414.73
400.837	415.19
401.215	425.81
401.594	408.86
401.972	404.79
402.351	438.69
402.729	436.43
403.107	415.41
403.486	405.24
403.864	411.12
404.242	430.55
404.62	441.17
404.999	427.84
405.377	427.62
405.755	454.06
406.133	432.14
406.511	436.88
406.889	441.4
407.267	459.03
407.645	450.67
408.023	453.38
408.401	470.1
408.779	471.91
409.156	453.38
409.534	451.57
409.912	480.27
410.29	486.6
410.667	481.4
411.045	468.52
411.422	475.52
411.8	475.75
412.178	487.05
412.555	492.7
412.933	489.99
413.31	539.48
413.687	506.71
414.065	495.41
414.442	492.25
414.819	511.23
415.197	518.69
415.574	515.3
415.951	538.8
416.328	531.12
416.705	528.4
417.082	516.88
417.46	548.52
417.837	544.9
418.214	526.14
418.591	536.09
418.967	544.9
419.344	548.97
419.721	532.92
420.098	545.58
420.475	573.37
420.852	551.68
421.228	557.78
421.605	588.74
421.982	588.29
422.358	604.56
422.735	576.76
423.111	572.02
423.488	575.41
423.864	579.25
424.241	588.29
424.617	604.33
424.994	590.55
425.37	592.58
425.746	617.89
426.123	612.47
426.499	622.41
426.875	621.06
427.251	603.66
427.627	633.71
428.003	628.06
428.379	651.34
428.756	650.21
429.132	650.43
429.507	641.62
429.883	649.76
430.259	650.21
430.635	695.18
431.011	658.12
431.387	682.75
431.763	699.25
432.138	696.54
432.514	696.31
432.89	705.35
433.265	713.94
433.641	727.27
434.016	740.15
434.392	725.91
434.767	738.79
435.143	747.83
435.518	746.7
435.894	733.37
436.269	781.05
436.644	784.22
437.02	797.78
437.395	778.34
437.77	802.3
438.145	771.79
438.52	802.3
438.895	821.73
439.271	805.01
439.646	821.5
440.021	821.5
440.395	809.75
440.77	825.12
441.145	838.45
441.52	841.62
441.895	836.19
442.27	846.81
442.645	863.76
443.019	884.55
443.394	866.25
443.769	865.8
444.143	893.82
444.518	913.93
444.892	914.16
445.267	901.28
445.641	904.21
446.016	925.46
446.39	917.09
446.764	925
447.139	920.03
447.513	935.17
447.887	953.25
448.262	925.23
448.636	968.62
449.01	959.35
449.384	982.18
449.758	988.96
450.132	983.08
450.506	1007.94
450.88	987.38
451.254	1010.43
451.628	1017.2
452.002	1026.92
452.376	1026.47
452.75	1051.33
453.123	1038.9
453.497	1062.63
453.871	1046.81
454.244	1088.62
454.618	1071.89
454.992	1117.54
455.365	1106.24
455.739	1127.94
456.112	1144.89
456.486	1143.98
456.859	1165.45
457.232	1162.51
457.606	1173.58
457.979	1202.51
458.352	1206.8
458.725	1208.39
459.099	1249.74
459.472	1274.6
459.845	1264.66
460.218	1282.28
460.591	1303.98
460.964	1299.46
461.337	1318.89
461.71	1338.1
462.083	1359.34
462.456	1357.99
462.829	1356.86
463.201	1392.11
463.574	1411.77
463.947	1426.23
464.32	1460.36
464.692	1485.67
465.065	1484.99
465.438	1537.42
465.81	1528.15
466.183	1563.63
466.555	1611.99
466.928	1600.69
467.3	1599.11
467.672	1626.91
468.045	1683.18
468.417	1696.51
468.789	1685.21
469.161	1695.61
469.534	1780.12
469.906	1801.14
470.278	1835.49
470.65	1849.95
471.022	1914.58
471.394	1939.89
471.766	2000.23
472.138	2019.44
472.51	2036.39
472.882	2115.26
473.253	2129.49
473.625	2164.97
473.997	2213.11
474.369	2259.66
474.74	2274.12
475.112	2329.03
475.484	2388.24
475.855	2425.53
476.227	2462.82
476.598	2541.46
476.97	2602.7
477.341	2663.94
477.713	2727.89
478.084	2749.36
478.455	2861.45
478.827	2917.49
479.198	3029.36
479.569	3032.07
479.94	3178.73
480.311	3190.71
480.682	3303.92
481.053	3447.65
481.424	3491.04
481.795	3647.87
482.166	3701.65
482.537	3764.7
482.908	3870.69
483.279	3936.68
483.65	4033.85
484.021	4202.21
484.391	4221.64
484.762	4335.99
485.133	4431.8
485.503	4571.91
485.874	4655.75
486.244	4778.24
486.615	4926.25
486.985	5034.95
487.356	5148.4
487.726	5230.2
488.097	5384.55
488.467	5502.96
488.837	5642.85
489.207	5777.76
489.578	5861.15
489.948	6036.73
490.318	6119.9
490.688	6235.37
491.058	6398.76
491.428	6547
491.798	6601.92
492.168	6802.14
492.538	6919.2
492.908	7064.73
493.278	7214.1
493.648	7271.96
494.017	7380.65
494.387	7570.48
494.757	7626.75
495.126	7854.54
495.496	7926.85
495.866	8019.73
496.235	8175.21
496.605	8280.06
496.974	8369.78
497.344	8477.8
497.713	8567.51
498.082	8689.09
498.452	8857.9
498.821	8940.16
499.19	9015.19
499.559	9115.52
499.928	9234.84
500.298	9359.36
500.667	9484.1
501.036	9491.11
501.405	9616.07
501.774	9700.59
502.143	9765
502.512	9932
502.88	9992.34
503.249	9993.92
503.618	10145.78
503.987	10164.31
504.356	10336.96
504.724	10316.17
505.093	10465.77
505.462	10531.76
505.83	10609.27
506.199	10683.62
506.567	10832.99
506.936	10801.58
507.304	10997.28
507.672	11021.91
508.041	11122.7
508.409	11141.46
508.777	11321.79
509.145	11323.37
509.514	11331.96
509.882	11413.32
510.25	11458.51
510.618	11578.28
510.986	11518.4
511.354	11666.19
511.722	11827.32
512.09	11912.96
512.458	11868.9
512.826	11949.8
513.193	12034.77
513.561	12075.9
513.929	12137.59
514.297	12148.66
514.664	12224.82
515.032	12218.49
515.4	12306.85
515.767	12358.83
516.135	12458.03
516.502	12312.73
516.869	12492.84
517.237	12588.43
517.604	12464.81
517.972	12672.72
518.339	12744.35
518.706	12646.28
519.073	12679.5
519.44	12797.01
519.808	12879.04
520.175	12867.29
520.542	13048.3
520.909	13019.15
521.276	13007.17
521.643	13086.94
522.009	13164.46
522.376	13219.37
522.743	13178.92
523.11	13248.3
523.477	13352.25
523.843	13424.34
524.21	13378.01
524.577	13516.76
524.943	13547.27
525.31	13516.54
525.676	13632.24
526.043	13634.27
526.409	13650.09
526.776	13761.05
527.142	13782.52
527.508	13770.99
527.874	13854.83
528.241	13885.34
528.607	13818.22
528.973	13895.06
529.339	13875.4
529.705	13941.84
530.071	14017.32
530.437	13968.05
530.803	14044.88
531.169	14065.22
531.535	13967.37
531.901	14072.68
532.267	14036.52
532.632	14017.09
532.998	14015.28
533.364	14076.07
533.73	14063.42
534.095	14110.87
534.461	14160.14
534.826	14129.63
535.192	14097.54
535.557	14143.87
535.923	14227.93
536.288	14084.21
536.653	14072
537.019	14046.01
537.384	14060.93
537.749	14093.7
538.114	13970.76
538.479	14043.76
538.845	14005.79
539.21	13900.03
539.575	13965.34
539.94	13876.75
540.305	14037.2
540.67	13961.05
541.034	13822.74
541.399	13868.17
541.764	13922.4
542.129	13877.66
542.494	13846.7
542.858	13826.13
543.223	13846.02
543.587	13811.44
543.952	13722.63
544.316	13761.05
544.681	13717.44
545.045	13723.54
545.41	13692.35
545.774	13649.19
546.138	13639.47
546.503	13636.99
546.867	13623.65
547.231	13701.84
547.595	13612.35
547.959	13604.22
548.324	13467.72
548.688	13432.02
549.052	13482.19
549.416	13531.68
549.779	13440.61
550.143	13452.36
550.507	13506.59
550.871	13471.11
551.235	13433.15
551.599	13471.11
551.962	13426.82
552.326	13439.03
552.689	13359.93
553.053	13349.08
553.417	13363.09
553.78	13475.63
554.143	13332.36
554.507	13370.55
554.87	13288.29
555.234	13408.29
555.597	13305.47
555.96	13382.98
556.323	13366.26
556.686	13287.16
557.05	13251.46
557.413	13262.98
557.776	13326.49
558.139	13309.76
558.502	13314.51
558.865	13330.78
559.228	13299.14
559.59	13288.29
559.953	13265.02
560.316	13414.17
560.679	13402.42
561.041	13432.25
561.404	13384.34
561.767	13397.9
562.129	13401.06
562.492	13514.73
562.854	13391.34
563.217	13479.7
563.579	13484.22
563.941	13556.31
564.304	13560.15
564.666	13604.67
565.028	13612.13
565.39	13602.41
565.753	13561.51
566.115	13575.07
566.477	13652.35
566.839	13690.09
567.201	13663.43
567.563	13702.07
567.925	13729.86
568.287	13671.11
568.648	13651.67
569.01	13735.06
569.372	13811.9
569.734	13616.2
570.095	13828.17
570.457	13796.3
570.819	13921.05
571.18	13898.22
571.542	13980.25
571.903	13949.29
572.265	14018.44
572.626	13920.59
572.987	13877.21
573.349	13972.12
573.71	13990.2
574.071	13972.34
574.432	14047.14
574.794	14096.41
575.155	14030.42
575.516	13995.85
575.877	13996.75
576.238	14097.54
576.599	14127.14
576.96	14056.18
577.32	14107.26
577.681	14201.72
578.042	14165.79
578.403	14125.33
578.763	14163.3
579.124	14200.14
579.485	14272
579.845	14207.14
580.206	14234.48
580.566	14177.08
580.927	14182.28
581.287	14180.47
581.648	14125.11
582.008	14217.08
582.368	14186.58
582.728	14162.17
583.089	14081.04
583.449	14078.78
583.809	14121.27
584.169	14182.73
584.529	14118.56
584.889	14259.12
585.249	14139.35
585.609	14108.84
585.969	14172.79
586.329	14024.32
586.688	14100.7
587.048	14161.27
587.408	14116.3
587.768	14046.47
588.127	14073.13
588.487	13997.2
588.846	14131.44
589.206	13977.99
589.565	14010.76
589.925	14072.23
590.284	14002.4
590.643	13993.59
591.003	14022.96
591.362	14099.57
591.721	14113.58
592.08	14069.07
592.44	14011.21
592.799	14018.44
593.158	13915.85
593.517	14011.44
593.876	13976.41
594.235	13943.19
594.593	14001.72
594.952	13992.46
595.311	13973.47
595.67	13938
596.029	14009.86
596.387	14046.24
596.746	14048.27
597.104	13946.81
597.463	14049.63
597.822	13979.58
598.18	13990.88
598.538	13952.46
598.897	13970.08
599.255	13815.06
599.613	14100.02
599.972	14027.48
600.33	13925.11
600.688	13907.04
601.046	14053.25
601.404	14012.8
601.762	13953.81
602.12	14042.63
602.478	14015.96
602.836	13974.83
603.194	13958.33
603.552	13913.14
603.91	13928.73
604.268	14038.78
604.625	13995.39
604.983	13953.14
605.341	13958.56
605.698	14026.13
606.056	14055.73
606.413	13983.19
606.771	14029.29
607.128	14047.82
607.485	13965.34
607.843	13999.91
608.2	14045.79
608.557	14082.62
608.914	14050.53
609.272	14150.87
609.629	14069.29
609.986	14152.45
610.343	14093.47
610.7	14153.81
611.057	14148.84
611.414	14198.55
611.771	14136.41
612.127	14222.73
612.484	14235.84
612.841	14253.02
613.198	14131.66
613.554	14196.52
613.911	14213.69
614.267	14187.71
614.624	14189.74
614.98	14234.26
615.337	14402.39
615.693	14347.02
616.05	14295.27
616.406	14400.13
616.762	14306.8
617.118	14311.09
617.475	14306.57
617.831	14393.8
618.187	14394.03
618.543	14347.02
618.899	14445.55
619.255	14449.39
619.611	14387.47
619.967	14389.73
620.323	14524.87
620.678	14374.59
621.034	14382.5
621.39	14359.68
621.746	14334.82
622.101	14576.17
622.457	14333.92
622.812	14352.67
623.168	14479
623.523	14392.22
623.879	14467.25
624.234	14352.45
624.589	14423.41
624.945	14462.28
625.3	14393.58
625.655	14457.53
626.01	14481.03
626.365	14499.11
626.72	14405.55
627.075	14426.34
627.43	14447.13
627.785	14425.44
628.14	14408.94
628.495	14389.28
628.85	14370.98
629.205	14417.76
629.559	14434.25
629.914	14411.88
630.269	14361.94
630.623	14356.74
630.978	14299.57
631.332	14376.85
631.687	14374.37
632.041	14286.91
632.396	14256.63
632.75	14241.26
633.104	14263.41
633.459	14255.05
633.813	14172.34
634.167	14174.15
634.521	14182.96
634.875	14211.43
635.229	14192.9
635.583	14082.62
635.937	14123.53
636.291	14127.37
636.645	14030.42
636.999	14067.03
637.352	14021.83
637.706	13973.93
638.06	14118.1
638.413	14003.76
638.767	13984.32
639.121	13968.28
639.474	13845.79
639.828	13906.81
640.181	13920.82
640.534	13957.66
640.888	13860.26
641.241	13866.81
641.594	13922.4
641.947	13976.64
642.301	13827.04
642.654	13848.73
643.007	13820.26
643.36	13907.26
643.713	13775.06
644.066	13863.42
644.419	13766.02
644.771	13698.91
645.124	13613.71
645.477	13528.97
645.83	13475.18
646.182	13449.87
646.535	13388.86
646.888	13396.77
647.24	13305.92
647.593	13354.73
647.945	13429.08
648.298	13253.49
648.65	13324.23
649.002	13197
649.355	13263.66
649.707	13285.58
650.059	13374.39
650.411	13549.3
650.763	13547.95
651.115	13752.01
651.467	13676.76
651.819	13615.52
652.171	13632.69
652.523	13569.42
652.875	13633.6
653.227	13573.03
653.578	13669.98
653.93	13618.68
654.282	13531.23
654.633	13564.45
654.985	13579.36
655.337	13559.47
655.688	13568.51
656.039	13702.07
656.391	13485.8
656.742	13579.36
657.094	13503.88
657.445	13570.32
657.796	13547.72
658.147	13614.84
658.498	13596.99
658.849	13538.68
659.2	13550.66
659.551	13475.86
659.902	13577.78
660.253	13576.65
660.604	13602.64
660.955	13454.84
661.306	13573.48
661.656	13510.44
662.007	13602.41
662.358	13501.62
662.708	13634.73
663.059	13495.29
663.409	13494.16
663.76	13618.23
664.11	13518.12
664.461	13589.08
664.811	13615.52
665.161	13593.15
665.511	13598.12
665.862	13660.26
666.212	13555.63
666.562	13638.79
666.912	13587.27
667.262	13653.71
667.612	13602.41
667.962	13566.71
668.312	13686.02
668.662	13571.9
669.011	13630.21
669.361	13560.15
669.711	13569.87
670.06	13609.42
670.41	13531.68
670.76	13586.82
671.109	13610.55
671.459	13476.76
671.808	13537.78
672.157	13530.32
672.507	13380.27
672.856	13494.16
673.205	13481.96
673.554	13441.28
673.904	13432.25
674.253	13566.48
674.602	13410.33
674.951	13259.59
675.3	13175.76
675.649	13357.45
675.998	13389.53
676.346	13390.44
676.695	13435.64
677.044	13300.5
677.393	13344.79
677.741	13421.4
678.09	13320.16
678.438	13300.05
678.787	13340.72
679.135	13383.66
679.484	13259.37
679.832	13283.32
680.181	13219.14
680.529	13195.19
680.877	13187.28
681.225	13197.68
681.573	13240.61
681.922	13120.39
682.27	13047.4
682.618	13028.64
682.966	12960.17
683.314	13070.22
683.661	12976.44
684.009	12892.15
684.357	12899.38
684.705	12841.07
685.053	12869.55
685.4	12859.38
685.748	12710.23
686.095	12853.73
686.443	12778.48
686.79	12687.18
687.138	12704.58
687.485	12729.44
687.832	12682.43
688.18	12622.78
688.527	12617.13
688.874	12594.98
689.221	12575.09
689.568	12524.7
689.915	12505.04
690.262	12461.42
690.609	12378.04
690.956	12409.22
691.303	12387.98
691.65	12387.53
691.997	12305.95
692.344	12232.96
692.69	12214.65
693.037	12187.76
693.383	12102.34
693.73	12182.11
694.077	12032.51
694.423	12010.36
694.769	11979.18
695.116	11931.49
695.462	11897.14
695.808	11791.61
696.155	11857.37
696.501	11706.42
696.847	11685.17
697.193	11594.78
697.539	11628.45
697.885	11597.49
698.231	11578.96
698.577	11531.28
698.923	11511.62
699.269	11429.13
699.614	11366.99
699.96	11336.48
700.306	11367.89
700.651	11277.95
700.997	11258.29
701.342	11253.32
701.688	11182.59
702.033	11111.63
702.379	11163.83
702.724	11141.46
703.069	11179.42
703.415	10960.45
703.76	10991.63
704.105	10925.64
704.45	10936.72
704.795	10885.87
705.14	10891.07
705.485	10840.68
705.83	10818.08
706.175	10803.16
706.52	10688.36
706.865	10689.04
707.209	10714.35
707.554	10577.41
707.899	10609.95
708.243	10632.32
708.588	10557.29
708.932	10474.36
709.277	10502.61
709.621	10508.25
709.966	10422.16
710.31	10504.87
710.654	10362.04
710.998	10371.54
711.342	10378.99
711.687	10328.82
712.031	10267.81
712.375	10219.67
712.719	10186.46
713.063	10248.37
713.407	10245.44
713.75	10167.47
714.094	10156.85
714.438	10081.6
714.782	10138.1
715.125	10106.01
715.469	10137.42
715.812	10053.58
716.156	10002.05
716.499	9940.81
716.843	9970.64
717.186	9979.91
717.53	9967.25
717.873	9989.17
718.216	9982.17
718.559	9943.52
718.902	9836.63
719.246	9790.53
719.589	9838.89
719.932	9831.66
720.275	9830.08
720.617	9780.36
720.96	9833.24
721.303	9787.14
721.646	9814.49
721.989	9761.16
722.331	9810.19
722.674	9652.68
723.016	9790.99
723.359	9689.07
723.701	9746.92
724.044	9614.04
724.386	9660.37
724.729	9693.13
725.071	9608.84
725.413	9616.3
725.755	9585.12
726.097	9601.16
726.439	9535.17
726.782	9547.15
727.124	9634.15
727.465	9581.05
727.807	9557.77
728.149	9504.89
728.491	9510.31
728.833	9572.46
729.175	9532.91
729.516	9538.79
729.858	9473.48
730.199	9539.01
730.541	9453.14
730.882	9481.62
731.224	9514.83
731.565	9536.08
731.906	9497.21
732.248	9478
732.589	9449.3
732.93	9463.76
733.271	9527.72
733.612	9448.17
733.953	9416.31
734.294	9415.18
734.635	9419.24
734.976	9426.7
735.317	9460.6
735.658	9413.82
735.999	9392.35
736.339	9393.71
736.68	9460.82
737.021	9454.5
737.361	9368.17
737.702	9530.2
738.042	9403.65
738.383	9383.99
738.723	9414.95
739.063	9466.93
739.404	9451.56
739.744	9422.18
740.084	9416.08
740.424	9474.38
740.764	9479.36
741.104	9455.63
741.444	9534.95
741.784	9498.34
742.124	9510.54
742.464	9552.57
742.804	9464.21
743.143	9519.13
743.483	9653.36
743.823	9548.05
744.162	9581.05
744.502	9622.4
744.841	9638.22
745.181	9672.12
745.52	9640.48
745.86	9731.1
746.199	9700.37
746.538	9818.33
746.877	9821.27
747.216	9843.19
747.556	9874.15
747.895	9880.02
748.234	9862.85
748.573	9945.56
748.911	9950.76
749.25	10101.26
749.589	10133.12
749.928	10156.4
750.267	10258.32
750.605	10277.98
750.944	10341.71
751.283	10387.58
751.621	10451.99
751.96	10480.68
752.298	10568.82
752.636	10697.63
752.975	10739.44
753.313	10774.01
753.651	10953.89
753.989	11008.13
754.327	11069.6
754.666	11065.75
755.004	11299.19
755.342	11440.43
755.679	11527.44
756.017	11528.57
756.355	11746.19
756.693	11734.44
757.031	11995.45
757.368	12002.68
757.706	12063.47
758.044	12152.05
