Data from hue_60_FLMS001491_30.txt Node
Date: Mon Feb 06 15:17:09 GMT 2017
User: dcchb
Spectrometer: FLMS00149
Trigger mode: 0
Integration Time (sec): 2.000000E-2
Scans to average: 10
Electric dark correction enabled: true
Nonlinearity correction enabled: false
Boxcar width: 0
XAxis mode: Wavelengths
Number of Pixels in Spectrum: 2048
>>>>>Begin Spectral Data<<<<<
341.393	-17.06
341.776	-17.06
342.16	-17.06
342.543	-71.52
342.927	-82.82
343.31	-55.7
343.693	-74.01
344.077	-83.27
344.46	-52.32
344.843	-69.49
345.226	-44.18
345.61	-38.76
345.993	-10.28
346.376	-1.47
346.759	15.48
347.142	25.2
347.525	46.67
347.908	60
348.291	73.56
348.674	100.68
349.057	107.91
349.44	137.28
349.823	132.54
350.206	150.39
350.588	185.42
350.971	201.24
351.354	220.67
351.737	252.99
352.119	244.17
352.502	257.06
352.884	274.91
353.267	275.59
353.65	308.81
354.032	290.95
354.414	309.48
354.797	310.61
355.179	311.29
355.562	312.87
355.944	332.76
356.326	313.33
356.709	330.73
357.091	336.38
357.473	344.74
357.855	345.19
358.238	321.46
358.62	337.51
359.002	342.25
359.384	331.63
359.766	364.85
360.148	330.5
360.53	347.9
360.912	328.69
361.294	337.73
361.676	362.59
362.057	332.31
362.439	345.87
362.821	321.23
363.203	331.18
363.584	337.05
363.966	331.86
364.348	334.34
364.729	313.78
365.111	318.3
365.493	309.03
365.874	318.75
366.256	313.1
366.637	332.53
367.019	321.23
367.4	314.23
367.781	316.04
368.163	312.87
368.544	317.17
368.925	287.34
369.306	346.54
369.688	320.78
370.069	307.9
370.45	316.71
370.831	319.43
371.212	316.94
371.593	318.3
371.974	315.58
372.355	339.09
372.736	323.95
373.117	335.47
373.498	316.26
373.879	313.1
374.26	331.63
374.641	319.65
375.021	308.58
375.402	329.6
375.783	317.84
376.163	344.06
376.544	311.07
376.925	308.81
377.305	321.46
377.686	320.1
378.066	332.53
378.447	311.97
378.827	318.52
379.208	329.37
379.588	327.56
379.968	332.76
380.349	330.95
380.729	333.89
381.109	339.54
381.489	329.37
381.87	329.6
382.25	335.7
382.63	335.92
383.01	348.13
383.39	351.97
383.77	330.95
384.15	343.83
384.53	347.67
384.91	338.86
385.29	329.37
385.67	325.3
386.049	347.45
386.429	347.67
386.809	337.51
387.189	358.52
387.568	354.68
387.948	338.18
388.328	352.65
388.707	335.92
389.087	358.3
389.466	371.85
389.846	337.28
390.225	340.89
390.605	351.29
390.984	372.08
391.363	347
391.743	342.48
392.122	364.62
392.501	376.15
392.881	363.49
393.26	354.91
393.639	349.26
394.018	363.95
394.397	386.32
394.776	355.36
395.155	350.61
395.534	364.85
395.913	363.95
396.292	346.32
396.671	370.5
397.05	367.11
397.429	387.9
397.808	372.53
398.186	367.33
398.565	368.46
398.944	381.57
399.323	373.21
399.701	371.18
400.08	348.58
400.458	380.67
400.837	374.79
401.215	385.64
401.594	382.93
401.972	401.46
402.351	371.85
402.729	382.02
403.107	377.96
403.486	396.49
403.864	384.74
404.242	402.14
404.62	416.37
404.999	386.54
405.377	387.67
405.755	403.04
406.133	398.75
406.511	401.46
406.889	403.04
407.267	394
407.645	405.75
408.023	412.08
408.401	398.52
408.779	406.43
409.156	404.85
409.534	414.34
409.912	421.12
410.29	413.89
410.667	419.54
411.045	417.5
411.422	436.03
411.8	418.63
412.178	427.9
412.555	443.94
412.933	429.71
413.31	455.92
413.687	426.09
414.065	457.5
414.442	463.6
414.819	469.25
415.197	463.15
415.574	467.45
415.951	471.06
416.328	473.09
416.705	453.21
417.082	474.68
417.46	476.71
417.837	482.13
418.214	506.31
418.591	471.29
418.967	476.03
419.344	483.94
419.721	487.11
420.098	495.69
420.475	497.5
420.852	487.78
421.228	487.33
421.605	498.4
421.982	486.43
422.358	522.13
422.735	491.63
423.111	516.71
423.488	491.85
423.864	507.67
424.241	525.07
424.617	534.11
424.994	509.03
425.37	533.66
425.746	536.82
426.123	513.77
426.499	521
426.875	544.05
427.251	551.96
427.627	534.34
428.003	560.32
428.379	556.48
428.756	568.01
429.132	558.29
429.507	546.09
429.883	583.83
430.259	573.43
430.635	572.98
431.011	599.19
431.387	593.77
431.763	575.69
432.138	590.38
432.514	598.06
432.89	595.8
433.265	606.88
433.641	611.85
434.016	605.07
434.392	617.5
434.767	611.85
435.143	613.2
435.518	652.75
435.894	630.6
436.269	642.13
436.644	659.76
437.02	655.91
437.395	683.94
437.77	657.95
438.145	639.87
438.52	643.26
438.895	673.99
439.271	657.95
439.646	669.25
440.021	686.87
440.395	678.06
440.77	676.25
441.145	683.48
441.52	706.99
441.895	688
442.27	726.87
442.645	722.35
443.019	728.91
443.394	704.95
443.769	727.1
444.143	710.6
444.518	744.27
444.892	749.47
445.267	718.51
445.641	741.79
446.016	754.67
446.39	721.45
446.764	754.22
447.139	764.84
447.513	747.89
447.887	749.92
448.262	760.32
448.636	775.69
449.01	764.84
449.384	740.43
449.758	770.94
450.132	788.57
450.506	794.44
450.88	805.29
451.254	785.63
451.628	794.67
452.002	803.26
452.376	819.07
452.75	799.41
453.123	833.09
453.497	835.35
453.871	863.82
454.244	846.64
454.618	865.17
454.992	869.24
455.365	857.04
455.739	870.6
456.112	894.1
456.486	896.13
456.859	909.02
457.232	910.6
457.606	919.64
457.979	920.31
458.352	936.13
458.725	950.6
459.099	952.18
459.472	949.69
459.845	971.84
460.218	960.54
460.591	976.58
460.964	1006.19
461.337	995.12
461.71	1018.62
462.083	1024.72
462.456	1041.22
462.829	1071.05
463.201	1086.41
463.574	1085.51
463.947	1079.63
464.32	1121.21
464.692	1122.34
465.065	1134.32
465.438	1138.16
465.81	1174.09
466.183	1196.24
466.555	1237.59
466.928	1196.92
467.3	1215.45
467.672	1236.46
468.045	1280.31
468.417	1280.98
468.789	1306.29
469.161	1350.81
469.534	1354.65
469.906	1383.35
470.278	1398.27
470.65	1430.81
471.022	1464.71
471.394	1482.11
471.766	1533.86
472.138	1515.78
472.51	1594.42
472.882	1624.03
473.253	1650.47
473.625	1658.37
473.997	1727.53
474.369	1728.2
474.74	1792.83
475.112	1833.74
475.484	1828.77
475.855	1923.68
476.227	1948.54
476.598	2021.53
476.97	2075.09
477.341	2117.8
477.713	2166.16
478.084	2223.78
478.455	2289.09
478.827	2370.22
479.198	2434.17
479.569	2474.17
479.94	2551.68
480.311	2632.13
480.682	2772.92
481.053	2793.26
481.424	2868.06
481.795	2979.92
482.166	3065.57
482.537	3139.24
482.908	3272.8
483.279	3292
483.65	3435.05
484.021	3558.44
484.391	3597.98
484.762	3722.05
485.133	3828.03
485.503	3918.65
485.874	4088.37
486.244	4178.76
486.615	4330.62
486.985	4430.73
487.356	4579.43
487.726	4688.8
488.097	4796.37
488.467	4937.16
488.837	5103.48
489.207	5250.6
489.578	5340.31
489.948	5528.33
490.318	5648.78
490.688	5766.52
491.058	5985.27
491.428	6096.45
491.798	6226.84
492.168	6473.39
492.538	6559.71
492.908	6699.82
493.278	6788.64
493.648	6980.72
494.017	7113.15
494.387	7334.84
494.757	7437.21
495.126	7632.91
495.496	7818.66
495.866	7865.22
496.235	8046.23
496.605	8239.9
496.974	8341.14
497.344	8556.5
497.713	8729.6
498.082	8839.43
498.452	8994.45
498.821	9172.98
499.19	9335.23
499.559	9415.91
499.928	9606.64
500.298	9755.11
500.667	9884.37
501.036	9981.32
501.405	10163.91
501.774	10295.89
502.143	10457.69
502.512	10541.3
502.88	10780.62
503.249	10838.47
503.618	10992.37
503.987	11140.84
504.356	11265.35
504.724	11393.94
505.093	11503.77
505.462	11741.05
505.83	11809.52
506.199	12009.74
506.567	12226.91
506.936	12268.94
507.304	12480.91
507.672	12629.84
508.041	12743.28
508.409	12889.49
508.777	12963.39
509.145	13201.8
509.514	13312.76
509.882	13448.35
510.25	13517.27
510.618	13624.84
510.986	13724.5
511.354	13921.55
511.722	14126.97
512.09	14287.87
512.458	14303.92
512.826	14443.58
513.193	14559.96
513.561	14724.7
513.929	14830.46
514.297	15068.64
514.664	15128.53
515.032	15289.65
515.4	15412.59
515.767	15541.85
516.135	15735.74
516.502	15712.47
516.869	15962.86
517.237	16076.07
517.604	16063.42
517.972	16357.42
518.339	16451.88
518.706	16510.41
519.073	16651.2
519.44	16758.54
519.808	16953.57
520.175	16975.94
520.542	17272.2
520.909	17375.93
521.276	17487.79
521.643	17616.15
522.009	17838.51
522.376	17905.18
522.743	18138.39
523.11	18339.74
523.477	18337.94
523.843	18519.4
524.21	18840.52
524.577	18956.45
524.943	19036.45
525.31	19241.41
525.676	19284.13
526.043	19527.96
526.409	19545.81
526.776	19844.79
527.142	19949.64
527.508	20014.95
527.874	20236.42
528.241	20292.01
528.607	20389.63
528.973	20711.88
529.339	20657.65
529.705	20837.31
530.071	21056.28
530.437	21150.74
530.803	21345.09
531.169	21344.41
531.535	21284.98
531.901	21508.47
532.267	21644.97
532.632	21694.91
532.998	21824.4
533.364	22008.35
533.73	22104.62
534.095	22276.59
534.461	22361.11
534.826	22578.95
535.192	22481.56
535.557	22766.29
535.923	22709.57
536.288	22810.81
536.653	22848.55
537.019	22893.3
537.384	23040.64
537.749	23196.79
538.114	23238.6
538.479	23239.95
538.845	23407.41
539.21	23347.75
539.575	23554.07
539.94	23580.51
540.305	23822.09
540.67	23714.52
541.034	23822.99
541.399	23983.44
541.764	24057.79
542.129	24118.8
542.494	24167.61
542.858	24228.63
543.223	24193.38
543.587	24498.9
543.952	24405.57
544.316	24538.22
544.681	24591.78
545.045	24742.06
545.41	24857.76
545.774	24880.36
546.138	24889.63
546.503	25035.61
546.867	25022.51
547.231	25208.94
547.595	25194.25
547.959	25307.24
548.324	25296.17
548.688	25517.41
549.052	25506.79
549.416	25655.26
549.779	25698.87
550.143	25774.8
550.507	25939.77
550.871	25998.3
551.235	25900.22
551.599	26212.08
551.962	26297.73
552.326	26250.04
552.689	26530.04
553.053	26382.7
553.417	26423.15
553.78	26855.45
554.143	26775.91
554.507	26791.72
554.87	26987.43
555.234	27204.82
555.597	27076.69
555.96	27333.86
556.323	27333.41
556.686	27455.44
557.05	27621.08
557.413	27779.27
557.776	27859.27
558.139	28068.3
558.502	28084.8
558.865	28140.84
559.228	28330.22
559.59	28387.62
559.953	28384.45
560.316	28778.34
560.679	28772.69
561.041	28919.35
561.404	29004.32
561.767	29306.69
562.129	28957.77
562.492	29412.67
562.854	29463.07
563.217	29432.79
563.579	29620.13
563.941	29795.04
564.304	29937.4
564.666	30180.79
565.028	30148.02
565.39	30248.81
565.753	30510.5
566.115	30508.24
566.477	30766.08
566.839	30875.01
567.201	31032.52
567.563	31053.08
567.925	31129.46
568.287	31257.14
568.648	31317.03
569.01	31511.6
569.372	31699.39
569.734	31738.94
570.095	31952.04
570.457	31955.88
570.819	32143.67
571.18	32018.93
571.542	32260.28
571.903	32378.02
572.265	32443.55
572.626	32572.82
572.987	32601.97
573.349	32719.48
573.71	32815.07
574.071	32985.23
574.432	32957.44
574.794	33189.75
575.155	33155.17
575.516	33196.3
575.877	33325.56
576.238	33322.4
576.599	33341.38
576.96	33518.78
577.32	33516.52
577.681	33639.45
578.042	33639.91
578.403	33796.29
578.763	33786.8
579.124	33941.59
579.485	34145.66
579.845	34100.46
580.206	34095.94
580.566	34100.01
580.927	34149.27
581.287	34274.47
581.648	34132.77
582.008	34364.18
582.368	34233.79
582.728	34404.86
583.089	34436.04
583.449	34507.23
583.809	34412.77
584.169	34478.08
584.529	34369.15
584.889	34648.24
585.249	34483.73
585.609	34410.06
585.969	34595.14
586.329	34598.3
586.688	34693.66
587.048	34599.43
587.408	34665.64
587.768	34693.66
588.127	34645.98
588.487	34604.17
588.846	34807.11
589.206	34582.48
589.565	34736.83
589.925	34990.83
590.284	34740.67
590.643	34920.55
591.003	34858.63
591.362	35040.77
591.721	34902.7
592.08	34934.56
592.44	34985.41
592.799	35027.67
593.158	35031.96
593.517	35053.65
593.876	35014.33
594.235	34985.86
594.593	35108.79
594.952	35029.25
595.311	35079.64
595.67	35147.44
596.029	35442.12
596.387	35376.13
596.746	35392.4
597.104	35302.24
597.463	35237.15
597.822	35444.15
598.18	35278.06
598.538	35366.41
598.897	35429.69
599.255	35330.03
599.613	35741.55
599.972	35590.36
600.33	35660.19
600.688	35448.67
601.046	35622.68
601.404	35793.75
601.762	35829.68
602.12	36055.44
602.478	35838.49
602.836	35981.77
603.194	35852.73
603.552	35829.23
603.91	35919.62
604.268	36003.46
604.625	35965.5
604.983	36138.37
605.341	35944.93
605.698	36215.66
606.056	36363.45
606.413	36382.21
606.771	36371.36
607.128	36451.36
607.485	36318.48
607.843	36383.34
608.2	36635.99
608.557	36729.32
608.914	36697.91
609.272	36821.74
609.629	36925.92
609.986	36934.74
610.343	36876.66
610.7	37241.62
611.057	37142.19
611.414	36971.34
611.771	37135.41
612.127	37194.16
612.484	37319.36
612.841	37340.83
613.198	37294.5
613.554	37334.27
613.911	37519.8
614.267	37652.91
614.624	37690.42
614.98	37715.28
615.337	37771.1
615.693	37806.12
616.05	37720.7
616.406	37942.84
616.762	37839.34
617.118	37877.31
617.475	37846.12
617.831	38079.79
618.187	38284.76
618.543	37934.03
618.899	38390.29
619.255	38408.14
619.611	38365.43
619.967	38464.41
620.323	38551.19
620.678	38386.45
621.034	38234.81
621.39	38462.6
621.746	38375.83
622.101	38934
622.457	38517.29
622.812	38641.36
623.168	38701.02
623.523	38742.37
623.879	38738.3
624.234	38623.05
624.589	38809.94
624.945	38880.45
625.3	38944.4
625.655	38850.84
626.01	38904.85
626.365	38802.71
626.72	38816.04
627.075	38829.15
627.43	38898.98
627.785	38755.48
628.14	38815.36
628.495	38859.2
628.85	38927.23
629.205	38864.4
629.559	38917.51
629.914	38873.89
630.269	38823.72
630.623	38928.35
630.978	38784.63
631.332	38928.58
631.687	39044.96
632.041	38898.98
632.396	38901.24
632.75	38879.09
633.104	38751.86
633.459	38761.58
633.813	38636.61
634.167	38764.74
634.521	38555.26
634.875	38685.65
635.229	38694.91
635.583	38567.91
635.937	38684.29
636.291	38534.02
636.645	38631.19
636.999	38434.36
637.352	38613.11
637.706	38289.5
638.06	38678.64
638.413	38441.81
638.767	38353
639.121	38510.06
639.474	38251.99
639.828	38282.27
640.181	38310.07
640.534	38382.61
640.888	38306.45
641.241	38171.54
641.594	38266.68
641.947	38277.07
642.301	38240.92
642.654	38246.34
643.007	38176.74
643.36	38147.13
643.713	38042.28
644.066	38225.77
644.419	38040.47
644.771	37767.03
645.124	37386.93
645.477	37294.27
645.83	37068.52
646.182	36975.19
646.535	36874.17
646.888	36917.33
647.24	36784.91
647.593	37048.18
647.945	36947.39
648.298	36701.29
648.65	36746.27
649.002	36534.75
649.355	36864.68
649.707	36769.54
650.059	36879.14
650.411	37311.9
650.763	37126.14
651.115	37596.41
651.467	37614.04
651.819	37416.08
652.171	37378.34
652.523	37428.96
652.875	37523.87
653.227	37096.76
653.578	37505.12
653.93	37368.85
654.282	37218.57
654.633	37254.27
654.985	37243.2
655.337	37198.91
655.688	37145.35
656.039	37242.3
656.391	37036.2
656.742	37085.01
657.094	37071.68
657.445	37145.8
657.796	37009.99
658.147	36936.09
658.498	37075.07
658.849	36911.91
659.2	37006.6
659.551	36891.8
659.902	37079.36
660.253	37014.73
660.604	37032.81
660.955	36771.8
661.306	37025.13
661.656	36858.13
662.007	36898.13
662.358	36892.93
662.708	36840.5
663.059	36876.43
663.409	36612.71
663.76	36886.15
664.11	36885.7
664.461	36884.57
664.811	36836.66
665.161	36823.1
665.511	36796.21
665.862	36793.95
666.212	36902.19
666.562	36875.75
666.912	36791.69
667.262	36773.38
667.612	36672.14
667.962	36862.19
668.312	36712.14
668.662	36842.08
669.011	36732.93
669.361	36744.91
669.711	36637.79
670.06	36600.73
670.41	36595.99
670.76	36503.33
671.109	36675.98
671.459	36714.4
671.808	36638.7
672.157	36684.8
672.507	36397.8
672.856	36433.51
673.205	36422.66
673.554	36592.6
673.904	36413.84
674.253	36593.73
674.602	36439.61
674.951	36007.98
675.3	35783.13
675.649	36414.3
675.998	36379.27
676.346	36347.41
676.695	36463.56
677.044	36132.95
677.393	36330.23
677.741	36387.86
678.09	36131.59
678.438	36061.99
678.787	36105.38
679.135	36165.72
679.484	35985.61
679.832	36194.87
680.181	35784.03
680.529	36021.09
680.877	35869.23
681.225	35858.83
681.573	36101.76
681.922	35850.47
682.27	35642.57
682.618	35686.18
682.966	35630.81
683.314	35713.75
683.661	35628.55
684.009	35466.75
684.357	35472.4
684.705	35307.89
685.053	35329.58
685.4	35419.75
685.748	35119.42
686.095	35082.58
686.443	35068.34
686.79	35039.19
687.138	35076.48
687.485	34916.03
687.832	34852.98
688.18	34932.98
688.527	34725.98
688.874	34731.86
689.221	34723.27
689.568	34480.11
689.915	34349.04
690.262	34396.04
690.609	34332.54
690.956	34302.04
691.303	34243.28
691.65	34027.47
691.997	34166.22
692.344	33898.88
692.69	33829.28
693.037	33838.32
693.383	33611.21
693.73	33762.84
694.077	33474.04
694.423	33587.03
694.769	33440.14
695.116	33316.53
695.462	33390.2
695.808	33152.69
696.155	33212.35
696.501	33078.79
696.847	32993.37
697.193	32685.13
697.539	32890.77
697.885	32599.71
698.231	32434.51
698.577	32631.35
698.923	32485.81
699.269	32381.41
699.614	32166.05
699.96	32134.64
700.306	32160.17
700.651	32039.04
700.997	31951.36
701.342	31887.41
701.688	31882.44
702.033	31764.25
702.379	31667.75
702.724	31631.82
703.069	31690.58
703.415	31286.75
703.76	31394.09
704.105	31249.23
704.45	31296.47
704.795	31068.67
705.14	31044.49
705.485	30966.3
705.83	30872.07
706.175	30897.61
706.52	30837.49
706.865	30720.66
707.209	30601.79
707.554	30520.67
707.899	30570.16
708.243	30464.17
708.588	30342.37
708.932	30132.65
709.277	30209.49
709.621	30273.44
709.966	29959.33
710.31	30087.46
710.654	29871.64
710.998	29977.86
711.342	29856.28
711.687	29672.55
712.031	29561.82
712.375	29628.94
712.719	29630.75
713.063	29593.01
713.407	29666.45
713.75	29565.66
714.094	29465.78
714.438	29240.7
714.782	29300.59
715.125	29073.92
715.469	29164.77
715.812	29074.6
716.156	28837.32
716.499	29036.86
716.843	28968.39
717.186	28793.93
717.53	28969.75
717.873	28940.59
718.216	28812.69
718.559	28649.53
718.902	28472.58
719.246	28607.72
719.589	28464.9
719.932	28362.98
720.275	28402.53
720.617	28213.38
720.96	28121.63
721.303	28193.5
721.646	28207.73
721.989	28064.69
722.331	28147.62
722.674	28121.63
723.016	28057
723.359	27932.71
723.701	27954.18
724.044	27817.46
724.386	27709.89
724.729	27820.62
725.071	27744.92
725.413	27714.64
725.755	27534.76
726.097	27484.14
726.439	27474.19
726.782	27374.31
727.124	27525.72
727.465	27389.68
727.807	27379.05
728.149	27238.27
728.491	27225.39
728.833	27229.68
729.175	27177.25
729.516	27131.38
729.858	27127.99
730.199	27096.8
730.541	27139.96
730.882	27024.49
731.224	27030.36
731.565	26833.08
731.906	26906.75
732.248	26856.81
732.589	26664.27
732.93	26706.3
733.271	26579.75
733.612	26812.74
733.953	26600.77
734.294	26576.82
734.635	26420.44
734.976	26603.03
735.317	26385.41
735.658	26473.32
735.999	26437.38
736.339	26349.7
736.68	26484.16
737.021	26299.76
737.361	26147.9
737.702	26319.65
738.042	26217.95
738.383	26111.74
738.723	26212.08
739.063	25995.14
739.404	26131.86
739.744	25995.59
740.084	25894.12
740.424	25950.17
740.764	25916.04
741.104	25867.91
741.444	25738.65
741.784	25693
742.124	25728.93
742.464	25643.96
742.804	25760.79
743.143	25403.96
743.483	25553.34
743.823	25459.56
744.162	25534.58
744.502	25519.89
744.841	25337.75
745.181	25500.23
745.52	25357.41
745.86	25355.6
746.199	25215.95
746.538	25210.52
746.877	25396.51
747.216	25272.44
747.556	25150.19
747.895	25088.04
748.234	25161.26
748.573	24961.94
748.911	24989.51
749.25	24907.93
749.589	24894.37
749.928	24882.17
750.267	24883.75
750.605	24774.83
750.944	24762.85
751.283	24648.05
751.621	24729.18
751.96	24560.15
752.298	24619.13
752.636	24525.8
752.975	24338.46
753.313	24195.18
753.651	24464.78
753.989	24302.07
754.327	24236.76
754.666	24001.97
755.004	24228.18
755.342	24072.25
755.679	23983.89
756.017	23989.99
756.355	24028.63
756.693	23876.55
