Data from hue_34_FLMS001491_00099.txt Node
Date: Tue Feb 07 17:26:29 GMT 2017
User: dcchb
Spectrometer: FLMS00149
Trigger mode: 0
Integration Time (sec): 2.000000E-2
Scans to average: 10
Electric dark correction enabled: true
Nonlinearity correction enabled: false
Boxcar width: 0
XAxis mode: Wavelengths
Number of Pixels in Spectrum: 2048
>>>>>Begin Spectral Data<<<<<
341.393	-13.67
341.776	-13.67
342.16	-13.67
342.543	-48.02
342.927	-64.07
343.31	-72.88
343.693	-85.76
344.077	-56.61
344.46	-57.51
344.843	-53.44
345.226	-49.15
345.61	-31.07
345.993	-7.34
346.376	-7.8
346.759	5.54
347.142	29.49
347.525	35.59
347.908	63.84
348.291	88.7
348.674	81.69
349.057	116.72
349.44	138.87
349.823	144.97
350.206	162.59
350.588	214.34
350.971	210.5
351.354	248.24
351.737	227.68
352.119	259.99
352.502	273.1
352.884	278.75
353.267	300.67
353.65	290.27
354.032	311.52
354.414	318.07
354.797	321.01
355.179	340.67
355.562	331.4
355.944	324.85
356.326	301.35
356.709	352.42
357.091	346.54
357.473	342.48
357.855	342.02
358.238	340.67
358.62	359.88
359.002	361.01
359.384	353.32
359.766	356.26
360.148	351.29
360.53	349.93
360.912	337.05
361.294	323.04
361.676	352.42
362.057	325.3
362.439	346.77
362.821	325.53
363.203	342.48
363.584	348.13
363.966	333.21
364.348	318.75
364.729	340.22
365.111	321.91
365.493	311.74
365.874	316.26
366.256	319.88
366.637	332.53
367.019	344.06
367.4	320.33
367.781	295.92
368.163	324.85
368.544	325.98
368.925	320.56
369.306	328.69
369.688	324.62
370.069	309.71
370.45	318.07
370.831	330.95
371.212	318.75
371.593	301.35
371.974	338.86
372.355	314
372.736	317.39
373.117	334.57
373.498	325.75
373.879	312.42
374.26	313.1
374.641	291.18
375.021	312.2
375.402	325.08
375.783	324.85
376.163	318.97
376.544	327.79
376.925	321.91
377.305	316.94
377.686	308.35
378.066	345.64
378.447	305.87
378.827	342.7
379.208	332.53
379.588	336.6
379.968	346.09
380.349	350.84
380.729	341.35
381.109	316.49
381.489	330.05
381.87	326.21
382.25	336.15
382.63	348.13
383.01	344.96
383.39	346.77
383.77	360.78
384.15	344.96
384.53	342.02
384.91	347
385.29	337.73
385.67	377.05
386.049	360.56
386.429	372.08
386.809	360.78
387.189	341.57
387.568	343.38
387.948	357.84
388.328	363.04
388.707	349.03
389.087	364.4
389.466	349.48
389.846	346.09
390.225	360.33
390.605	372.53
390.984	369.14
391.363	358.52
391.743	380.22
392.122	377.28
392.501	383.61
392.881	354
393.26	383.38
393.639	385.41
394.018	373.89
394.397	353.32
394.776	365.98
395.155	388.13
395.534	390.84
395.913	387
396.292	382.02
396.671	377.05
397.05	388.35
397.429	385.64
397.808	369.14
398.186	388.8
398.565	399.42
398.944	388.13
399.323	396.71
399.701	385.41
400.08	403.04
400.458	397.16
400.837	409.14
401.215	381.35
401.594	398.75
401.972	404.4
402.351	410.27
402.729	415.02
403.107	408.92
403.486	386.09
403.864	389.48
404.242	404.62
404.62	406.43
404.999	406.88
405.377	414.34
405.755	407.56
406.133	418.18
406.511	422.93
406.889	424.96
407.267	444.62
407.645	425.86
408.023	424.73
408.401	430.16
408.779	436.94
409.156	449.82
409.534	454.56
409.912	464.73
410.29	435.81
410.667	445.07
411.045	459.99
411.422	428.35
411.8	448.01
412.178	464.28
412.555	461.12
412.933	479.87
413.31	481
413.687	468.35
414.065	488.24
414.442	483.49
414.819	482.59
415.197	473.77
415.574	472.42
415.951	460.21
416.328	496.37
416.705	492.53
417.082	477.84
417.46	457.5
417.837	491.63
418.214	496.82
418.591	487.56
418.967	505.64
419.344	491.85
419.721	510.83
420.098	513.09
420.475	510.38
420.852	532.53
421.228	502.7
421.605	526.88
421.982	530.95
422.358	526.2
422.735	532.98
423.111	513.55
423.488	539.99
423.864	518.97
424.241	535.24
424.617	536.82
424.994	536.14
425.37	546.31
425.746	571.62
426.123	540.44
426.499	558.97
426.875	569.14
427.251	562.58
427.627	571.17
428.003	610.72
428.379	556.03
428.756	580.66
429.132	586.99
429.507	592.87
429.883	584.5
430.259	610.27
430.635	579.76
431.011	621.57
431.387	614.33
431.763	614.79
432.138	612.3
432.514	643.03
432.89	654.79
433.265	639.42
433.641	656.82
434.016	639.42
434.392	641
434.767	656.14
435.143	664.05
435.518	669.7
435.894	676.93
436.269	689.59
436.644	696.14
437.02	688.68
437.395	698.4
437.77	686.65
438.145	689.81
438.52	684.84
438.895	697.27
439.271	725.29
439.646	707.67
440.021	710.6
440.395	728.23
440.77	737.72
441.145	728.68
441.52	742.01
441.895	741.79
442.27	756.93
442.645	767.1
443.019	753.99
443.394	757.61
443.769	762.58
444.143	746.53
444.518	770.26
444.892	756.7
445.267	770.49
445.641	805.06
446.016	811.17
446.39	809.58
446.764	795.8
447.139	787.44
447.513	806.42
447.887	804.16
448.262	801.9
448.636	798.74
449.01	831.73
449.384	817.04
449.758	813.65
450.132	840.09
450.506	841.67
450.88	836.25
451.254	857.27
451.628	841.22
452.002	846.87
452.376	858.4
452.75	857.27
453.123	873.54
453.497	891.61
453.871	901.11
454.244	907.66
454.618	922.57
454.992	899.98
455.365	930.26
455.739	924.16
456.112	941.11
456.486	948.11
456.859	986.53
457.232	1011.39
457.606	964.61
457.979	1002.8
458.352	990.82
458.725	1016.13
459.099	1010.48
459.472	1035.34
459.845	1043.48
460.218	1039.63
460.591	1071.27
460.964	1052.74
461.337	1066.98
461.71	1092.97
462.083	1126.19
462.456	1100.2
462.829	1104.72
463.201	1120.08
463.574	1158.73
463.947	1153.53
464.32	1193.98
464.692	1178.84
465.065	1178.16
465.438	1187.88
465.81	1225.84
466.183	1253.19
466.555	1283.7
466.928	1288.89
467.3	1283.47
467.672	1307.2
468.045	1333.41
468.417	1327.54
468.789	1342.9
469.161	1381.32
469.534	1384.94
469.906	1443.46
470.278	1421.54
470.65	1453.18
471.022	1466.97
471.394	1501.09
471.766	1506.51
472.138	1557.36
472.51	1551.26
472.882	1608.21
473.253	1637.58
473.625	1671.03
473.997	1705.6
474.369	1738.6
474.74	1750.35
475.112	1778.6
475.484	1804.59
475.855	1853.85
476.227	1903.79
476.598	1923.68
476.97	1969.55
477.341	2035.99
477.713	2082.54
478.084	2111.24
478.455	2167.51
478.827	2188.3
479.198	2278.7
479.569	2308.53
479.94	2366.38
480.311	2403.89
480.682	2452.7
481.053	2522.31
481.424	2599.82
481.795	2668.29
482.166	2689.31
482.537	2759.36
482.908	2875.97
483.279	2911.67
483.65	2963.42
484.021	3093.59
484.391	3120.71
484.762	3185.57
485.133	3263.98
485.503	3308.5
485.874	3443.64
486.244	3498.33
486.615	3587.14
486.985	3670.75
487.356	3735.61
487.726	3781.03
488.097	3923.85
488.467	3950.07
488.837	4104.64
489.207	4157.52
489.578	4277.06
489.948	4356.83
490.318	4430.73
490.688	4466.66
491.058	4572.65
491.428	4689.03
491.798	4734
492.168	4874.11
492.538	4963.6
492.908	5036.82
493.278	5117.04
493.648	5163.37
494.017	5268
494.387	5379.41
494.757	5470.25
495.126	5546.63
495.496	5569.46
495.866	5698.27
496.235	5748.44
496.605	5801.09
496.974	5856.91
497.344	5948.66
497.713	6035.66
498.082	6133.06
498.452	6186.17
498.821	6272.94
499.19	6299.16
499.559	6472.71
499.928	6506.61
500.298	6588.19
500.667	6601.52
501.036	6652.37
501.405	6792.25
501.774	6814.17
502.143	6942.3
502.512	6953.6
502.88	7062.3
503.249	7045.8
503.618	7168.29
503.987	7193.14
504.356	7253.71
504.724	7280.37
505.093	7303.2
505.462	7379.13
505.83	7479.46
506.199	7523.76
506.567	7618.9
506.936	7645.34
507.304	7720.59
507.672	7804.43
508.041	7816.63
508.409	7853.01
508.777	7992.9
509.145	8087.58
509.514	8074.48
509.882	8148.6
510.25	8130.07
510.618	8253.68
510.986	8233.79
511.354	8322.38
511.722	8402.38
512.09	8546.33
512.458	8492.32
512.826	8590.4
513.193	8594.69
513.561	8663.39
513.929	8664.29
514.297	8815.93
514.664	8824.29
515.032	8840.33
515.4	8981.57
515.767	8976.15
516.135	9021.57
516.502	8953.78
516.869	9145.86
517.237	9151.51
517.604	9169.82
517.972	9243.71
518.339	9310.83
518.706	9411.39
519.073	9382.01
519.44	9495.91
519.808	9464.95
520.175	9511.28
520.542	9568
520.909	9647.54
521.276	9665.62
521.643	9756.69
522.009	9807.31
522.376	9896.8
522.743	9864.49
523.11	10003.47
523.477	10060.41
523.843	10090.47
524.21	10277.58
524.577	10292.27
524.943	10318.49
525.31	10427.86
525.676	10444.36
526.043	10511.93
526.409	10564.35
526.776	10636.67
527.142	10629.21
527.508	10748.76
527.874	10811.13
528.241	10841.18
528.607	10860.84
528.973	10969.99
529.339	11020.39
529.705	11109.43
530.071	11175.41
530.437	11278.91
530.803	11237.33
531.169	11313.49
531.535	11399.36
531.901	11386.71
532.267	11492.69
532.632	11476.65
532.998	11607.49
533.364	11647.26
533.73	11687.49
534.095	11860.82
534.461	11845.9
534.826	11810.42
535.192	11871.89
535.557	12032.11
535.923	11994.6
536.288	11989.63
536.653	12088.16
537.019	12048.16
537.384	12147.59
537.749	12205.22
538.114	12228.94
538.479	12213.8
538.845	12314.59
539.21	12344.2
539.575	12449.05
539.94	12487.02
540.305	12570.63
540.67	12592.55
541.034	12573.79
541.399	12751.19
541.764	12713
542.129	12758.65
542.494	12778.99
542.858	12909.38
543.223	12964.74
543.587	12902.6
543.952	12982.82
544.316	13053.33
544.681	13026.89
545.045	13200.22
545.41	13192.99
545.774	13238.86
546.138	13305.3
546.503	13334
546.867	13316.15
547.231	13480.66
547.595	13477.72
547.959	13560.43
548.324	13510.49
548.688	13587.1
549.052	13665.97
549.416	13695.57
549.779	13724.95
550.143	13855.79
550.507	13865.51
550.871	13911.61
551.235	13932.18
551.599	13964.49
551.962	14008.33
552.326	14127.43
552.689	14180.31
553.053	14043.81
553.417	14155.45
553.78	14305.05
554.143	14302.56
554.507	14330.81
554.87	14397.25
555.234	14526.96
555.597	14484.03
555.96	14565.61
556.323	14636.34
556.686	14622.78
557.05	14713.4
557.413	14748.2
557.776	14802.66
558.139	14862.77
558.502	14913.39
558.865	14963.56
559.228	14989.78
559.59	15081.07
559.953	15054.86
560.316	15192.26
560.679	15236.32
561.041	15296.89
561.404	15306.6
561.767	15430.89
562.129	15456.43
562.492	15566.48
562.854	15526.71
563.217	15531.46
563.579	15609.42
563.941	15803.54
564.304	15784.33
564.666	15829.08
565.028	15886.47
565.39	15934.61
565.753	15985
566.115	16043.98
566.477	16128.05
566.839	16211.89
567.201	16267.03
567.563	16321.72
567.925	16391.32
568.287	16423.41
568.648	16469.28
569.01	16540.24
569.372	16700.92
569.734	16616.17
570.095	16794.02
570.457	16828.82
570.819	16821.59
571.18	16983.4
571.542	17025.88
571.903	17098.42
572.265	17152.66
572.626	17264.07
572.987	17330.28
573.349	17376.38
573.71	17455.25
574.071	17542.25
574.432	17591.74
574.794	17770.27
575.155	17828.34
575.516	17772.75
575.877	18027.89
576.238	18093.42
576.599	18241.44
576.96	18340.42
577.32	18398.5
577.681	18587.42
578.042	18718.72
578.403	18869.9
578.763	18848.43
579.124	19052.95
579.485	19192.15
579.845	19438.7
580.206	19506.94
580.566	19613.38
580.927	19823.55
581.287	20093.37
581.648	20134.05
582.008	20383.53
582.368	20471.44
582.728	20756.86
583.089	20720.25
583.449	21081.14
583.809	21213.79
584.169	21461.7
584.529	21555.03
584.889	21945.75
585.249	21914.34
585.609	22080.44
585.969	22458.51
586.329	22604.49
586.688	22972.62
587.048	22973.52
587.408	23212.84
587.768	23427.07
588.127	23693.95
588.487	23902.08
588.846	24413.93
589.206	24383.65
589.565	24720.59
589.925	25041.04
590.284	25174.59
590.643	25505.66
591.003	25723.5
591.362	26029.03
591.721	26343.15
592.08	26441.9
592.44	26882.57
592.799	27023.58
593.158	27206.18
593.517	27425.83
593.876	27801.42
594.235	27983.33
594.593	28305.58
594.952	28591
595.311	28763.88
595.67	28990.09
596.029	29390.75
596.387	29637.07
596.746	29931.98
597.104	29884.75
597.463	30241.8
597.822	30675.46
598.18	30684.73
598.538	31040.43
598.897	31361.77
599.255	31261.21
599.613	32038.82
599.972	31900.74
600.33	32343.67
600.688	32370.79
601.046	32742.08
601.404	32973.03
601.762	32974.84
602.12	33451.44
602.478	33501.15
602.836	33896.85
603.194	33650.08
603.552	33995.15
603.91	34129.84
604.268	34484.86
604.625	34632.2
604.983	34982.47
605.341	34885.3
605.698	35286.19
606.056	35424.04
606.413	35492.29
606.771	35788.55
607.128	36024.02
607.485	36007.53
607.843	36031.26
608.2	36465.82
608.557	36663.1
608.914	36736.32
609.272	37089.31
609.629	37223.09
609.986	37452.69
610.343	37325.69
610.7	37828.5
611.057	37815.16
611.414	37935.61
611.771	38039.34
612.127	38243.85
612.484	38404.98
612.841	38593.9
613.198	38685.42
613.554	38706.67
613.911	39001.35
614.267	39110.27
614.624	39071.63
614.98	39352.3
615.337	39549.58
615.693	39572.18
616.05	39652.86
616.406	39929.46
616.762	39883.58
617.118	39994.99
617.475	40147.08
617.831	40263.24
618.187	40328.77
618.543	40613.73
618.899	40791.13
619.255	40573.06
619.611	40690.12
619.967	40953.16
620.323	41146.6
620.678	41084.91
621.034	41114.74
621.39	41256.88
621.746	41127.62
622.101	41479.02
622.457	41214.4
622.812	41534.39
623.168	41623.65
623.523	41633.82
623.879	41828.84
624.234	41551.56
624.589	41714.04
624.945	41823.42
625.3	42059.57
625.655	42031.78
626.01	42063.19
626.365	42108.38
626.72	42184.99
627.075	42029.29
627.43	42150.64
627.785	42169.85
628.14	42261.83
628.495	42369.17
628.85	42222.73
629.205	42106.8
629.559	42499.79
629.914	42262.73
630.269	42399.68
630.623	42366.68
630.978	42188.61
631.332	42418.21
631.687	42471.76
632.041	42365.55
632.396	42498.88
632.75	42357.64
633.104	42344.08
633.459	42188.61
633.813	42263.86
634.167	42359
634.521	42332.33
634.875	42556.96
635.229	42297.31
635.583	42284.65
635.937	42146.8
636.291	42337.08
636.645	42418.66
636.999	42229.29
637.352	42393.8
637.706	42181.15
638.06	42383.86
638.413	42223.18
638.767	42107.71
639.121	42219.34
639.474	42022.51
639.828	42114.26
640.181	42127.37
640.534	42138.67
640.888	42079.46
641.241	42006.24
641.594	41992.23
641.947	41998.78
642.301	41977.99
642.654	41992.23
643.007	42097.09
643.36	41945.68
643.713	41842.63
644.066	42039.01
644.419	41859.35
644.771	41608.51
645.124	41356.77
645.477	41007.4
645.83	40740.06
646.182	40794.52
646.535	40657.58
646.888	40754.07
647.24	40550.69
647.593	40803.11
647.945	40715.43
648.298	40531.25
648.65	40531.25
649.002	40366.74
649.355	40646.95
649.707	40651.7
650.059	40663.9
650.411	41249.42
650.763	41174.62
651.115	41604.44
651.467	41411.68
651.819	41445.35
652.171	41504.33
652.523	41281.51
652.875	41305.24
653.227	41158.58
653.578	41377.56
653.93	41231.8
654.282	41207.39
654.633	41076.32
654.985	41153.38
655.337	41227.73
655.688	41246.03
656.039	41373.26
656.391	41058.92
656.742	41065.7
657.094	41085.81
657.445	41227.05
657.796	41091.01
658.147	41063.67
658.498	41186.6
658.849	41052.37
659.2	41123.78
659.551	40896.44
659.902	40992.93
660.253	41083.55
660.604	41107.05
660.955	40947.96
661.306	40928.3
661.656	40938.7
662.007	40909.09
662.358	41029.99
662.708	40904.35
663.059	40870.22
663.409	40624.58
663.76	41006.94
664.11	40939.6
664.461	40967.4
664.811	41042.88
665.161	40893.28
665.511	40834.52
665.862	40780.74
666.212	40912.48
666.562	41045.36
666.912	40725.6
667.262	40688.99
667.612	40785.03
667.962	40936.66
668.312	40811.92
668.662	40928.3
669.011	40835.65
669.361	40907.96
669.711	40685.37
670.06	40770.79
670.41	40841.3
670.76	40666.84
671.109	40838.14
671.459	40693.51
671.808	40678.37
672.157	40708.65
672.507	40569.44
672.856	40503
673.205	40606.28
673.554	40620.74
673.904	40447.41
674.253	40761.08
674.602	40570.12
674.951	39944.83
675.3	39853.75
675.649	40524.47
675.998	40400.18
676.346	40510.01
676.695	40545.04
677.044	40239.51
677.393	40357.47
677.741	40427.07
678.09	40338.94
678.438	40203.58
678.787	40290.35
679.135	40301.2
679.484	40048.33
679.832	40162.67
680.181	39903.24
680.529	40146.63
680.877	39961.55
681.225	39937.59
681.573	40119.51
681.922	39791.61
682.27	39832.06
682.618	39862.34
682.966	39670.48
683.314	39642.23
683.661	39640.2
684.009	39470.04
684.357	39461.67
684.705	39450.38
685.053	39431.84
685.4	39314.56
685.748	39122.93
686.095	39091.51
686.443	39054
686.79	38965.87
687.138	39101.01
687.485	39059.88
687.832	38819.88
688.18	38852.88
688.527	38702.15
688.874	38715.25
689.221	38614.92
689.568	38498.31
689.915	38417.18
690.262	38542.6
690.609	38299.44
690.956	38241.59
691.303	38103.52
691.65	38025.78
691.997	38164.99
692.344	37735.39
692.69	37800.7
693.037	37821.94
693.383	37448.62
693.73	37734.49
694.077	37401.62
694.423	37401.16
694.769	37339.02
695.116	37173.6
695.462	37124.33
695.808	37074.62
696.155	37162.07
696.501	36866.94
696.847	37018.8
697.193	36617.23
697.539	36781.07
697.885	36690.45
698.231	36463.56
698.577	36468.76
698.923	36431.7
699.269	36175.43
699.614	36084.14
699.96	36006.4
700.306	36048.2
700.651	35810.92
700.997	35697.71
701.342	35664.71
701.688	35625.62
702.033	35431.72
702.379	35388.79
702.724	35322.12
703.069	35391.72
703.415	35050.72
703.76	35172.97
704.105	34994.9
704.45	35029.7
704.795	34712.42
705.14	34732.08
705.485	34630.61
705.83	34517.85
706.175	34507
706.52	34446.66
706.865	34306.56
707.209	34253.9
707.554	34163.51
707.899	34189.95
708.243	33911.99
708.588	33941.59
708.932	33841.94
709.277	33636.52
709.621	33838.77
709.966	33478.1
710.31	33582.96
710.654	33349.29
710.998	33429.52
711.342	33520.81
711.687	33265.9
712.031	33141.84
712.375	33107.72
712.719	33107.94
713.063	33134.83
713.407	33171.22
713.75	32904.33
714.094	32734.39
714.438	32790.21
714.782	32916.99
715.125	32706.6
715.469	32778.23
715.812	32361.3
716.156	32369.21
716.499	32389.09
716.843	32433.61
717.186	32247.85
717.53	32361.97
717.873	32305.7
718.216	32378.24
718.559	32055.32
718.902	31893.51
719.246	32097.8
719.589	31940.06
719.932	31848.09
720.275	31810.8
720.617	31758.83
720.96	31723.12
721.303	31729
721.646	31583.24
721.989	31457.14
722.331	31566.51
722.674	31452.39
723.016	31561.32
723.359	31314.09
723.701	31453.3
724.044	31216.69
724.386	31203.13
724.729	31215.56
725.071	31117.26
725.413	31160.2
725.755	31028
726.097	30924.5
726.439	30745.75
726.782	30857.61
727.124	30931.05
727.465	30703.94
727.807	30816.7
728.149	30673.43
728.491	30686.31
728.833	30691.06
729.175	30694.45
729.516	30439.09
729.858	30467.11
730.199	30506.43
730.541	30434.57
730.882	30271.86
731.224	30367.45
731.565	30211.3
731.906	30094.69
732.248	30202.48
732.589	30107.57
732.93	29962.49
733.271	29938.99
733.612	29946.44
733.953	30007.69
734.294	29890.63
734.635	29911.19
734.976	29999.32
735.317	29738.54
735.658	29746.9
735.999	29692.67
736.339	29604.08
736.68	29649.95
737.021	29542.61
737.361	29528.83
737.702	29518.21
738.042	29449.96
738.383	29348.27
738.723	29478.66
739.063	29443.63
739.404	29463.97
739.744	29265.11
740.084	29191.66
740.424	29269.4
740.764	29151.66
741.104	29259.46
741.444	29046.35
741.784	29066.69
742.124	29187.82
742.464	29016.75
742.804	28943.08
743.143	28892.01
743.483	28822.86
743.823	28781.28
744.162	28694.5
744.502	28698.34
744.841	28603.65
745.181	28733.37
745.52	28618.8
745.86	28613.6
746.199	28594.62
746.538	28481.4
746.877	28553.71
747.216	28316.2
747.556	28333.38
747.895	28365.02
748.234	28192.14
748.573	28180.84
748.911	28261.97
749.25	28084.57
749.589	28045.93
749.928	28079.83
750.267	28078.47
750.605	27965.03
750.944	27835.99
751.283	27799.38
751.621	27909.66
751.96	27698.82
752.298	27707.18
752.636	27791.25
752.975	27591.93
753.313	27441.88
753.651	27603.23
753.989	27373.18
754.327	27386.96
754.666	27204.6
755.004	27327.76
755.342	27318.72
755.679	27342.67
756.017	27107.2
756.355	27041.89
756.693	27052.28
757.031	26986.97
757.368	26840.31
757.706	27030.81
758.044	26674.44
758.381	26865.85
758.719	26694.55
