Data from hue_330_FLMS001491_32.txt Node
Date: Mon Feb 06 15:45:18 GMT 2017
User: dcchb
Spectrometer: FLMS00149
Trigger mode: 0
Integration Time (sec): 2.000000E-2
Scans to average: 10
Electric dark correction enabled: true
Nonlinearity correction enabled: false
Boxcar width: 0
XAxis mode: Wavelengths
Number of Pixels in Spectrum: 2048
>>>>>Begin Spectral Data<<<<<
341.393	-1.13
341.776	-1.13
342.16	-1.13
342.543	-48.81
342.927	-61.69
343.31	-75.7
343.693	-64.86
344.077	-68.7
344.46	-73.22
344.843	-56.27
345.226	-59.43
345.61	-4.97
345.993	-19.89
346.376	-11.75
346.759	19.89
347.142	25.99
347.525	42.48
347.908	73.67
348.291	89.26
348.674	72.31
349.057	111.18
349.44	125.87
349.823	131.3
350.206	154.35
350.588	172.2
350.971	195.7
351.354	215.14
351.737	234.34
352.119	235.02
352.502	266.66
352.884	263.5
353.267	281.8
353.65	298.75
354.032	309.82
354.414	298.75
354.797	306.88
355.179	320.67
355.562	332.65
355.944	329.26
356.326	317.51
356.709	341.46
357.091	337.84
357.473	340.56
357.855	339.2
358.238	343.95
358.62	333.55
359.002	338.52
359.384	353.89
359.766	335.36
360.148	315.02
360.53	339.65
360.912	348.69
361.294	326.77
361.676	334
362.057	319.31
362.439	326.77
362.821	331.29
363.203	304.85
363.584	322.03
363.966	320.22
364.348	296.94
364.729	317.51
365.111	312.31
365.493	322.93
365.874	308.47
366.256	319.31
366.637	317.73
367.019	314.57
367.4	306.88
367.781	316.15
368.163	292.65
368.544	304.85
368.925	297.85
369.306	313.66
369.688	301.24
370.069	316.38
370.45	290.84
370.831	290.39
371.212	305.3
371.593	316.15
371.974	295.59
372.355	324.96
372.736	319.99
373.117	314.79
373.498	321.35
373.879	318.18
374.26	313.44
374.641	320.9
375.021	311.86
375.402	334
375.783	282.93
376.163	326.32
376.544	327.67
376.925	329.93
377.305	322.7
377.686	305.98
378.066	334.68
378.447	316.15
378.827	322.7
379.208	328.35
379.588	305.98
379.968	299.43
380.349	322.7
380.729	342.14
381.109	318.64
381.489	319.09
381.87	336.04
382.25	325.64
382.63	326.09
383.01	353.66
383.39	334.68
383.77	311.86
384.15	321.12
384.53	345.53
384.91	337.84
385.29	347.34
385.67	355.02
386.049	360.44
386.429	347.11
386.809	340.33
387.189	341.46
387.568	337.84
387.948	350.73
388.328	353.44
388.707	336.71
389.087	354.11
389.466	339.88
389.846	350.5
390.225	346.66
390.605	346.66
390.984	361.57
391.363	364.96
391.743	348.69
392.122	363.83
392.501	353.66
392.881	365.87
393.26	367
393.639	364.51
394.018	360.44
394.397	393.89
394.776	362.93
395.155	363.83
395.534	364.96
395.913	365.64
396.292	356.37
396.671	351.63
397.05	380.55
397.429	350.73
397.808	363.61
398.186	371.52
398.565	385.53
398.944	369.03
399.323	390.5
399.701	372.42
400.08	391.85
400.458	392.98
400.837	401.12
401.215	393.89
401.594	383.04
401.972	405.64
402.351	405.19
402.729	398.18
403.107	399.09
403.486	412.19
403.864	394.79
404.242	387.56
404.62	422.59
404.999	400.89
405.377	411.06
405.755	419.42
406.133	414.9
406.511	401.57
406.889	432.76
407.267	399.76
407.645	421.01
408.023	418.29
408.401	439.31
408.779	438.41
409.156	456.03
409.534	434.79
409.912	436.37
410.29	457.62
410.667	487.44
411.045	451.06
411.422	465.98
411.8	443.38
412.178	473.21
412.555	482.7
412.933	485.18
413.31	477.73
413.687	489.7
414.065	494.68
414.442	501.46
414.819	508.24
415.197	525.18
415.574	524.73
415.951	514.56
416.328	511.85
416.705	536.48
417.082	527.44
417.46	564.96
417.837	543.94
418.214	561.34
418.591	557.73
418.967	565.86
419.344	576.71
419.721	593.88
420.098	587.56
420.475	587.33
420.852	583.71
421.228	608.35
421.605	613.54
421.982	635.01
422.358	603.15
422.735	610.15
423.111	626.2
423.488	611.06
423.864	644.5
424.241	616.71
424.617	673.88
424.994	648.8
425.37	655.35
425.746	668.91
426.123	672.98
426.499	661.9
426.875	679.08
427.251	711.39
427.627	696.7
428.003	722.47
428.379	713.43
428.756	722.69
429.132	728.57
429.507	727.44
429.883	731.51
430.259	748.91
430.635	775.12
431.011	757.04
431.387	795.46
431.763	763.82
432.138	794.33
432.514	787.55
432.89	829.58
433.265	808.11
433.641	834.33
434.016	819.64
434.392	826.19
434.767	856.47
435.143	860.09
435.518	849.92
435.894	863.03
436.269	879.3
436.644	890.37
437.02	906.64
437.395	918.39
437.77	920.43
438.145	884.5
438.52	905.96
438.895	922.91
439.271	922.01
439.646	937.15
440.021	952.07
440.395	955.91
440.77	966.75
441.145	961.33
441.52	998.39
441.895	978.96
442.27	985.51
442.645	999.97
443.019	978.28
443.394	1008.34
443.769	988.9
444.143	996.58
444.518	1021.44
444.892	998.39
445.267	1022.35
445.641	1018.73
446.016	1022.35
446.39	1043.36
446.764	1047.66
447.139	1025.06
447.513	1030.26
447.887	1064.6
448.262	1043.59
448.636	1042.01
449.01	1057.15
449.384	1074.32
449.758	1052.85
450.132	1094.43
450.506	1085.17
450.88	1074.77
451.254	1057.6
451.628	1083.36
452.002	1086.07
452.376	1095.56
452.75	1122.46
453.123	1130.59
453.497	1143.7
453.871	1126.98
454.244	1154.55
454.618	1169.69
454.992	1167.65
455.365	1154.09
455.739	1148.67
456.112	1194.09
456.486	1205.17
456.859	1199.29
457.232	1193.64
457.606	1199.74
457.979	1226.86
458.352	1234.32
458.725	1226.86
459.099	1223.02
459.472	1293.07
459.845	1258.05
460.218	1264.37
460.591	1289.23
460.964	1279.51
461.337	1302.56
461.71	1307.54
462.083	1347.08
462.456	1328.1
462.829	1345.5
463.201	1349.34
463.574	1358.83
463.947	1372.62
464.32	1373.98
464.692	1412.17
465.065	1408.55
465.438	1406.74
465.81	1433.86
466.183	1457.36
466.555	1456.01
466.928	1470.92
467.3	1467.08
467.672	1485.38
468.045	1514.76
468.417	1513.18
468.789	1528.1
469.161	1543.01
469.534	1561.09
469.906	1589.56
470.278	1576
470.65	1610.35
471.022	1653.52
471.394	1626.85
471.766	1631.82
472.138	1639.5
472.51	1687.19
472.882	1723.57
473.253	1715.21
473.625	1721.08
473.997	1773.74
474.369	1778.26
474.74	1807.64
475.112	1817.13
475.484	1850.35
475.855	1882.21
476.227	1851.48
476.598	1897.58
476.97	1918.14
477.341	1972.83
477.713	1973.51
478.084	2000.63
478.455	2052.6
478.827	2058.48
479.198	2081.75
479.569	2079.49
479.94	2142.77
480.311	2113.62
480.682	2189.32
481.053	2226.61
481.424	2254.86
481.795	2233.39
482.166	2300.73
482.537	2310.45
482.908	2342.99
483.279	2383.44
483.65	2399.48
484.021	2415.53
484.391	2468.41
484.762	2459.14
485.133	2487.62
485.503	2524.23
485.874	2560.16
486.244	2569.88
486.615	2608.74
486.985	2586.37
487.356	2658.46
487.726	2676.54
488.097	2748.4
488.467	2713.6
488.837	2803.32
489.207	2842.86
489.578	2869.08
489.948	2858.68
490.318	2879.7
490.688	2861.17
491.058	2938.23
491.428	2971
491.798	2989.07
492.168	3039.92
492.538	3020.26
492.908	3052.8
493.278	3101.39
493.648	3124.89
494.017	3162.85
494.387	3164.44
494.757	3182.06
495.126	3201.5
495.496	3220.48
495.866	3264.32
496.235	3281.72
496.605	3301.83
496.974	3339.12
497.344	3300.48
497.713	3356.52
498.082	3345
498.452	3324.21
498.821	3379.35
499.19	3409.85
499.559	3474.94
499.928	3421.15
500.298	3438.78
500.667	3465.45
501.036	3456.86
501.405	3487.59
501.774	3495.5
502.143	3533.01
502.512	3515.39
502.88	3582.73
503.249	3554.71
503.618	3613.69
503.987	3586.57
504.356	3584.54
504.724	3607.36
505.093	3638.77
505.462	3621.6
505.83	3646.23
506.199	3660.69
506.567	3675.38
506.936	3714.25
507.304	3746.79
507.672	3737.75
508.041	3754.48
508.409	3727.59
508.777	3747.02
509.145	3834.25
509.514	3779.56
509.882	3807.81
510.25	3742.27
510.618	3835.83
510.986	3827.92
511.354	3860.01
511.722	3910.41
512.09	3897.75
512.458	3876.73
512.826	3962.16
513.193	3885.1
513.561	3906.11
513.929	3907.47
514.297	3941.59
514.664	4013.23
515.032	3989.95
515.4	4012.1
515.767	3992.89
516.135	3964.42
516.502	3967.81
516.869	4060.01
517.237	4060.91
517.604	4049.84
517.972	4087.12
518.339	4081.7
518.706	4060.01
519.073	4024.3
519.44	4119.21
519.808	4104.52
520.175	4087.58
520.542	4154.69
520.909	4148.14
521.276	4141.13
521.643	4158.31
522.009	4225.65
522.376	4235.59
522.743	4220.68
523.11	4240.34
523.477	4278.98
523.843	4290.28
524.21	4313.11
524.577	4314.24
524.943	4327.57
525.31	4348.36
525.676	4388.13
526.043	4380.68
526.409	4402.82
526.776	4462.26
527.142	4501.35
527.508	4487.79
527.874	4496.6
528.241	4526.21
528.607	4533.21
528.973	4577.96
529.339	4580.22
529.705	4571.86
530.071	4658.86
530.437	4643.72
530.803	4656.37
531.169	4673.78
531.535	4664.06
531.901	4703.83
532.267	4683.04
532.632	4757.62
532.998	4775.92
533.364	4809.14
533.73	4770.04
534.095	4826.99
534.461	4836.03
534.826	4819.53
535.192	4897.27
535.557	4890.94
535.923	4921.23
536.288	4964.16
536.653	4984.73
537.019	4961.9
537.384	4977.04
537.749	4990.15
538.114	4993.54
538.479	5072.86
538.845	5074.89
539.21	5076.25
539.575	5066.76
539.94	5130.49
540.305	5104.05
540.67	5132.29
541.034	5186.76
541.399	5169.36
541.764	5223.82
542.129	5218.17
542.494	5271.27
542.858	5235.57
543.223	5285.28
543.587	5332.29
543.952	5351.5
544.316	5285.06
544.681	5346.75
545.045	5395.34
545.41	5430.82
545.774	5382.68
546.138	5430.14
546.503	5459.52
546.867	5439.86
547.231	5506.07
547.595	5558.72
547.959	5608.21
548.324	5575.45
548.688	5575.22
549.052	5606.63
549.416	5583.13
549.779	5610.25
550.143	5640.98
550.507	5702
550.871	5730.7
551.235	5711.49
551.599	5710.81
551.962	5741.32
552.326	5755.78
552.689	5838.26
553.053	5765.5
553.417	5758.49
553.78	5842.56
554.143	5821.09
554.507	5942.89
554.87	5939.28
555.234	5920.52
555.597	5856.12
555.96	5906.29
556.323	5968.66
556.686	5969.56
557.05	6043.68
557.413	5996.9
557.776	6007.07
558.139	6061.99
558.502	6095.43
558.865	6075.32
559.228	6096.79
559.59	6122.78
559.953	6097.92
560.316	6169.56
560.679	6115.32
561.041	6223.11
561.404	6185.83
561.767	6234.41
562.129	6228.76
562.492	6258.14
562.854	6271.7
563.217	6311.02
563.579	6335.43
563.941	6302.89
564.304	6355.99
564.666	6321.42
565.028	6443.9
565.39	6411.58
565.753	6403.67
566.115	6488.42
566.477	6483.67
566.839	6490.9
567.201	6546.49
567.563	6570.67
567.925	6560.96
568.287	6595.31
568.648	6605.02
569.01	6619.71
569.372	6671.69
569.734	6689.54
570.095	6756.88
570.457	6737.68
570.819	6784
571.18	6818.13
571.542	6876.43
571.903	6914.39
572.265	6936.31
572.626	6969.08
572.987	6966.82
573.349	6991.68
573.71	7114.16
574.071	7097.21
574.432	7115.29
574.794	7240.26
575.155	7266.25
575.516	7222.41
575.877	7356.42
576.238	7365
576.599	7486.13
576.96	7556.19
577.32	7577.88
577.681	7710.31
578.042	7709.18
578.403	7864.88
578.763	7943.07
579.124	8033.24
579.485	8126.57
579.845	8237.98
580.206	8286.34
580.566	8372.44
580.927	8472.77
581.287	8651.07
581.648	8797.73
582.008	8953.44
582.368	9022.14
582.728	9202.24
583.089	9336.03
583.449	9428.23
583.809	9634.32
584.169	9847.88
584.529	9918.38
584.889	10184.36
585.249	10334.42
585.609	10426.17
585.969	10688.53
586.329	10865.48
586.688	11065.7
587.048	11358.57
587.408	11485.57
587.768	11711.78
588.127	11961.49
588.487	12148.61
588.846	12465.21
589.206	12606.45
589.565	12903.39
589.925	13166.21
590.284	13407.78
590.643	13711.05
591.003	13963.93
591.362	14113.08
591.721	14500.64
592.08	14730.01
592.44	15084.8
592.799	15336.77
593.158	15591.45
593.517	15844.56
593.876	16168.61
594.235	16409.74
594.593	16692.67
594.952	17073
595.311	17288.36
595.67	17638.41
596.029	18029.58
596.387	18330.14
596.746	18526.74
597.104	18730.13
597.463	19058.71
597.822	19432.48
598.18	19641.74
598.538	19848.29
598.897	20250.09
599.255	20362.4
599.613	20961.03
599.972	21079.9
600.33	21410.74
600.688	21557.17
601.046	21990.16
601.404	22283.03
601.762	22536.81
602.12	22882.56
602.478	23182.22
602.836	23422.89
603.194	23554.86
603.552	23904.91
603.91	24053.6
604.268	24530.65
604.625	24482.97
604.983	24836.18
605.341	25006.57
605.698	25447.69
606.056	25558.42
606.413	25779.89
606.771	26119.77
607.128	26442.24
607.485	26537.38
607.843	26799.07
608.2	27136.46
608.557	27428.66
608.914	27477.02
609.272	27807.86
609.629	28076.1
609.986	28364
610.343	28462.08
610.7	28757.66
611.057	28842.18
611.414	28960.82
611.771	29163.07
612.127	29475.16
612.484	29724.64
612.841	30020.91
613.198	29913.56
613.554	30129.38
613.911	30588.8
614.267	30668.35
614.624	30808.46
614.98	30920.32
615.337	31211.16
615.693	31348.55
616.05	31476.01
616.406	31709.22
616.762	31788.32
617.118	31931.82
617.475	32013.17
617.831	32144.24
618.187	32377.91
618.543	32631.23
618.899	32854.96
619.255	32965.91
619.611	32929.98
619.967	32964.11
620.323	33341.72
620.678	33309.63
621.034	33344.43
621.39	33474.37
621.746	33539.91
622.101	33993.46
622.457	33738.77
622.812	34035.26
623.168	34230.29
623.523	34265.54
623.879	34383.73
624.234	34282.26
624.589	34514.57
624.945	34550.96
625.3	34672.08
625.655	34711.86
626.01	34877.5
626.365	34960.89
626.72	34979.87
627.075	35000.89
627.43	34976.93
627.785	34990.72
628.14	35170.6
628.495	35244.5
628.85	35326.98
629.205	35196.36
629.559	35448.11
629.914	35444.72
630.269	35463.25
630.623	35424.83
630.978	35535.56
631.332	35575.56
631.687	35751.15
632.041	35555
632.396	35667.08
632.75	35592.51
633.104	35707.54
633.459	35689.91
633.813	35578.27
634.167	35858.72
634.521	35710.47
634.875	35682
635.229	35690.36
635.583	35620.53
635.937	35742.79
636.291	35738.04
636.645	35672.06
636.999	35700.08
637.352	35826.85
637.706	35618.5
638.06	35766.74
638.413	35678.61
638.767	35815.33
639.121	35713.41
639.474	35674.32
639.828	35738.04
640.181	35604.94
640.534	35654.88
640.888	35687.2
641.241	35501.44
641.594	35712.96
641.947	35776.23
642.301	35767.65
642.654	35696.69
643.007	35645.62
643.36	35594.32
643.713	35664.6
644.066	35723.81
644.419	35567.2
644.771	35246.98
645.124	35132.18
645.477	34945.07
645.83	34770.16
646.182	34677.28
646.535	34576.72
646.888	34757.73
647.24	34502.14
647.593	34698.07
647.945	34636.6
648.298	34553.89
648.65	34375.59
649.002	34410.62
649.355	34527.45
649.707	34567.45
650.059	34520.9
650.411	35031.17
650.763	35063.26
651.115	35443.59
651.467	35285.17
651.819	35436.58
652.171	35283.82
652.523	35241.33
652.875	35291.05
653.227	35171.5
653.578	35373.31
653.93	35213.99
654.282	35174.44
654.633	34947.78
654.985	35209.47
655.337	35210.83
655.688	35145.52
656.039	35221.67
656.391	35049.93
656.742	35033.88
657.094	35076.14
657.445	35177.83
657.796	35063.71
658.147	35013.32
658.498	34982.36
658.849	35050.83
659.2	35085.86
659.551	34876.15
659.902	35083.82
660.253	35087.66
660.604	35085.86
660.955	34931.51
661.306	35076.82
661.656	34895.81
662.007	35042.24
662.358	34994.33
662.708	35023.49
663.059	34965.86
663.409	34648.58
663.76	35023.94
664.11	34972.41
664.461	34970.15
664.811	35060.1
665.161	34961.11
665.511	34919.08
665.862	34997.72
666.212	35064.84
666.562	35045.41
666.912	34829.37
667.262	34880.66
667.612	34880.21
667.962	35038.85
668.312	34971.51
668.662	35104.84
669.011	34858.52
669.361	34901.23
669.711	34822.81
670.06	34841.57
670.41	34735.81
670.76	34773.1
671.109	34901.46
671.459	34764.96
671.808	34765.64
672.157	34816.26
672.507	34539.88
672.856	34644.74
673.205	34800.21
673.554	34721.57
673.904	34597.96
674.253	34762.02
674.602	34795.47
674.951	34244.07
675.3	34006.34
675.649	34704.62
675.998	34599.09
676.346	34502.82
676.695	34695.81
677.044	34466.89
677.393	34463.5
677.741	34670.27
678.09	34519.54
678.438	34367.68
678.787	34642.25
679.135	34497.17
679.484	34281.58
679.832	34447.91
680.181	34264.64
680.529	34317.74
680.877	34140.12
681.225	34074.36
681.573	34374.69
681.922	34077.3
682.27	33995.94
682.618	34114.58
682.966	33883.63
683.314	33940.12
683.661	33915.49
684.009	33724.76
684.357	33754.59
684.705	33683.18
685.053	33715.05
685.4	33721.15
685.748	33454.94
686.095	33464.2
686.443	33410.87
686.79	33434.6
687.138	33451.32
687.485	33419.91
687.832	33369.52
688.18	33270.76
688.527	33078.68
688.874	33132.91
689.221	33051.56
689.568	32967.49
689.915	32909.42
690.262	33007.04
690.609	32858.8
690.956	32734.96
691.303	32592.14
691.65	32603.89
691.997	32471.01
692.344	32325.7
692.69	32322.31
693.037	32372.26
693.383	32065.37
693.73	32130.91
694.077	31956.22
694.423	32010.23
694.769	32057.91
695.116	31817.69
695.462	31773.4
695.808	31714.42
696.155	31845.72
696.501	31534.09
696.847	31594.88
697.193	31365.73
697.539	31386.75
697.885	31125.06
698.231	31030.6
698.577	31111.72
698.923	31004.61
699.269	30855.46
699.614	30833.77
699.96	30789.7
700.306	30864.95
700.651	30605.75
700.997	30605.97
701.342	30486.88
701.688	30367.56
702.033	30377.28
702.379	30317.85
702.724	30260
703.069	30307.23
703.415	29962.83
703.76	29929.83
704.105	30118.53
704.45	29879.44
704.795	29867.92
705.14	29621.59
705.485	29694.13
705.83	29653.01
706.175	29645.32
706.52	29534.14
706.865	29407.59
707.209	29344.99
707.554	29210.53
707.899	29304.31
708.243	29065
708.588	29210.53
708.932	28973.25
709.277	28902.97
709.621	28937.77
709.966	28681.96
710.31	28805.8
710.654	28507.95
710.998	28623.43
711.342	28661.85
711.687	28474.28
712.031	28493.26
712.375	28275.64
712.719	28281.29
713.063	28245.36
713.407	28392.93
713.75	28190.45
714.094	28173.04
714.438	27977.8
714.782	28096.44
715.125	27840.4
715.469	27871.36
715.812	27754.75
716.156	27576.45
716.499	27752.49
716.843	27588.43
717.186	27499.39
717.53	27655.32
717.873	27572.83
718.216	27543
718.559	27408.54
718.902	27329
719.246	27325.38
719.589	27290.81
719.932	27005.39
720.275	27150.25
720.617	27034.32
720.96	27135.56
721.303	27072.06
721.646	26983.47
721.989	26956.58
722.331	27028.22
722.674	26925.17
723.016	26751.84
723.359	26689.69
723.701	26856.02
724.044	26490.38
724.386	26499.42
724.729	26693.08
725.071	26552.75
725.413	26574.22
725.755	26471.17
726.097	26409.02
726.439	26357.27
726.782	26203.15
727.124	26463.48
727.465	26374.67
727.807	26309.82
728.149	26130.39
728.491	26220.55
728.833	26062.37
729.175	26080.22
729.516	25992.76
729.858	25944.4
730.199	26035.25
730.541	25864.4
730.882	25898.75
731.224	26057.39
731.565	25816.27
731.906	25696.27
732.248	25748.93
732.589	25595.94
732.93	25582.15
733.271	25649.27
733.612	25653.34
733.953	25611.3
734.294	25476.17
734.635	25430.29
734.976	25516.17
735.317	25354.59
735.658	25472.55
735.999	25383.06
736.339	25318.66
736.68	25361.37
737.021	25247.47
737.361	25187.36
737.702	25358.43
738.042	25196.85
738.383	25141.71
738.723	25215.83
739.063	25005.44
739.404	25143.07
739.744	24975.16
740.084	24892.45
740.424	24987.82
740.764	24827.82
741.104	24995.73
741.444	24731.1
741.784	24633.7
742.124	24740.59
742.464	24662.85
742.804	24621.05
743.143	24669.63
743.483	24548.51
743.823	24450.88
744.162	24539.69
744.502	24468.28
744.841	24395.29
745.181	24606.81
745.52	24348.06
745.86	24311.45
746.199	24283.66
746.538	24267.38
746.877	24433.03
747.216	24357.33
747.556	24224.67
747.895	24165.69
748.234	24079.14
748.573	24085.24
748.911	24090.89
749.25	24025.13
749.589	23893.61
749.928	23869.88
750.267	23831.92
750.605	23831.92
750.944	23830.11
751.283	23710.56
751.621	23712.37
751.96	23633.28
752.298	23621.75
752.636	23643.67
752.975	23437.8
753.313	23343.12
753.651	23550.79
753.989	23363.91
754.327	23349.22
754.666	23262.89
755.004	23242.33
755.342	23266.73
755.679	23219.73
756.017	23026.29
756.355	22974.76
756.693	22974.31
757.031	23096.12
757.368	22843.92
757.706	22777.25
758.044	22719.4
758.381	22743.13
758.719	22723.47
759.056	22738.84
759.394	22656.58
759.731	22451.84
760.068	22381.56
760.405	22310.37
