Data from hue_24_FLMS001491_00008.txt Node
Date: Tue Feb 07 17:11:40 GMT 2017
User: dcchb
Spectrometer: FLMS00149
Trigger mode: 0
Integration Time (sec): 2.000000E-2
Scans to average: 10
Electric dark correction enabled: true
Nonlinearity correction enabled: false
Boxcar width: 0
XAxis mode: Wavelengths
Number of Pixels in Spectrum: 2048
>>>>>Begin Spectral Data<<<<<
341.393	-16.96
341.776	-16.96
342.16	-16.96
342.543	-57.87
342.927	-69.62
343.31	-67.13
343.693	-67.58
344.077	-67.58
344.46	-58.54
344.843	-51.09
345.226	-35.49
345.61	-36.4
345.993	-25.78
346.376	-2.27
346.759	11.29
347.142	16.71
347.525	40.89
347.908	56.93
348.291	70.49
348.674	94.22
349.057	121.34
349.44	117.95
349.823	135.35
350.206	171.28
350.588	181.45
350.971	195.01
351.354	220.77
351.737	269.81
352.119	253.76
352.502	251.05
352.884	275.23
353.267	282.24
353.65	279.75
354.032	286.53
354.414	309.13
354.797	327.89
355.179	333.31
355.562	333.08
355.944	327.43
356.326	338.06
356.709	349.81
357.091	328.11
357.473	335.12
357.855	353.87
358.238	337.15
358.62	325.18
359.002	341.45
359.384	336.25
359.766	321.11
360.148	344.61
360.53	343.03
360.912	325.4
361.294	350.71
361.676	330.82
362.057	329.69
362.439	326.3
362.821	317.04
363.203	336.93
363.584	325.63
363.966	311.84
364.348	337.6
364.729	318.85
365.111	318.62
365.493	335.12
365.874	319.3
366.256	312.29
366.637	321.79
367.019	306.87
367.4	312.07
367.781	304.16
368.163	314.55
368.544	298.28
368.925	324.95
369.306	324.27
369.688	323.37
370.069	321.79
370.45	318.4
370.831	306.87
371.212	307.1
371.593	306.87
371.974	316.59
372.355	324.27
372.736	329.69
373.117	330.82
373.498	310.49
373.879	324.27
374.26	305.97
374.641	333.99
375.021	308.9
375.402	307.55
375.783	324.27
376.163	335.34
376.544	310.49
376.925	317.04
377.305	324.95
377.686	342.8
378.066	318.4
378.447	341.22
378.827	333.08
379.208	331.95
379.588	327.43
379.968	316.59
380.349	336.02
380.729	339.41
381.109	334.67
381.489	347.77
381.87	339.64
382.25	341.67
382.63	343.03
383.01	363.82
383.39	360.2
383.77	320.2
384.15	361.33
384.53	366.76
384.91	351.84
385.29	346.19
385.67	362.46
386.049	370.37
386.429	364.27
386.809	344.38
387.189	351.39
387.568	355.68
387.948	353.2
388.328	367.21
388.707	357.04
389.087	347.77
389.466	357.04
389.846	363.37
390.225	364.04
390.605	366.3
390.984	366.76
391.363	371.73
391.743	376.02
392.122	361.78
392.501	377.6
392.881	370.82
393.26	370.6
393.639	374.44
394.018	370.37
394.397	380.99
394.776	366.53
395.155	391.84
395.534	377.83
395.913	392.74
396.292	391.61
396.671	385.96
397.05	381.44
397.429	376.47
397.808	389.35
398.186	383.25
398.565	386.42
398.944	393.87
399.323	385.29
399.701	384.16
400.08	378.51
400.458	369.24
400.837	395
401.215	401.56
401.594	392.07
401.972	387.32
402.351	412.18
402.729	423.03
403.107	399.3
403.486	408.79
403.864	418.96
404.242	404.04
404.62	415.12
404.999	426.64
405.377	423.03
405.755	433.19
406.133	443.59
406.511	411.27
406.889	437.04
407.267	442.91
407.645	432.29
408.023	441.56
408.401	437.04
408.779	462.57
409.156	462.8
409.534	441.56
409.912	438.17
410.29	453.76
410.667	465.28
411.045	452.63
411.422	461.67
411.8	486.98
412.178	473.65
412.555	466.19
412.933	467.32
413.31	472.74
413.687	481.78
414.065	480.88
414.442	479.75
414.819	495.79
415.197	511.84
415.574	497.37
415.951	476.58
416.328	511.16
416.705	481.33
417.082	489.92
417.46	498.05
417.837	503.02
418.214	512.06
418.591	513.87
418.967	537.6
419.344	523.81
419.721	529.46
420.098	537.37
420.475	531.27
420.852	547.77
421.228	548.45
421.605	543.25
421.982	533.08
422.358	537.82
422.735	540.31
423.111	561.78
423.488	571.5
423.864	564.49
424.241	557.49
424.617	579.63
424.994	595.45
425.37	562.46
425.746	559.97
426.123	581.21
426.499	598.84
426.875	614.66
427.251	585.96
427.627	597.03
428.003	580.08
428.379	585.06
428.756	623.92
429.132	610.37
429.507	619.4
429.883	620.76
430.259	638.39
430.635	641.1
431.011	640.65
431.387	645.62
431.763	653.75
432.138	647.43
432.514	663.7
432.89	676.58
433.265	664.6
433.641	686.97
434.016	693.07
434.392	711.15
434.767	713.41
435.143	680.65
435.518	701.21
435.894	710.02
436.269	726.52
436.644	738.95
437.02	722
437.395	714.09
437.77	754.32
438.145	736.24
438.52	744.37
438.895	730.81
439.271	744.37
439.646	781.43
440.021	773.3
440.395	790.02
440.77	790.93
441.145	773.98
441.52	806.74
441.895	799.29
442.27	797.93
442.645	788.67
443.019	806.07
443.394	812.85
443.769	834.31
444.143	814.65
444.518	842.22
444.892	831.38
445.267	820.53
445.641	848.55
446.016	846.07
446.39	830.47
446.764	851.04
447.139	823.92
447.513	840.64
447.887	851.04
448.262	860.53
448.636	881.32
449.01	872.28
449.384	897.36
449.758	898.49
450.132	901.43
450.506	921.54
450.88	919.28
451.254	898.04
451.628	936.46
452.002	911.15
452.376	930.58
452.75	954.09
453.123	952.05
453.497	958.15
453.871	953.18
454.244	999.51
454.618	959.96
454.992	967.87
455.365	1010.13
455.739	993.18
456.112	1033.18
456.486	1032.28
456.859	1036.34
457.232	1055.78
457.606	1034.76
457.979	1076.12
458.352	1078.15
458.725	1080.86
459.099	1109.11
459.472	1112.5
459.845	1133.52
460.218	1159.73
460.591	1139.84
460.964	1136.68
461.337	1163.57
461.71	1171.93
462.083	1200.86
462.456	1218.94
462.829	1222.55
463.201	1211.48
463.574	1260.74
463.947	1270.23
464.32	1308.2
464.692	1271.36
465.065	1303.23
465.438	1296.22
465.81	1350.23
466.183	1367.63
466.555	1391.36
466.928	1375.77
467.3	1369.44
467.672	1409.67
468.045	1444.24
468.417	1436.33
468.789	1466.39
469.161	1444.47
469.534	1501.19
469.906	1525.82
470.278	1544.35
470.65	1557.23
471.022	1567.85
471.394	1605.59
471.766	1587.51
472.138	1647.17
472.51	1670.9
472.882	1694.63
473.253	1725.59
473.625	1738.02
473.997	1775.08
474.369	1745.25
474.74	1813.05
475.112	1864.57
475.484	1850.33
475.855	1911.12
476.227	1926.04
476.598	2024.34
476.97	2000.16
477.341	2027.28
477.713	2066.6
478.084	2101.85
478.455	2138.69
478.827	2178.46
479.198	2239.93
479.569	2281.28
479.94	2307.72
480.311	2337.33
480.682	2400.15
481.053	2442.86
481.424	2497.32
481.795	2531.22
482.166	2594.72
482.537	2595.85
482.908	2646.7
483.279	2724.43
483.65	2743.19
484.021	2803.98
484.391	2851.44
484.762	2896.63
485.133	2911.55
485.503	2974.82
485.874	3042.39
486.244	3108.15
486.615	3145.44
486.985	3159.45
487.356	3248.49
487.726	3299.56
488.097	3369.84
488.467	3353.34
488.837	3424.98
489.207	3478.76
489.578	3603.51
489.948	3581.36
490.318	3626.56
490.688	3665.88
491.058	3767.34
491.428	3830.85
491.798	3843.5
492.168	3921.24
492.538	3947.9
492.908	3971.18
493.278	4086.21
493.648	4082.59
494.017	4155.13
494.387	4238.07
494.757	4197.62
495.126	4224.96
495.496	4258.18
495.866	4310.83
496.235	4363.49
496.605	4385.86
496.974	4433.54
497.344	4492.98
497.713	4572.75
498.082	4542.69
498.452	4633.54
498.821	4637.6
499.19	4618.85
499.559	4718.96
499.928	4694.55
500.298	4732.74
500.667	4864.04
501.036	4848.9
501.405	4856.81
501.774	4864.94
502.143	4924.15
502.512	4931.38
502.88	5034.2
503.249	4986.3
503.618	5026.07
503.987	5055.9
504.356	5143.58
504.724	5114.2
505.093	5127.76
505.462	5194.2
505.83	5180.19
506.199	5247.53
506.567	5290.69
506.936	5340.64
507.304	5397.58
507.672	5354.42
508.041	5407.75
508.409	5377.02
508.777	5453.4
509.145	5521.42
509.514	5518.71
509.882	5547.41
510.25	5495.66
510.618	5580.4
510.986	5624.92
511.354	5659.72
511.722	5751.47
512.09	5750.8
512.458	5711.02
512.826	5781.08
513.193	5846.16
513.561	5803.22
513.929	5881.87
514.297	5877.8
514.664	5956.21
515.032	5993.05
515.4	6026.49
515.767	6034.63
516.135	5994.18
516.502	5998.25
516.869	6088.41
517.237	6127.06
517.604	6115.76
517.972	6163.44
518.339	6166.15
518.706	6145.59
519.073	6202.99
519.44	6258.8
519.808	6321.4
520.175	6275.3
520.542	6355.75
520.909	6391
521.276	6365.92
521.643	6424.22
522.009	6452.25
522.376	6483.43
522.743	6512.58
523.11	6572.02
523.477	6637.1
523.843	6634.16
524.21	6699.7
524.577	6713.26
524.943	6742.41
525.31	6789.41
525.676	6876.64
526.043	6854.49
526.409	6849.3
526.776	6964.77
527.142	6998.45
527.508	7022.17
527.874	7109.86
528.241	7162.28
528.607	7182.4
528.973	7207.48
529.339	7160.7
529.705	7239.34
530.071	7288.16
530.437	7330.87
530.803	7374.03
531.169	7414.48
531.535	7395.5
531.901	7389.62
532.267	7420.13
532.632	7513.69
532.998	7518.66
533.364	7616.28
533.73	7617.64
534.095	7653.12
534.461	7660.58
534.826	7736.73
535.192	7724.3
535.557	7761.36
535.923	7832.1
536.288	7874.36
536.653	7899.67
537.019	7871.42
537.384	7907.35
537.749	7965.88
538.114	7997.74
538.479	8006.78
538.845	8040.45
539.21	8037.51
539.575	8119.55
539.94	8117.06
540.305	8141.92
540.67	8166.78
541.034	8232.76
541.399	8225.76
541.764	8333.78
542.129	8317.73
542.494	8340.11
542.858	8379.2
543.223	8405.41
543.587	8470.72
543.952	8414.68
544.316	8528.58
544.681	8474.79
545.045	8629.82
545.41	8644.73
545.774	8710.49
546.138	8689.7
546.503	8742.35
546.867	8688.57
547.231	8754.56
547.595	8765.63
547.959	8820.32
548.324	8859.87
548.688	8868.23
549.052	8910.94
549.416	8940.09
549.779	8956.81
550.143	9012.18
550.507	9103.93
550.871	9078.84
551.235	9036.13
551.599	9150.48
551.962	9118.16
552.326	9180.54
552.689	9234.09
553.053	9261.21
553.417	9236.81
553.78	9313.87
554.143	9265.96
554.507	9316.8
554.87	9380.3
555.234	9479.74
555.597	9448.55
555.96	9492.39
556.323	9580.3
556.686	9436.12
557.05	9539.4
557.413	9580.98
557.776	9628.21
558.139	9659.84
558.502	9709.34
558.865	9718.15
559.228	9724.48
559.59	9763.34
559.953	9739.39
560.316	9914.08
560.679	9925.6
561.041	9958.82
561.404	10011.25
561.767	10012.15
562.129	10010.8
562.492	10166.05
562.854	10094.18
563.217	10120.85
563.579	10175.76
563.941	10254.18
564.304	10253.05
564.666	10376.89
565.028	10254.18
565.39	10393.16
565.753	10429.54
566.115	10484
566.477	10488.3
566.839	10448.98
567.201	10547.96
567.563	10552.7
567.925	10658.69
568.287	10658.46
568.648	10667.28
569.01	10805.8
569.372	10825.92
569.734	10825.69
570.095	10862.53
570.457	10906.59
570.819	10970.77
571.18	10932.81
571.542	11063.42
571.903	11063.65
572.265	11070.66
572.626	11228.17
572.987	11258.9
573.349	11267.49
573.71	11308.84
574.071	11335.51
574.432	11459.8
574.794	11573.47
575.155	11609.4
575.516	11622.05
575.877	11681.49
576.238	11699.34
576.599	11864.76
576.96	11871.09
577.32	11989.5
577.681	12123.73
578.042	12205.09
578.403	12254.35
578.763	12316.95
579.124	12488.47
579.485	12663.16
579.845	12657.51
580.206	12818.18
580.566	12898.86
580.927	12979.53
581.287	13174.1
581.648	13238.28
582.008	13435.79
582.368	13611.15
582.728	13771.6
583.089	13793.52
583.449	13996.91
583.809	14180.86
584.169	14422.66
584.529	14487.29
584.889	14868.97
585.249	14851.57
585.609	15108.74
585.969	15363.65
586.329	15568.84
586.688	15758.89
587.048	15921.38
587.408	16122.27
587.768	16396.62
588.127	16613.56
588.487	16890.62
588.846	17232.3
589.206	17385.52
589.565	17613.53
589.925	17945.5
590.284	18155.89
590.643	18490.35
591.003	18758.14
591.362	19127.84
591.721	19408.52
592.08	19607.15
592.44	19908.61
592.799	20215.27
593.158	20550.41
593.517	20716.73
593.876	21101.13
594.235	21429.93
594.593	21689.59
594.952	21991.72
595.311	22109.01
595.67	22560.3
596.029	23009.32
596.387	23433.04
596.746	23645.47
597.104	23775.63
597.463	24131.1
597.822	24534.03
598.18	24695.61
598.538	25084.07
598.897	25445.64
599.255	25614
599.613	26314.1
599.972	26352.06
600.33	26815.78
600.688	26999.05
601.046	27389.55
601.404	27708.64
601.762	27816.2
602.12	28247.38
602.478	28563.53
602.836	28851.43
603.194	28893.46
603.552	29389.27
603.91	29448.03
604.268	29871.52
604.625	30074.68
604.983	30427.89
605.341	30588.79
605.698	31031.03
606.056	31416.33
606.413	31447.97
606.771	31856.78
607.128	32247.27
607.485	32179.7
607.843	32488.4
608.2	32890.87
608.557	33243.63
608.914	33273.91
609.272	33634.13
609.629	33952.54
609.986	34168.13
610.343	34266.43
610.7	34686.76
611.057	34950.71
611.414	35104.15
611.771	35157.03
612.127	35476.57
612.484	35689.22
612.841	36032.48
613.198	36014.86
613.554	36255.76
613.911	36701.85
614.267	36748.85
614.624	37027.26
614.98	37052.8
615.337	37456.18
615.693	37504.76
616.05	37645.1
616.406	38049.61
616.762	38013.9
617.118	38162.37
617.475	38377.06
617.831	38679.87
618.187	38560.33
618.543	38870.15
618.899	39177.49
619.255	39111.5
619.611	39334.77
619.967	39435.56
620.323	39786.74
620.678	39669.9
621.034	39700.64
621.39	39817.02
621.746	39873.74
622.101	40469.43
622.457	40122.77
622.812	40395.08
623.168	40609.99
623.523	40694.74
623.879	40816.77
624.234	40771.34
624.589	40864.67
624.945	41001.17
625.3	41015.63
625.655	41173.82
626.01	41359.12
626.365	41377.43
626.72	41408.16
627.075	41439.12
627.43	41435.28
627.785	41460.59
628.14	41674.37
628.495	41726.57
628.85	41754.14
629.205	41645.44
629.559	41963.18
629.914	41970.41
630.269	41943.06
630.623	41816.06
630.978	41767.93
631.332	42051.08
631.687	42124.53
632.041	42045.89
632.396	42200.91
632.75	41829.85
633.104	42169.5
633.459	42112.78
633.813	41992.55
634.167	42181.25
634.521	42047.92
634.875	42234.81
635.229	42218.54
635.583	41999.33
635.937	42144.19
636.291	42208.37
636.645	42121.14
636.999	42137.18
637.352	42199.33
637.706	42117.97
638.06	42182.15
638.413	42177.18
638.767	42142.61
639.121	42136.28
639.474	42019.9
639.828	41991.2
640.181	42084.53
640.534	42016.06
640.888	41965.66
641.241	41849.28
641.594	42042.72
641.947	42164.3
642.301	42096.28
642.654	42120.01
643.007	42027.58
643.36	42147.35
643.713	42043.85
644.066	42245.88
644.419	42028.03
644.771	41686.35
645.124	41402.29
645.477	41381.95
645.83	41195.06
646.182	40944.45
646.535	40857.44
646.888	40899.02
647.24	40572.48
647.593	41052.47
647.945	40861.06
648.298	40673.94
648.65	40664
649.002	40690.22
649.355	40718.46
649.707	40822.19
650.059	40944.22
650.411	41362.97
650.763	41451.78
651.115	41782.84
651.467	41714.82
651.819	41669.85
652.171	41641.83
652.523	41573.13
652.875	41509.18
653.227	41355.51
653.578	41625.11
653.93	41557.76
654.282	41407.94
654.633	41372.46
654.985	41412.23
655.337	41501.95
655.688	41490.42
656.039	41643.86
656.391	41318
656.742	41312.35
657.094	41502.85
657.445	41516.63
657.796	41386.02
658.147	41329.07
658.498	41475.51
658.849	41454.94
659.2	41416.52
659.551	41339.24
659.902	41382.85
660.253	41341.5
660.604	41336.53
660.955	41228.05
661.306	41379.24
661.656	41253.82
662.007	41194.83
662.358	41233.7
662.708	41207.04
663.059	41206.13
663.409	41063.76
663.76	41299.01
664.11	41364.32
664.461	41401.84
664.811	41300.14
665.161	41125.01
665.511	41108.51
665.862	41231.67
666.212	41325
666.562	41247.49
666.912	41321.16
667.262	41214.95
667.612	41242.07
667.962	41282.52
668.312	41054.27
668.662	41264.21
669.011	41208.17
669.361	41147.38
669.711	41172.46
670.06	41028.96
670.41	41027.38
670.76	40994.16
671.109	41030.77
671.459	41115.51
671.808	40980.15
672.157	41211.56
672.507	40925.24
672.856	40904
673.205	40997.78
673.554	41049.08
673.904	41011.56
674.253	41225.79
674.602	40917.33
674.951	40577.68
675.3	40203.67
675.649	40864.67
675.998	40815.86
676.346	40880.27
676.695	40910.32
677.044	40585.13
677.393	40751.46
677.741	40843.88
678.09	40693.38
678.438	40525.25
678.787	40752.81
679.135	40578.81
679.484	40359.6
679.832	40560.28
680.181	40277.8
680.529	40432.6
680.877	40234.41
681.225	40303.11
681.573	40574.29
681.922	40183.56
682.27	40203
682.618	40189.21
682.966	40068.76
683.314	40162.77
683.661	39949.22
684.009	39881.42
684.357	39687.08
684.705	39691.82
685.053	39683.01
685.4	39773.4
685.748	39466.74
686.095	39591.49
686.443	39513.3
686.79	39360.53
687.138	39569.34
687.485	39468.33
687.832	39338.16
688.18	39294.09
688.527	39066.53
688.874	39089.58
689.221	39019.3
689.568	38840.32
689.915	38749.48
690.262	38825.63
690.609	38615.47
690.956	38609.14
691.303	38499.76
691.65	38431.29
691.997	38457.51
692.344	38191.75
692.69	38259.77
693.037	38257.06
693.383	37886.9
693.73	38061.13
694.077	37832.44
694.423	37813.23
694.769	37642.39
695.116	37666.57
695.462	37483.52
695.808	37453.01
696.155	37556.06
696.501	37148.39
696.847	37213.02
697.193	36892.35
697.539	37137.77
697.885	36929.86
698.231	36645.12
698.577	36620.72
698.923	36775.06
699.269	36606.71
699.614	36328.75
699.96	36375.3
700.306	36427.28
700.651	36026.38
700.997	36089.21
701.342	35989.77
701.688	36091.47
702.033	35800.63
702.379	35907.97
702.724	35717.46
703.069	35903.45
703.415	35388.89
703.76	35438.83
704.105	35443.35
704.45	35375.78
704.795	35148.67
705.14	35041.55
705.485	34988.22
705.83	34962.68
706.175	35063.02
706.52	34931.27
706.865	34845.62
707.209	34769.24
707.554	34722.91
707.899	34603.82
708.243	34425.3
708.588	34436.59
708.932	34141.01
709.277	34183.95
709.621	34322.93
709.966	34026.66
710.31	34117.73
710.654	33863.73
710.998	33933.33
711.342	33724.07
711.687	33616.28
712.031	33512.78
712.375	33458.09
712.719	33463.51
713.063	33616.05
713.407	33559.1
713.75	33291.99
714.094	33286.34
714.438	33167.02
714.782	33272.33
715.125	33041.38
715.469	33192.79
715.812	32927.03
716.156	32893.81
716.499	32921.15
716.843	32747.6
717.186	32612.24
717.53	32684.78
717.873	32784.43
718.216	32694.72
718.559	32593.25
718.902	32243.66
719.246	32421.96
719.589	32307.61
719.932	32219.48
720.275	32184.9
720.617	32161.17
720.96	31970.44
721.303	32194.17
721.646	32046.83
721.989	31787.85
722.331	32146.71
722.674	31780.85
723.016	31940.39
723.359	31761.41
723.701	31799.6
724.044	31765.03
724.386	31512.83
724.729	31540.4
725.071	31515.99
725.413	31475.09
725.755	31558.7
726.097	31225.15
726.439	31169.11
726.782	31159.17
727.124	31261.08
727.465	30982
727.807	31033.07
728.149	31066.29
728.491	30943.35
728.833	30968.44
729.175	30789.23
729.516	30802.79
729.858	30705.62
730.199	30903.35
730.541	30757.37
730.882	30618.62
731.224	30779.97
731.565	30503.59
731.906	30613.42
732.248	30590.59
732.589	30485.51
732.93	30299.08
733.271	30388.11
733.612	30391.28
733.953	30387.44
734.294	30204.39
734.635	30221.34
734.976	30291.62
735.317	30021.34
735.658	29991.06
735.999	29988.12
736.339	30022.25
736.68	30203.49
737.021	29947.22
737.361	29761.69
737.702	29931.18
738.042	29796.94
738.383	29744.97
738.723	29876.71
739.063	29700.22
739.404	29756.27
739.744	29591.07
740.084	29640.34
740.424	29620.22
740.764	29511.53
741.104	29581.35
741.444	29387.01
741.784	29269.5
742.124	29362.38
742.464	29365.99
742.804	29330.29
743.143	29144.76
743.483	29189.5
743.823	29036.51
744.162	29015.72
744.502	29106.34
744.841	28916.51
745.181	29171.87
745.52	28923.29
745.86	28889.62
746.199	28995.16
746.538	28871.09
746.877	29053.69
747.216	28966.91
747.556	28840.13
747.895	28854.82
748.234	28699.8
748.573	28657.54
748.911	28610.31
749.25	28657.09
749.589	28449.63
749.928	28560.82
750.267	28513.36
750.605	28431.55
750.944	28295.51
751.283	28330.54
751.621	28433.36
751.96	28130.32
752.298	28371.44
752.636	28207.38
752.975	28136.2
753.313	28000.83
753.651	28170.54
753.989	27919.03
754.327	27890.33
754.666	27863.89
755.004	27735.08
755.342	27686.94
755.679	27703.66
756.017	27660.28
756.355	27610.56
756.693	27456.67
757.031	27521.97
757.368	27255.99
757.706	27350.68
758.044	27267.07
758.381	27263.9
758.719	27095.09
759.056	27176.67
759.394	27050.8
759.731	26940.52
