Data from hue_350_FLMS001491_48.txt Node
Date: Mon Feb 06 15:38:05 GMT 2017
User: dcchb
Spectrometer: FLMS00149
Trigger mode: 0
Integration Time (sec): 2.000000E-2
Scans to average: 10
Electric dark correction enabled: true
Nonlinearity correction enabled: false
Boxcar width: 0
XAxis mode: Wavelengths
Number of Pixels in Spectrum: 2048
>>>>>Begin Spectral Data<<<<<
341.393	-5.25
341.776	-5.25
342.16	-5.25
342.543	-68.76
342.927	-65.14
343.31	-78.25
343.693	-52.26
344.077	-67.17
344.46	-61.07
344.843	-71.02
345.226	-42.09
345.61	-34.63
345.993	1.98
346.376	-2.54
346.759	-7.29
347.142	24.8
347.525	53.95
347.908	69.32
348.291	73.16
348.674	91.69
349.057	101.41
349.44	133.73
349.823	157.45
350.206	144.8
350.588	178.47
350.971	201.75
351.354	212.37
351.737	222.76
352.119	253.27
352.502	258.69
352.884	279.71
353.267	288.07
353.65	308.41
354.032	303.44
354.414	301.63
354.797	301.63
355.179	331.46
355.562	335.53
355.944	326.71
356.326	328.75
356.709	341.63
357.091	315.64
357.473	342.53
357.855	336.66
358.238	345.92
358.62	357
359.002	333.95
359.384	339.37
359.766	331.46
360.148	335.3
360.53	351.12
360.912	319.71
361.294	309.09
361.676	351.57
362.057	345.25
362.439	328.3
362.821	323.1
363.203	338.01
363.584	307.73
363.966	309.99
364.348	331.91
364.729	310.9
365.111	333.27
365.493	312.48
365.874	314.74
366.256	314.06
366.637	347.96
367.019	311.35
367.4	306.38
367.781	307.96
368.163	300.27
368.544	323.1
368.925	300.05
369.306	298.24
369.688	273.83
370.069	318.13
370.45	329.2
370.831	319.71
371.212	314.06
371.593	311.8
371.974	305.25
372.355	298.24
372.736	298.01
373.117	318.13
373.498	314.74
373.879	315.42
374.26	297.56
374.641	329.2
375.021	313.38
375.402	302.99
375.783	296.43
376.163	326.49
376.544	339.6
376.925	325.81
377.305	312.93
377.686	304.79
378.066	317.22
378.447	322.19
378.827	334.62
379.208	325.58
379.588	321.29
379.968	324.23
380.349	339.82
380.729	333.04
381.109	332.82
381.489	331.01
381.87	344.12
382.25	328.75
382.63	342.31
383.01	330.78
383.39	347.73
383.77	342.99
384.15	339.14
384.53	358.35
384.91	347.5
385.29	369.2
385.67	343.44
386.049	361.97
386.429	334.85
386.809	355.87
387.189	347.05
387.568	346.38
387.948	336.66
388.328	351.57
388.707	353.61
389.087	341.18
389.466	347.05
389.846	368.97
390.225	363.55
390.605	356.09
390.984	352.48
391.363	351.8
391.743	345.25
392.122	361.29
392.501	349.09
392.881	342.76
393.26	360.16
393.639	376.2
394.018	376.88
394.397	367.84
394.776	385.92
395.155	369.88
395.534	354.28
395.913	367.62
396.292	378.92
396.671	366.04
397.05	376.88
397.429	375.98
397.808	388.18
398.186	364.23
398.565	371.69
398.944	375.98
399.323	407.39
399.701	399.03
400.08	378.69
400.458	392.02
400.837	377.33
401.215	379.82
401.594	354.51
401.972	387.73
402.351	378.01
402.729	385.02
403.107	387.96
403.486	413.27
403.864	393.61
404.242	395.19
404.62	401.74
404.999	408.52
405.377	405.58
405.755	419.59
406.133	417.11
406.511	412.59
406.889	425.47
407.267	432.47
407.645	394.28
408.023	422.31
408.401	426.6
408.779	433.83
409.156	429.31
409.534	408.29
409.912	429.76
410.29	440.16
410.667	443.32
411.045	439.48
411.422	439.93
411.8	442.87
412.178	471.8
412.555	443.32
412.933	463.89
413.31	470.89
413.687	472.7
414.065	442.64
414.442	473.15
414.819	474.73
415.197	464.11
415.574	493.94
415.951	463.89
416.328	477.67
416.705	488.07
417.082	465.69
417.46	489.65
417.837	501.4
418.214	499.82
418.591	495.75
418.967	503.21
419.344	493.26
419.721	518.57
420.098	516.54
420.475	527.61
420.852	517.67
421.228	533.94
421.605	530.55
421.982	534.17
422.358	513.38
422.735	550.89
423.111	543.43
423.488	544.34
423.864	537.78
424.241	578.46
424.617	549.99
424.994	559.93
425.37	551.34
425.746	548.86
426.123	571
426.499	566.48
426.875	563.77
427.251	588.85
427.627	576.88
428.003	594.05
428.379	599.93
428.756	611.45
429.132	615.52
429.507	600.38
429.883	613.49
430.259	632.02
430.635	611.23
431.011	631.79
431.387	625.24
431.763	648.74
432.138	650.32
432.514	636.08
432.89	629.31
433.265	650.77
433.641	663.88
434.016	662.75
434.392	693.03
434.767	677.21
435.143	705.01
435.518	671.34
435.894	719.02
436.269	700.04
436.644	717.89
437.02	686.71
437.395	719.7
437.77	724.9
438.145	729.64
438.52	714.28
438.895	721.28
439.271	731
439.646	719.02
440.021	738.91
440.395	754.27
440.77	751.11
441.145	742.97
441.52	756.08
441.895	774.39
442.27	770.09
442.645	787.04
443.019	786.14
443.394	749.98
443.769	773.26
444.143	804.67
444.518	802.18
444.892	785.01
445.267	800.15
445.641	825.91
446.016	788.4
446.39	794.05
446.764	825.23
447.139	814.84
447.513	814.39
447.887	812.8
448.262	813.93
448.636	822.29
449.01	830.2
449.384	822.07
449.758	837.89
450.132	859.81
450.506	858.68
450.88	837.66
451.254	850.54
451.628	854.38
452.002	871.56
452.376	872.69
452.75	877.43
453.123	899.81
453.497	888.96
453.871	876.53
454.244	917.66
454.618	927.6
454.992	935.29
455.365	910.43
455.739	937.32
456.112	949.75
456.486	935.51
456.859	947.49
457.232	975.06
457.606	962.63
457.979	968.73
458.352	979.58
458.725	998.34
459.099	990.43
459.472	991.78
459.845	1041.95
460.218	1019.13
460.591	1064.77
460.964	1024.55
461.337	1067.71
461.71	1088.73
462.083	1094.6
462.456	1093.02
462.829	1080.37
463.201	1092.8
463.574	1104.55
463.947	1094.38
464.32	1148.39
464.692	1141.83
465.065	1128.73
465.438	1193.58
465.81	1166.47
466.183	1185
466.555	1220.25
466.928	1194.04
467.3	1227.03
467.672	1248.72
468.045	1280.59
468.417	1271.55
468.789	1281.94
469.161	1281.04
469.534	1299.12
469.906	1317.42
470.278	1361.72
470.65	1356.74
471.022	1347.93
471.394	1394.71
471.766	1381.83
472.138	1387.48
472.51	1416.4
472.882	1449.17
473.253	1457.98
473.625	1501.37
473.997	1529.17
474.369	1520.58
474.74	1535.27
475.112	1567.36
475.484	1614.36
475.855	1655.04
476.227	1594.25
476.598	1662.05
476.97	1707.7
477.341	1721.48
477.713	1766.68
478.084	1756.51
478.455	1804.42
478.827	1816.17
479.198	1871.31
479.569	1881.02
479.94	1928.71
480.311	1915.6
480.682	1997.18
481.053	2028.82
481.424	2061.36
481.795	2074.92
482.166	2141.36
482.537	2147.01
482.908	2182.48
483.279	2195.82
483.65	2217.06
484.021	2281.92
484.391	2330.05
484.762	2337.74
485.133	2343.16
485.503	2365.76
485.874	2474.68
486.244	2482.14
486.615	2500.89
486.985	2538.86
487.356	2596.49
487.726	2607.11
488.097	2652.98
488.467	2672.87
488.837	2703.6
489.207	2762.13
489.578	2824.5
489.948	2803.49
490.318	2866.31
490.688	2882.35
491.058	2911.96
491.428	3000.77
491.798	2973.88
492.168	3042.12
492.538	3055.23
492.908	3096.81
493.278	3150.37
493.648	3181.33
494.017	3203.48
494.387	3245.28
494.757	3255
495.126	3309.24
495.496	3275.34
495.866	3341.78
496.235	3371.83
496.605	3409.57
496.974	3411.15
497.344	3449.12
497.713	3459.97
498.082	3497.25
498.452	3505.16
498.821	3532.51
499.19	3563.24
499.559	3576.57
499.928	3605.5
500.298	3615.22
500.667	3668.32
501.036	3645.05
501.405	3652.05
501.774	3704.25
502.143	3749.9
502.512	3718.26
502.88	3795.55
503.249	3800.52
503.618	3758.26
503.987	3847.07
504.356	3837.81
504.724	3900.86
505.093	3864.93
505.462	3890.91
505.83	3924.13
506.199	3934.98
506.567	3942.44
506.936	3985.15
507.304	4026.96
507.672	4026.96
508.041	4011.36
508.409	4082.55
508.777	4048.2
509.145	4115.32
509.514	4106.73
509.882	4119.38
510.25	4109.21
510.618	4190.34
510.986	4166.16
511.354	4154.41
511.722	4277.12
512.09	4275.09
512.458	4206.61
512.826	4270.79
513.193	4248.19
513.561	4292.49
513.929	4292.03
514.297	4341.52
514.664	4311.69
515.032	4365.48
515.4	4388.3
515.767	4361.41
516.135	4376.33
516.502	4372.71
516.869	4437.79
517.237	4468.53
517.604	4463.78
517.972	4427.17
518.339	4512.14
518.706	4471.24
519.073	4526.15
519.44	4548.52
519.808	4532.25
520.175	4588.3
520.542	4603.44
520.909	4595.08
521.276	4601.18
521.643	4630.78
522.009	4715.75
522.376	4685.7
522.743	4685.7
523.11	4725.02
523.477	4742.19
523.843	4751.91
524.21	4814.73
524.577	4830.78
524.943	4851.79
525.31	4872.58
525.676	4878.69
526.043	4939.7
526.409	4899.48
526.776	5004.33
527.142	4962.52
527.508	5045.01
527.874	5042.97
528.241	5059.92
528.607	5050.43
528.973	5103.99
529.339	5097.44
529.705	5134.05
530.071	5162.29
530.437	5181.73
530.803	5250.2
531.169	5217.66
531.535	5274.38
531.901	5270.54
532.267	5279.58
532.632	5294.27
532.998	5314.61
533.364	5394.6
533.73	5409.07
534.095	5425.11
534.461	5464.43
534.826	5446.58
535.192	5500.59
535.557	5507.14
535.923	5494.71
536.288	5550.31
536.653	5576.75
537.019	5578.1
537.384	5600.7
537.749	5603.41
538.114	5661.26
538.479	5625.78
538.845	5660.81
539.21	5748.27
539.575	5679.79
539.94	5758.89
540.305	5770.64
540.67	5742.17
541.034	5812.45
541.399	5862.16
541.764	5894.48
542.129	5894.7
542.494	5932.67
542.858	5930.18
543.223	5950.07
543.587	5984.64
543.952	6061.93
544.316	6006.11
544.681	6002.95
545.045	6056.96
545.41	6106.22
545.774	6101.48
546.138	6124.53
546.503	6168.14
546.867	6179.67
547.231	6227.35
547.595	6252.66
547.959	6271.42
548.324	6262.6
548.688	6291.3
549.052	6344.41
549.416	6342.15
549.779	6348.25
550.143	6321.13
550.507	6416.95
550.871	6444.07
551.235	6421.7
551.599	6480.23
551.962	6473.22
552.326	6495.59
552.689	6520.22
553.053	6499.21
553.417	6548.25
553.78	6628.47
554.143	6611.07
554.507	6627.11
554.87	6651.97
555.234	6712.31
555.597	6703.95
555.96	6690.39
556.323	6689.94
556.686	6738.07
557.05	6745.3
557.413	6831.85
557.776	6796.6
558.139	6781.91
558.502	6922.47
558.865	6838.63
559.228	6904.39
559.59	6880.21
559.953	6894.9
560.316	7023.26
560.679	6998.86
561.041	7075.24
561.404	7023.26
561.767	7140.32
562.129	7095.58
562.492	7082.47
562.854	7126.99
563.217	7111.17
563.579	7124.73
563.941	7212.86
564.304	7240.66
564.666	7265.52
565.028	7339.19
565.39	7288.79
565.753	7307.55
566.115	7359.75
566.477	7416.47
566.839	7408.11
567.201	7487.2
567.563	7512.29
567.925	7456.24
568.287	7549.12
568.648	7549.35
569.01	7591.61
569.372	7619.18
569.734	7599.29
570.095	7691.04
570.457	7753.41
570.819	7771.26
571.18	7718.84
571.542	7738.72
571.903	7908.89
572.265	7834.09
572.626	7867.99
572.987	7934.88
573.349	8034.31
573.71	8045.83
574.071	8071.82
574.432	8154.98
574.794	8162.21
575.155	8239.27
575.516	8242.44
575.877	8335.32
576.238	8405.15
576.599	8456.22
576.96	8529.66
577.32	8577.8
577.681	8636.78
578.042	8750.45
578.403	8818.24
578.763	8862.31
579.124	8921.52
579.485	9039.03
579.845	9186.37
580.206	9295.07
580.566	9314.95
580.927	9455.29
581.287	9615.96
581.648	9661.38
582.008	9891.21
582.368	9919.23
582.728	10093.92
583.089	10178.88
583.449	10322.16
583.809	10416.39
584.169	10651.87
584.529	10791.98
584.889	11069.03
585.249	11093.89
585.609	11325.52
585.969	11480.09
586.329	11707.21
586.688	11846.86
587.048	12007.09
587.408	12220.87
587.768	12518.94
588.127	12729.33
588.487	12909.21
588.846	13163.89
589.206	13360.95
589.565	13667.61
589.925	13886.36
590.284	14080.93
590.643	14420.36
591.003	14637.07
591.362	14990.51
591.721	15131.98
592.08	15473.66
592.44	15714.56
592.799	16104.38
593.158	16243.58
593.517	16533.07
593.876	16816.45
594.235	17065.26
594.593	17403.1
594.952	17723.77
595.311	17984.78
595.67	18202.85
596.029	18638.1
596.387	18960.8
596.746	19302.03
597.104	19443.27
597.463	19681.23
597.822	20062.47
598.18	20147.21
598.538	20525.28
598.897	20894.76
599.255	21120.97
599.613	21569.32
599.972	21815.42
600.33	22134.05
600.688	22409.52
601.046	22670.31
601.404	23009.06
601.762	23192.78
602.12	23646.78
602.478	23955.02
602.836	24112.98
603.194	24343.94
603.552	24604.72
603.91	24783.47
604.268	25159.73
604.625	25360.63
604.983	25687.18
605.341	25816.21
605.698	26219.14
606.056	26413.94
606.413	26596.08
606.771	27018.22
607.128	27241.04
607.485	27356.51
607.843	27711.76
608.2	28017.96
608.557	28214.34
608.914	28386.32
609.272	28780.66
609.629	29059.97
609.986	29100.87
610.343	29245.73
610.7	29700.41
611.057	29828.09
611.414	29934.75
611.771	30195.08
612.127	30570.89
612.484	30572.47
612.841	31031.67
613.198	31094.04
613.554	31270.31
613.911	31590.07
614.267	31627.81
614.624	31779.9
614.98	31933.57
615.337	32317.51
615.693	32333.33
616.05	32504.85
616.406	32899.87
616.762	32728.8
617.118	32962.01
617.475	33075.23
617.831	33275
618.187	33600.87
618.543	33557.03
618.899	33795.21
619.255	33963.57
619.611	34062.1
619.967	34292.15
620.323	34479.94
620.678	34418.93
621.034	34539.83
621.39	34664.79
621.746	34736.88
622.101	35173.26
622.457	35060.04
622.812	35236.53
623.168	35321.95
623.523	35328.96
623.879	35570.08
624.234	35406.24
624.589	35679.91
624.945	35708.16
625.3	35854.37
625.655	36002.39
626.01	35916.97
626.365	36068.15
626.72	36097.98
627.075	36249.16
627.43	36304.75
627.785	36275.37
628.14	36379.33
628.495	36498.64
628.85	36429.72
629.205	36370.06
629.559	36823.16
629.914	36561.92
630.269	36600.34
630.623	36584.07
630.978	36511.98
631.332	36856.38
631.687	36925.98
632.041	36760.78
632.396	36924.4
632.75	36749.49
633.104	36874.23
633.459	36816.38
633.813	36689.15
634.167	36830.16
634.521	36952.42
634.875	37030.38
635.229	36977.73
635.583	36795.13
635.937	36724.85
636.291	36773.21
636.645	36899.99
636.999	36885.98
637.352	37079.19
637.706	37000.78
638.06	37053.66
638.413	36920.55
638.767	36861.57
639.121	36989.93
639.474	36711.07
639.828	36724.63
640.181	36867.45
640.534	36873.78
640.888	36889.82
641.241	36699.09
641.594	36769.37
641.947	36952.42
642.301	36779.54
642.654	36810.73
643.007	36889.6
643.36	36833.33
643.713	36776.83
644.066	36960.55
644.419	36674.69
644.771	36558.76
645.124	36076.28
645.477	36158.54
645.83	35976.85
646.182	35776.18
646.535	35863.41
646.888	35818.66
647.24	35606.01
647.593	35909.06
647.945	35763.07
648.298	35604.88
648.65	35554.04
649.002	35507.48
649.355	35725.11
649.707	35589.29
650.059	35740.92
650.411	36042.16
650.763	36234.47
651.115	36652.09
651.467	36461.81
651.819	36309.95
652.171	36406.22
652.523	36446.22
652.875	36347.24
653.227	36242.61
653.578	36475.14
653.93	36299.1
654.282	36081.25
654.633	36094.36
654.985	36253.23
655.337	36283.28
655.688	36191.99
656.039	36450.28
656.391	35953.57
656.742	36024.08
657.094	36201.48
657.445	36315.37
657.796	36235.15
658.147	36094.59
658.498	36104.98
658.849	36132.33
659.2	36272.66
659.551	36082.61
659.902	36197.41
660.253	36175.94
660.604	36162.83
660.955	36009.84
661.306	36061.37
661.656	36097.75
662.007	35951.09
662.358	36062.5
662.708	36036.28
663.059	35923.97
663.409	35837.19
663.76	36174.81
664.11	35953.12
664.461	36073.35
664.811	35983.86
665.161	36009.17
665.511	35959.22
665.862	35902.05
666.212	36145.21
666.562	36042.16
666.912	36033.8
667.262	35893.46
667.612	35839
667.962	36039.22
668.312	35847.81
668.662	36136.39
669.011	35851.88
669.361	35987.7
669.711	35968.72
670.06	36048.94
670.41	35839.45
670.76	35780.7
671.109	35963.07
671.459	35822.96
671.808	35869.06
672.157	35859.57
672.507	35589.29
672.856	35738.21
673.205	35800.36
673.554	35847.14
673.904	35697.54
674.253	35934.59
674.602	35777.76
674.951	35216.19
675.3	34912.7
675.649	35657.76
675.998	35661.83
676.346	35558.78
676.695	35815.27
677.044	35360.6
677.393	35463.42
677.741	35511.33
678.09	35499.58
678.438	35398.33
678.787	35494.6
679.135	35558.1
679.484	35205.57
679.832	35398.33
680.181	35249.64
680.529	35237.21
680.877	35222.97
681.225	35121.05
681.573	35367.15
681.922	35105.91
682.27	34946.6
682.618	34914.73
682.966	34895.3
683.314	34858.01
683.661	34785.47
684.009	34708.41
684.357	34781.18
684.705	34570.11
685.053	34644.91
685.4	34644.68
685.748	34437.23
686.095	34572.59
686.443	34225.03
686.79	34199.5
687.138	34302.54
687.485	34276.56
687.832	34164.69
688.18	34268.42
688.527	34041.08
688.874	33993.4
689.221	33970.8
689.568	33972.38
689.915	33789.79
690.262	33866.62
690.609	33679.51
690.956	33512.28
691.303	33672.28
691.65	33392.29
691.997	33468.44
692.344	33189.81
692.69	33220.54
693.037	33173.31
693.383	32946.42
693.73	33092.86
694.077	32810.15
694.423	32935.57
694.769	32770.83
695.116	32769.7
695.462	32577.62
695.808	32570.16
696.155	32584.85
696.501	32399.54
696.847	32424.18
697.193	32080.91
697.539	32286.33
697.885	32106.44
698.231	31864.42
698.577	32017.63
698.923	31873.46
699.269	31633.24
699.614	31584.65
699.96	31574.93
700.306	31574.25
700.651	31423.75
700.997	31328.61
701.342	31303.3
701.688	31205.22
702.033	31210.42
702.379	31181.27
702.724	30923.2
703.069	31121.39
703.415	30625.58
703.76	30813.14
704.105	30738.57
704.45	30618.8
704.795	30518.92
705.14	30374.51
705.485	30378.81
705.83	30187.62
706.175	30342.42
706.52	30139.49
706.865	30176.1
707.209	30000.96
707.554	30032.37
707.899	30088.87
708.243	29812.94
708.588	29868.54
708.932	29581.76
709.277	29625.15
709.621	29650.92
709.966	29498.38
710.31	29421.54
710.654	29308.55
710.998	29281.66
711.342	29438.94
711.687	29149.46
712.031	29135.9
712.375	29047.32
712.719	29015.9
713.063	29045.96
713.407	29073.53
713.75	29057.71
714.094	28910.14
714.438	28701.34
714.782	28756.02
715.125	28652.75
715.469	28655.91
715.812	28523.49
716.156	28448.69
716.499	28534.79
716.843	28549.48
717.186	28285.08
717.53	28405.3
717.873	28467.67
718.216	28285.53
718.559	28113.33
718.902	28078.98
719.246	28052.54
719.589	27920.79
719.932	27854.35
720.275	27826.78
720.617	27753.79
720.96	27659.33
721.303	27865.2
721.646	27680.35
721.989	27640.12
722.331	27633.34
722.674	27550.63
723.016	27616.62
723.359	27625.21
723.701	27516.73
724.044	27253.92
724.386	27241.49
724.729	27345.21
725.071	27271.32
725.413	27374.59
725.755	27142.73
726.097	27103.86
726.439	27026.13
726.782	27015.5
727.124	27059.12
727.465	27046.92
727.807	27044.88
728.149	26811.22
728.491	26818.45
728.833	26761.73
729.175	26753.36
729.516	26657.55
729.858	26650.54
730.199	26528.96
730.541	26641.5
730.882	26540.26
731.224	26681.73
731.565	26362.41
731.906	26462.07
732.248	26440.6
732.589	26323.09
732.93	26199.71
733.271	26288.07
733.612	26329.87
733.953	26383.88
734.294	26135.53
734.635	26050.33
734.976	26136.21
735.317	25911.13
735.658	25971.46
735.999	26005.81
736.339	26027.51
736.68	26075.64
737.021	25925.59
737.361	25766.95
737.702	25926.72
738.042	25754.97
738.383	25667.97
738.723	25723.11
739.063	25631.59
739.404	25732.6
739.744	25690.79
740.084	25474.53
740.424	25491.02
740.764	25493.28
741.104	25523.79
741.444	25380.29
741.784	25373.97
742.124	25381.65
742.464	25380.52
742.804	25290.35
743.143	25218.04
743.483	25235.21
743.823	25052.62
744.162	25094.65
744.502	25144.82
744.841	24947.76
745.181	25072.05
745.52	24980.3
745.86	24980.08
746.199	25010.59
746.538	24912.28
746.877	24947.99
747.216	24840.19
747.556	24757.48
747.895	24857.82
748.234	24726.52
748.573	24706.64
748.911	24695.34
749.25	24679.07
749.589	24500.32
749.928	24457.83
750.267	24550.71
750.605	24486.08
750.944	24508.9
751.283	24429.13
751.621	24327.44
751.96	24295.35
752.298	24217.16
752.636	24212.19
752.975	24104.62
753.313	23994.11
753.651	24231.17
753.989	24019.42
754.327	24021.91
754.666	23879.54
755.004	23883.84
755.342	23918.64
755.679	23815.14
756.017	23590.06
756.355	23665.08
756.693	23607.01
757.031	23706.66
757.368	23463.06
757.706	23497.18
758.044	23447.24
758.381	23362.95
758.719	23279.33
759.056	23330.4
759.394	23144.87
759.731	23155.49
760.068	23093.12
760.405	22920.92
