Data from hue_24_FLMS001491_00046.txt Node
Date: Tue Feb 07 17:12:19 GMT 2017
User: dcchb
Spectrometer: FLMS00149
Trigger mode: 0
Integration Time (sec): 2.000000E-2
Scans to average: 10
Electric dark correction enabled: true
Nonlinearity correction enabled: false
Boxcar width: 0
XAxis mode: Wavelengths
Number of Pixels in Spectrum: 2048
>>>>>Begin Spectral Data<<<<<
341.393	-19.83
341.776	-19.83
342.16	-19.83
342.543	-77.68
342.927	-79.94
343.31	-73.84
343.693	-61.41
344.077	-51.92
344.46	-53.73
344.843	-41.3
345.226	-55.54
345.61	-29.32
345.993	-21.86
346.376	-15.08
346.759	11.58
347.142	27.63
347.525	30.79
347.908	52.71
348.291	66.95
348.674	91.81
349.057	122.54
349.44	154.4
349.823	142.43
350.206	157.57
350.588	196.21
350.971	209.32
351.354	224.46
351.737	233.04
352.119	262.65
352.502	254.97
352.884	264.68
353.267	276.43
353.65	297.9
354.032	301.52
354.414	289.77
354.797	319.37
355.179	307.17
355.562	313.49
355.944	337.45
356.326	334.06
356.709	343.1
357.091	340.39
357.473	322.99
357.855	353.72
358.238	342.65
358.62	333.83
359.002	336.09
359.384	344.45
359.766	334.96
360.148	334.74
360.53	349.88
360.912	336.09
361.294	328.64
361.676	342.42
362.057	334.51
362.439	313.95
362.821	349.2
363.203	337.45
363.584	325.7
363.966	322.08
364.348	337.22
364.729	307.17
365.111	322.53
365.493	324.34
365.874	315.3
366.256	314.4
366.637	318.69
367.019	314.17
367.4	331.8
367.781	321.4
368.163	308.97
368.544	323.66
368.925	310.1
369.306	313.04
369.688	338.35
370.069	299.94
370.45	313.95
370.831	310.33
371.212	320.5
371.593	312.59
371.974	315.98
372.355	324.12
372.736	323.44
373.117	317.79
373.498	315.08
373.879	327.51
374.26	320.95
374.641	331.8
375.021	312.14
375.402	308.97
375.783	306.26
376.163	331.35
376.544	332.93
376.925	325.92
377.305	311.46
377.686	333.61
378.066	327.51
378.447	334.28
378.827	322.31
379.208	326.38
379.588	332.93
379.968	339.93
380.349	340.16
380.729	330.44
381.109	351.69
381.489	327.28
381.87	344.91
382.25	355.3
382.63	340.84
383.01	343.1
383.39	342.65
383.77	330.22
384.15	351.91
384.53	329.31
384.91	346.71
385.29	360.05
385.67	357.56
386.049	347.84
386.429	342.42
386.809	383.1
387.189	349.88
387.568	339.71
387.948	362.53
388.328	361.63
388.707	354.17
389.087	370.89
389.466	365.24
389.846	358.69
390.225	355.75
390.605	373.38
390.984	371.12
391.363	369.31
391.743	378.35
392.122	382.19
392.501	377.22
392.881	387.16
393.26	379.48
393.639	356.66
394.018	382.19
394.397	399.37
394.776	393.72
395.155	365.02
395.534	365.47
395.913	387.39
396.292	374.06
396.671	391.46
397.05	401.4
397.429	368.63
397.808	386.04
398.186	421.29
398.565	383.55
398.944	385.13
399.323	378.13
399.701	402.31
400.08	415.86
400.458	398.92
400.837	412.93
401.215	415.64
401.594	384.68
401.972	414.28
402.351	402.76
402.729	416.32
403.107	411.35
403.486	411.8
403.864	408.63
404.242	432.59
404.62	433.94
404.999	439.59
405.377	427.16
405.755	418.58
406.133	413.15
406.511	437.11
406.889	430.78
407.267	440.72
407.645	454.06
408.023	451.8
408.401	452.93
408.779	439.82
409.156	445.92
409.534	423.77
409.912	451.8
410.29	459.71
410.667	454.51
411.045	460.16
411.422	453.6
411.8	455.64
412.178	472.36
412.555	485.02
412.933	480.95
413.31	472.13
413.687	469.2
414.065	492.7
414.442	487.5
414.819	480.95
415.197	508.07
415.574	503.55
415.951	502.87
416.328	499.25
416.705	499.93
417.082	507.84
417.46	523.88
417.837	515.98
418.214	493.83
418.591	521.4
418.967	543.77
419.344	534.96
419.721	529.53
420.098	525.01
420.475	539.25
420.852	554.39
421.228	547.39
421.605	529.99
421.982	558.23
422.358	559.14
422.735	568.18
423.111	546.48
423.488	565.01
423.864	556.65
424.241	575.18
424.617	562.98
424.994	575.41
425.37	600.72
425.746	557.1
426.123	599.59
426.499	585.35
426.875	588.29
427.251	605.46
427.627	606.59
428.003	622.41
428.379	601.85
428.756	596.42
429.132	627.84
429.507	609.98
429.883	633.03
430.259	654.28
430.635	639.59
431.011	638.91
431.387	667.61
431.763	653.6
432.138	666.48
432.514	673.26
432.89	668.74
433.265	661.51
433.641	672.81
434.016	684.78
434.392	688.17
434.767	715.52
435.143	701.06
435.518	702.86
435.894	707.83
436.269	723.88
436.644	721.85
437.02	728.85
437.395	720.94
437.77	736.31
438.145	759.81
438.52	760.94
438.895	736.08
439.271	772.01
439.646	775.86
440.021	768.85
440.395	763.88
440.77	795.29
441.145	787.15
441.52	799.13
441.895	785.57
442.27	795.29
442.645	792.35
443.019	828.28
443.394	792.8
443.769	815.18
444.143	823.09
444.518	833.25
444.892	851.11
445.267	811.56
445.641	854.05
446.016	845.23
446.39	848.17
446.764	851.33
447.139	857.66
447.513	864.21
447.887	881.84
448.262	884.78
448.636	884.55
449.01	860.6
449.384	884.33
449.758	885.46
450.132	908.73
450.506	893.59
450.88	909.86
451.254	911.44
451.628	926.81
452.002	929.98
452.376	915.96
452.75	939.01
453.123	962.52
453.497	951.67
453.871	969.52
454.244	990.31
454.618	993.02
454.992	1005.23
455.365	985.12
455.739	1011.78
456.112	1030.76
456.486	1018.79
456.859	1054.04
457.232	1070.31
457.606	1064.89
457.979	1059.92
458.352	1060.59
458.725	1093.14
459.099	1118.67
459.472	1132.68
459.845	1122.06
460.218	1146.02
460.591	1099.24
460.964	1152.12
461.337	1140.82
461.71	1208.16
462.083	1207.48
462.456	1228.27
462.829	1210.19
463.201	1220.36
463.574	1242.28
463.947	1236.86
464.32	1268.5
464.692	1277.09
465.065	1276.18
465.438	1325.9
465.81	1354.6
466.183	1339.68
466.555	1366.57
466.928	1357.53
467.3	1383.07
467.672	1372.9
468.045	1421.94
468.417	1424.88
468.789	1423.75
469.161	1461.94
469.534	1504.88
469.906	1519.56
470.278	1499.45
470.65	1553.69
471.022	1576.29
471.394	1575.83
471.766	1598.21
472.138	1614.93
472.51	1651.31
472.882	1662.84
473.253	1728.37
473.625	1716.62
473.997	1771.54
474.369	1790.52
474.74	1764.53
475.112	1848.37
475.484	1875.26
475.855	1902.83
476.227	1950.06
476.598	1972.21
476.97	2004.75
477.341	2068.02
477.713	2089.95
478.084	2070.51
478.455	2160.9
478.827	2178.53
479.198	2244.29
479.569	2263.5
479.94	2322.93
480.311	2365.42
480.682	2390.05
481.053	2427.56
481.424	2499.88
481.795	2543.94
482.166	2585.98
482.537	2660.55
482.908	2678.86
483.279	2700.55
483.65	2760.89
484.021	2802.69
484.391	2826.2
484.762	2896.03
485.133	2939.87
485.503	2978.06
485.874	3060.54
486.244	3047.89
486.615	3182.57
486.985	3189.13
487.356	3282.46
487.726	3270.93
488.097	3380.53
488.467	3363.13
488.837	3490.13
489.207	3522
489.578	3533.3
489.948	3594.31
490.318	3664.37
490.688	3659.85
491.058	3765.16
491.428	3813.97
491.798	3877.02
492.168	3893.29
492.538	3981.87
492.908	4032.94
493.278	4067.97
493.648	4073.62
494.017	4150.46
494.387	4169.89
494.757	4242.88
495.126	4302.99
495.496	4327.17
495.866	4307.06
496.235	4425.48
496.605	4438.13
496.974	4492.14
497.344	4545.47
497.713	4524.46
498.082	4560.16
498.452	4653.49
498.821	4642.65
499.19	4655.3
499.559	4690.55
499.928	4791.57
500.298	4792.02
500.667	4862.53
501.036	4824.79
501.405	4853.49
501.774	4920.61
502.143	4947.72
502.512	4997.67
502.88	5021.62
503.249	4967.84
503.618	5053.03
503.987	5068.4
504.356	5129.87
504.724	5110.2
505.093	5141.39
505.462	5208.28
505.83	5218.9
506.199	5258.9
506.567	5312.46
506.936	5289.63
507.304	5365.11
507.672	5437.65
508.041	5427.48
508.409	5437.88
508.777	5516.07
509.145	5479.91
509.514	5514.04
509.882	5557.65
510.25	5555.16
510.618	5605.33
510.986	5631.32
511.354	5645.78
511.722	5667.93
512.09	5770.98
512.458	5719.45
512.826	5805.33
513.193	5762.84
513.561	5834.71
513.929	5895.27
514.297	5932.56
514.664	5970.75
515.032	5949.96
515.4	5980.92
515.767	6022.95
516.135	6033.34
516.502	5975.94
516.869	6121.7
517.237	6107.92
517.604	6111.31
517.972	6140.46
518.339	6162.83
518.706	6179.33
519.073	6238.99
519.44	6223.4
519.808	6225.66
520.175	6262.94
520.542	6344.3
520.909	6335.71
521.276	6356.5
521.643	6419.32
522.009	6462.26
522.376	6477.4
522.743	6519.66
523.11	6642.14
523.477	6594.69
523.843	6674.91
524.21	6725.53
524.577	6682.82
524.943	6742.7
525.31	6815.24
525.676	6837.16
526.043	6873.32
526.409	6880.1
526.776	6965.98
527.142	6991.51
527.508	7028.12
527.874	7102.47
528.241	7050.27
528.607	7064.05
528.973	7172.52
529.339	7128
529.705	7209.81
530.071	7344.95
530.437	7324.84
530.803	7390.14
531.169	7423.14
531.535	7415.23
531.901	7463.14
532.267	7474.89
532.632	7566.41
532.998	7535.23
533.364	7601.89
533.73	7570.25
534.095	7627.43
534.461	7664.71
534.826	7748.1
535.192	7832.39
535.557	7803.47
535.923	7809.12
536.288	7941.99
536.653	7916.46
537.019	7840.75
537.384	7973.63
537.749	7994.65
538.114	8001.88
538.479	7980.19
538.845	8051.82
539.21	8062.67
539.575	8035.55
539.94	8151.48
540.305	8158.26
540.67	8174.08
541.034	8236.9
541.399	8275.09
541.764	8275.77
542.129	8337.01
542.494	8362.32
542.858	8418.14
543.223	8436.67
543.587	8474.86
543.952	8504.24
544.316	8527.52
544.681	8429.67
545.045	8619.94
545.41	8595.54
545.774	8684.57
546.138	8670.34
546.503	8703.33
546.867	8698.36
547.231	8824.46
547.595	8804.12
547.959	8822.2
548.324	8810.9
548.688	8836.66
549.052	8897.9
549.416	8936.54
549.779	8914.62
550.143	8978.13
550.507	9061.97
550.871	9087.73
551.235	9027.39
551.599	9161.85
551.962	9154.84
552.326	9145.13
552.689	9220.61
553.053	9259.47
553.417	9255.18
553.78	9395.06
554.143	9294.95
554.507	9397.1
554.87	9352.8
555.234	9514.38
555.597	9458.34
555.96	9447.49
556.323	9543.31
556.686	9527.49
557.05	9603.19
557.413	9624.21
557.776	9652.91
558.139	9685
558.502	9743.3
558.865	9781.49
559.228	9887.25
559.59	9872.34
559.953	9822.4
560.316	10001.38
560.679	9940.59
561.041	9952.11
561.404	10107.59
561.767	10072.11
562.129	10021.71
562.492	10135.38
562.854	10116.63
563.217	10160.47
563.579	10146
563.941	10247.24
564.304	10272.33
564.666	10338.77
565.028	10345.32
565.39	10330.18
565.753	10474.13
566.115	10418.31
566.477	10540.57
566.839	10550.06
567.201	10663.96
567.563	10565.43
567.925	10635.94
568.287	10697.4
568.648	10672.32
569.01	10866.21
569.372	10842.26
569.734	10881.58
570.095	10905.53
570.457	10955.47
570.819	11040.44
571.18	10989.6
571.542	11108.24
571.903	11174.9
572.265	11172.42
572.626	11280.44
572.987	11309.59
573.349	11348.91
573.71	11340.1
574.071	11353.66
574.432	11472.07
574.794	11484.5
575.155	11611.73
575.516	11606.53
575.877	11734.44
576.238	11738.96
576.599	11893.76
576.96	11912.74
577.32	11992.28
577.681	12095.56
578.042	12230.24
578.403	12256.68
578.763	12363.35
579.124	12450.35
579.485	12618.03
579.845	12724.02
580.206	12765.6
580.566	12881.07
580.927	13011.69
581.287	13115.42
581.648	13299.59
582.008	13500.94
582.368	13618
582.728	13748.17
583.089	13796.76
583.449	14055.51
583.809	14239.23
584.169	14406.68
584.529	14544.53
584.889	14831.98
585.249	14859.1
585.609	15120.34
585.969	15301.12
586.329	15459.99
586.688	15805.06
587.048	15909.24
587.408	16069.01
587.768	16327.76
588.127	16581.54
588.487	16745.83
588.846	17232.37
589.206	17201.86
589.565	17604.57
589.925	17869.19
590.284	18127.04
590.643	18315.73
591.003	18671.88
591.362	19029.16
591.721	19211.53
592.08	19525.19
592.44	19846.31
592.799	20219.86
593.158	20381.89
593.517	20653.52
593.876	21048.09
594.235	21183
594.593	21547.96
594.952	21940.5
595.311	22199.92
595.67	22406.47
596.029	22942.96
596.387	23178.43
596.746	23403.06
597.104	23686.89
597.463	23970.95
597.822	24361
598.18	24518.73
598.538	24902.68
598.897	25346.28
599.255	25417.24
599.613	26077.56
599.972	26292.7
600.33	26572.47
600.688	26692.69
601.046	27045.9
601.404	27503.97
601.762	27773.56
602.12	28098.53
602.478	28447.67
602.836	28690.6
603.194	28894.21
603.552	29260.98
603.91	29299.63
604.268	29792.72
604.625	29808.54
604.983	30365.81
605.341	30334.85
605.698	30808.06
606.056	31231.55
606.413	31330.98
606.771	31700.92
607.128	31893.46
607.485	32060.46
607.843	32205.76
608.2	32706.54
608.557	32980.43
608.914	33239.18
609.272	33466.3
609.629	33768.43
609.986	34116.22
610.343	33985.15
610.7	34517.57
611.057	34751.91
611.414	34724.34
611.771	35132.01
612.127	35342.86
612.484	35410.42
612.841	35719.34
613.198	35753.92
613.554	35985.78
613.911	36331.08
614.267	36496.72
614.624	36552.09
614.98	36784.85
615.337	37218.96
615.693	37288.12
616.05	37414.21
616.406	37837.93
616.762	37854.2
617.118	37924.48
617.475	38038.15
617.831	38209
618.187	38509.33
618.543	38639.27
618.899	38915.42
619.255	39060.05
619.611	39096.66
619.967	39290.55
620.323	39544.78
620.678	39406.7
621.034	39480.83
621.39	39591.78
621.746	39700.93
622.101	40111.32
622.457	39960.14
622.812	40286
623.168	40233.12
623.523	40502.27
623.879	40645.54
624.234	40408.26
624.589	40754.01
624.945	40789.04
625.3	40879.89
625.655	41054.34
626.01	41112.2
626.365	41116.72
626.72	41175.92
627.075	41281.91
627.43	41226.54
627.785	41293.43
628.14	41422.92
628.495	41515.8
628.85	41443.94
629.205	41496.37
629.559	41733.2
629.914	41609.36
630.269	41663.14
630.623	41699.07
630.978	41672.86
631.332	41735.23
631.687	42037.6
632.041	41783.14
632.396	42036.47
632.75	41786.75
633.104	41953.98
633.459	41914.66
633.813	41935.68
634.167	41975.45
634.521	42007.99
634.875	42015
635.229	42106.97
635.583	41990.82
635.937	41980.42
636.291	41869.24
636.645	42008.9
636.999	41938.16
637.352	42094.32
637.706	41947.88
638.06	42019.29
638.413	42059.74
638.767	42029.01
639.121	41937.26
639.474	41799.64
639.828	41856.58
640.181	41892.06
640.534	41928.9
640.888	41805.51
641.241	41734.78
641.594	41952.17
641.947	41934.55
642.301	41765.51
642.654	41941.78
643.007	41930.25
643.36	41902.68
643.713	41788.56
644.066	42129.57
644.419	41711.05
644.771	41343.38
645.124	41173.66
645.477	41175.92
645.83	40966.89
646.182	40818.64
646.535	40707.46
646.888	40838.08
647.24	40614.36
647.593	40953.78
647.945	40775.93
648.298	40609.16
648.65	40444.19
649.002	40440.12
649.355	40607.12
649.707	40471.08
650.059	40768.25
650.411	41264.51
650.763	41299.08
651.115	41719.86
651.467	41473.32
651.819	41593.54
652.171	41354.45
652.523	41327.78
652.875	41401.91
653.227	41351.29
653.578	41489.59
653.93	41434.22
654.282	41222.7
654.633	41145.64
654.985	41394.67
655.337	41464.73
655.688	41439.19
656.039	41358.29
656.391	41089.37
656.742	41321.46
657.094	41174.79
657.445	41451.4
657.796	41234.23
658.147	41160.33
658.498	41338.63
658.849	41344.73
659.2	41223.38
659.551	41210.95
659.902	41405.75
660.253	41106.77
660.604	41300.67
660.955	41129.37
661.306	41313.77
661.656	41224.96
662.007	41249.37
662.358	41197.17
662.708	41170.73
663.059	41166.66
663.409	41046.43
663.76	41271.97
664.11	41209.59
664.461	41217.28
664.811	41128.01
665.161	41195.81
665.511	41039.43
665.862	41043.5
666.212	41175.25
666.562	41170.73
666.912	41158.07
667.262	41125.08
667.612	41016.83
667.962	41119.43
668.312	40935.25
668.662	41239.88
669.011	40987.91
669.361	40927.57
669.711	41012.09
670.06	40986.55
670.41	40806.22
670.76	40837.85
671.109	41001.69
671.459	40973.44
671.808	40881.69
672.157	40994.23
672.507	40741.36
672.856	40829.49
673.205	40925.31
673.554	40982.93
673.904	40819.55
674.253	41017.96
674.602	40844.41
674.951	40427.47
675.3	39987.93
675.649	40725.99
675.998	40782.71
676.346	40693
676.695	40825.2
677.044	40591.08
677.393	40616.84
677.741	40667.46
678.09	40624.75
678.438	40656.39
678.787	40510.4
679.135	40471.31
679.484	40411.2
679.832	40342.72
680.181	40289.39
680.529	40298.43
680.877	40230.64
681.225	40083.3
681.573	40408.03
681.922	40131.88
682.27	40090.98
682.618	40025.44
682.966	39905.9
683.314	39965.11
683.661	39928.05
684.009	39675.4
684.357	39776.41
684.705	39700.26
685.053	39648.51
685.4	39583.2
685.748	39519.7
686.095	39523.31
686.443	39235.41
686.79	39147.28
687.138	39340.27
687.485	39387.04
687.832	39220.04
688.18	39206.94
688.527	39058.01
688.874	38987.51
689.221	38993.61
689.568	38733.73
689.915	38858.24
690.262	38916.77
690.609	38526.5
690.956	38550.23
691.303	38467.97
691.65	38428.88
691.997	38319.27
692.344	38007.19
692.69	38089.22
693.037	38029.57
693.383	37679.74
693.73	37932.62
694.077	37748.89
694.423	37695.79
694.769	37609.46
695.116	37495.79
695.462	37541.22
695.808	37449.02
696.155	37444.5
696.501	37168.12
696.847	37112.75
697.193	37034.79
697.539	37145.29
697.885	36788.24
698.231	36860.78
698.577	36764.97
698.923	36620.56
699.269	36560.9
699.614	36290.63
699.96	36282.72
700.306	36284.53
700.651	36129.73
700.997	36106.45
701.342	36008.38
701.688	35924.54
702.033	35901.71
702.379	35793.92
702.724	35802.05
703.069	35761.83
703.415	35440.03
703.76	35413.14
704.105	35369.75
704.45	35318.9
704.795	35077.78
705.14	35053.37
705.485	34984
705.83	34986.71
706.175	34890.21
706.52	34848.41
706.865	34709.43
707.209	34568.87
707.554	34510.11
707.899	34674.62
708.243	34333.17
708.588	34358.48
708.932	34124.81
709.277	34078.71
709.621	34195.32
709.966	33937.92
710.31	34096.79
710.654	33683.01
710.998	33765.04
711.342	33869.22
711.687	33691.6
712.031	33472.17
712.375	33505.62
712.719	33526.41
713.063	33421.55
713.407	33500.42
713.75	33246.19
714.094	33323.93
714.438	33071.05
714.782	33118.73
715.125	32962.58
715.469	33106.08
715.812	32820.66
716.156	32757.84
716.499	32700.89
716.843	32809.14
717.186	32617.05
717.53	32672.42
717.873	32706.99
718.216	32578.86
718.559	32509.26
718.902	32202.37
719.246	32289.38
719.589	32264.52
719.932	32108.36
720.275	32231.75
720.617	31992.44
720.96	31973.68
721.303	32091.42
721.646	32077.41
721.989	31957.18
722.331	32099.55
722.674	31795.15
723.016	31900.01
723.359	31720.58
723.701	31791.76
724.044	31574.59
724.386	31358.1
724.729	31613.01
725.071	31417.99
725.413	31470.42
725.755	31494.14
726.097	31316.3
726.439	31177.77
726.782	31046.7
727.124	31250.08
727.465	31010.77
727.807	30976.19
728.149	31037.88
728.491	30999.47
728.833	30922.41
729.175	30796.99
729.516	30708.63
729.858	30799.7
730.199	30836.53
730.541	30630.44
730.882	30703.66
731.224	30674.73
731.565	30463.44
731.906	30612.13
732.248	30588.86
732.589	30328.52
732.93	30276.55
733.271	30297.11
733.612	30361.74
733.953	30422.53
734.294	30257.34
734.635	30070.9
734.976	30180.28
735.317	30005.6
735.658	30034.3
735.999	29984.35
736.339	29923.79
736.68	30034.52
737.021	29786.17
737.361	29739.16
737.702	29966.05
738.042	29833.4
738.383	29763.57
738.723	29843.34
739.063	29722.89
739.404	29615.32
739.744	29742.55
740.084	29550.24
740.424	29540.3
740.764	29486.96
741.104	29554.76
741.444	29395.44
741.784	29430.7
742.124	29363.58
742.464	29388.21
742.804	29282.9
743.143	29245.39
743.483	29219.85
743.823	29015.79
744.162	29157.03
744.502	29195.45
744.841	28976.7
745.181	29183.7
745.52	28898.05
745.86	29011.27
746.199	28899.86
746.538	28958.17
746.877	29016.69
747.216	28849.47
747.556	28760.43
747.895	28948
748.234	28630.94
748.573	28714.33
748.911	28625.07
749.25	28630.94
749.589	28565.18
749.928	28556.14
750.267	28662.35
750.605	28643.6
750.944	28463.26
751.283	28322.02
751.621	28469.14
751.96	28250.16
752.298	28272.99
752.636	28364.51
752.975	28111.86
753.313	27958.87
753.651	28236.15
753.989	27991.64
754.327	27829.83
754.666	27711.19
755.004	27863.5
755.342	27993.44
755.679	27766.78
756.017	27714.58
756.355	27719.33
756.693	27640.01
757.031	27721.36
757.368	27491.54
757.706	27351.43
758.044	27282.28
758.381	27360.47
758.719	27412.67
759.056	27291.99
759.394	27157.08
759.731	27034.6
