Data from hue_180_FLMS001491_00017.txt Node
Date: Tue Feb 07 16:46:38 GMT 2017
User: dcchb
Spectrometer: FLMS00149
Trigger mode: 0
Integration Time (sec): 2.000000E-2
Scans to average: 10
Electric dark correction enabled: true
Nonlinearity correction enabled: false
Boxcar width: 0
XAxis mode: Wavelengths
Number of Pixels in Spectrum: 2048
>>>>>Begin Spectral Data<<<<<
341.393	10.69
341.776	10.69
342.16	10.69
342.543	-61.17
342.927	-60.27
343.31	-70.89
343.693	-81.74
344.077	-64.56
344.46	-60.04
344.843	-68.18
345.226	-39.93
345.61	-30.44
345.993	-29.08
346.376	-4.68
346.759	16.34
347.142	30.8
347.525	46.62
347.908	67.87
348.291	77.81
348.674	100.86
349.057	109.22
349.44	109.67
349.823	148.77
350.206	181.31
350.588	187.18
350.971	197.58
351.354	243
351.737	258.14
352.119	245.26
352.502	261.98
352.884	282.1
353.267	279.39
353.65	289.1
354.032	302.21
354.414	303.57
354.797	319.61
355.179	323
355.562	322.1
355.944	318.03
356.326	333.62
356.709	320.06
357.091	314.64
357.473	336.11
357.855	345.15
358.238	339.5
358.62	329.33
359.002	348.31
359.384	332.72
359.766	323.45
360.148	330.91
360.53	334.75
360.912	331.36
361.294	333.62
361.676	332.94
362.057	347.63
362.439	338.82
362.821	323.9
363.203	310.8
363.584	295.66
363.966	322.32
364.348	308.99
364.729	321.64
365.111	310.8
365.493	319.84
365.874	307.18
366.256	318.93
366.637	317.8
367.019	323.23
367.4	321.42
367.781	325.49
368.163	287.52
368.544	314.41
368.925	316.67
369.306	306.28
369.688	294.3
370.069	313.73
370.45	284.81
370.831	301.76
371.212	312.38
371.593	294.53
371.974	325.26
372.355	304.47
372.736	329.55
373.117	312.15
373.498	300.85
373.879	302.89
374.26	310.57
374.641	289.78
375.021	318.03
375.402	320.74
375.783	305.37
376.163	309.22
376.544	317.8
376.925	338.37
377.305	342.43
377.686	325.26
378.066	319.38
378.447	313.96
378.827	342.43
379.208	339.27
379.588	334.98
379.968	327.07
380.349	316.9
380.729	335.2
381.109	335.2
381.489	340.85
381.87	323.23
382.25	350.34
382.63	337.01
383.01	340.17
383.39	331.59
383.77	330.68
384.15	365.94
384.53	329.78
384.91	335.2
385.29	365.71
385.67	349.67
386.049	344.24
386.429	341.76
386.809	349.89
387.189	362.09
387.568	351.7
387.948	327.52
388.328	362.55
388.707	357.8
389.087	354.19
389.466	366.61
389.846	360.74
390.225	353.28
390.605	366.84
390.984	365.48
391.363	372.72
391.743	355.99
392.122	372.49
392.501	365.71
392.881	381.53
393.26	348.08
393.639	391.7
394.018	386.05
394.397	403.68
394.776	381.08
395.155	408.42
395.534	391.7
395.913	374.3
396.292	376.33
396.671	388.31
397.05	399.83
397.429	392.83
397.808	401.87
398.186	399.83
398.565	406.39
398.944	401.64
399.323	406.16
399.701	411.36
400.08	413.62
400.458	398.93
400.837	423.34
401.215	440.06
401.594	403.68
401.972	426.95
402.351	408.65
402.729	419.04
403.107	426.95
403.486	425.14
403.864	438.25
404.242	440.74
404.62	434.86
404.999	437.8
405.377	445.48
405.755	442.77
406.133	437.12
406.511	461.53
406.889	459.27
407.267	473.05
407.645	479.15
408.023	461.53
408.401	456.78
408.779	470.57
409.156	508.31
409.534	490.23
409.912	510.11
410.29	511.24
410.667	526.84
411.045	519.83
411.422	534.29
411.8	523.22
412.178	531.81
412.555	554.86
412.933	550.79
413.31	560.96
413.687	571.58
414.065	584.24
414.442	587.85
414.819	580.17
415.197	584.69
415.574	605.48
415.951	594.86
416.328	594.41
416.705	644.12
417.082	620.17
417.46	639.38
417.837	645.48
418.214	637.12
418.591	662.88
418.967	655.42
419.344	678.7
419.721	681.63
420.098	686.15
420.475	715.31
420.852	688.64
421.228	717.34
421.605	738.36
421.982	726.38
422.358	744.01
422.735	745.14
423.111	747.62
423.488	741.29
423.864	777.9
424.241	792.14
424.617	802.54
424.994	806.6
425.37	818.13
425.746	834.17
426.123	840.27
426.499	846.38
426.875	870.56
427.251	880.05
427.627	886.83
428.003	906.49
428.379	898.13
428.756	912.59
429.132	930.89
429.507	925.7
429.883	891.8
430.259	942.19
430.635	984.9
431.011	982.64
431.387	975.41
431.763	1008.86
432.138	1004.56
432.514	1024
432.89	1018.57
433.265	1060.61
433.641	1066.48
434.016	1097.44
434.392	1125.24
434.767	1149.19
435.143	1143.32
435.518	1151.23
435.894	1195.29
436.269	1198.91
436.644	1236.2
437.02	1235.29
437.395	1230.32
437.77	1270.55
438.145	1276.42
438.52	1324.78
438.895	1312.13
439.271	1312.13
439.646	1363.42
440.021	1348.74
440.395	1363.88
440.77	1368.85
441.145	1391.9
441.52	1437.77
441.895	1430.99
442.27	1459.69
442.645	1470.77
443.019	1482.52
443.394	1505.34
443.769	1481.84
444.143	1510.99
444.518	1554.83
444.892	1539.92
445.267	1569.97
445.641	1556.41
446.016	1576.53
446.39	1567.94
446.764	1588.73
447.139	1581.5
447.513	1608.16
447.887	1624.66
448.262	1646.13
448.636	1686.58
449.01	1701.27
449.384	1731.32
449.758	1727.26
450.132	1744.43
450.506	1737.43
450.88	1758.22
451.254	1747.37
451.628	1793.47
452.002	1791.89
452.376	1823.75
452.75	1833.47
453.123	1855.16
453.497	1869.17
453.871	1870.08
454.244	1935.39
454.618	1922.51
454.992	1964.99
455.365	1985.56
455.739	2033.01
456.112	2027.36
456.486	2025.33
456.859	2069.39
457.232	2128.15
457.606	2167.92
457.979	2178.54
458.352	2200.01
458.725	2220.35
459.099	2235.27
459.472	2279.56
459.845	2301.48
460.218	2332.44
460.591	2322.27
460.964	2372.66
461.337	2406.79
461.71	2440.46
462.083	2493.11
462.456	2494.69
462.829	2548.7
463.201	2557.74
463.574	2558.65
463.947	2617.63
464.32	2648.14
464.692	2702.37
465.065	2735.14
465.438	2738.98
465.81	2781.69
466.183	2847.68
466.555	2920.22
466.928	2955.02
467.3	2929.94
467.672	2999.77
468.045	3040.22
468.417	3098.75
468.789	3111.18
469.161	3154.11
469.534	3219.65
469.906	3252.64
470.278	3319.08
470.65	3396.37
471.022	3433.88
471.394	3478.4
471.766	3535.12
472.138	3553.2
472.51	3611.28
472.882	3748.22
473.253	3745.06
473.625	3825.51
473.997	3895.79
474.369	3959.74
474.74	4027.99
475.112	4087.87
475.484	4150.92
475.855	4217.36
476.227	4271.82
476.598	4386.62
476.97	4462.55
477.341	4544.13
477.713	4658.25
478.084	4668.42
478.455	4813.05
478.827	4883.56
479.198	5047.17
479.569	5078.13
479.94	5185.92
480.311	5265.02
480.682	5380.27
481.053	5502.98
481.424	5591.56
481.795	5645.57
482.166	5775.06
482.537	5856.64
482.908	6011.21
483.279	6073.58
483.65	6179.8
484.021	6357.87
484.391	6423.4
484.762	6455.72
485.133	6534.36
485.503	6707.92
485.874	6854.58
486.244	6917.18
486.615	7061.58
486.985	7149.49
487.356	7301.57
487.726	7386.77
488.097	7551.96
488.467	7537.95
488.837	7694.11
489.207	7777.72
489.578	7977.94
489.948	8077.15
490.318	8159.4
490.688	8188.56
491.058	8390.81
491.428	8486.4
491.798	8559.85
492.168	8702.67
492.538	8772.72
492.908	8879.61
493.278	9016.1
493.648	9003
494.017	9154.86
494.387	9241.86
494.757	9287.28
495.126	9429.65
495.496	9497.45
495.866	9465.36
496.235	9645.69
496.605	9651.79
496.974	9685.69
497.344	9915.52
497.713	9882.07
498.082	10015.85
498.452	10089.52
498.821	10038.22
499.19	10108.28
499.559	10277.54
499.928	10285.68
500.298	10283.19
500.667	10457.42
501.036	10402.73
501.405	10429.85
501.774	10532.9
502.143	10610.87
502.512	10593.92
502.88	10661.03
503.249	10649.28
503.618	10829.84
503.987	10841.82
504.356	10822.38
504.724	10841.59
505.093	10896.73
505.462	10983.74
505.83	10975.38
506.199	11064.41
506.567	11204.75
506.936	11153.45
507.304	11230.28
507.672	11316.84
508.041	11369.94
508.409	11368.36
508.777	11404.97
509.145	11487.23
509.514	11469.37
509.882	11498.53
510.25	11489.71
510.618	11530.61
510.986	11624.85
511.354	11595.25
511.722	11632.76
512.09	11686.09
512.458	11649.48
512.826	11795.01
513.193	11769.93
513.561	11777.84
513.929	11841.12
514.297	11854.67
514.664	11973.09
515.032	11955.01
515.4	11995.69
515.767	11959.53
516.135	12039.53
516.502	11924.5
516.869	12106.87
517.237	12135.57
517.604	12002.69
517.972	12137.15
518.339	12039.3
518.706	12076.36
519.073	12084.95
519.44	12132.41
519.808	12177.83
520.175	12166.3
520.542	12296.7
520.909	12312.97
521.276	12276.13
521.643	12347.77
522.009	12402.91
522.376	12340.76
522.743	12378.95
523.11	12445.39
523.477	12491.49
523.843	12562.9
524.21	12468.44
524.577	12571.72
524.943	12589.57
525.31	12500.76
525.676	12616.24
526.043	12630.7
526.409	12577.37
526.776	12659.17
527.142	12569.91
527.508	12648.33
527.874	12761.54
528.241	12721.09
528.607	12634.09
528.973	12738.27
529.339	12656.91
529.705	12702.56
530.071	12705.27
530.437	12681.32
530.803	12696.69
531.169	12704.37
531.535	12580.76
531.901	12481.1
532.267	12533.98
532.632	12540.98
532.998	12546.18
533.364	12619.63
533.73	12482.23
534.095	12563.36
534.461	12495.34
534.826	12449.91
535.192	12487.2
535.557	12533.98
535.923	12405.85
536.288	12380.08
536.653	12373.3
537.019	12249.92
537.384	12242.91
537.749	12308.67
538.114	12229.35
538.479	12191.84
538.845	12214.89
539.21	12131.73
539.575	12101.67
539.94	12123.59
540.305	12020.09
540.67	12011.96
541.034	11925.18
541.399	11999.08
541.764	11928.34
542.129	11840.21
542.494	11846.99
542.858	11854.45
543.223	11683.15
543.587	11671.4
543.952	11653.78
544.316	11675.24
544.681	11554.8
545.045	11537.85
545.41	11531.29
545.774	11461.92
546.138	11485.64
546.503	11392.77
546.867	11346.89
547.231	11327.23
547.595	11291.75
547.959	11306.89
548.324	11230.06
548.688	11161.59
549.052	11103.96
549.416	11074.36
549.779	11010.85
550.143	10979.67
550.507	10945.55
550.871	10950.07
551.235	10878.65
551.599	10922.04
551.962	10880.69
552.326	10783.74
552.689	10786.68
553.053	10710.52
553.417	10687.93
553.78	10786
554.143	10649.06
554.507	10627.36
554.87	10599.79
555.234	10670.75
555.597	10556.4
555.96	10511.66
556.323	10601.83
556.686	10473.92
557.05	10592.33
557.413	10551.43
557.776	10515.73
558.139	10454.03
558.502	10427.82
558.865	10414.03
559.228	10472.34
559.59	10396.18
559.953	10424.43
560.316	10511.88
560.679	10387.82
561.041	10342.62
561.404	10433.24
561.767	10396.41
562.129	10366.8
562.492	10402.96
562.854	10425.56
563.217	10366.35
563.579	10350.08
563.941	10438.21
564.304	10361.15
564.666	10344.88
565.028	10362.51
565.39	10361.61
565.753	10373.36
566.115	10346.01
566.477	10413.58
566.839	10411.55
567.201	10439.34
567.563	10383.07
567.925	10433.24
568.287	10398.22
568.648	10352.11
569.01	10442.28
569.372	10397.99
569.734	10314.83
570.095	10447.93
570.457	10432.79
570.819	10450.19
571.18	10371.32
571.542	10456.29
571.903	10468.04
572.265	10468.27
572.626	10475.05
572.987	10454.71
573.349	10455.39
573.71	10494.71
574.071	10419.01
574.432	10501.49
574.794	10541.94
575.155	10481.38
575.516	10462.39
575.877	10496.97
576.238	10471.66
576.599	10497.2
576.96	10437.31
577.32	10494.48
577.681	10493.13
578.042	10489.96
578.403	10446.35
578.763	10487.7
579.124	10504.88
579.485	10600.92
579.845	10572.22
580.206	10488.16
580.566	10468.72
580.927	10440.25
581.287	10509.4
581.648	10520.25
582.008	10485.22
582.368	10504.65
582.728	10537.87
583.089	10425.11
583.449	10466.46
583.809	10518.44
584.169	10456.97
584.529	10459
584.889	10437.31
585.249	10433.92
585.609	10307.14
585.969	10394.15
586.329	10409.51
586.688	10384.88
587.048	10383.98
587.408	10254.72
587.768	10355.05
588.127	10285.45
588.487	10263.08
588.846	10345.11
589.206	10336.97
589.565	10285.45
589.925	10343.08
590.284	10216.07
590.643	10315.28
591.003	10297.65
591.362	10267.15
591.721	10280.48
592.08	10289.29
592.44	10327.26
592.799	10216.98
593.158	10236.64
593.517	10200.93
593.876	10131.1
594.235	10179.24
594.593	10274.6
594.952	10237.77
595.311	10155.06
595.67	10181.05
596.029	10157.54
596.387	10243.64
596.746	10144.44
597.104	10118.67
597.463	10142.4
597.822	10160.93
598.18	10156.87
598.538	10125.45
598.897	10185.79
599.255	9999.36
599.613	10254.26
599.972	10136.08
600.33	10190.54
600.688	10023.54
601.046	10176.75
601.404	10133.36
601.762	10211.78
602.12	10153.48
602.478	10165.23
602.836	10153.93
603.194	10091.33
603.552	10082.52
603.91	10064.21
604.268	10123.19
604.625	10096.08
604.983	10198.22
605.341	10107.38
605.698	10116.64
606.056	10096.75
606.413	10116.64
606.771	10113.7
607.128	10197.09
607.485	10068.51
607.843	10042.74
608.2	10130.43
608.557	10172.68
608.914	10122.29
609.272	10203.87
609.629	10165.91
609.986	10207.94
610.343	10189.41
610.7	10270.54
611.057	10198.9
611.414	10122.74
611.771	10150.54
612.127	10162.74
612.484	10178.79
612.841	10199.8
613.198	10253.36
613.554	10219.69
613.911	10246.35
614.267	10265.79
614.624	10220.14
614.98	10268.73
615.337	10308.27
615.693	10269.63
616.05	10290.65
616.406	10335.84
616.762	10278.67
617.118	10235.51
617.475	10240.71
617.831	10251.78
618.187	10316.64
618.543	10271.21
618.899	10331.1
619.255	10286.13
619.611	10303.3
619.967	10365.45
620.323	10389.85
620.678	10308.05
621.034	10280.7
621.39	10306.47
621.746	10362.74
622.101	10460.13
622.457	10329.29
622.812	10351.21
623.168	10363.64
623.523	10391.89
623.879	10432.11
624.234	10308.5
624.589	10332.45
624.945	10326.13
625.3	10336.3
625.655	10347.6
626.01	10384.66
626.365	10357.54
626.72	10293.81
627.075	10295.17
627.43	10322.06
627.785	10292.68
628.14	10323.64
628.495	10341.27
628.85	10336.3
629.205	10268.95
629.559	10345.11
629.914	10174.72
630.269	10300.14
630.623	10255.85
630.978	10232.8
631.332	10241.38
631.687	10311.21
632.041	10173.81
632.396	10142.85
632.75	10178.56
633.104	10137.43
633.459	10167.26
633.813	10146.02
634.167	10173.81
634.521	10158.45
634.875	10178.33
635.229	10116.19
635.583	10091.78
635.937	10034.16
636.291	10036.64
636.645	10030.32
636.999	10035.06
637.352	10018.56
637.706	9967.04
638.06	10012.91
638.413	9976.53
638.767	9982.86
639.121	10036.42
639.474	9965.68
639.828	9924.56
640.181	9929.75
640.534	9902.41
640.888	9849.53
641.241	9887.27
641.594	9936.08
641.947	9948.96
642.301	9821.06
642.654	9851.34
643.007	9875.29
643.36	9857.21
643.713	9872.81
644.066	9819.47
644.419	9778.34
644.771	9721.4
645.124	9684.34
645.477	9682.98
645.83	9582.64
646.182	9569.08
646.535	9530.22
646.888	9594.85
647.24	9509.88
647.593	9525.24
647.945	9559.14
648.298	9467.84
648.65	9431.24
649.002	9462.42
649.355	9476.66
649.707	9501.74
650.059	9546.26
650.411	9630.33
650.763	9684.34
651.115	9775.63
651.467	9652.92
651.819	9790.77
652.171	9692.7
652.523	9689.76
652.875	9727.27
653.227	9654.96
653.578	9726.82
653.93	9721.4
654.282	9665.35
654.633	9679.36
654.985	9685.69
655.337	9709.19
655.688	9741.74
656.039	9785.12
656.391	9673.94
656.742	9684.34
657.094	9700.38
657.445	9824.45
657.796	9713.49
658.147	9705.58
658.498	9724.11
658.849	9701.28
659.2	9683.88
659.551	9668.74
659.902	9716.65
660.253	9658.8
660.604	9696.76
660.955	9671
661.306	9754.39
661.656	9716.43
662.007	9731.79
662.358	9780.15
662.708	9771.11
663.059	9802.3
663.409	9687.5
663.76	9778.34
664.11	9798.68
664.461	9717.78
664.811	9795.75
665.161	9705.58
665.511	9761.4
665.862	9744.67
666.212	9796.42
666.562	9828.51
666.912	9825.8
667.262	9721.17
667.612	9795.52
667.962	9798.91
668.312	9701.06
668.662	9796.88
669.011	9749.19
669.361	9692.7
669.711	9728.4
670.06	9755.75
670.41	9690.21
670.76	9740.38
671.109	9714.62
671.459	9753.49
671.808	9661.74
672.157	9675.75
672.507	9758.23
672.856	9677.1
673.205	9665.58
673.554	9757.1
673.904	9672.13
674.253	9713.49
674.602	9633.49
674.951	9526.83
675.3	9502.19
675.649	9644.79
675.998	9617.22
676.346	9577.22
676.695	9605.69
677.044	9534.96
677.393	9588.75
677.741	9642.98
678.09	9587.84
678.438	9486.6
678.787	9579.48
679.135	9560.5
679.484	9480.95
679.832	9500.84
680.181	9395.76
680.529	9406.83
680.877	9419.26
681.225	9395.3
681.573	9518.92
681.922	9443.89
682.27	9382.2
682.618	9410.67
682.966	9388.52
683.314	9349.43
683.661	9341.29
684.009	9313.27
684.357	9217.23
684.705	9257.23
685.053	9242.54
685.4	9231.24
685.748	9201.18
686.095	9181.75
686.443	9073.96
686.79	9165.25
687.138	9165.25
687.485	9152.37
687.832	9151.69
688.18	9089.1
688.527	9006.16
688.874	8953.96
689.221	8955.32
689.568	8929.78
689.915	8930.01
690.262	8889.55
690.609	8929.33
690.956	8869.22
691.303	8838.48
691.65	8887.75
691.997	8810.01
692.344	8730.24
692.69	8676.68
693.037	8697.7
693.383	8637.58
693.73	8654.98
694.077	8625.38
694.423	8542.44
694.769	8512.16
695.116	8526.17
695.462	8410.24
695.808	8424.93
696.155	8444.37
696.501	8425.84
696.847	8320.3
697.193	8286.41
697.539	8346.52
697.885	8266.75
698.231	8273.75
698.577	8226.52
698.923	8257.93
699.269	8173.87
699.614	8061.78
699.96	8109.46
700.306	8140.42
700.651	8055.23
700.997	7991.72
701.342	8036.47
701.688	8023.36
702.033	7951.73
702.379	7933.87
702.724	7882.12
703.069	7863.14
703.415	7856.14
703.76	7905.4
704.105	7826.53
704.45	7852.75
704.795	7736.14
705.14	7679.64
705.485	7697.27
705.83	7668.12
706.175	7699.98
706.52	7595.58
706.865	7600.77
707.209	7602.36
707.554	7512.87
707.899	7587.22
708.243	7513.77
708.588	7481.23
708.932	7390.61
709.277	7474.9
709.621	7436.03
709.966	7369.37
710.31	7359.2
710.654	7335.47
710.998	7339.54
711.342	7330.73
711.687	7242.37
712.031	7277.85
712.375	7276.04
712.719	7225.64
713.063	7197.62
713.407	7210.05
713.75	7213.44
714.094	7146.1
714.438	7175.02
714.782	7205.76
715.125	7150.62
715.469	7145.19
715.812	7099.54
716.156	7036.27
716.499	7050.28
716.843	7109.49
717.186	7073.33
717.53	7023.61
717.873	7095.48
718.216	7021.13
718.559	7003.28
718.902	6976.61
719.246	6997.85
719.589	6892.77
719.932	6902.94
720.275	6916.5
720.617	6932.54
720.96	6893.9
721.303	6947.23
721.646	6882.15
721.989	6909.04
722.331	6936.39
722.674	6904.3
723.016	6926.89
723.359	6947.68
723.701	6901.58
724.044	6825.65
724.386	6858.65
724.729	6902.04
725.071	6876.27
725.413	6844.18
725.755	6807.8
726.097	6821.13
726.439	6798.08
726.782	6788.82
727.124	6777.52
727.465	6771.42
727.807	6800.34
728.149	6824.75
728.491	6742.49
728.833	6836.95
729.175	6791.98
729.516	6782.49
729.858	6770.06
730.199	6763.73
730.541	6724.19
730.882	6751.08
731.224	6810.29
731.565	6700.46
731.906	6718.54
732.248	6808.93
732.589	6688.71
732.93	6726.22
733.271	6757.18
733.612	6751.53
733.953	6758.31
734.294	6696.84
734.635	6752.21
734.976	6739.78
735.317	6689.39
735.658	6752.21
735.999	6765.54
736.339	6709.05
736.68	6759.44
737.021	6729.16
737.361	6783.62
737.702	6813.68
738.042	6789.95
738.383	6779.55
738.723	6856.84
739.063	6778.88
739.404	6796.73
739.744	6808.03
740.084	6832.89
740.424	6832.89
740.764	6849.83
741.104	6893.45
741.444	6880.34
741.784	6892.77
742.124	6859.78
742.464	6925.54
742.804	6895.48
743.143	6957.63
743.483	6963.96
743.823	6909.04
744.162	6972.99
744.502	7026.55
744.841	7065.65
745.181	7091.86
745.52	7110.62
745.86	7125.76
746.199	7200.56
746.538	7231.29
746.877	7231.97
747.216	7262.7
747.556	7307.22
747.895	7415.92
748.234	7423.38
748.573	7444.85
748.911	7509.93
749.25	7619.76
749.589	7611.85
749.928	7697.5
750.267	7724.16
750.605	7864.5
750.944	7924.83
751.283	7932.97
751.621	8098.39
751.96	8110.82
752.298	8193.98
752.636	8310.36
752.975	8349.68
753.313	8508.77
753.651	8544.7
753.989	8660.18
754.327	8730.69
754.666	8814.98
755.004	8944.02
755.342	9103.11
755.679	9254.29
756.017	9289.54
756.355	9444.34
756.693	9525.47
757.031	9682.3
757.368	9825.8
757.706	10022.86
758.044	10094.72
758.381	10235.28
758.719	10407.93
759.056	10546.46
759.394	10666.23
759.731	10836.17
760.068	10963.4
760.405	11163.39
760.743	11246.55
761.08	11482.03
761.417	11579.88
