Data from hue_140_FLMS001491_00010.txt Node
Date: Tue Feb 07 16:55:18 GMT 2017
User: dcchb
Spectrometer: FLMS00149
Trigger mode: 0
Integration Time (sec): 2.000000E-2
Scans to average: 10
Electric dark correction enabled: true
Nonlinearity correction enabled: false
Boxcar width: 0
XAxis mode: Wavelengths
Number of Pixels in Spectrum: 2048
>>>>>Begin Spectral Data<<<<<
341.393	-3.43
341.776	-3.43
342.16	-3.43
342.543	-58.8
342.927	-63.54
343.31	-67.16
343.693	-88.4
344.077	-67.84
344.46	-67.84
344.843	-59.25
345.226	-29.87
345.61	-26.03
345.993	-15.18
346.376	-9.08
346.759	15.78
347.142	17.81
347.525	31.6
347.908	77.02
348.291	86.51
348.674	92.38
349.057	109.56
349.44	138.26
349.823	152.95
350.206	175.55
350.588	199.5
350.971	196.11
351.354	246.05
351.737	259.84
352.119	244.47
352.502	287.86
352.884	284.24
353.267	278.37
353.65	298.03
354.032	307.29
354.414	305.49
354.797	301.19
355.179	316.33
355.562	332.83
355.944	346.84
356.326	349.33
356.709	340.51
357.091	355.2
357.473	354.07
357.855	338.93
358.238	341.87
358.62	350.46
359.002	360.17
359.384	349.33
359.766	347.29
360.148	334.41
360.53	335.99
360.912	354.75
361.294	350.46
361.676	338.25
362.057	344.36
362.439	353.17
362.821	331.47
363.203	326.95
363.584	349.1
363.966	344.36
364.348	331.93
364.729	350.46
365.111	327.86
365.493	302.32
365.874	330.34
366.256	300.97
366.637	319.5
367.019	320.63
367.4	308.42
367.781	318.14
368.163	334.64
368.544	322.89
368.925	322.21
369.306	332.15
369.688	328.54
370.069	306.16
370.45	286.73
370.831	326.05
371.212	327.41
371.593	307.75
371.974	306.16
372.355	300.97
372.736	319.27
373.117	335.09
373.498	310.91
373.879	324.47
374.26	333.06
374.641	310.01
375.021	326.5
375.402	309.55
375.783	337.58
376.163	326.05
376.544	348.2
376.925	322.44
377.305	312.94
377.686	325.82
378.066	330.34
378.447	359.27
378.827	342.1
379.208	324.92
379.588	368.54
379.968	347.52
380.349	349.55
380.729	347.52
381.109	344.36
381.489	337.8
381.87	358.14
382.25	345.71
382.63	347.97
383.01	347.29
383.39	343.45
383.77	361.3
384.15	349.55
384.53	348.65
384.91	339.84
385.29	362.43
385.67	360.85
386.049	338.93
386.429	378.7
386.809	370.12
387.189	356.33
387.568	365.37
387.948	375.09
388.328	360.4
388.707	360.63
389.087	347.97
389.466	378.03
389.846	373.51
390.225	370.12
390.605	374.41
390.984	384.58
391.363	360.4
391.743	367.63
392.122	380.96
392.501	374.41
392.881	364.69
393.26	366.5
393.639	385.48
394.018	373.51
394.397	373.06
394.776	381.64
395.155	372.38
395.534	398.59
395.913	396.33
396.292	378.93
396.671	395.2
397.05	405.82
397.429	381.64
397.808	400.17
398.186	385.48
398.565	411.92
398.944	395.2
399.323	397.24
399.701	406.27
400.08	403.79
400.458	391.13
400.837	401.53
401.215	395.88
401.594	406.95
401.972	420.74
402.351	434.75
402.729	418.03
403.107	431.58
403.486	418.03
403.864	425.26
404.242	405.37
404.62	428.87
404.999	423
405.377	452.6
405.755	433.17
406.133	419.61
406.511	444.47
406.889	436.33
407.267	443.56
407.645	443.11
408.023	431.58
408.401	457.12
408.779	460.51
409.156	446.95
409.534	462.77
409.912	476.56
410.29	465.03
410.667	467.52
411.045	477.23
411.422	477.46
411.8	483.33
412.178	503.22
412.555	483.79
412.933	484.69
413.31	489.21
413.687	492.6
414.065	495.76
414.442	502.54
414.819	496.44
415.197	515.88
415.574	527.63
415.951	517.23
416.328	507.06
416.705	518.14
417.082	517.91
417.46	535.76
417.837	521.07
418.214	515.2
418.591	529.89
418.967	533.28
419.344	555.88
419.721	540.96
420.098	538.47
420.475	540.51
420.852	535.31
421.228	557.46
421.605	552.94
421.982	544.12
422.358	561.3
422.735	568.08
423.111	582.99
423.488	568.53
423.864	571.69
424.241	577.8
424.617	584.35
424.994	588.64
425.37	592.48
425.746	582.09
426.123	600.62
426.499	598.13
426.875	606.72
427.251	616.21
427.627	641.97
428.003	634.07
428.379	622.31
428.756	621.64
429.132	627.74
429.507	636.1
429.883	624.57
430.259	645.82
430.635	655.31
431.011	650.34
431.387	662.77
431.763	669.09
432.138	667.74
432.514	697.34
432.89	687.17
433.265	690.11
433.641	715.87
434.016	702.99
434.392	707.28
434.767	713.16
435.143	730.79
435.518	716.77
435.894	717.9
436.269	738.02
436.644	771.01
437.02	762.65
437.395	761.75
437.77	774.17
438.145	755.19
438.52	770.33
438.895	772.37
439.271	796.09
439.646	797.22
440.021	824.79
440.395	819.82
440.77	802.65
441.145	805.13
441.52	820.28
441.895	833.16
442.27	811.91
442.645	851.23
443.019	849.88
443.394	853.72
443.769	857.11
444.143	842.42
444.518	841.29
444.892	872.48
445.267	876.54
445.641	879.93
446.016	877.9
446.39	906.15
446.764	904.57
447.139	899.14
447.513	864.57
447.887	902.53
448.262	885.58
448.636	917.45
449.01	934.85
449.384	930.55
449.758	914.96
450.132	951.8
450.506	951.57
450.88	940.05
451.254	981.85
451.628	973.49
452.002	975.98
452.376	987.5
452.75	978.01
453.123	991.8
453.497	1007.84
453.871	1039.93
454.244	1015.3
454.618	1044.9
454.992	1040.38
455.365	1051.46
455.739	1075.86
456.112	1076.54
456.486	1122.41
456.859	1072.25
457.232	1129.42
457.606	1131.23
457.979	1142.53
458.352	1161.96
458.725	1170.1
459.099	1173.26
459.472	1178.68
459.845	1189.53
460.218	1222.98
460.591	1238.8
460.964	1238.57
461.337	1246.25
461.71	1296.87
462.083	1286.48
462.456	1304.1
462.829	1320.37
463.201	1310.43
463.574	1356.08
463.947	1378
464.32	1360.15
464.692	1390.88
465.065	1436.08
465.438	1457.32
465.81	1470.2
466.183	1502.74
466.555	1505.23
466.928	1523.31
467.3	1524.66
467.672	1568.5
468.045	1610.54
468.417	1595.17
468.789	1622.74
469.161	1636.98
469.534	1701.61
469.906	1732.79
470.278	1784.54
470.65	1769.18
471.022	1804.88
471.394	1866.8
471.766	1870.42
472.138	1898.21
472.51	1933.69
472.882	1987.93
473.253	2005.33
473.625	2067.47
473.997	2117.42
474.369	2144.08
474.74	2219.33
475.112	2252.1
475.484	2280.58
475.855	2365.32
476.227	2405.09
476.598	2481.47
476.97	2533
477.341	2600.57
477.713	2616.84
478.084	2687.34
478.455	2775.93
478.827	2806.21
479.198	2909.71
479.569	2990.84
479.94	3077.62
480.311	3154.22
480.682	3232.19
481.053	3354.22
481.424	3414.78
481.795	3485.29
482.166	3575
482.537	3713.08
482.908	3782.68
483.279	3872.17
483.65	3984.71
484.021	4132.96
484.391	4175.67
484.762	4293.18
485.133	4388.77
485.503	4520.52
485.874	4647.97
486.244	4750.12
486.615	4870.11
486.985	5007.51
487.356	5205.47
487.726	5207.05
488.097	5394.17
488.467	5459.48
488.837	5685.01
489.207	5771.33
489.578	5933.36
489.948	6039.8
490.318	6214.94
490.688	6316.85
491.058	6449.73
491.428	6586.9
491.798	6741.7
492.168	6905.31
492.538	7014.01
492.908	7136.04
493.278	7330.16
493.648	7411.97
494.017	7562.02
494.387	7705.07
494.757	7876.81
495.126	7979.41
495.496	8101.89
495.866	8217.59
496.235	8343.69
496.605	8514.31
496.974	8561.09
497.344	8760.41
497.713	8829.1
498.082	8942.32
498.452	9081.3
498.821	9188.42
499.19	9274.97
499.559	9447.62
499.928	9526.26
500.298	9683.09
500.667	9873.82
501.036	9860.49
501.405	10014.84
501.774	10080.6
502.143	10208.05
502.512	10222.97
502.88	10375.73
503.249	10465.67
503.618	10592.9
503.987	10617.31
504.356	10758.32
504.724	10780.69
505.093	10886.68
505.462	10974.36
505.83	11042.38
506.199	11150.4
506.567	11259.55
506.936	11306.55
507.304	11460.67
507.672	11558.98
508.041	11572.08
508.409	11674.45
508.777	11854.34
509.145	11904.28
509.514	11936.59
509.882	12031.73
510.25	12050.04
510.618	12028.57
510.986	12228.56
511.354	12263.36
511.722	12325.51
512.09	12390.14
512.458	12351.72
512.826	12523.02
513.193	12548.55
513.561	12596.46
513.929	12654.31
514.297	12680.75
514.664	12760.53
515.032	12831.26
515.4	12976.34
515.767	12952.39
516.135	12995.32
516.502	12911.03
516.869	13116
517.237	13088.2
517.604	13146.05
517.972	13254.75
518.339	13214.53
518.706	13258.37
519.073	13305.82
519.44	13268.54
519.808	13381.98
520.175	13351.92
520.542	13431.47
520.909	13419.04
521.276	13422.88
521.643	13593.72
522.009	13629.88
522.376	13686.38
522.743	13794.17
523.11	13766.38
523.477	13820.39
523.843	13877.56
524.21	13916.65
524.577	13980.61
524.943	14026.03
525.31	13950.33
525.676	14050.89
526.043	14070.32
526.409	14056.09
526.776	14204.33
527.142	14163.88
527.508	14164.1
527.874	14202.52
528.241	14284.55
528.607	14203.88
528.973	14213.14
529.339	14261.05
529.705	14321.16
530.071	14366.59
530.437	14390.31
530.803	14400.03
531.169	14369.52
531.535	14328.17
531.901	14307.83
532.267	14283.42
532.632	14367.04
532.998	14343.54
533.364	14366.13
533.73	14325
534.095	14361.39
534.461	14354.61
534.826	14242.3
535.192	14386.7
535.557	14280.49
535.923	14291.33
536.288	14218.11
536.653	14276.87
537.019	14102.64
537.384	14186.03
537.749	14213.82
538.114	14176.31
538.479	14066.71
538.845	14152.35
539.21	14020.83
539.575	14027.16
539.94	14063.99
540.305	13979.25
540.67	13966.37
541.034	13993.49
541.399	13901.29
541.764	13856.09
542.129	13898.8
542.494	13849.09
542.858	13762.99
543.223	13827.16
543.587	13783.32
543.952	13709.43
544.316	13781.97
544.681	13621.07
545.045	13689.09
545.41	13648.19
545.774	13578.81
546.138	13522.99
546.503	13485.03
546.867	13567.28
547.231	13469.21
547.595	13465.37
547.959	13532.26
548.324	13389.21
548.688	13317.57
549.052	13288.42
549.416	13261.08
549.779	13184.47
550.143	13253.39
550.507	13304.92
550.871	13269.89
551.235	13119.61
551.599	13139.05
551.962	13183.79
552.326	13130.23
552.689	13154.64
553.053	13031.25
553.417	12967.53
553.78	13088.43
554.143	12983.12
554.507	13038.03
554.87	12954.65
555.234	13036.23
555.597	12882.78
555.96	12937.92
556.323	12918.71
556.686	12920.52
557.05	12938.83
557.413	12894.99
557.776	12862.44
558.139	12881.88
558.502	12874.87
558.865	12876.23
559.228	12815.21
559.59	12844.14
559.953	12875.1
560.316	12942.89
560.679	12912.16
561.041	12898.15
561.404	12920.97
561.767	12929.79
562.129	12862.9
562.492	12967.98
562.854	12934.08
563.217	12894.99
563.579	12880.97
563.941	12908.32
564.304	12840.07
564.666	13007.07
565.028	12921.43
565.39	12948.77
565.753	13046.39
566.115	12995.1
566.477	13020.63
566.839	13028.32
567.201	13045.04
567.563	13059.28
567.925	13068.54
568.287	13044.13
568.648	13092.04
569.01	13105.83
569.372	13166.62
569.734	13152.83
570.095	13137.92
570.457	13261.76
570.819	13238.48
571.18	13170.01
571.542	13236.67
571.903	13269.89
572.265	13242.55
572.626	13203.9
572.987	13281.19
573.349	13252.49
573.71	13242.77
574.071	13346.27
574.432	13301.53
574.794	13358.93
575.155	13348.31
575.516	13232.6
575.877	13299.27
576.238	13358.48
576.599	13363.67
576.96	13390.79
577.32	13412.71
577.681	13359.15
578.042	13488.19
578.403	13377.23
578.763	13406.16
579.124	13405.48
579.485	13426.5
579.845	13419.27
580.206	13460.85
580.566	13414.29
580.927	13413.62
581.287	13411.36
581.648	13379.72
582.008	13421.75
582.368	13396.67
582.728	13405.93
583.089	13425.59
583.449	13381.75
583.809	13385.14
584.169	13407.06
584.529	13357.12
584.889	13459.04
585.249	13302.88
585.609	13215.2
585.969	13335.65
586.329	13313.51
586.688	13316.9
587.048	13301.08
587.408	13215.2
587.768	13233.28
588.127	13221.76
588.487	13263.56
588.846	13254.3
589.206	13136.34
589.565	13200.06
589.925	13189.89
590.284	13203.68
590.643	13250.46
591.003	13275.54
591.362	13354.86
591.721	13238.25
592.08	13227.41
592.44	13170.68
592.799	13261.08
593.158	13199.61
593.517	13172.72
593.876	13120.29
594.235	13166.17
594.593	13159.16
594.952	13090.69
595.311	13109.22
595.67	13126.62
596.029	13153.51
596.387	13098.14
596.746	13142.66
597.104	13089.56
597.463	13102.89
597.822	13139.95
598.18	13113.06
598.538	12998.49
598.897	13154.87
599.255	13026.51
599.613	13292.94
599.972	13095.21
600.33	13141.76
600.688	13119.16
601.046	13101.08
601.404	13256.56
601.762	13147.18
602.12	13193.51
602.478	13156
602.836	13185.6
603.194	13087.75
603.552	13181.31
603.91	13078.71
604.268	13143.57
604.625	13047.75
604.983	13166.62
605.341	13028.77
605.698	13123
606.056	13119.39
606.413	13084.13
606.771	13159.61
607.128	13185.6
607.485	13059.5
607.843	13152.83
608.2	13178.59
608.557	13148.09
608.914	13182.66
609.272	13157.35
609.629	13264.92
609.986	13269.21
610.343	13222.66
610.7	13297.01
611.057	13221.98
611.414	13264.02
611.771	13286.39
612.127	13280.06
612.484	13257.91
612.841	13318.48
613.198	13275.31
613.554	13282.77
613.911	13395.76
614.267	13290
614.624	13356.67
614.98	13376.33
615.337	13360.51
615.693	13404.12
616.05	13347.4
616.406	13514.4
616.762	13470.11
617.118	13398.25
617.475	13447.29
617.831	13485.7
618.187	13440.96
618.543	13515.76
618.899	13552.14
619.255	13527.29
619.611	13492.03
619.967	13586.49
620.323	13546.72
620.678	13492.71
621.034	13558.02
621.39	13452.03
621.746	13468.3
622.101	13525.93
622.457	13409.77
622.812	13532.94
623.168	13601.18
623.523	13555.99
623.879	13593.95
624.234	13462.65
624.589	13542.43
624.945	13522.77
625.3	13549.43
625.655	13451.81
626.01	13453.62
626.365	13518.25
626.72	13495.42
627.075	13610.22
627.43	13539.94
627.785	13471.92
628.14	13478.7
628.495	13529.09
628.85	13521.64
629.205	13403
629.559	13520.73
629.914	13473.73
630.269	13490.68
630.623	13482.77
630.978	13410.68
631.332	13450.45
631.687	13374.75
632.041	13384.01
632.396	13434.41
632.75	13358.25
633.104	13421.75
633.459	13328.42
633.813	13379.27
634.167	13263.56
634.521	13400.28
634.875	13272.83
635.229	13250
635.583	13206.62
635.937	13264.47
636.291	13210.68
636.645	13301.98
636.999	13270.57
637.352	13214.98
637.706	13118.48
638.06	13256.33
638.413	13167.3
638.767	13078.48
639.121	13132.95
639.474	12988.77
639.828	12960.75
640.181	13060.86
640.534	13090.69
640.888	12965.04
641.241	13040.97
641.594	13024.25
641.947	13030.8
642.301	13048.88
642.654	13047.75
643.007	13047.52
643.36	12953.29
643.713	13001.65
644.066	12958.03
644.419	12989.22
644.771	12876.91
645.124	12702
645.477	12720.3
645.83	12740.87
646.182	12578.61
646.535	12577.71
646.888	12575.22
647.24	12459.97
647.593	12650.92
647.945	12528.44
648.298	12485.05
648.65	12500.87
649.002	12412.51
649.355	12549.91
649.707	12547.88
650.059	12620.19
650.411	12736.57
650.763	12709.91
651.115	12885.04
651.467	12821.09
651.819	12792.16
652.171	12817.7
652.523	12763.69
652.875	12796.01
653.227	12736.12
653.578	12798.94
653.93	12825.61
654.282	12767.98
654.633	12697.93
654.985	12715.1
655.337	12784.48
655.688	12727.31
656.039	12749.45
656.391	12704.93
656.742	12700.19
657.094	12733.63
657.445	12793.52
657.796	12702
658.147	12742.9
658.498	12767.98
658.849	12793.07
659.2	12760.07
659.551	12770.02
659.902	12783.12
660.253	12824.71
660.604	12734.09
660.955	12700.19
661.306	12772.28
661.656	12819.06
662.007	12757.59
662.358	12818.15
662.708	12823.12
663.059	12844.37
663.409	12757.81
663.76	12819.28
664.11	12777.7
664.461	12870.81
664.811	12847.3
665.161	12846.4
665.511	12750.13
665.862	12824.03
666.212	12859.28
666.562	12847.98
666.912	12803.46
667.262	12775.21
667.612	12788.1
667.962	12951.26
668.312	12895.44
668.662	12797.81
669.011	12799.85
669.361	12756.01
669.711	12728.44
670.06	12877.36
670.41	12750.13
670.76	12712.17
671.109	12788.32
671.459	12734.09
671.808	12720.08
672.157	12712.62
672.507	12684.14
672.856	12701.32
673.205	12752.39
673.554	12773.86
673.904	12665.39
674.253	12791.03
674.602	12723.24
674.951	12464.94
675.3	12454.32
675.649	12655.22
675.998	12686.86
676.346	12615.67
676.695	12705.39
677.044	12590.81
677.393	12549.68
677.741	12566.86
678.09	12551.27
678.438	12519.18
678.787	12532.28
679.135	12402.8
679.484	12416.35
679.832	12478.73
680.181	12456.13
680.529	12419.97
680.877	12386.3
681.225	12336.36
681.573	12433.98
681.922	12347.2
682.27	12325.28
682.618	12336.36
682.966	12293.19
683.314	12282.57
683.661	12200.99
684.009	12233.53
684.357	12194.21
684.705	12152.86
685.053	12136.36
685.4	12113.54
685.748	12087.32
686.095	12039.87
686.443	11985.18
686.79	11988.34
687.138	12056.14
687.485	12035.8
687.832	12040.09
688.18	11979.98
688.527	11836.03
688.874	11911.28
689.221	11794.22
689.568	11832.41
689.915	11746.99
690.262	11725.53
690.609	11706.77
690.956	11638.07
691.303	11708.58
691.65	11477.4
691.997	11619.54
692.344	11502.48
692.69	11502.25
693.037	11460.45
693.383	11416.83
693.73	11456.38
694.077	11381.13
694.423	11397.4
694.769	11251.87
695.116	11205.76
695.462	11224.07
695.808	11136.39
696.155	11158.31
696.501	11165.99
696.847	11138.87
697.193	11043.96
697.539	10997.18
697.885	10988.82
698.231	10907.02
698.577	10941.82
698.923	10850.75
699.269	10790.18
699.614	10803.06
699.96	10667.47
700.306	10764.65
700.651	10647.59
700.997	10641.03
701.342	10596.74
701.688	10577.76
702.033	10475.84
702.379	10472.45
702.724	10461.83
703.069	10472.45
703.415	10308.84
703.76	10364.66
704.105	10404.2
704.45	10363.98
704.795	10213.7
705.14	10214.83
705.485	10266.13
705.83	10174.83
706.175	10134.38
706.52	10138.45
706.865	10066.59
707.209	10064.1
707.554	10004.67
707.899	10072.91
708.243	9938.91
708.588	9997.43
708.932	9878.57
709.277	9906.14
709.621	9879.47
709.966	9791.56
710.31	9886.7
710.654	9771.45
710.998	9787.95
711.342	9744.56
711.687	9735.07
712.031	9642.87
712.375	9693.94
712.719	9681.74
713.063	9641.74
713.407	9666.37
713.75	9553.83
714.094	9607.39
714.438	9543.66
714.782	9598.35
715.125	9514.06
715.469	9476.54
715.812	9451.23
716.156	9471.12
716.499	9426.38
716.843	9417.56
717.186	9351.8
717.53	9411.24
717.873	9439.03
718.216	9387.06
718.559	9387.96
718.902	9348.86
719.246	9337.57
719.589	9314.29
719.932	9294.85
720.275	9319.26
720.617	9274.74
720.96	9228.87
721.303	9212.6
721.646	9226.16
721.989	9215.08
722.331	9264.35
722.674	9167.63
723.016	9167.63
723.359	9201.52
723.701	9173.73
724.044	9118.59
724.386	9132.37
724.729	9145.71
725.071	9145.48
725.413	9022.55
725.755	9198.59
726.097	9047.4
726.439	9031.58
726.782	9036.56
727.124	9091.02
727.465	9017.57
727.807	8990
728.149	9002.21
728.491	9007.86
728.833	9110.9
729.175	9078.14
729.516	8983.22
729.858	9027.06
730.199	8954.3
730.541	8993.39
730.882	9010.12
731.224	9004.92
731.565	8963.79
731.906	8955.43
732.248	8993.39
732.589	8910.46
732.93	8973.96
733.271	8968.54
733.612	9051.25
733.953	8990.68
734.294	8963.34
734.635	8864.81
734.976	8999.72
735.317	8923.79
735.658	8931.7
735.999	8875.2
736.339	8948.87
736.68	9068.87
737.021	8947.52
737.361	8909.55
737.702	9044.47
738.042	8990.46
738.383	8976.44
738.723	9073.39
739.063	8957.91
739.404	9016.9
739.744	8952.94
740.084	9032.71
740.424	8995.65
740.764	9069.78
741.104	9158.59
741.444	9085.59
741.784	9043.79
742.124	9104.35
742.464	9137.57
742.804	9107.06
743.143	9182.32
743.483	9194.74
743.823	9178.93
744.162	9203.33
744.502	9253.27
744.841	9260.96
745.181	9296.66
745.52	9313.39
745.86	9448.07
746.199	9417.79
746.538	9457.11
746.877	9463.66
747.216	9502.53
747.556	9528.75
747.895	9576.43
748.234	9653.49
748.573	9684.22
748.911	9737.78
749.25	9772.36
749.589	9778.46
749.928	9974.61
750.267	9970.09
750.605	10123.53
750.944	10105.91
751.283	10143.19
751.621	10331.44
751.96	10337.31
752.298	10473.81
752.636	10592.67
752.975	10570.75
753.313	10700.02
753.651	10878.99
753.989	10870.41
754.327	11053.23
754.666	11132.77
755.004	11263.39
755.342	11448.7
755.679	11532.99
756.017	11623.38
756.355	11839.42
756.693	11882.36
757.031	12030.38
757.368	12177.04
757.706	12255.91
758.044	12464.26
758.381	12683.01
758.719	12866.29
