Data from hue_340_FLMS001491_71.txt Node
Date: Mon Feb 06 15:43:34 GMT 2017
User: dcchb
Spectrometer: FLMS00149
Trigger mode: 0
Integration Time (sec): 2.000000E-2
Scans to average: 10
Electric dark correction enabled: true
Nonlinearity correction enabled: false
Boxcar width: 0
XAxis mode: Wavelengths
Number of Pixels in Spectrum: 2048
>>>>>Begin Spectral Data<<<<<
341.393	-25.51
341.776	-25.51
342.16	-25.51
342.543	-78.39
342.927	-54.21
343.31	-76.81
343.693	-63.25
344.077	-54.43
344.46	-64.15
344.843	-40.65
345.226	-37.94
345.61	-22.34
345.993	-25.51
346.376	2.51
346.759	10.42
347.142	25.34
347.525	22.85
347.908	29.41
348.291	71.66
348.674	112.79
349.057	110.08
349.44	106.69
349.823	146.47
350.206	151.44
350.588	197.09
350.971	211.1
351.354	216.75
351.737	245.9
352.119	255.16
352.502	254.26
352.884	254.94
353.267	259
353.65	283.18
354.032	306.23
354.414	304.88
354.797	311.66
355.179	304.43
355.562	345.1
355.944	307.36
356.326	317.76
356.709	314.37
357.091	334.93
357.473	315.27
357.855	349.17
358.238	343.75
358.62	312.56
359.002	324.09
359.384	331.32
359.766	316.63
360.148	330.87
360.53	333.8
360.912	325.44
361.294	340.81
361.676	310.3
362.057	315.5
362.439	325.22
362.821	316.63
363.203	335.84
363.584	299.68
363.966	301.94
364.348	317.53
364.729	319.34
365.111	321.83
365.493	315.95
365.874	312.11
366.256	323.18
366.637	297.2
367.019	302.85
367.4	309.85
367.781	309.85
368.163	305.56
368.544	305.1
368.925	316.18
369.306	303.07
369.688	324.99
370.069	310.98
370.45	314.6
370.831	309.85
371.212	296.52
371.593	293.81
371.974	324.31
372.355	291.77
372.736	313.47
373.117	299.46
373.498	301.49
373.879	317.53
374.26	300.59
374.641	316.86
375.021	311.21
375.402	289.96
375.783	313.01
376.163	321.38
376.544	325.9
376.925	311.66
377.305	296.07
377.686	330.64
378.066	319.57
378.447	308.04
378.827	303.07
379.208	313.47
379.588	323.64
379.968	343.52
380.349	326.8
380.729	300.81
381.109	328.38
381.489	333.58
381.87	322.05
382.25	320.47
382.63	338.32
383.01	342.17
383.39	344.43
383.77	342.39
384.15	345.1
384.53	337.42
384.91	346.01
385.29	337.19
385.67	345.33
386.049	335.61
386.429	338.78
386.809	345.56
387.189	362.05
387.568	351.43
387.948	345.1
388.328	358.21
388.707	343.75
389.087	356.86
389.466	347.82
389.846	346.23
390.225	361.6
390.605	366.35
390.984	354.6
391.363	379
391.743	355.73
392.122	365.22
392.501	353.24
392.881	365.44
393.26	355.73
393.639	359.57
394.018	385.33
394.397	366.12
394.776	370.41
395.155	372.22
395.534	369.06
395.913	375.16
396.292	376.06
396.671	375.84
397.05	381.49
397.429	381.49
397.808	384.65
398.186	395.27
398.565	374.93
398.944	388.27
399.323	373.13
399.701	388.04
400.08	388.94
400.458	370.87
400.837	400.92
401.215	362.28
401.594	409.96
401.972	405.89
402.351	398.21
402.729	395.5
403.107	393.69
403.486	403.63
403.864	406.12
404.242	409.73
404.62	405.22
404.999	410.86
405.377	418.55
405.755	427.59
406.133	427.36
406.511	445.89
406.889	425.55
407.267	457.42
407.645	417.64
408.023	415.84
408.401	441.37
408.779	444.76
409.156	461.71
409.534	431.2
409.912	447.7
410.29	455.61
410.667	467.13
411.045	471.43
411.422	475.04
411.8	503.52
412.178	464.87
412.555	461.26
412.933	486.57
413.31	497.87
413.687	490.18
414.065	499.68
414.442	475.72
414.819	510.98
415.197	519.11
415.574	520.01
415.951	509.62
416.328	540.35
416.705	539.45
417.082	534.25
417.46	544.87
417.837	542.61
418.214	562.5
418.591	562.95
418.967	560.24
419.344	567.47
419.721	567.7
420.098	561.6
420.475	563.4
420.852	566.57
421.228	578.77
421.605	593.91
421.982	620.58
422.358	584.42
422.735	622.38
423.111	588.04
423.488	612.44
423.864	643.18
424.241	613.35
424.617	626.45
424.994	611.54
425.37	621.25
425.746	626
426.123	637.3
426.499	648.82
426.875	672.1
427.251	655.83
427.627	675.72
428.003	669.16
428.379	694.7
428.756	701.93
429.132	705.32
429.507	711.42
429.883	706.22
430.259	696.28
430.635	711.2
431.011	722.72
431.387	753.45
431.763	752.55
432.138	708.26
432.514	752.1
432.89	756.17
433.265	784.64
433.641	784.87
434.016	795.49
434.392	806.33
434.767	788.26
435.143	775.15
435.518	794.58
435.894	786.22
436.269	795.71
436.644	826.22
437.02	837.07
437.395	826.67
437.77	828.03
438.145	882.04
438.52	872.32
438.895	878.42
439.271	864.86
439.646	897.86
440.021	889.27
440.395	895.37
440.77	919.78
441.145	926.56
441.52	922.94
441.895	898.31
442.27	928.37
442.645	910.74
443.019	960.68
443.394	931.53
443.769	942.38
444.143	971.08
444.518	962.49
444.892	950.51
445.267	953
445.641	978.76
446.016	962.26
446.39	982.83
446.764	965.43
447.139	976.95
447.513	968.14
447.887	986.89
448.262	977.63
448.636	981.47
449.01	1007.23
449.384	1004.07
449.758	1001.58
450.132	1036.61
450.506	1024.18
450.88	995.71
451.254	1039.1
451.628	1044.52
452.002	1037.74
452.376	1040
452.75	1077.29
453.123	1063.05
453.497	1079.77
453.871	1074.8
454.244	1133.56
454.618	1110.51
454.992	1098.08
455.365	1107.57
455.739	1130.62
456.112	1143.73
456.486	1156.83
456.859	1165.42
457.232	1184.63
457.606	1200.22
457.979	1193.9
458.352	1209.49
458.725	1198.41
459.099	1205.87
459.472	1221.92
459.845	1181.92
460.218	1260.11
460.591	1271.86
460.964	1246.32
461.337	1308.47
461.71	1294.01
462.083	1325.87
462.456	1318.41
462.829	1320.67
463.201	1351.63
463.574	1350.28
463.947	1351.63
464.32	1329.71
464.692	1373.55
465.065	1405.64
465.438	1395.02
465.81	1422.82
466.183	1435.92
466.555	1458.07
466.928	1468.46
467.3	1466.88
467.672	1523.83
468.045	1508.46
468.417	1519.99
468.789	1526.54
469.161	1557.73
469.534	1588.24
469.906	1604.96
470.278	1617.61
470.65	1597.73
471.022	1665.07
471.394	1632.53
471.766	1686.99
472.138	1695.12
472.51	1746.2
472.882	1760.21
473.253	1752.98
473.625	1824.39
473.997	1837.72
474.369	1794.78
474.74	1848.79
475.112	1889.7
475.484	1920.66
475.855	1923.82
476.227	1959.98
476.598	1978.51
476.97	2003.59
477.341	2052.86
477.713	2073.19
478.084	2094.66
478.455	2201.78
478.827	2175.34
479.198	2232.74
479.569	2202.91
479.94	2305.28
480.311	2286.3
480.682	2350.47
481.053	2408.55
481.424	2391.83
481.795	2442.45
482.166	2504.6
482.537	2499.62
482.908	2540.53
483.279	2616.46
483.65	2569.68
484.021	2630.02
484.391	2674.53
484.762	2710.92
485.133	2773.51
485.503	2798.82
485.874	2822.78
486.244	2865.26
486.615	2921.76
486.985	2973.51
487.356	2974.64
487.726	3024.36
488.097	3074.07
488.467	3052.83
488.837	3117.01
489.207	3181.64
489.578	3213.73
489.948	3219.6
490.318	3267.06
490.688	3289.66
491.058	3314.74
491.428	3380.5
491.798	3405.59
492.168	3472.48
492.538	3498.92
492.908	3515.19
493.278	3564.91
493.648	3574.17
494.017	3582.98
494.387	3683.55
494.757	3671.34
495.126	3713.15
495.496	3698.91
495.866	3725.58
496.235	3775.07
496.605	3811.45
496.974	3848.51
497.344	3847.61
497.713	3919.02
498.082	3922.64
498.452	3944.33
498.821	3934.39
499.19	3983.88
499.559	4011.22
499.928	4068.85
500.298	4059.13
500.667	4083.54
501.036	4087.38
501.405	4122.18
501.774	4109.07
502.143	4173.93
502.512	4128.06
502.88	4211.89
503.249	4210.54
503.618	4224.1
503.987	4206.92
504.356	4294.15
504.724	4242.18
505.093	4280.14
505.462	4303.42
505.83	4338.45
506.199	4389.07
506.567	4408.95
506.936	4380.03
507.304	4447.14
507.672	4449.18
508.041	4474.26
508.409	4486.01
508.777	4512.45
509.145	4623.18
509.514	4556.97
509.882	4510.87
510.25	4543.86
510.618	4590.64
510.986	4628.83
511.354	4642.62
511.722	4693.92
512.09	4700.02
512.458	4660.7
512.826	4710.41
513.193	4734.82
513.561	4733.24
513.929	4779.11
514.297	4827.47
514.664	4843.52
515.032	4851.88
515.4	4876.96
515.767	4843.74
516.135	4916.28
516.502	4834.7
516.869	4968.94
517.237	4935.72
517.604	4966.23
517.972	4993.12
518.339	4999.9
518.706	4999.44
519.073	5031.31
519.44	5036.05
519.808	5055.49
520.175	5050.06
520.542	5096.84
520.909	5109.27
521.276	5127.13
521.643	5158.08
522.009	5172.77
522.376	5245.99
522.743	5244.18
523.11	5285.76
523.477	5289.61
523.843	5328.93
524.21	5333.45
524.577	5477.17
524.943	5431.3
525.31	5477.85
525.676	5514.46
526.043	5516.95
526.409	5518.98
526.776	5562.14
527.142	5601.46
527.508	5618.41
527.874	5671.29
528.241	5657.05
528.607	5705.87
528.973	5769.82
529.339	5741.57
529.705	5784.96
530.071	5797.16
530.437	5821.34
530.803	5884.39
531.169	5914
531.535	5882.13
531.901	5940.44
532.267	5983.83
532.632	5974.56
532.998	6010.04
533.364	6054.33
533.73	6085.07
534.095	6104.5
534.461	6106.08
534.826	6135.69
535.192	6167.55
535.557	6240.32
535.923	6184.05
536.288	6251.16
536.653	6259.07
537.019	6241.67
537.384	6270.15
537.749	6312.18
538.114	6359.86
538.479	6357.15
538.845	6401.22
539.21	6415
539.575	6472.4
539.94	6478.95
540.305	6459.75
540.67	6534.32
541.034	6527.77
541.399	6588.78
541.764	6565.96
542.129	6678.27
542.494	6610.25
542.858	6683.69
543.223	6730.47
543.587	6760.53
543.952	6732.51
544.316	6752.39
544.681	6810.92
545.045	6832.62
545.41	6887.53
545.774	6897.7
546.138	6913.07
546.503	6976.34
546.867	6955.78
547.231	6996.45
547.595	7031.71
547.959	7028.54
548.324	7029.9
548.688	7079.16
549.052	7156.45
549.416	7123.23
549.779	7126.62
550.143	7129.33
550.507	7212.72
550.871	7248.88
551.235	7270.57
551.599	7308.54
551.962	7339.5
552.326	7313.51
552.689	7370.91
553.053	7323
553.417	7308.31
553.78	7433.05
554.143	7477.8
554.507	7485.26
554.87	7435.99
555.234	7485.71
555.597	7479.38
555.96	7541.07
556.323	7555.54
556.686	7614.29
557.05	7631.47
557.413	7680.05
557.776	7693.39
558.139	7725.02
558.502	7706.04
558.865	7727.06
559.228	7815.19
559.59	7769.32
559.953	7868.07
560.316	7943.32
560.679	7942.42
561.041	7951.23
561.404	7954.4
561.767	8007.28
562.129	7986.03
562.492	8058.35
562.854	8102.19
563.217	8053.38
563.579	8152.13
563.941	8120.72
564.304	8191.23
564.666	8239.13
565.028	8235.74
565.39	8268.96
565.753	8273.71
566.115	8341.5
566.477	8386.93
566.839	8340.37
567.201	8454.27
567.563	8441.39
567.925	8521.39
568.287	8508.51
568.648	8526.81
569.01	8637.99
569.372	8621.5
569.734	8612.46
570.095	8666.92
570.457	8730.19
570.819	8766.8
571.18	8745.11
571.542	8857.42
571.903	8873.92
572.265	8914.6
572.626	8982.62
572.987	9015.16
573.349	9049.73
573.71	9058.55
574.071	9111.65
574.432	9202.5
574.794	9233.01
575.155	9241.59
575.516	9364.98
575.877	9397.52
576.238	9459.21
576.599	9546.9
576.96	9619.21
577.32	9655.37
577.681	9788.02
578.042	9860.56
578.403	9913.21
578.763	9992.76
579.124	10113.66
579.485	10216.48
579.845	10320.21
580.206	10357.72
580.566	10495.57
580.927	10618.73
581.287	10675
581.648	10783.02
582.008	11026.4
582.368	11146.4
582.728	11217.36
583.089	11342.33
583.449	11514.53
583.809	11682.88
584.169	11878.81
584.529	12040.16
584.889	12304.56
585.249	12304.79
585.609	12606.48
585.969	12753.59
586.329	12980.7
586.688	13074.03
587.048	13435.61
587.408	13501.14
587.768	13748.59
588.127	14058.42
588.487	14181.12
588.846	14472.64
589.206	14690.72
589.565	14842.12
589.925	15129.12
590.284	15473.97
590.643	15701.76
591.003	15950.8
591.362	16286.83
591.721	16426.71
592.08	16670.78
592.44	17038.22
592.799	17325.9
593.158	17540.13
593.517	17914.59
593.876	18139.89
594.235	18333.33
594.593	18600.44
594.952	18989.36
595.311	19184.38
595.67	19506.63
596.029	19841.31
596.387	20131.7
596.746	20433.39
597.104	20711.8
597.463	20941.17
597.822	21243.09
598.18	21472.01
598.538	21754.94
598.897	22182.95
599.255	22268.6
599.613	22812.54
599.972	22985.64
600.33	23330.26
600.688	23460.88
601.046	23858.16
601.404	24175.21
601.762	24386.73
602.12	24833.73
602.478	24907.62
602.836	25273.71
603.194	25497.66
603.552	25668.05
603.91	25882.29
604.268	26161.15
604.625	26327.7
604.983	26651.53
605.341	26814.24
605.698	27147.56
606.056	27524.73
606.413	27704.38
606.771	27976.47
607.128	28170.36
607.485	28340.07
607.843	28472.5
608.2	28848.08
608.557	29210.79
608.914	29253.27
609.272	29542.53
609.629	29818.23
609.986	30111.55
610.343	30162.17
610.7	30615.49
611.057	30588.6
611.414	30738.88
611.771	31041.25
612.127	31334.35
612.484	31431.74
612.841	31743.83
613.198	31802.13
613.554	31963.93
613.911	32128.45
614.267	32391.72
614.624	32419.97
614.98	32593.3
615.337	32912.38
615.693	32980.63
616.05	33162.32
616.406	33409.09
616.762	33372.03
617.118	33609.77
617.475	33746.94
617.831	33931.34
618.187	33937.67
618.543	34171.33
618.899	34549.4
619.255	34677.53
619.611	34586.69
619.967	35007.92
620.323	35039.11
620.678	35046.11
621.034	35078.88
621.39	35070.97
621.746	35168.82
622.101	35797.73
622.457	35531.75
622.812	35498.98
623.168	35868.92
623.523	35872.31
623.879	36099.87
624.234	35955.69
624.589	36010.83
624.945	36094.9
625.3	36369.92
625.655	36325.63
626.01	36409.24
626.365	36505.28
626.72	36484.72
627.075	36587.99
627.43	36604.72
627.785	36798.38
628.14	36949.11
628.495	36891.49
628.85	36882.22
629.205	36815.56
629.559	37101.2
629.914	37038.38
630.269	37013.97
630.623	37150.01
630.978	36967.42
631.332	37201.54
631.687	37239.05
632.041	37105.04
632.396	37349.33
632.75	37279.95
633.104	37204.7
633.459	37190.69
633.813	37129.22
634.167	37210.12
634.521	37295.77
634.875	37285.6
635.229	37270.91
635.583	37181.88
635.937	37204.02
636.291	37153.63
636.645	37079.51
636.999	37147.3
637.352	37252.38
637.706	37082.22
638.06	37360.85
638.413	37224.36
638.767	37224.36
639.121	37292.61
639.474	37019.17
639.828	37186.62
640.181	37216.22
640.534	37249.44
640.888	37019.39
641.241	37099.17
641.594	37117.02
641.947	37294.41
642.301	37138.26
642.654	37141.65
643.007	37152.72
643.36	37174.19
643.713	37116.11
644.066	37205.15
644.419	37059.62
644.771	36728.78
645.124	36580.99
645.477	36466.87
645.83	36228.91
646.182	36077.72
646.535	35942.81
646.888	36133.32
647.24	35904.62
647.593	36098.74
647.945	36003.15
648.298	35917.5
648.65	35932.64
649.002	35874.79
649.355	35951.63
649.707	35953.66
650.059	35983.49
650.411	36578.73
650.763	36477.04
651.115	36987.76
651.467	36790.7
651.819	36630.48
652.171	36717.48
652.523	36715.45
652.875	36640.42
653.227	36522.23
653.578	36860.08
653.93	36754.54
654.282	36564.72
654.633	36430.93
654.985	36609.69
655.337	36546.41
655.688	36577.15
656.039	36666.86
656.391	36461.22
656.742	36419.86
657.094	36472.06
657.445	36491.05
657.796	36523.14
658.147	36386.19
658.498	36537.82
658.849	36537.82
659.2	36523.81
659.551	36360.43
659.902	36517.03
660.253	36479.3
660.604	36540.54
660.955	36385.96
661.306	36396.36
661.656	36317.49
662.007	36378.73
662.358	36472.06
662.708	36397.04
663.059	36295.35
663.409	36187.78
663.76	36396.13
664.11	36424.61
664.461	36355.23
664.811	36303.25
665.161	36456.92
665.511	36235.69
665.862	36236.82
666.212	36329.69
666.562	36422.35
666.912	36327.89
667.262	36210.83
667.612	36283.37
667.962	36373.08
668.312	36245.63
668.662	36293.31
669.011	36225.29
669.361	36224.84
669.711	36186.2
670.06	36141.22
670.41	36116.59
670.76	36162.92
671.109	36212.41
671.459	36185.74
671.808	36259.87
672.157	36252.41
672.507	36035.92
672.856	35982.58
673.205	35959.53
673.554	36161.34
673.904	36039.53
674.253	36224.16
674.602	35978.97
674.951	35643.38
675.3	35404.97
675.649	35963.83
675.998	35886.09
676.346	35935.81
676.695	35984.62
677.044	35752.31
677.393	35802.02
677.741	35973.32
678.09	35720.44
678.438	35802.25
678.787	35703.72
679.135	35803.38
679.484	35587.12
679.832	35763.38
680.181	35479.55
680.529	35608.36
680.877	35569.71
681.225	35499.43
681.573	35728.35
681.922	35456.95
682.27	35291.98
682.618	35343.51
682.966	35328.14
683.314	35343.05
683.661	35076.17
684.009	34974.25
684.357	35016.06
684.705	34959.11
685.053	35030.97
685.4	34941.03
685.748	34696.29
686.095	34781.71
686.443	34619.46
686.79	34647.03
687.138	34636.41
687.485	34677.08
687.832	34445
688.18	34473.7
688.527	34367.26
688.874	34420.82
689.221	34342.4
689.568	34272.8
689.915	34176.3
690.262	34162.07
690.609	33903.32
690.956	33959.36
691.303	33913.03
691.65	33714.4
691.997	33654.51
692.344	33515.08
692.69	33484.57
693.037	33528.64
693.383	33280.28
693.73	33408.19
694.077	33225.6
694.423	33253.84
694.769	33113.51
695.116	33060.63
695.462	32922.55
695.808	32819.5
696.155	32972.49
696.501	32696.8
696.847	32672.39
697.193	32476.46
697.539	32558.72
697.885	32427.2
698.231	32299.07
698.577	32255.45
698.923	32234.21
699.269	32096.81
699.614	32010.26
699.96	31896.36
700.306	31886.42
700.651	31818.63
700.997	31718.29
701.342	31675.58
701.688	31532.98
702.033	31622.02
702.379	31511.97
702.724	31399.43
703.069	31332.99
703.415	31129.83
703.76	31085.76
704.105	31143.39
704.45	30984.3
704.795	30831.53
705.14	30900.68
705.485	30710.86
705.83	30635.83
706.175	30633.35
706.52	30531.65
706.865	30385.44
707.209	30450.08
707.554	30316.75
707.899	30362.39
708.243	30194.04
708.588	30192.23
708.932	30018.45
709.277	29972.12
709.621	29896.19
709.966	29756.53
710.31	29826.36
710.654	29668.63
710.998	29720.15
711.342	29570.78
711.687	29609.87
712.031	29439.25
712.375	29348.64
712.719	29374.62
713.063	29356.54
713.407	29369.65
713.75	29197.23
714.094	29270.45
714.438	29098.47
714.782	29147.51
715.125	28895.31
715.469	28895.09
715.812	28897.12
716.156	28799.5
716.499	28754.07
716.843	28787.07
717.186	28516.79
717.53	28751.59
717.873	28647.64
718.216	28620.52
718.559	28446.06
718.902	28220.08
719.246	28262.79
719.589	28231.83
719.932	28065.5
720.275	28138.27
720.617	28133.98
720.96	28134.66
721.303	28086.3
721.646	28119.29
721.989	27947.77
722.331	27866.87
722.674	27829.35
723.016	27948.22
723.359	27703.71
723.701	27844.27
724.044	27547.33
724.386	27378.52
724.729	27682.69
725.071	27563.37
725.413	27486.99
725.755	27488.35
726.097	27476.37
726.439	27337.16
726.782	27293.1
727.124	27409.03
727.465	27225.53
727.807	27213.1
728.149	27106.43
728.491	27114.34
728.833	27061.46
729.175	27093.33
729.516	27060.33
729.858	26919.32
730.199	27052.2
730.541	26826.44
730.882	26989.15
731.224	26873.9
731.565	26705.77
731.906	26792.32
732.248	26745.77
732.589	26615.15
732.93	26447.24
733.271	26558.88
733.612	26542.38
733.953	26614.7
734.294	26399.79
734.635	26366.34
734.976	26483.85
735.317	26260.13
735.658	26343.06
735.999	26318.43
736.339	26249.51
736.68	26314.36
737.021	26139.23
737.361	26034.37
737.702	26278.21
738.042	26119.34
738.383	26011.77
738.723	26056.97
739.063	25960.48
739.404	26045.22
739.744	25871.21
740.084	25848.16
740.424	25951.21
740.764	25722.52
741.104	25941.49
741.444	25626.25
741.784	25579.47
742.124	25628.96
742.464	25626.25
742.804	25524.78
743.143	25497.44
743.483	25566.36
743.823	25365.91
744.162	25348.74
744.502	25492.92
744.841	25221.51
745.181	25461.96
745.52	25281.62
745.86	25269.42
746.199	25237.56
746.538	25187.84
746.877	25184
747.216	25237.33
747.556	25118.24
747.895	25204.34
748.234	25084.57
748.573	24928.86
748.911	24959.82
749.25	24972.25
749.589	24798.25
749.928	24792.6
750.267	24902.42
750.605	24665.14
750.944	24698.36
751.283	24615.65
751.621	24640.74
751.96	24539.27
752.298	24443.45
752.636	24395.54
752.975	24389.22
753.313	24304.93
753.651	24470.57
753.989	24242.33
754.327	24278.71
754.666	24207.98
755.004	24265.15
755.342	24144.93
755.679	24076.68
756.017	23901.32
756.355	24059.51
756.693	23872.17
757.031	23929.79
757.368	23748.1
757.706	23818.39
758.044	23668.33
758.381	23740.19
758.719	23581.56
759.056	23645.96
759.394	23476.93
759.731	23339.98
760.068	23426.53
