Data from hue_110_FLMS001491_00024.txt Node
Date: Tue Feb 07 17:01:05 GMT 2017
User: dcchb
Spectrometer: FLMS00149
Trigger mode: 0
Integration Time (sec): 2.000000E-2
Scans to average: 10
Electric dark correction enabled: true
Nonlinearity correction enabled: false
Boxcar width: 0
XAxis mode: Wavelengths
Number of Pixels in Spectrum: 2048
>>>>>Begin Spectral Data<<<<<
341.393	-17.9
341.776	-17.9
342.16	-17.9
342.543	-80.04
342.927	-69.19
343.31	-66.03
343.693	-75.52
344.077	-62.64
344.46	-56.99
344.843	-67.84
345.226	-38.46
345.61	-33.49
345.993	-13.6
346.376	7.42
346.759	-14.73
347.142	30.92
347.525	41.31
347.908	68.43
348.291	77.02
348.674	80.41
349.057	123.8
349.44	119.95
349.823	140.52
350.206	148.2
350.588	202.21
350.971	223.91
351.354	226.62
351.737	239.95
352.119	233.17
352.502	252.38
352.884	261.65
353.267	277.01
353.65	283.57
354.032	286.5
354.414	296
354.797	313.85
355.179	307.97
355.562	304.36
355.944	321.76
356.326	331.7
356.709	311.81
357.091	330.57
357.473	312.04
357.855	323.11
358.238	343
358.62	321.31
359.002	327.18
359.384	330.57
359.766	335.54
360.148	331.47
360.53	333.28
360.912	330.8
361.294	345.26
361.676	326.28
362.057	327.18
362.439	324.92
362.821	345.26
363.203	307.75
363.584	312.49
363.966	333.73
364.348	306.16
364.729	326.5
365.111	309.78
365.493	300.29
365.874	305.71
366.256	301.42
366.637	293.06
367.019	296.67
367.4	296.45
367.781	333.73
368.163	297.12
368.544	307.52
368.925	311.36
369.306	317.01
369.688	305.26
370.069	318.37
370.45	302.77
370.831	322.21
371.212	300.51
371.593	314.53
371.974	312.49
372.355	312.94
372.736	319.72
373.117	307.29
373.498	316.33
373.879	307.75
374.26	320.85
374.641	322.89
375.021	314.53
375.402	336.22
375.783	327.63
376.163	309.55
376.544	330.34
376.925	314.75
377.305	320.63
377.686	324.02
378.066	318.59
378.447	326.05
378.827	334.64
379.208	300.29
379.588	331.47
379.968	327.18
380.349	335.09
380.729	312.04
381.109	334.64
381.489	348.2
381.87	338.25
382.25	333.28
382.63	348.88
383.01	352.26
383.39	313.17
383.77	332.6
384.15	329.21
384.53	347.07
384.91	341.19
385.29	359.5
385.67	349.55
386.049	351.59
386.429	330.57
386.809	353.39
387.189	338.71
387.568	339.16
387.948	332.6
388.328	341.42
388.707	365.15
389.087	361.08
389.466	351.36
389.846	351.13
390.225	353.39
390.605	340.74
390.984	350.91
391.363	352.04
391.743	368.54
392.122	357.46
392.501	374.19
392.881	366.05
393.26	344.36
393.639	348.88
394.018	374.41
394.397	369.67
394.776	364.24
395.155	373.06
395.534	381.19
395.913	372.83
396.292	387.29
396.671	366.5
397.05	356.78
397.429	398.14
397.808	384.58
398.186	373.28
398.565	380.96
398.944	391.13
399.323	380.74
399.701	388.65
400.08	405.14
400.458	399.27
400.837	376.44
401.215	385.26
401.594	405.82
401.972	397.69
402.351	397.46
402.729	399.5
403.107	396.33
403.486	380.06
403.864	409.21
404.242	406.73
404.62	428.19
404.999	399.72
405.377	417.8
405.755	413.05
406.133	393.62
406.511	404.24
406.889	413.51
407.267	394.3
407.645	420.96
408.023	427.97
408.401	431.13
408.779	436.56
409.156	431.58
409.534	426.61
409.912	430.91
410.29	422.55
410.667	451.47
411.045	432.49
411.422	449.21
411.8	442.21
412.178	443.56
412.555	444.69
412.933	445.37
413.31	469.1
413.687	472.94
414.065	473.39
414.442	471.58
414.819	445.14
415.197	484.92
415.574	482.43
415.951	475.43
416.328	475.43
416.705	490.11
417.082	476.1
417.46	477.69
417.837	513.84
418.214	491.92
418.591	483.11
418.967	486.72
419.344	505.93
419.721	497.57
420.098	525.37
420.475	503.67
420.852	526.5
421.228	538.25
421.605	527.63
421.982	529.44
422.358	527.85
422.735	539.38
423.111	522.2
423.488	523.11
423.864	541.41
424.241	535.54
424.617	561.75
424.994	543.22
425.37	552.03
425.746	572.6
426.123	560.17
426.499	553.16
426.875	555.88
427.251	584.8
427.627	575.76
428.003	559.94
428.379	571.47
428.756	581.64
429.132	605.14
429.507	607.63
429.883	617.34
430.259	583.22
430.635	602.43
431.011	645.82
431.387	610.11
431.763	613.5
432.138	599.49
432.514	624.8
432.89	623.9
433.265	641.3
433.641	640.62
434.016	645.36
434.392	665.93
434.767	665.48
435.143	668.87
435.518	684.91
435.894	666.61
436.269	715.42
436.644	699.83
437.02	693.72
437.395	698.24
437.77	702.76
438.145	710
438.52	716.55
438.895	728.75
439.271	710.45
439.646	750.45
440.021	710.22
440.395	731.01
440.77	736.44
441.145	753.38
441.52	751.35
441.895	777.79
442.27	763.55
442.645	788.41
443.019	750.67
443.394	760.16
443.769	806.26
444.143	769.43
444.518	766.94
444.892	792.71
445.267	795.87
445.641	802.2
446.016	829.99
446.39	808.07
446.764	828.64
447.139	830.9
447.513	859.6
447.887	824.34
448.262	837
448.636	844
449.01	846.94
449.384	853.95
449.758	860.5
450.132	867.05
450.506	867.05
450.88	876.32
451.254	884.45
451.628	902.76
452.002	886.04
452.376	876.54
452.75	902.08
453.123	912.02
453.497	938.92
453.871	934.62
454.244	975.53
454.618	961.29
454.992	959.25
455.365	942.31
455.739	996.54
456.112	1011.68
456.486	1012.59
456.859	1039.7
457.232	1046.71
457.606	1035.18
457.979	1055.98
458.352	1060.04
458.725	1089.19
459.099	1081.96
459.472	1089.87
459.845	1106.37
460.218	1111.11
460.591	1151.34
460.964	1119.25
461.337	1172.13
461.71	1171
462.083	1209.87
462.456	1206.48
462.829	1205.58
463.201	1240.83
463.574	1256.65
463.947	1276.76
464.32	1281.28
464.692	1290.55
465.065	1312.24
465.438	1326.7
465.81	1326.48
466.183	1347.27
466.555	1380.94
466.928	1406.25
467.3	1432.46
467.672	1424.1
468.045	1486.92
468.417	1486.25
468.789	1511.33
469.161	1524.21
469.534	1573.7
469.906	1605.57
470.278	1609.63
470.65	1646.92
471.022	1671.1
471.394	1732.12
471.766	1727.82
472.138	1740.7
472.51	1820.25
472.882	1843.52
473.253	1864.54
473.625	1923.3
473.997	1963.52
474.369	1991.54
474.74	2037.42
475.112	2083.29
475.484	2110.86
475.855	2185.44
476.227	2249.62
476.598	2308.15
476.97	2387.24
477.341	2408.71
477.713	2475.6
478.084	2542.94
478.455	2613.22
478.827	2676.95
479.198	2780
479.569	2779.09
479.94	2944.96
480.311	2958.98
480.682	3055.24
481.053	3147.45
481.424	3271.74
481.795	3358.51
482.166	3397.16
482.537	3485.52
482.908	3637.6
483.279	3715.11
483.65	3815.45
484.021	3987.42
484.391	4050.02
484.762	4121.66
485.133	4240.52
485.503	4307.19
485.874	4493.17
486.244	4590.8
486.615	4713.28
486.985	4825.37
487.356	4982.65
487.726	5103.55
488.097	5202.98
488.467	5279.82
488.837	5581.28
489.207	5622.41
489.578	5723.2
489.948	5899.46
490.318	6053.81
490.688	6131.77
491.058	6289.28
491.428	6498.54
491.798	6549.39
492.168	6750.97
492.538	6839.1
492.908	6978.98
493.278	7198.41
493.648	7266.66
494.017	7441.57
494.387	7582.13
494.757	7661.45
495.126	7824.84
495.496	7910.71
495.866	8047.88
496.235	8145.96
496.605	8313.19
496.974	8462.56
497.344	8607.64
497.713	8674.98
498.082	8777.58
498.452	8997.46
498.821	9018.48
499.19	9114.07
499.559	9305.48
499.928	9331.69
500.298	9523.55
500.667	9654.62
501.036	9666.37
501.405	9739.81
501.774	9862.3
502.143	9975.97
502.512	10096.87
502.88	10200.59
503.249	10269.07
503.618	10370.31
503.987	10500.47
504.356	10529.17
504.724	10652.56
505.093	10746.57
505.462	10728.49
505.83	10869.5
506.199	10929.39
506.567	11084.64
506.936	11121.47
507.304	11280.34
507.672	11284.86
508.041	11370.51
508.409	11508.81
508.777	11589.48
509.145	11592.2
509.514	11619.31
509.882	11719.65
510.25	11756.48
510.618	11777.28
510.986	11931.62
511.354	11974.56
511.722	12040.77
512.09	12115.12
512.458	12129.58
512.826	12191.05
513.193	12361.89
513.561	12363.93
513.929	12416.35
514.297	12571.15
514.664	12523.92
515.032	12591.94
515.4	12621.32
515.767	12716.46
516.135	12678.49
516.502	12668.78
516.869	12859.28
517.237	12867.19
517.604	12845.5
517.972	12865.61
518.339	12876.68
518.706	12977.92
519.073	13026.06
519.44	13076.45
519.808	13091.14
520.175	13019.73
520.542	13197.35
520.909	13277.57
521.276	13216.33
521.643	13329.1
522.009	13400.06
522.376	13342.88
522.743	13395.76
523.11	13510.79
523.477	13584.23
523.843	13559.83
524.21	13735.87
524.577	13688.64
524.943	13694.06
525.31	13638.7
525.676	13751.46
526.043	13789.43
526.409	13828.75
526.776	13934.51
527.142	13888.41
527.508	13899.71
527.874	13915.75
528.241	13992.36
528.607	14007.5
528.973	14017.44
529.339	13937.22
529.705	13958.23
530.071	14091.79
530.437	14060.15
530.803	14096.54
531.169	14143.31
531.535	14048.4
531.901	14015.86
532.267	14014.5
532.632	14136.54
532.998	14069.64
533.364	14070.1
533.73	14048.85
534.095	14058.8
534.461	14097.44
534.826	14080.94
535.192	14078.68
535.557	14099.93
535.923	14030.55
536.288	13967.95
536.653	14046.37
537.019	13835.98
537.384	13829.65
537.749	13884.79
538.114	13836.2
538.479	13824.68
538.845	13823.77
539.21	13751.46
539.575	13782.65
539.94	13817.22
540.305	13785.81
540.67	13680.05
541.034	13716.21
541.399	13672.37
541.764	13649.32
542.129	13610
542.494	13595.76
542.858	13656.1
543.223	13524.57
543.587	13543.78
543.952	13445.25
544.316	13427.85
544.681	13375.65
545.045	13475.08
545.41	13459.94
545.774	13344.47
546.138	13340.4
546.503	13277.8
546.867	13167.07
547.231	13286.61
547.595	13255.65
547.959	13193.96
548.324	13187.41
548.688	13138.14
549.052	13076.45
549.416	13134.98
549.779	13040.97
550.143	13023.8
550.507	13059.73
550.871	12974.53
551.235	12930.69
551.599	12940.18
551.962	13002.33
552.326	12884.14
552.689	12883.23
553.053	12802.78
553.417	12867.87
553.78	12900.41
554.143	12795.1
554.507	12850.24
554.87	12732.96
555.234	12855.66
555.597	12735.44
555.96	12721.66
556.323	12786.74
556.686	12693.41
557.05	12765.72
557.413	12686.18
557.776	12668.1
558.139	12746.06
558.502	12713.07
558.865	12659.96
559.228	12730.92
559.59	12670.13
559.953	12664.71
560.316	12771.15
560.679	12736.8
561.041	12730.24
561.404	12736.35
561.767	12735.44
562.129	12665.39
562.492	12734.54
562.854	12669.23
563.217	12660.87
563.579	12693.86
563.941	12793.29
564.304	12723.92
564.666	12851.6
565.028	12744.26
565.39	12785.84
565.753	12793.29
566.115	12838.72
566.477	12848.66
566.839	12937.47
567.201	12892.95
567.563	12895.89
567.925	12920.07
568.287	12845.27
568.648	12869
569.01	12932.95
569.372	12961.88
569.734	12972.27
570.095	13039.84
570.457	13001.2
570.819	12923.69
571.18	13078.48
571.542	13040.52
571.903	12993.74
572.265	12996.45
572.626	12960.97
572.987	13093.62
573.349	13073.96
573.71	13071.7
574.071	13109.22
574.432	13129.56
574.794	13162.1
575.155	13141.31
575.516	13104.47
575.877	13148.31
576.238	13049.33
576.599	13193.06
576.96	13208.88
577.32	13112.83
577.681	13206.16
578.042	13221.53
578.403	13140.4
578.763	13117.58
579.124	13116.22
579.485	13219.5
579.845	13254.3
580.206	13236.9
580.566	13208.2
580.927	13148.09
581.287	13241.42
581.648	13132.72
582.008	13268.99
582.368	13087.07
582.728	13174.3
583.089	13146.73
583.449	13117.58
583.809	13184.47
584.169	13188.54
584.529	13106.96
584.889	13168.42
585.249	13034.87
585.609	12995.32
585.969	13170.23
586.329	13003.91
586.688	13069.9
587.048	13007.98
587.408	13005.27
587.768	13010.46
588.127	13016.11
588.487	13108.77
588.846	13116.9
589.206	12971.82
589.565	13064.02
589.925	13110.8
590.284	13035.77
590.643	13036
591.003	12988.77
591.362	13106.73
591.721	13005.49
592.08	12953.06
592.44	13039.84
592.799	13078.26
593.158	12980.86
593.517	12978.15
593.876	12962.78
594.235	12960.29
594.593	12997.58
594.952	12885.04
595.311	12941.99
595.67	12908.32
596.029	12984.47
596.387	12989.45
596.746	13022.67
597.104	12869.22
597.463	12871.48
597.822	12915.55
598.18	12935.44
598.538	12901.31
598.897	12911.26
599.255	12839.85
599.613	12991.93
599.972	12943.35
600.33	12935.21
600.688	12919.39
601.046	12904.25
601.404	12970.24
601.762	13016.34
602.12	12984.25
602.478	12992.16
602.836	12966.4
603.194	12852.28
603.552	12831.48
603.91	12880.97
604.268	12880.97
604.625	12898.15
604.983	12854.76
605.341	12950.13
605.698	12935.21
606.056	12950.35
606.413	12920.75
606.771	12953.97
607.128	13028.09
607.485	12934.08
607.843	12916.68
608.2	12967.75
608.557	13034.42
608.914	13013.17
609.272	12986.51
609.629	13115.32
609.986	13053.17
610.343	12987.86
610.7	13063.34
611.057	13065.38
611.414	13080.97
611.771	13003.91
612.127	13084.59
612.484	13146.5
612.841	13152.61
613.198	13101.08
613.554	13046.39
613.911	13175.43
614.267	13146.28
614.624	13113.96
614.98	13060.86
615.337	13167.75
615.693	13149.67
616.05	13180.4
616.406	13215.88
616.762	13185.83
617.118	13110.8
617.475	13174.75
617.831	13222.43
618.187	13200.06
618.543	13332.04
618.899	13370
619.255	13290.91
619.611	13287.07
619.967	13283.45
620.323	13374.52
620.678	13320.74
621.034	13254.98
621.39	13275.31
621.746	13259.5
622.101	13370.45
622.457	13225.6
622.812	13295.65
623.168	13342.66
623.523	13298.14
623.879	13451.58
624.234	13278.48
624.589	13264.24
624.945	13346.05
625.3	13419.72
625.655	13383.56
626.01	13340.85
626.365	13409.32
626.72	13320.51
627.075	13241.19
627.43	13265.37
627.785	13305.6
628.14	13332.04
628.495	13337.23
628.85	13305.82
629.205	13251.36
629.559	13315.99
629.914	13213.85
630.269	13295.43
630.623	13207.29
630.978	13163.68
631.332	13301.98
631.687	13274.18
632.041	13130.91
632.396	13236.67
632.75	13174.53
633.104	13174.98
633.459	13137.24
633.813	13114.87
634.167	13127.75
634.521	13125.71
634.875	13122.55
635.229	13092.27
635.583	13063.57
635.937	13054.08
636.291	13010.24
636.645	13063.79
636.999	12981.09
637.352	13047.3
637.706	12919.17
638.06	13031.25
638.413	12962.55
638.767	12913.97
639.121	12845.95
639.474	12844.37
639.828	12818.38
640.181	12838.72
640.534	12836
640.888	12789.9
641.241	12781.54
641.594	12775.21
641.947	12859.05
642.301	12750.58
642.654	12785.61
643.007	12824.71
643.36	12842.33
643.713	12741.09
644.066	12847.3
644.419	12700.41
644.771	12675.56
645.124	12605.73
645.477	12552.85
645.83	12414.55
646.182	12388.56
646.535	12359.18
646.888	12400.54
647.24	12348.79
647.593	12391.72
647.945	12366.19
648.298	12295.45
648.65	12313.31
649.002	12209.58
649.355	12349.69
649.707	12357.15
650.059	12382.23
650.411	12497.26
650.763	12486.86
651.115	12603.92
651.467	12600.08
651.819	12645.5
652.171	12593.07
652.523	12566.41
652.875	12523.24
653.227	12548.55
653.578	12674.65
653.93	12605.95
654.282	12563.02
654.633	12583.58
654.985	12513.53
655.337	12536.58
655.688	12641.43
656.039	12700.19
656.391	12569.34
656.742	12639.4
657.094	12605.28
657.445	12628.78
657.796	12624.26
658.147	12624.03
658.498	12664.94
658.849	12671.49
659.2	12596.91
659.551	12614.32
659.902	12636.01
660.253	12675.1
660.604	12635.33
660.955	12654.31
661.306	12677.36
661.656	12659.96
662.007	12635.56
662.358	12702.67
662.708	12666.07
663.059	12696.8
663.409	12631.49
663.76	12758.04
664.11	12736.57
664.461	12721.21
664.811	12659.96
665.161	12646.63
665.511	12632.62
665.862	12646.18
666.212	12790.13
666.562	12667.87
666.912	12724.14
667.262	12707.42
667.612	12743.35
667.962	12679.4
668.312	12661.09
668.662	12677.36
669.011	12631.04
669.361	12639.85
669.711	12638.04
670.06	12677.14
670.41	12637.59
670.76	12627.65
671.109	12718.04
671.459	12666.07
671.808	12569.12
672.157	12631.26
672.507	12606.63
672.856	12516.69
673.205	12593.07
673.554	12655.22
673.904	12557.14
674.253	12666.74
674.602	12623.58
674.951	12390.14
675.3	12358.05
675.649	12532.51
675.998	12489.35
676.346	12471.95
676.695	12558.27
677.044	12362.57
677.393	12455.22
677.741	12547.88
678.09	12444.83
678.438	12388.78
678.787	12387.65
679.135	12400.99
679.484	12338.84
679.832	12375.68
680.181	12304.49
680.529	12254.55
680.877	12269.24
681.225	12351.05
681.573	12392.63
681.922	12242.8
682.27	12190.37
682.618	12153.54
682.966	12233.31
683.314	12179.3
683.661	12160.77
684.009	12043.03
684.357	12015.46
684.705	12002.13
685.053	12079.64
685.4	12024.95
685.748	11943.15
686.095	11875.8
686.443	11938.4
686.79	11921.45
687.138	11896.37
687.485	11902.7
687.832	11862.92
688.18	11890.04
688.527	11801.91
688.874	11705.86
689.221	11769.82
689.568	11704.28
689.915	11629.71
690.262	11639.43
690.609	11531.41
690.956	11547.9
691.303	11597.39
691.65	11441.92
691.997	11485.08
692.344	11383.61
692.69	11408.92
693.037	11337.96
693.383	11251.87
693.73	11284.63
694.077	11155.6
694.423	11202.37
694.769	11174.13
695.116	11151.75
695.462	11102.26
695.808	11034.24
696.155	11114.24
696.501	10954.92
696.847	11013.45
697.193	10885.55
697.539	10887.58
697.885	10753.8
698.231	10722.16
698.577	10771.65
698.923	10749.05
699.269	10709.28
699.614	10632.45
699.96	10644.65
700.306	10596.29
700.651	10562.62
700.997	10511.09
701.342	10461.15
701.688	10442.85
702.033	10353.81
702.379	10326.24
702.724	10339.8
703.069	10252.12
703.415	10197.43
703.76	10203.53
704.105	10206.24
704.45	10171.44
704.795	10079.24
705.14	10069.3
705.485	10118.79
705.83	10032.91
706.175	9988.17
706.52	10014.38
706.865	9918.57
707.209	9948.17
707.554	9860.49
707.899	9981.16
708.243	9906.82
708.588	9841.73
708.932	9797.67
709.277	9781.85
709.621	9750.21
709.966	9666.37
710.31	9682.87
710.654	9638.12
710.998	9580.72
711.342	9579.59
711.687	9543.44
712.031	9516.77
712.375	9511.12
712.719	9549.09
713.063	9557.9
713.407	9489.2
713.75	9442.65
714.094	9462.76
714.438	9394.06
714.782	9436.77
715.125	9369.43
715.469	9331.01
715.812	9331.46
716.156	9322.42
716.499	9302.76
716.843	9307.96
717.186	9228.42
717.53	9282.2
717.873	9321.75
718.216	9281.07
718.559	9182.32
718.902	9150.23
719.246	9207.17
719.589	9190.45
719.932	9117.23
720.275	9104.58
720.617	9116.55
720.96	9106.84
721.303	9074.3
721.646	9152.03
721.989	8993.85
722.331	9144.58
722.674	9067.06
723.016	9093.28
723.359	9078.59
723.701	8989.55
724.044	8989.33
724.386	8973.28
724.729	9084.46
725.071	8912.49
725.413	8994.75
725.755	8960.85
726.097	8911.81
726.439	8997.01
726.782	8962.66
727.124	8988.65
727.465	8922.66
727.807	8920.85
728.149	8920.63
728.491	8929.44
728.833	8903.68
729.175	8888.99
729.516	8905.03
729.858	8851.02
730.199	8882.89
730.541	8878.37
730.882	8830.01
731.224	8879.05
731.565	8861.19
731.906	8879.72
732.248	8818.71
732.589	8803.79
732.93	8831.59
733.271	8756.11
733.612	8817.13
733.953	8925.37
734.294	8823.68
734.635	8845.83
734.976	8833.85
735.317	8866.39
735.658	8837.92
735.999	8859.39
736.339	8860.74
736.68	8891.02
737.021	8847.18
737.361	8754.3
737.702	8830.23
738.042	8871.14
738.383	8873.62
738.723	8813.51
739.063	8934.86
739.404	8957.46
739.744	8847.41
740.084	8953.85
740.424	8923.79
740.764	8901.64
741.104	8970.34
741.444	8910.68
741.784	8916.11
742.124	9053.5
742.464	9051.25
742.804	9000.17
743.143	9062.09
743.483	9052.15
743.823	9047.18
744.162	9166.95
744.502	9190.22
744.841	9177.8
745.181	9231.13
745.52	9285.14
745.86	9241.75
746.199	9247.62
746.538	9395.87
746.877	9370.78
747.216	9404.46
747.556	9552.25
747.895	9537.56
748.234	9631.34
748.573	9623.89
748.911	9718.57
749.25	9810.32
749.589	9749.76
749.928	9886.7
750.267	9933.71
750.605	10003.31
750.944	10128.96
751.283	10144.78
751.621	10314.26
751.96	10311.78
752.298	10399.68
752.636	10542.51
752.975	10572.79
753.313	10660.24
753.651	10781.82
753.989	10893.23
754.327	10996.5
754.666	11085.77
755.004	11191.98
755.342	11412.54
755.679	11430.62
756.017	11555.59
756.355	11764.39
756.693	11891.17
757.031	12012.07
757.368	12075.12
757.706	12263.59
758.044	12438.95
758.381	12651.38
758.719	12673.07
759.056	12860.64
