Data from hue_180_FLMS001491_00081.txt Node
Date: Tue Feb 07 16:47:35 GMT 2017
User: dcchb
Spectrometer: FLMS00149
Trigger mode: 0
Integration Time (sec): 2.000000E-2
Scans to average: 10
Electric dark correction enabled: true
Nonlinearity correction enabled: false
Boxcar width: 0
XAxis mode: Wavelengths
Number of Pixels in Spectrum: 2048
>>>>>Begin Spectral Data<<<<<
341.393	-1.4
341.776	-1.4
342.16	-1.4
342.543	-55.18
342.927	-54.05
343.31	-73.03
343.693	-63.32
344.077	-80.04
344.46	-32.58
344.843	-72.13
345.226	-32.36
345.61	-26.03
345.993	-22.87
346.376	-20.15
346.759	7.42
347.142	28.66
347.525	36.79
347.908	66.4
348.291	81.09
348.674	86.51
349.057	115.66
349.44	111.37
349.823	133.06
350.206	160.18
350.588	201.53
350.971	205.15
351.354	225.04
351.737	249.67
352.119	244.92
352.502	256.9
352.884	284.02
353.267	281.76
353.65	301.19
354.032	291.25
354.414	293.74
354.797	322.21
355.179	303.23
355.562	316.79
355.944	301.42
356.326	334.64
356.709	328.08
357.091	345.71
357.473	322.66
357.855	351.59
358.238	335.32
358.62	340.51
359.002	312.94
359.384	334.19
359.766	328.31
360.148	335.09
360.53	343.45
360.912	311.59
361.294	318.14
361.676	338.25
362.057	316.33
362.439	339.84
362.821	336.9
363.203	323.79
363.584	313.85
363.966	320.4
364.348	315.88
364.729	334.64
365.111	324.47
365.493	343.9
365.874	305.71
366.256	322.66
366.637	323.56
367.019	314.75
367.4	310.23
367.781	306.16
368.163	311.36
368.544	314.07
368.925	306.16
369.306	312.27
369.688	292.61
370.069	300.29
370.45	312.49
370.831	301.87
371.212	308.65
371.593	305.71
371.974	304.36
372.355	308.42
372.736	312.49
373.117	313.62
373.498	289.22
373.879	302.77
374.26	319.05
374.641	330.34
375.021	314.53
375.402	303.23
375.783	319.27
376.163	315.2
376.544	317.46
376.925	316.56
377.305	335.32
377.686	327.18
378.066	295.32
378.447	332.15
378.827	323.79
379.208	333.73
379.588	345.94
379.968	309.1
380.349	318.82
380.729	336.9
381.109	336.22
381.489	302.55
381.87	341.42
382.25	312.49
382.63	314.53
383.01	347.52
383.39	359.27
383.77	329.89
384.15	337.35
384.53	326.5
384.91	361.3
385.29	331.25
385.67	338.25
386.049	357.24
386.429	333.06
386.809	353.39
387.189	346.84
387.568	357.91
387.948	347.29
388.328	368.08
388.707	336.67
389.087	324.02
389.466	367.41
389.846	360.63
390.225	333.96
390.605	370.34
390.984	372.15
391.363	340.97
391.743	341.87
392.122	362.89
392.501	347.29
392.881	357.69
393.26	374.86
393.639	396.56
394.018	367.41
394.397	377.35
394.776	391.36
395.155	401.08
395.534	402.66
395.913	363.79
396.292	380.74
396.671	381.87
397.05	415.31
397.429	407.4
397.808	399.72
398.186	386.84
398.565	383.22
398.944	406.95
399.323	386.61
399.701	383
400.08	390.91
400.458	410.12
400.837	404.92
401.215	416.67
401.594	395.65
401.972	419.38
402.351	392.04
402.729	425.03
403.107	419.61
403.486	432.71
403.864	434.3
404.242	418.03
404.62	431.58
404.999	406.27
405.377	439.72
405.755	454.18
406.133	428.65
406.511	441.08
406.889	453.05
407.267	465.03
407.645	469.78
408.023	493.28
408.401	468.42
408.779	473.17
409.156	500.96
409.534	464.58
409.912	498.93
410.29	488.53
410.667	541.64
411.045	503
411.422	507.29
411.8	542.32
412.178	544.8
412.555	545.25
412.933	562.43
413.31	550
413.687	571.24
414.065	556.78
414.442	549.32
414.819	570.34
415.197	575.54
415.574	595.42
415.951	610.34
416.328	609.66
416.705	606.27
417.082	637
417.46	627.74
417.837	632.48
418.214	653.5
418.591	661.41
418.967	669.54
419.344	658.02
419.721	661.41
420.098	659.6
420.475	698.02
420.852	697.34
421.228	696.21
421.605	722.88
421.982	706.61
422.358	741.86
422.735	759.94
423.111	766.49
423.488	771.69
423.864	775.08
424.241	795.64
424.617	811.01
424.994	794.96
425.37	836.09
425.746	815.3
426.123	853.27
426.499	863.44
426.875	886.04
427.251	884.45
427.627	889.43
428.003	904.79
428.379	904.79
428.756	918.58
429.132	921.29
429.507	923.78
429.883	926.94
430.259	967.84
430.635	942.76
431.011	957.22
431.387	974.62
431.763	1022.76
432.138	1008.07
432.514	997.22
432.89	1050.33
433.265	1068.86
433.641	1088.52
434.016	1102.53
434.392	1095.97
434.767	1114.28
435.143	1171.23
435.518	1169.64
435.894	1187.95
436.269	1202.86
436.644	1226.59
437.02	1249.87
437.395	1277.44
437.77	1241.05
438.145	1281.51
438.52	1291.22
438.895	1307.49
439.271	1349.07
439.646	1378.9
440.021	1383.88
440.395	1396.31
440.77	1412.8
441.145	1393.37
441.52	1425.23
441.895	1462.97
442.27	1466.81
442.645	1470.2
443.019	1493.7
443.394	1519.92
443.769	1557.88
444.143	1512.23
444.518	1560.14
444.892	1547.04
445.267	1589.52
445.641	1609.41
446.016	1597.66
446.39	1606.7
446.764	1615.51
447.139	1622.06
447.513	1644.89
447.887	1621.61
448.262	1672.23
448.636	1665.22
449.01	1701.16
449.384	1724.66
449.758	1731.89
450.132	1744.54
450.506	1769.63
450.88	1780.93
451.254	1792.9
451.628	1789.06
452.002	1825.9
452.376	1843.07
452.75	1835.84
453.123	1877.42
453.497	1897.31
453.871	1919
454.244	1936.18
454.618	1995.39
454.992	1987.93
455.365	2019.79
455.739	2081.48
456.112	2068.38
456.486	2077.64
456.859	2126.91
457.232	2135.95
457.606	2140.92
457.979	2155.16
458.352	2230.41
458.725	2231.54
459.099	2296.62
459.472	2315.83
459.845	2338.43
460.218	2315.15
460.591	2364.64
460.964	2415.04
461.337	2483.96
461.71	2493.45
462.083	2525.54
462.456	2499.33
462.829	2550.85
463.201	2581.36
463.574	2617.29
463.947	2653.22
464.32	2695.03
464.692	2735.25
465.065	2766.21
465.438	2811.41
465.81	2851.86
466.183	2811.86
466.555	2919.2
466.928	2946.09
467.3	2976.6
467.672	3014.57
468.045	3102.93
468.417	3118.07
468.789	3118.07
469.161	3172.53
469.534	3252.53
469.906	3334.11
470.278	3336.14
470.65	3406.42
471.022	3444.39
471.394	3509.7
471.766	3534.78
472.138	3615.46
472.51	3690.93
472.882	3750.37
473.253	3791.04
473.625	3839.18
473.997	3934.32
474.369	3977.25
474.74	4028.1
475.112	4146.52
475.484	4167.76
475.855	4258.38
476.227	4361.42
476.598	4407.98
476.97	4516.45
477.341	4623.56
477.713	4679.38
478.084	4712.6
478.455	4828.31
478.827	4871.47
479.198	5056.55
479.569	5091.8
479.94	5203.44
480.311	5277.33
480.682	5437.1
481.053	5508.06
481.424	5667.38
481.795	5748.06
482.166	5888.16
482.537	5878.22
482.908	5991.21
483.279	6143.75
483.65	6245.44
484.021	6339.45
484.391	6442.5
484.762	6550.07
485.133	6588.26
485.503	6740.12
485.874	6911.64
486.244	6962.03
486.615	7105.76
486.985	7274.79
487.356	7351.18
487.726	7394.11
488.097	7580.1
488.467	7641.11
488.837	7795.46
489.207	7906.19
489.578	8068.9
489.948	8096.02
490.318	8242.45
490.688	8268.89
491.058	8409.23
491.428	8526.97
491.798	8568.55
492.168	8834.3
492.538	8844.02
492.908	8923.56
493.278	9048.08
493.648	9096.89
494.017	9183.9
494.387	9330.79
494.757	9382.31
495.126	9510.44
495.496	9531.91
495.866	9570.78
496.235	9637.9
496.605	9780.27
496.974	9797.21
497.344	9825.46
497.713	9967.38
498.082	10060.26
498.452	10170.99
498.821	10201.05
499.19	10192.68
499.559	10316.75
499.928	10367.14
500.298	10403.98
500.667	10459.12
501.036	10466.8
501.405	10558.32
501.774	10563.97
502.143	10687.59
502.512	10734.82
502.88	10677.87
503.249	10768.26
503.618	10771.2
503.987	10845.32
504.356	10932.1
504.724	11015.04
505.093	11008.03
505.462	11017.97
505.83	11131.87
506.199	11143.62
506.567	11267.23
506.936	11256.16
507.304	11331.64
507.672	11341.81
508.041	11356.27
508.409	11400.11
508.777	11516.04
509.145	11467
509.514	11510.84
509.882	11578.86
510.25	11564.17
510.618	11581.8
510.986	11652.08
511.354	11672.65
511.722	11758.52
512.09	11828.57
512.458	11754.45
512.826	11858.85
513.193	11863.6
513.561	11873.09
513.929	11993.54
514.297	11982.47
514.664	12050.04
515.032	11986.54
515.4	12123.93
515.767	12054.33
516.135	12130.94
516.502	11996.25
516.869	12186.08
517.237	12181.78
517.604	12073.31
517.972	12258.62
518.339	12250.93
518.706	12138.85
519.073	12268.56
519.44	12234.21
519.808	12291.16
520.175	12257.04
520.542	12366.64
520.909	12435.79
521.276	12293.65
521.643	12374.55
522.009	12440.31
522.376	12446.64
522.743	12418.84
523.11	12514.66
523.477	12560.08
523.843	12566.18
524.21	12614.99
524.577	12610.93
524.943	12644.82
525.31	12637.14
525.676	12756.91
526.043	12676.91
526.409	12689.79
526.776	12720.98
527.142	12664.48
527.508	12651.38
527.874	12733.63
528.241	12801.65
528.607	12721.88
528.973	12764.37
529.339	12647.76
529.705	12734.76
530.071	12771.15
530.437	12709.91
530.803	12698.38
531.169	12753.75
531.535	12678.49
531.901	12613.41
532.267	12649.12
532.632	12649.34
532.998	12579.97
533.364	12659.96
533.73	12578.16
534.095	12647.31
534.461	12585.62
534.826	12562.57
535.192	12517.37
535.557	12493.64
535.923	12484.6
536.288	12453.64
536.653	12399.63
537.019	12314.66
537.384	12289.58
537.749	12240.31
538.114	12173.2
538.479	12160.32
538.845	12181.11
539.21	11990.83
539.575	12128.68
539.94	12067.89
540.305	11969.59
540.67	11902.7
541.034	11911.06
541.399	11875.8
541.764	11861.57
542.129	11809.36
542.494	11736.82
542.858	11763.94
543.223	11678.52
543.587	11690.27
543.952	11576.38
544.316	11597.39
544.681	11483.05
545.045	11512.42
545.41	11486.66
545.774	11457.96
546.138	11294.58
546.503	11303.62
546.867	11222.26
547.231	11256.38
547.595	11222.26
547.959	11158.31
548.324	11127.35
548.688	11052.77
549.052	10974.13
549.416	10991.98
549.779	10956.05
550.143	10955.15
550.507	10931.87
550.871	10850.29
551.235	10698.66
551.599	10838.54
551.962	10735.95
552.326	10710.86
552.689	10664.31
553.053	10559.45
553.417	10506.8
553.78	10615.5
554.143	10504.54
554.507	10532.11
554.87	10410.76
555.234	10501.6
555.597	10388.84
555.96	10366.92
556.323	10385.45
556.686	10283.08
557.05	10314.94
557.413	10335.28
557.776	10255.06
558.139	10241.04
558.502	10209.41
558.865	10164.21
559.228	10197.88
559.59	10148.62
559.953	10149.75
560.316	10184.55
560.679	10149.52
561.041	10174.38
561.404	10134.61
561.767	10178.67
562.129	10141.39
562.492	10093.7
562.854	10083.31
563.217	10070.88
563.579	10067.49
563.941	10025.46
564.304	10049.41
564.666	10081.05
565.028	10126.7
565.39	10077.43
565.753	10153.36
566.115	10065
566.477	10146.36
566.839	10074.27
567.201	10069.52
567.563	10061.84
567.925	10102.74
568.287	10075.85
568.648	10123.08
569.01	10075.4
569.372	10155.4
569.734	9996.76
570.095	10073.82
570.457	10061.84
570.819	10131.22
571.18	10061.16
571.542	10127.6
571.903	10148.39
572.265	10120.6
572.626	10114.04
572.987	10088.28
573.349	10062.52
573.71	10100.93
574.071	10091.22
574.432	10145
574.794	10142.97
575.155	10167.83
575.516	10108.17
575.877	10056.64
576.238	10135.74
576.599	10098.45
576.96	10089.86
577.32	10106.81
577.681	10144.55
578.042	10145
578.403	10076.53
578.763	10121.5
579.124	10118.56
579.485	10137.32
579.845	10142.97
580.206	10084.44
580.566	10043.54
580.927	10033.59
581.287	10130.54
581.648	10028.17
582.008	10120.14
582.368	10039.69
582.728	10014.16
583.089	10040.6
583.449	10037.89
583.809	10009.64
584.169	9985.68
584.529	9994.95
584.889	10040.15
585.249	9971.22
585.609	9952.69
585.969	10002.41
586.329	9911.11
586.688	9992.92
587.048	9946.59
587.408	9928.51
587.768	9935.29
588.127	9937.1
588.487	9834.05
588.846	9943.65
589.206	9869.98
589.565	9842.41
589.925	9885.12
590.284	9880.38
590.643	9868.17
591.003	9822.52
591.362	9880.83
591.721	9866.36
592.08	9804.67
592.44	9859.59
592.799	9815.07
593.158	9737.55
593.517	9834.95
593.876	9810.55
594.235	9814.39
594.593	9773.71
594.952	9693.49
595.311	9683.54
595.67	9706.14
596.029	9747.05
596.387	9779.14
596.746	9744.56
597.104	9647.84
597.463	9657.33
597.822	9707.05
598.18	9655.3
598.538	9647.61
598.897	9632.92
599.255	9591.57
599.613	9740.27
599.972	9710.21
600.33	9699.59
600.688	9748.63
601.046	9673.15
601.404	9762.19
601.762	9650.33
602.12	9685.13
602.478	9700.72
602.836	9656.65
603.194	9639.7
603.552	9665.92
603.91	9556.99
604.268	9643.77
604.625	9624.11
604.983	9639.25
605.341	9617.11
605.698	9608.74
606.056	9641.06
606.413	9611.23
606.771	9620.5
607.128	9621.4
607.485	9578.01
607.843	9620.5
608.2	9671.12
608.557	9688.52
608.914	9653.04
609.272	9704.79
609.629	9675.86
609.986	9745.46
610.343	9693.71
610.7	9705.92
611.057	9727.84
611.414	9731.23
611.771	9624.34
612.127	9720.83
612.484	9730.1
612.841	9765.58
613.198	9705.92
613.554	9703.66
613.911	9741.62
614.267	9778.23
614.624	9700.04
614.98	9678.57
615.337	9786.14
615.693	9778.68
616.05	9785.01
616.406	9773.03
616.762	9763.32
617.118	9746.37
617.475	9765.12
617.831	9758.57
618.187	9758.12
618.543	9760.83
618.899	9809.42
619.255	9855.97
619.611	9790.21
619.967	9875.63
620.323	9794.73
620.678	9835.86
621.034	9801.73
621.39	9784.33
621.746	9816.65
622.101	9929.19
622.457	9755.18
622.812	9787.95
623.168	9851.68
623.523	9835.18
623.879	9854.39
624.234	9794.5
624.589	9799.47
624.945	9876.53
625.3	9892.35
625.655	9906.82
626.01	9793.6
626.365	9818.68
626.72	9758.57
627.075	9845.8
627.43	9799.02
627.785	9793.82
628.14	9778.91
628.495	9776.42
628.85	9780.72
629.205	9768.29
629.559	9788.85
629.914	9714.5
630.269	9745.01
630.623	9749.53
630.978	9711.11
631.332	9707.72
631.687	9725.35
632.041	9697.1
632.396	9679.25
632.75	9665.69
633.104	9710.66
633.459	9665.01
633.813	9632.47
634.167	9626.37
634.521	9653.04
634.875	9580.5
635.229	9504.11
635.583	9546.37
635.937	9544.57
636.291	9553.15
636.645	9573.04
636.999	9554.73
637.352	9555.64
637.706	9446.71
638.06	9519.48
638.413	9501.18
638.767	9509.99
639.121	9472.48
639.474	9415.98
639.828	9408.52
640.181	9408.07
640.534	9478.58
640.888	9493.95
641.241	9389.77
641.594	9430.44
641.947	9426.83
642.301	9369.88
642.654	9383.21
643.007	9468.41
643.36	9404
643.713	9334.18
644.066	9389.32
644.419	9353.84
644.771	9267.74
645.124	9230.22
645.477	9124.46
645.83	9161.75
646.182	9088.31
646.535	9020.29
646.888	9095.31
647.24	9036.78
647.593	9079.72
647.945	9046.27
648.298	9027.74
648.65	9010.34
649.002	8994.75
649.355	9069.78
649.707	9128.98
650.059	9082.66
650.411	9205.37
650.763	9126.95
651.115	9224.8
651.467	9300.73
651.819	9267.06
652.171	9254.4
652.523	9191.58
652.875	9223.22
653.227	9151.13
653.578	9312.03
653.93	9306.83
654.282	9219.38
654.633	9229.55
654.985	9292.37
655.337	9264.12
655.688	9299.37
656.039	9201.52
656.391	9236.55
656.742	9261.64
657.094	9300.5
657.445	9308.41
657.796	9294.85
658.147	9273.39
658.498	9268.19
658.849	9254.63
659.2	9267.51
659.551	9197
659.902	9312.93
660.253	9260.05
660.604	9365.14
660.955	9293.05
661.306	9323.78
661.656	9335.31
662.007	9283.78
662.358	9359.94
662.708	9341.63
663.059	9312.71
663.409	9270.45
663.76	9368.3
664.11	9390.9
664.461	9316.55
664.811	9361.07
665.161	9380.5
665.511	9385.25
665.862	9315.87
666.212	9423.89
666.562	9378.69
666.912	9345.7
667.262	9412.82
667.612	9403.55
667.962	9374.4
668.312	9377.34
668.662	9418.02
669.011	9312.26
669.361	9379.15
669.711	9272.26
670.06	9300.5
670.41	9297.79
670.76	9314.51
671.109	9381.41
671.459	9360.16
671.808	9260.73
672.157	9311.35
672.507	9216.89
672.856	9245.36
673.205	9297.34
673.554	9305.48
673.904	9301.41
674.253	9317.45
674.602	9243.56
674.951	9133.05
675.3	9055.99
675.649	9232.03
675.998	9189.55
676.346	9227.74
676.695	9199.49
677.044	9169.43
677.393	9239.26
677.741	9172.15
678.09	9170.34
678.438	9144.35
678.787	9208.76
679.135	9162.65
679.484	9171.24
679.832	9118.81
680.181	9117.91
680.529	9059.61
680.877	9047.86
681.225	8995.43
681.573	9062.32
681.922	9032.26
682.27	8942.1
682.618	9035.88
682.966	8937.8
683.314	8925.6
683.661	8948.87
684.009	8924.92
684.357	8833.17
684.705	8846.5
685.053	8932.38
685.4	8837.47
685.748	8838.6
686.095	8773.96
686.443	8736.45
686.79	8713.85
687.138	8744.81
687.485	8754.98
687.832	8681.31
688.18	8747.75
688.527	8642.44
688.874	8626.62
689.221	8597.25
689.568	8562.67
689.915	8535.78
690.262	8521.99
690.609	8519.51
690.956	8494.88
691.303	8454.2
691.65	8400.87
691.997	8418.95
692.344	8359.74
692.69	8310.02
693.037	8312.73
693.383	8291.04
693.73	8235.9
694.077	8241.32
694.423	8204.04
694.769	8145.05
695.116	8141.21
695.462	8170.14
695.808	8087.2
696.155	8121.33
696.501	8061.67
696.847	8030.03
697.193	7963.36
697.539	7955.45
697.885	7896.93
698.231	7938.96
698.577	7867.55
698.923	7795.91
699.269	7832.29
699.614	7727.66
699.96	7786.42
700.306	7719.08
700.651	7676.14
700.997	7662.13
701.342	7705.07
701.688	7635.01
702.033	7587.33
702.379	7583.04
702.724	7540.78
703.069	7502.59
703.415	7400.44
703.76	7437.05
704.105	7484.96
704.45	7375.36
704.795	7374.9
705.14	7324.06
705.485	7342.82
705.83	7327.67
706.175	7340.1
706.52	7217.62
706.865	7213.78
707.209	7259.65
707.554	7191.63
707.899	7168.36
708.243	7145.08
708.588	7175.81
708.932	7109.38
709.277	7041.13
709.621	7054.91
709.966	7034.8
710.31	6964.07
710.654	6971.3
710.998	7009.94
711.342	6996.61
711.687	6946.67
712.031	6907.12
712.375	6869.61
712.719	6876.61
713.063	6882.04
713.407	6870.06
713.75	6821.25
714.094	6833.22
714.438	6830.51
714.782	6798.42
715.125	6775.6
715.469	6805.43
715.812	6785.54
716.156	6713.91
716.499	6722.27
716.843	6722.04
717.186	6701.02
717.53	6664.19
717.873	6757.97
718.216	6688.6
718.559	6709.84
718.902	6633.46
719.246	6655.38
719.589	6667.13
719.932	6628.48
720.275	6633.91
720.617	6579.45
720.96	6609.05
721.303	6619.67
721.646	6642.04
721.989	6576.73
722.331	6620.57
722.674	6570.86
723.016	6632.33
723.359	6580.35
723.701	6615.15
724.044	6557.07
724.386	6542.84
724.729	6517.98
725.071	6546.9
725.413	6527.92
725.755	6506.23
726.097	6511.42
726.439	6526.57
726.782	6490.41
727.124	6527.47
727.465	6529.96
727.807	6485.44
728.149	6492.44
728.491	6470.75
728.833	6509.84
729.175	6453.35
729.516	6475.49
729.858	6448.6
730.199	6489.96
730.541	6476.17
730.882	6471.65
731.224	6520.46
731.565	6476.4
731.906	6480.69
732.248	6506.45
732.589	6470.97
732.93	6493.35
733.271	6419.22
733.612	6480.01
733.953	6518.2
734.294	6494.7
734.635	6482.27
734.976	6468.71
735.317	6521.82
735.658	6478.21
735.999	6524.98
736.339	6451.77
736.68	6521.14
737.021	6511.65
737.361	6462.39
737.702	6463.97
738.042	6537.41
738.383	6530.41
738.723	6513.91
739.063	6534.7
739.404	6572.44
739.744	6573.34
740.084	6555.27
740.424	6626.22
740.764	6564.3
741.104	6607.24
741.444	6602.27
741.784	6593.68
742.124	6618.99
742.464	6665.32
742.804	6622.16
743.143	6700.35
743.483	6706.9
743.823	6716.17
744.162	6703.96
744.502	6830.29
744.841	6808.59
745.181	6874.13
745.52	6849.04
745.86	6907.57
746.199	6886.78
746.538	6960.23
746.877	7072.31
747.216	7086.55
747.556	7110.51
747.895	7124.74
748.234	7180.79
748.573	7234.57
748.911	7297.39
749.25	7369.71
749.589	7460.55
749.928	7472.98
750.267	7594.33
750.605	7660.77
750.944	7687.44
751.283	7781.9
751.621	7929.24
751.96	7915.23
752.298	8089.91
752.636	8132.4
752.975	8224.6
753.313	8272.73
753.651	8446.74
753.989	8550.69
754.327	8619.62
754.666	8676.79
755.004	8833.85
755.342	8977.35
755.679	9075.2
756.017	9109.55
756.355	9373.72
756.693	9492.59
757.031	9676.54
757.368	9740.49
757.706	9937.78
758.044	9969.86
758.381	10240.82
758.719	10358.56
759.056	10478.78
759.394	10583.63
759.731	10750.64
760.068	11024.07
760.405	11134.81
760.743	11244.18
761.08	11429.94
761.417	11605.3
761.754	11731.85
762.091	11956.25
762.428	12069.92
762.765	12279.18
763.102	12548.1
763.438	12565.5
763.775	12816.34
764.112	12918.71
764.449	13166.84
764.785	13293.39
