Data from hue_24_FLMS001491_00059.txt Node
Date: Tue Feb 07 17:12:28 GMT 2017
User: dcchb
Spectrometer: FLMS00149
Trigger mode: 0
Integration Time (sec): 2.000000E-2
Scans to average: 10
Electric dark correction enabled: true
Nonlinearity correction enabled: false
Boxcar width: 0
XAxis mode: Wavelengths
Number of Pixels in Spectrum: 2048
>>>>>Begin Spectral Data<<<<<
341.393	-17.99
341.776	-17.99
342.16	-17.99
342.543	-59.35
342.927	-70.65
343.31	-66.81
343.693	-78.78
344.077	-78.56
344.46	-67.71
344.843	-56.86
345.226	-34.49
345.61	-27.26
345.993	-6.47
346.376	-7.6
346.759	39.18
347.142	17.03
347.525	31.95
347.908	59.97
348.291	87.09
348.674	95.68
349.057	93.64
349.44	132.96
349.823	127.77
350.206	160.31
350.588	200.31
350.971	191.27
351.354	236.91
351.737	247.54
352.119	257.93
352.502	264.94
352.884	280.53
353.267	278.5
353.65	306.07
354.032	303.35
354.414	329.57
354.797	318.27
355.179	334.77
355.562	334.31
355.944	332.28
356.326	327.99
356.709	347.87
357.091	342.9
357.473	340.87
357.855	363.47
358.238	352.39
358.62	335.9
359.002	356.01
359.384	347.65
359.766	343.58
360.148	322.34
360.53	339.51
360.912	326.18
361.294	334.31
361.676	343.13
362.057	344.26
362.439	345.39
362.821	341.54
363.203	327.53
363.584	333.18
363.966	306.97
364.348	324.82
364.729	351.94
365.111	313.97
365.493	320.53
365.874	311.49
366.256	306.07
366.637	318.49
367.019	318.04
367.4	316.01
367.781	307.87
368.163	318.49
368.544	302
368.925	321.21
369.306	334.54
369.688	315.1
370.069	323.47
370.45	312.62
370.831	325.95
371.212	317.82
371.593	323.47
371.974	317.59
372.355	315.56
372.736	327.99
373.117	323.24
373.498	305.61
373.879	319.17
374.26	316.91
374.641	312.84
375.021	334.99
375.402	328.66
375.783	299.96
376.163	319.62
376.544	339.28
376.925	322.56
377.305	333.18
377.686	318.27
378.066	342
378.447	343.35
378.827	319.17
379.208	327.53
379.588	339.96
379.968	325.27
380.349	330.02
380.729	326.18
381.109	332.51
381.489	332.73
381.87	331.15
382.25	330.92
382.63	343.35
383.01	335.22
383.39	348.78
383.77	336.57
384.15	344.93
384.53	358.72
384.91	352.62
385.29	346.97
385.67	350.58
386.049	356.23
386.429	354.2
386.809	368.44
387.189	346.52
387.568	372.73
387.948	374.31
388.328	348.55
388.707	356.69
389.087	370.7
389.466	355.1
389.846	360.53
390.225	373.18
390.605	391.03
390.984	358.95
391.363	378.15
391.743	365.72
392.122	364.59
392.501	358.95
392.881	376.35
393.26	379.28
393.639	387.42
394.018	378.61
394.397	387.19
394.776	384.03
395.155	378.83
395.534	366.63
395.913	373.63
396.292	388.55
396.671	370.7
397.05	392.84
397.429	401.2
397.808	400.98
398.186	379.74
398.565	389.23
398.944	391.03
399.323	385.61
399.701	396.23
400.08	383.13
400.458	394.2
400.837	392.39
401.215	420.86
401.594	411.83
401.972	422.45
402.351	398.49
402.729	390.58
403.107	409.11
403.486	425.38
403.864	422.67
404.242	403.01
404.62	422.67
404.999	403.01
405.377	415.44
405.755	394.42
406.133	415.22
406.511	438.27
406.889	430.81
407.267	421.09
407.645	406.63
408.023	432.16
408.401	432.16
408.779	442.33
409.156	439.4
409.534	433.97
409.912	433.75
410.29	437.59
410.667	445.72
411.045	469.9
411.422	455.21
411.8	412.73
412.178	473.97
412.555	433.52
412.933	471.71
413.31	455.21
413.687	462.45
414.065	453.86
414.442	478.49
414.819	461.54
415.197	464.71
415.574	464.48
415.951	475.33
416.328	477.13
416.705	468.77
417.082	498.38
417.46	481.65
417.837	508.32
418.214	494.76
418.591	509.68
418.967	483.91
419.344	494.31
419.721	506.06
420.098	522.78
420.475	498.83
420.852	510.58
421.228	506.74
421.605	514.42
421.982	492.05
422.358	521.65
422.735	527.98
423.111	526.85
423.488	515.55
423.864	530.92
424.241	527.08
424.617	532.5
424.994	556.45
425.37	534.99
425.746	550.8
426.123	565.04
426.499	551.71
426.875	562.1
427.251	563.91
427.627	563.91
428.003	583.35
428.379	571.14
428.756	565.27
429.132	574.76
429.507	585.38
429.883	586.74
430.259	563.91
430.635	590.13
431.011	612.72
431.387	611.82
431.763	605.27
432.138	624.25
432.514	613.4
432.89	610.69
433.265	626.51
433.641	630.12
434.016	645.94
434.392	645.27
434.767	667.41
435.143	643.91
435.518	651.37
435.894	654.3
436.269	662.89
436.644	671.93
437.02	668.32
437.395	705.83
437.77	678.03
438.145	673.51
438.52	687.75
438.895	687.07
439.271	671.71
439.646	688.65
440.021	712.83
440.395	726.85
440.77	710.12
441.145	694.08
441.52	701.31
441.895	721.2
442.27	715.77
442.645	731.82
443.019	738.14
443.394	720.97
443.769	753.06
444.143	759.16
444.518	743.79
444.892	756.68
445.267	757.35
445.641	757.8
446.016	791.02
446.39	755.32
446.764	758.71
447.139	770.46
447.513	766.39
447.887	819.72
448.262	772.72
448.636	784.92
449.01	796
449.384	801.87
449.758	791.93
450.132	838.93
450.506	805.26
450.88	818.14
451.254	814.53
451.628	833.96
452.002	844.58
452.376	852.94
452.75	852.49
453.123	842.77
453.497	869.89
453.871	836.45
454.244	860.85
454.618	890.91
454.992	897.91
455.365	892.72
455.739	920.74
456.112	904.69
456.486	896.56
456.859	934.52
457.232	951.47
457.606	932.49
457.979	956.44
458.352	955.77
458.725	973.17
459.099	953.96
459.472	995.54
459.845	1003
460.218	1009.32
460.591	1014.07
460.964	1014.07
461.337	1059.27
461.71	1021.53
462.083	1025.14
462.456	1071.47
462.829	1061.3
463.201	1065.59
463.574	1050.9
463.947	1086.84
464.32	1087.29
464.692	1132.26
465.065	1129.09
465.438	1175.2
465.81	1156.21
466.183	1182.88
466.555	1189.21
466.928	1202.54
467.3	1213.61
467.672	1228.75
468.045	1244.12
468.417	1249.77
468.789	1244.12
469.161	1269.2
469.534	1285.02
469.906	1294.97
470.278	1329.77
470.65	1316.89
471.022	1347.62
471.394	1374.06
471.766	1395.3
472.138	1396.66
472.51	1450.22
472.882	1432.59
473.253	1469.88
473.625	1490.22
473.997	1528.41
474.369	1528.86
474.74	1565.92
475.112	1564.79
475.484	1602.53
475.855	1644.34
476.227	1650.89
476.598	1706.48
476.97	1728.63
477.341	1760.04
477.713	1752.13
478.084	1825.57
478.455	1837.1
478.827	1863.09
479.198	1945.8
479.569	1903.09
479.94	1994.61
480.311	2014.5
480.682	2028.51
481.053	2102.63
481.424	2143.98
481.795	2179.46
482.166	2178.78
482.537	2259.01
482.908	2305.56
483.279	2320.02
483.65	2354.15
484.021	2415.84
484.391	2451.09
484.762	2435.95
485.133	2520.24
485.503	2557.76
485.874	2626.23
486.244	2659
486.615	2725.89
486.985	2748.49
487.356	2789.39
487.726	2827.81
488.097	2840.46
488.467	2874.36
488.837	2980.8
489.207	3005.43
489.578	3064.41
489.948	3080
490.318	3149.38
490.688	3165.65
491.058	3268.02
491.428	3284.97
491.798	3306.21
492.168	3402.26
492.538	3402.71
492.908	3458.3
493.278	3510.27
493.648	3523.83
494.017	3590.72
494.387	3585.75
494.757	3658.97
495.126	3678.18
495.496	3724.28
495.866	3781.68
496.235	3827.78
496.605	3838.4
496.974	3846.76
497.344	3918.85
497.713	3946.65
498.082	3929.02
498.452	4025.29
498.821	4017.38
499.19	4028.68
499.559	4104.61
499.928	4112.29
500.298	4175.12
500.667	4189.35
501.036	4207.88
501.405	4254.21
501.774	4240.65
502.143	4322.01
502.512	4318.39
502.88	4361.33
503.249	4326.3
503.618	4455.56
503.987	4422.12
504.356	4445.39
504.724	4489.46
505.093	4499.18
505.462	4502.57
505.83	4581.66
506.199	4595.44
506.567	4609.68
506.936	4639.06
507.304	4684.71
507.672	4706.4
508.041	4698.94
508.409	4710.24
508.777	4776.46
509.145	4811.71
509.514	4813.29
509.882	4834.76
510.25	4826.17
510.618	4866.62
510.986	4894.65
511.354	4957.24
511.722	4978.94
512.09	4977.13
512.458	4938.26
512.826	5031.14
513.193	5034.53
513.561	5082.44
513.929	5098.48
514.297	5117.46
514.664	5138.71
515.032	5130.57
515.4	5212.15
515.767	5177.58
516.135	5193.62
516.502	5224.81
516.869	5282.43
517.237	5328.76
517.604	5247.18
517.972	5305.93
518.339	5322.66
518.706	5368.31
519.073	5353.16
519.44	5369.21
519.808	5389.32
520.175	5413.28
520.542	5535.53
520.909	5471.58
521.276	5494.86
521.643	5560.39
522.009	5547.28
522.376	5622.99
522.743	5588.19
523.11	5732.14
523.477	5724.68
523.843	5705.47
524.21	5815.53
524.577	5814.4
524.943	5817.56
525.31	5836.09
525.676	5901.85
526.043	5887.16
526.409	5974.16
526.776	6026.82
527.142	6030.21
527.508	6077.44
527.874	6107.95
528.241	6080.6
528.607	6156.99
528.973	6206.7
529.339	6247.15
529.705	6219.81
530.071	6306.81
530.437	6306.81
530.803	6351.1
531.169	6359.92
531.535	6369.41
531.901	6382.29
532.267	6425.23
532.632	6499.8
532.998	6523.08
533.364	6541.38
533.73	6557.2
534.095	6621.15
534.461	6675.62
534.826	6691.43
535.192	6699.12
535.557	6719.46
535.923	6728.04
536.288	6728.95
536.653	6766.69
537.019	6807.14
537.384	6734.82
537.749	6781.15
538.114	6843.75
538.479	6886.46
538.845	6915.16
539.21	6955.83
539.575	6935.95
539.94	6942.05
540.305	7028.15
540.67	6987.02
541.034	7067.92
541.399	7039.22
541.764	7131.42
542.129	7136.39
542.494	7130.97
542.858	7189.27
543.223	7129.84
543.587	7269.27
543.952	7271.98
544.316	7344.75
544.681	7345.43
545.045	7375.48
545.41	7383.62
545.774	7380
546.138	7458.65
546.503	7443.96
546.867	7460.23
547.231	7535.48
547.595	7581.81
547.959	7575.48
548.324	7634.46
548.688	7668.36
549.052	7692.09
549.416	7680.33
549.779	7667.68
550.143	7726.44
550.507	7817.51
550.871	7836.04
551.235	7793.33
551.599	7878.52
551.962	7883.95
552.326	7854.34
552.689	7905.41
553.053	7935.02
553.417	7891.18
553.78	8046.88
554.143	7963.04
554.507	8069.03
554.87	8075.8
555.234	8105.86
555.597	8132.98
555.96	8132.98
556.323	8192.64
556.686	8169.36
557.05	8295.69
557.413	8283.71
557.776	8337.94
558.139	8371.62
558.502	8359.64
558.865	8368.23
559.228	8396.02
559.59	8427.21
559.953	8475.57
560.316	8529.8
560.679	8511.5
561.041	8603.47
561.404	8633.98
561.767	8705.17
562.129	8587.66
562.492	8750.59
562.854	8679.86
563.217	8687.54
563.579	8780.42
563.941	8790.81
564.304	8836.24
564.666	8843.69
565.028	8904.03
565.39	8972.96
565.753	8973.18
566.115	9030.13
566.477	9077.13
566.839	9011.6
567.201	9148.09
567.563	9109
567.925	9201.2
568.287	9153.06
568.648	9224.7
569.01	9249.33
569.372	9326.85
569.734	9269.9
570.095	9418.37
570.457	9425.15
570.819	9465.82
571.18	9438.25
571.542	9528.65
571.903	9588.99
572.265	9622.2
572.626	9678.25
572.987	9720.96
573.349	9774.74
573.71	9785.14
574.071	9906.49
574.432	9885.93
574.794	10093.15
575.155	10070.1
575.516	10039.14
575.877	10214.51
576.238	10209.31
576.599	10262.19
576.96	10331.56
577.32	10436.42
577.681	10507.15
578.042	10583.99
578.403	10624.44
578.763	10770.42
579.124	10768.39
579.485	10887.71
579.845	11025.33
580.206	11224.87
580.566	11242.95
580.927	11336.96
581.287	11505.77
581.648	11582.61
582.008	11778.31
582.368	11792.54
582.728	11992.54
583.089	12114.34
583.449	12238.63
583.809	12359.99
584.169	12633.2
584.529	12717.94
584.889	12976.69
585.249	13113.86
585.609	13262.33
585.969	13592.5
586.329	13649.67
586.688	14013.73
587.048	14136.44
587.408	14290.78
587.768	14502.53
588.127	14738
588.487	15001.95
588.846	15398.1
589.206	15467.7
589.565	15735.26
589.925	16022.26
590.284	16232.43
590.643	16557.16
591.003	16834.9
591.362	17152.85
591.721	17403.69
592.08	17632.39
592.44	18052.49
592.799	18281.64
593.158	18347.17
593.517	18890.44
593.876	19127.72
594.235	19323.87
594.593	19704.88
594.952	20050.63
595.311	20230.97
595.67	20693.33
596.029	21060.55
596.387	21298.96
596.746	21666.86
597.104	21830.02
597.463	22171.71
597.822	22472.94
598.18	22767.62
598.538	23045.81
598.897	23436.98
599.255	23639.24
599.613	24166.91
599.972	24366.9
600.33	24669.72
600.688	24946.77
601.046	25320.1
601.404	25612.74
601.762	25923.24
602.12	26311.03
602.478	26539.27
602.836	26814.97
603.194	27116.43
603.552	27477.55
603.91	27710.09
604.268	27943.08
604.625	28230.98
604.983	28613.12
605.341	28689.27
605.698	29158.19
606.056	29333.1
606.413	29641.11
606.771	29880.66
607.128	30185.96
607.485	30317.03
607.843	30533.07
608.2	30927.86
608.557	31184.35
608.914	31394.29
609.272	31716.31
609.629	31978.9
609.986	32302.51
610.343	32343.87
610.7	32899.33
611.057	32895.27
611.414	33100.91
611.771	33309.04
612.127	33584.06
612.484	33751.29
612.841	34039.64
613.198	34074.44
613.554	34277.15
613.911	34521.44
614.267	34749.23
614.624	34810.47
614.98	35108.54
615.337	35426.5
615.693	35560.73
616.05	35599.15
616.406	35992.13
616.762	36060.15
617.118	36209.75
617.475	36239.36
617.831	36562.29
618.187	36797.31
618.543	37010.19
618.899	37179.67
619.255	37295.15
619.611	37382.6
619.967	37505.77
620.323	37758.87
620.678	37808.36
621.034	37744.4
621.39	37990.05
621.746	38078.41
622.101	38465.29
622.457	38257.84
622.812	38373.99
623.168	38684.27
623.523	38655.11
623.879	38901.21
624.234	38795.45
624.589	38825.96
624.945	39117.02
625.3	39256.23
625.655	39272.95
626.01	39162.22
626.365	39411.03
626.72	39467.3
627.075	39510.91
627.43	39610.57
627.785	39570.57
628.14	39818.47
628.495	39764.69
628.85	39765.59
629.205	39781.64
629.559	39939.83
629.914	39805.82
630.269	39897.79
630.623	39972.59
630.978	39875.19
631.332	40083.32
631.687	40172.59
632.041	40085.13
632.396	40258.24
632.75	40058.69
633.104	40171.68
633.459	40110.44
633.813	40157.45
634.167	40145.47
634.521	40085.13
634.875	40365.58
635.229	40286.48
635.583	40051.01
635.937	40213.26
636.291	40156.99
636.645	40081.74
636.999	40167.62
637.352	40258.91
637.706	40051.24
638.06	40420.49
638.413	40243.09
638.767	40145.02
639.121	40206.94
639.474	39947.51
639.828	40035.19
640.181	40160.16
640.534	40227.5
640.888	40233.6
641.241	40047.17
641.594	40013.5
641.947	40224.79
642.301	39936.89
642.654	40186.6
643.007	40336.88
643.36	40342.07
643.713	40142.08
644.066	40226.37
644.419	40006.49
644.771	39712.26
645.124	39493.28
645.477	39402.89
645.83	39087.87
646.182	39015.33
646.535	38983.01
646.888	39087.42
647.24	38852.17
647.593	39173.07
647.945	38933.3
648.298	38868.67
648.65	38863.92
649.002	38778.05
649.355	38853.3
649.707	38931.49
650.059	38924.49
650.411	39507.07
650.763	39526.05
651.115	39797
651.467	39716.1
651.819	39835.42
652.171	39651.92
652.523	39700.06
652.875	39639.95
653.227	39512.72
653.578	39730.11
653.93	39713.84
654.282	39377.81
654.633	39443.34
654.985	39576.22
655.337	39636.56
655.688	39585.71
656.039	39708.87
656.391	39256.68
656.742	39493.28
657.094	39583.9
657.445	39632.04
657.796	39446.51
658.147	39272.27
658.498	39295.32
658.849	39443.12
659.2	39340.07
659.551	39203.57
659.902	39540.06
660.253	39386.62
660.604	39441.31
660.955	39270.69
661.306	39466.17
661.656	39511.36
662.007	39390.69
662.358	39368.09
662.708	39420.97
663.059	39365.38
663.409	39065.05
663.76	39452.61
664.11	39484.7
664.461	39396.11
664.811	39338.26
665.161	39364.93
665.511	39190.92
665.862	39361.31
666.212	39253.97
666.562	39355.89
666.912	39154.54
667.262	39220.97
667.612	39329.67
667.962	39358.37
668.312	39242.67
668.662	39321.31
669.011	39282.89
669.361	39265.72
669.711	39134.42
670.06	39157.25
670.41	39183.01
670.76	39081.32
671.109	39264.14
671.459	39157.25
671.808	39096.23
672.157	39133.52
672.507	38886.52
672.856	39031.6
673.205	39146.85
673.554	39067.76
673.904	38994.31
674.253	39219.62
674.602	39095.1
674.951	38475.68
675.3	38408.34
675.649	38953.86
675.998	38848.1
676.346	38948.21
676.695	38949.34
677.044	38593.65
677.393	38702.34
677.741	38918.61
678.09	38726.07
678.438	38667.09
678.787	38722.68
679.135	38791.61
679.484	38486.08
679.832	38830.48
680.181	38342.35
680.529	38698.95
680.877	38525.17
681.225	38363.6
681.573	38544.61
681.922	38320.66
682.27	38194.79
682.618	38169.48
682.966	38139.42
683.314	38223.26
683.661	38025.98
684.009	37799.32
684.357	37849.71
684.705	37861.91
685.053	37863.27
685.4	37806.32
685.748	37596.16
686.095	37640
686.443	37437.74
686.79	37340.8
687.138	37495.14
687.485	37576.05
687.832	37429.38
688.18	37390.06
688.527	37202.72
688.874	37035.72
689.221	36992.56
689.568	37073.91
689.915	36883.18
690.262	36889.28
690.609	36865.33
690.956	36741.04
691.303	36659.46
691.65	36549.63
691.997	36630.08
692.344	36276.87
692.69	36237.32
693.037	36302.63
693.383	36109.64
693.73	36376.76
694.077	35941.29
694.423	35889.54
694.769	35901.97
695.116	35859.71
695.462	35664.46
695.808	35589.66
696.155	35583.1
696.501	35372.04
696.847	35409.32
697.193	35100.4
697.539	35269.67
697.885	34972.72
698.231	34774.76
698.577	34989.45
698.923	34710.13
699.269	34661.77
699.614	34628.78
699.96	34360.76
700.306	34471.72
700.651	34272.63
700.997	34352.85
701.342	34165.51
701.688	34266.75
702.033	34072.18
702.379	34096.82
702.724	34020.43
703.069	34042.81
703.415	33704.28
703.76	33617.51
704.105	33743.6
704.45	33606.66
704.795	33402.37
705.14	33408.02
705.485	33194.92
705.83	33150.4
706.175	33231.08
706.52	33099.1
706.865	33024.53
707.209	32907.02
707.554	32860.46
707.899	32827.7
708.243	32692.33
708.588	32650.98
708.932	32381.15
709.277	32310.42
709.621	32380.93
709.966	32239.46
710.31	32361.49
710.654	32024.78
710.998	32146.58
711.342	32115.85
711.687	32027.04
712.031	31825.46
712.375	31806.03
712.719	31922.41
713.063	31732.81
713.407	31855.07
713.75	31546.37
714.094	31670.44
714.438	31489.43
714.782	31588.63
715.125	31411.46
715.469	31435.64
715.812	31284.91
716.156	31137.8
716.499	30990.68
716.843	31196.33
717.186	30910.91
717.53	31055.99
717.873	30954.53
718.216	31065.26
718.559	30946.16
718.902	30575.1
719.246	30720.86
719.589	30641.09
719.932	30430.02
720.275	30520.41
720.617	30414.88
720.96	30536.68
721.303	30315.45
721.646	30438.38
721.989	30258.95
722.331	30288.55
722.674	30117.03
723.016	30265.28
723.359	30140.54
723.701	30135.79
724.044	29921.56
724.386	29872.97
724.729	29869.81
725.071	29917.04
725.413	29924.04
725.755	29806.31
726.097	29673.2
726.439	29542.36
726.782	29557.05
727.124	29722.92
727.465	29505.98
727.807	29567.22
728.149	29452.87
728.491	29330.16
728.833	29474.56
729.175	29298.52
729.516	29195.25
729.858	29265.76
730.199	29235.25
730.541	29191.41
730.882	29132.88
731.224	29128.81
731.565	29002.26
731.906	29072.99
732.248	28984.63
732.589	28880.46
732.93	28817.18
733.271	28746.45
733.612	28790.29
733.953	28730.63
734.294	28602.72
734.635	28566.79
734.976	28615.38
735.317	28510.97
735.658	28580.12
735.999	28559.56
736.339	28496.74
736.68	28507.36
737.021	28336.51
737.361	28308.72
737.702	28512.1
738.042	28365.89
738.383	28162.28
738.723	28300.81
739.063	28223.98
739.404	28196.41
739.744	28154.6
740.084	28148.05
740.424	28146.92
740.764	28013.59
741.104	28137.65
741.444	27855.17
741.784	27934.49
742.124	27942.85
742.464	27842.74
742.804	27891.55
743.143	27767.94
743.483	27787.83
743.823	27618.79
744.162	27637.1
744.502	27639.13
744.841	27432.36
745.181	27485.46
745.52	27452.24
745.86	27574.73
746.199	27417.67
746.538	27357.78
746.877	27480.94
747.216	27596.65
747.556	27382.19
747.895	27320.95
748.234	27152.14
748.573	27184.23
748.911	27316.43
749.25	27208.18
749.589	26981.3
749.928	27132.93
750.267	27257.9
750.605	27099.71
750.944	26961.64
751.283	26888.42
751.621	26933.16
751.96	26733.62
752.298	26892.48
752.636	26892.48
752.975	26719.83
753.313	26548.31
753.651	26659.95
753.989	26416.34
754.327	26573.85
754.666	26407.75
755.004	26413.63
755.342	26461.99
755.679	26394.87
756.017	26244.59
756.355	26258.15
756.693	26166.85
757.031	26172.73
757.368	26057.48
757.706	26008.67
758.044	25843.7
758.381	25903.81
758.719	25797.37
759.056	25899.97
759.394	25818.61
759.731	25659.75
760.068	25587.43
760.405	25579.98
