Data from hue_170_FLMS001491_00010.txt Node
Date: Tue Feb 07 16:48:10 GMT 2017
User: dcchb
Spectrometer: FLMS00149
Trigger mode: 0
Integration Time (sec): 2.000000E-2
Scans to average: 10
Electric dark correction enabled: true
Nonlinearity correction enabled: false
Boxcar width: 0
XAxis mode: Wavelengths
Number of Pixels in Spectrum: 2048
>>>>>Begin Spectral Data<<<<<
341.393	-17.98
341.776	-17.98
342.16	-17.98
342.543	-80.13
342.927	-54.36
343.31	-77.87
343.693	-60.01
344.077	-57.53
344.46	-61.82
344.843	-73.12
345.226	-37.41
345.61	-19.56
345.993	-13.01
346.376	-13.69
346.759	2.13
347.142	34.45
347.525	54.33
347.908	63.15
348.291	68.57
348.674	87.55
349.057	103.82
349.44	127.55
349.823	127.33
350.206	144.73
350.588	190.38
350.971	195.8
351.354	200.32
351.737	257.27
352.119	240.54
352.502	244.39
352.884	267.66
353.267	265.63
353.65	276.25
354.032	274.89
354.414	299.98
354.797	322.35
355.179	306.76
355.562	322.58
355.944	321.45
356.326	309.02
356.709	315.12
357.091	338.62
357.473	343.82
357.855	335.01
358.238	339.75
358.62	318.73
359.002	319.41
359.384	316.47
359.766	343.82
360.148	342.46
360.53	327.55
360.912	344.5
361.294	322.12
361.676	348.56
362.057	331.39
362.439	310.83
362.821	324.38
363.203	313.08
363.584	332.75
363.966	326.19
364.348	328.9
364.729	305.4
365.111	324.16
365.493	316.7
365.874	313.54
366.256	291.84
366.637	300.2
367.019	300.2
367.4	324.16
367.781	308.79
368.163	319.64
368.544	291.39
368.925	328.23
369.306	311.05
369.688	309.47
370.069	320.54
370.45	304.5
370.831	304.05
371.212	294.33
371.593	311.05
371.974	318.28
372.355	331.16
372.736	314.44
373.117	329.58
373.498	318.28
373.879	307.66
374.26	284.16
374.641	322.35
375.021	314.67
375.402	322.8
375.783	311.96
376.163	322.58
376.544	296.81
376.925	321.45
377.305	313.08
377.686	308.57
378.066	327.1
378.447	351.5
378.827	345.4
379.208	313.54
379.588	309.92
379.968	343.59
380.349	323.25
380.729	321.9
381.109	343.59
381.489	365.51
381.87	336.81
382.25	341.11
382.63	348.11
383.01	330.26
383.39	353.54
383.77	352.18
384.15	341.11
384.53	347.21
384.91	355.34
385.29	344.72
385.67	321.67
386.049	349.69
386.429	340.88
386.809	373.2
387.189	338.17
387.568	373.65
387.948	363.71
388.328	343.82
388.707	370.71
389.087	369.81
389.466	361.45
389.846	377.94
390.225	355.12
390.605	346.76
390.984	362.58
391.363	370.71
391.743	371.61
392.122	346.08
392.501	386.3
392.881	385.85
393.26	392.63
393.639	388.56
394.018	389.24
394.397	383.37
394.776	373.42
395.155	379.52
395.534	377.04
395.913	397.83
396.292	388.11
396.671	382.91
397.05	388.34
397.429	394.21
397.808	384.5
398.186	396.25
398.565	388.34
398.944	396.92
399.323	394.89
399.701	379.3
400.08	404.83
400.458	394.21
400.837	411.39
401.215	425.85
401.594	412.97
401.972	431.95
402.351	429.47
402.729	417.72
403.107	410.03
403.486	437.15
403.864	431.05
404.242	438.28
404.62	426.53
404.999	436.47
405.377	427.43
405.755	436.7
406.133	436.25
406.511	456.13
406.889	457.71
407.267	461.56
407.645	449.13
408.023	460.43
408.401	462.01
408.779	473.76
409.156	479.86
409.534	457.04
409.912	464.72
410.29	489.13
410.667	471.72
411.045	490.03
411.422	517.15
411.8	484.83
412.178	518.5
412.555	514.44
412.933	528.9
413.31	524.6
413.687	532.74
414.065	520.76
414.442	546.53
414.819	528.45
415.197	542.01
415.574	550.37
415.951	588.56
416.328	553.08
416.705	584.72
417.082	578.61
417.46	571.16
417.837	587.43
418.214	573.42
418.591	590.82
418.967	592.63
419.344	581.1
419.721	620.87
420.098	621.33
420.475	609.57
420.852	593.76
421.228	624.72
421.605	648.67
421.982	643.7
422.358	640.76
422.735	664.49
423.111	662.23
423.488	664.26
423.864	696.13
424.241	687.76
424.617	692.06
424.994	678.27
425.37	690.02
425.746	696.35
426.123	716.69
426.499	727.31
426.875	749.01
427.251	729.57
427.627	777.25
428.003	768.44
428.379	768.89
428.756	779.51
429.132	774.99
429.507	781.55
429.883	775.67
430.259	810.47
430.635	796.46
431.011	831.04
431.387	828.33
431.763	821.09
432.138	843.69
432.514	873.75
432.89	835.78
433.265	874.65
433.641	895.67
434.016	882.34
434.392	894.76
434.767	913.97
435.143	932.96
435.518	950.58
435.894	974.54
436.269	961.66
436.644	957.59
437.02	991.03
437.395	985.38
437.77	993.75
438.145	1008.89
438.52	1025.61
438.895	1061.09
439.271	1050.01
439.646	1062.67
440.021	1059.05
440.395	1087.3
440.77	1086.17
441.145	1076.23
441.52	1130.92
441.895	1134.53
442.27	1132.05
442.645	1127.3
443.019	1152.16
443.394	1133.85
443.769	1168.43
444.143	1160.97
444.518	1181.08
444.892	1195.1
445.267	1206.85
445.641	1229.9
446.016	1228.32
446.39	1239.39
446.764	1223.34
447.139	1256.34
447.513	1268.99
447.887	1269.9
448.262	1253.4
448.636	1269.67
449.01	1297.01
449.384	1300.18
449.758	1329.33
450.132	1335.43
450.506	1332.04
450.88	1342.66
451.254	1355.77
451.628	1367.52
452.002	1412.27
452.376	1431.93
452.75	1420.63
453.123	1416.33
453.497	1461.76
453.871	1451.13
454.244	1473.05
454.618	1486.39
454.992	1503.34
455.365	1511.7
455.739	1567.97
456.112	1558.25
456.486	1567.06
456.859	1595.54
457.232	1633.73
457.606	1638.93
457.979	1663.11
458.352	1694.29
458.725	1703.1
459.099	1724.8
459.472	1758.47
459.845	1752.82
460.218	1793.72
460.591	1790.79
460.964	1832.82
461.337	1860.61
461.71	1882.31
462.083	1907.85
462.456	1916.88
462.829	1944
463.201	1954.4
463.574	1986.94
463.947	2034.85
464.32	2085.92
464.692	2061.06
465.065	2109.65
465.438	2157.1
465.81	2163.88
466.183	2162.3
466.555	2248.85
466.928	2247.5
467.3	2272.13
467.672	2330.66
468.045	2358.23
468.417	2383.77
468.789	2430.32
469.161	2493.37
469.534	2528.62
469.906	2590.77
470.278	2628.05
470.65	2620.59
471.022	2691.1
471.394	2766.35
471.766	2795.73
472.138	2840.48
472.51	2867.59
472.882	2965.22
473.253	3014.26
473.625	3043.18
473.997	3149.85
474.369	3183.29
474.74	3277.53
475.112	3262.61
475.484	3399.11
475.855	3460.57
476.227	3526.56
476.598	3613.79
476.97	3646.56
477.341	3744.86
477.713	3822.37
478.084	3872.31
478.455	3971.29
478.827	4066.88
479.198	4209.03
479.569	4284.05
479.94	4453.77
480.311	4482.69
480.682	4607.66
481.053	4728.34
481.424	4812.63
481.795	4897.6
482.166	5019.63
482.537	5115.67
482.908	5293.52
483.279	5336
483.65	5449
484.021	5602.89
484.391	5725.82
484.762	5841.08
485.133	5934.86
485.503	6042.2
485.874	6201.97
486.244	6258.47
486.615	6444.45
486.985	6583.65
487.356	6726.02
487.726	6829.52
488.097	6975.06
488.467	7081.04
488.837	7275.61
489.207	7430.41
489.578	7512.44
489.948	7604.87
490.318	7859.78
490.688	7893.22
491.058	8093.22
491.428	8201.24
491.798	8353.33
492.168	8484.85
492.538	8641.68
492.908	8747.44
493.278	8932.75
493.648	8963.25
494.017	9066.98
494.387	9266.52
494.757	9321.21
495.126	9424.03
495.496	9549.68
495.866	9643.01
496.235	9730.24
496.605	9881.42
496.974	10019.5
497.344	10071.25
497.713	10224.91
498.082	10266.04
498.452	10404.12
498.821	10523.21
499.19	10485.25
499.559	10689.99
499.928	10706.48
500.298	10867.61
500.667	10926.37
501.036	10868.29
501.405	11120.03
501.774	11146.92
502.143	11201.84
502.512	11301.04
502.88	11437.76
503.249	11487.03
503.618	11488.16
503.987	11536.29
504.356	11666.23
504.724	11704.88
505.093	11760.92
505.462	11840.24
505.83	11931.31
506.199	11934.25
506.567	12057.18
506.936	12111.64
507.304	12200.23
507.672	12312.54
508.041	12290.4
508.409	12441.13
508.777	12505.76
509.145	12591.18
509.514	12524.52
509.882	12639.99
510.25	12618.3
510.618	12687.22
510.986	12705.75
511.354	12791.85
511.722	12860.55
512.09	12969.48
512.458	12930.38
512.826	13037.04
513.193	13123.6
513.561	13079.3
513.929	13143.48
514.297	13220.09
514.664	13276.81
515.032	13251.95
515.4	13371.95
515.767	13312.52
516.135	13452.4
516.502	13337.83
516.869	13494.43
517.237	13511.16
517.604	13452.4
517.972	13587.31
518.339	13654.2
518.706	13591.38
519.073	13579.85
519.44	13650.59
519.808	13788.21
520.175	13738.04
520.542	13868.66
520.909	13863.69
521.276	13821.88
521.643	13777.36
522.009	13895.33
522.376	13948.66
522.743	13982.33
523.11	14085.38
523.477	14081.31
523.843	14157.69
524.21	14131.25
524.577	14206.28
524.943	14251.48
525.31	14255.32
525.676	14361.3
526.043	14274.98
526.409	14344.58
526.776	14506.38
527.142	14400.17
527.508	14526.04
527.874	14430
528.241	14500.73
528.607	14419.15
528.973	14526.04
529.339	14456.22
529.705	14460.06
530.071	14512.94
530.437	14473.84
530.803	14588.64
531.169	14559.72
531.535	14400.62
531.901	14448.31
532.267	14403.79
532.632	14410.57
532.998	14398.36
533.364	14410.12
533.73	14432.04
534.095	14510.68
534.461	14467.52
534.826	14428.42
535.192	14361.53
535.557	14444.92
535.923	14392.71
536.288	14379.83
536.653	14307.97
537.019	14270.01
537.384	14296.22
537.749	14256.45
538.114	14183
538.479	14156.79
538.845	14146.17
539.21	14030.01
539.575	14015.32
539.94	14011.03
540.305	13978.26
540.67	13921.31
541.034	13963.57
541.399	13919.05
541.764	13867.76
542.129	13975.78
542.494	13783.01
542.858	13759.96
543.223	13806.06
543.587	13719.74
543.952	13682.68
544.316	13645.84
544.681	13599.52
545.045	13617.37
545.41	13667.31
545.774	13489.24
546.138	13489.46
546.503	13400.88
546.867	13386.64
547.231	13461.89
547.595	13388
547.959	13327.43
548.324	13221.9
548.688	13170.6
549.052	13191.39
549.416	13099.19
549.779	13152.75
550.143	13118.62
550.507	13084.73
550.871	13019.42
551.235	12934.45
551.599	13006.54
551.962	12957.72
552.326	12949.36
552.689	12956.37
553.053	12778.07
553.417	12810.61
553.78	12879.99
554.143	12735.81
554.507	12863.49
554.87	12813.55
555.234	12832.53
555.597	12675.02
555.96	12668.92
556.323	12698.75
556.686	12604.74
557.05	12618.3
557.413	12640.22
557.776	12589.15
558.139	12627.34
558.502	12573.1
558.865	12540.11
559.228	12569.71
559.59	12516.61
559.953	12513.67
560.316	12672.08
560.679	12541.92
561.041	12530.39
561.404	12608.81
561.767	12597.06
562.129	12468.47
562.492	12639.54
562.854	12550.05
563.217	12487.23
563.579	12587.56
563.941	12662.59
564.304	12609.71
564.666	12637.05
565.028	12563.16
565.39	12564.29
565.753	12633.89
566.115	12578.98
566.477	12606.32
566.839	12605.87
567.201	12625.76
567.563	12643.61
567.925	12736.94
568.287	12698.52
568.648	12710.5
569.01	12647.68
569.372	12695.58
569.734	12718.18
570.095	12687
570.457	12795.92
570.819	12755.7
571.18	12775.36
571.542	12726.32
571.903	12813.1
572.265	12782.81
572.626	12755.92
572.987	12742.59
573.349	12717.96
573.71	12877.73
574.071	12755.7
574.432	12787.33
574.794	12908.01
575.155	12912.3
575.516	12800.21
575.877	12882.7
576.238	12824.85
576.599	12854.22
576.96	12843.15
577.32	12863.49
577.681	12872.3
578.042	12872.75
578.403	12917.05
578.763	12771.97
579.124	12904.17
579.485	12869.59
579.845	12966.76
580.206	12867.11
580.566	12890.61
580.927	12871.85
581.287	12867.56
581.648	12870.27
582.008	12860.55
582.368	12850.83
582.728	12824.39
583.089	12785.3
583.449	12820.1
583.809	12809.03
584.169	12832.3
584.529	12759.54
584.889	12837.28
585.249	12785.75
585.609	12676.6
585.969	12805.19
586.329	12665.98
586.688	12750.72
587.048	12714.79
587.408	12653.1
587.768	12673.44
588.127	12625.53
588.487	12604.97
588.846	12752.08
589.206	12640.44
589.565	12670.73
589.925	12759.31
590.284	12671.63
590.643	12675.47
591.003	12641.57
591.362	12662.59
591.721	12673.89
592.08	12636.83
592.44	12593.89
592.799	12571.97
593.158	12572.2
593.517	12532.2
593.876	12559.09
594.235	12549.6
594.593	12551.41
594.952	12559.54
595.311	12460.34
595.67	12557.28
596.029	12563.84
596.387	12534.01
596.746	12524.74
597.104	12476.38
597.463	12500.11
597.822	12451.07
598.18	12495.36
598.538	12500.56
598.897	12529.49
599.255	12486.78
599.613	12604.51
599.972	12470.28
600.33	12498.08
600.688	12550.28
601.046	12503.95
601.404	12491.07
601.762	12567
602.12	12615.59
602.478	12458.08
602.836	12456.95
603.194	12507.34
603.552	12468.25
603.91	12434.57
604.268	12513.44
604.625	12472.31
604.983	12571.07
605.341	12414.46
605.698	12497.17
606.056	12547.34
606.413	12522.48
606.771	12496.95
607.128	12465.08
607.485	12467.79
607.843	12457.85
608.2	12564.06
608.557	12621.46
608.914	12472.99
609.272	12600.9
609.629	12588.47
609.986	12634.12
610.343	12555.47
610.7	12599.99
611.057	12622.59
611.414	12609.94
611.771	12596.38
612.127	12684.06
612.484	12606.55
612.841	12664.4
613.198	12662.59
613.554	12623.27
613.911	12651.52
614.267	12696.49
614.624	12715.7
614.98	12683.83
615.337	12759.76
615.693	12688.58
616.05	12670.27
616.406	12747.11
616.762	12675.47
617.118	12765.86
617.475	12704.17
617.831	12767.67
618.187	12818.74
618.543	12834.56
618.899	12813.77
619.255	12832.76
619.611	12835.24
619.967	12778.29
620.323	12844.96
620.678	12775.81
621.034	12806.09
621.39	12788.69
621.746	12822.36
622.101	12975.35
622.457	12839.99
622.812	12827.78
623.168	12869.59
623.523	12791.85
623.879	12938.74
624.234	12795.92
624.589	12906.2
624.945	12814.68
625.3	12863.72
625.655	12865.98
626.01	12818.52
626.365	12818.74
626.72	12765.19
627.075	12826.65
627.43	12824.62
627.785	12852.19
628.14	12761.57
628.495	12741.01
628.85	12819.65
629.205	12739.2
629.559	12765.64
629.914	12707.11
630.269	12682.25
630.623	12689.26
630.978	12727.22
631.332	12615.81
631.687	12683.16
632.041	12667.56
632.396	12659.43
632.75	12602.71
633.104	12678.86
633.459	12597.96
633.813	12630.73
634.167	12576.04
634.521	12520.67
634.875	12642.7
635.229	12501.69
635.583	12587.34
635.937	12543.72
636.291	12504.85
636.645	12527
636.999	12492.43
637.352	12544.4
637.706	12468.7
638.06	12530.62
638.413	12427.57
638.767	12438.64
639.121	12384.18
639.474	12332.88
639.828	12365.2
640.181	12362.71
640.534	12415.82
640.888	12340.34
641.241	12225.99
641.594	12307.35
641.947	12303.5
642.301	12338.08
642.654	12320.68
643.007	12281.81
643.36	12313
643.713	12245.88
644.066	12221.02
644.419	12211.3
644.771	12185.09
645.124	12035.49
645.477	11979.22
645.83	11889.96
646.182	11898.54
646.535	11808.6
646.888	11828.26
647.24	11817.64
647.593	11905.32
647.945	11830.3
648.298	11799.56
648.65	11815.16
649.002	11776.06
649.355	11832.33
649.707	11864.65
650.059	11915.94
650.411	12012.44
650.763	12048.82
651.115	12131.76
651.467	12099.22
651.819	12060.35
652.171	12067.8
652.523	12080.23
652.875	12081.59
653.227	12017.41
653.578	12122.94
653.93	12116.62
654.282	12072.55
654.633	12044.53
654.985	12093.57
655.337	12025.77
655.688	12033.68
656.039	12161.81
656.391	11997.07
656.742	12113.9
657.094	12121.36
657.445	12143.51
657.796	12089.72
658.147	12084.3
658.498	12101.02
658.849	12129.5
659.2	12110.74
659.551	12130.4
659.902	12092.89
660.253	12156.84
660.604	12113.45
660.955	12083.85
661.306	12181.47
661.656	12143.96
662.007	12168.59
662.358	12083.4
662.708	12175.82
663.059	12120.91
663.409	12026.68
663.76	12188.93
664.11	12153.45
664.461	12172.43
664.811	12224.86
665.161	12184.41
665.511	12113.68
665.862	12147.8
666.212	12217.86
666.562	12217.4
666.912	12160.68
667.262	12153.23
667.612	12154.13
667.962	12157.29
668.312	12284.97
668.662	12254.01
669.011	12251.98
669.361	12157.52
669.711	12207.69
670.06	12190.29
670.41	12148.48
670.76	12122.72
671.109	12136.73
671.459	12180.34
671.808	12139.21
672.157	12097.86
672.507	12035.94
672.856	12030.07
673.205	12096.73
673.554	12065.32
673.904	12085.43
674.253	12056.73
674.602	11983.06
674.951	11901.03
675.3	11886.11
675.649	12052.66
675.998	12020.57
676.346	11928.15
676.695	12013.34
677.044	11906.9
677.393	11963.17
677.741	11959.56
678.09	11892.89
678.438	11880.69
678.787	11827.58
679.135	11893.12
679.484	11842.05
679.832	11880.69
680.181	11815.38
680.529	11826.23
680.877	11750.3
681.225	11703.97
681.573	11807.7
681.922	11685.22
682.27	11605.44
682.618	11748.72
682.966	11651.77
683.314	11607.25
683.661	11586.69
684.009	11494.71
684.357	11574.71
684.705	11550.53
685.053	11457.88
685.4	11530.87
685.748	11426.01
686.095	11447.93
686.443	11437.31
686.79	11364.77
687.138	11349.4
687.485	11375.62
687.832	11315.73
688.18	11245.23
688.527	11193.48
688.874	11275.73
689.221	11184.66
689.568	11110.99
689.915	11147.15
690.262	11086.81
690.609	10992.58
690.956	11016.08
691.303	10976.99
691.65	11009.98
691.997	10967.72
692.344	10869.64
692.69	10841.85
693.037	10831.68
693.383	10732.47
693.73	10829.42
694.077	10743.09
694.423	10709.42
694.769	10696.54
695.116	10614.06
695.462	10569.31
695.808	10656.09
696.155	10542.87
696.501	10502.87
696.847	10424.91
697.193	10356.89
697.539	10334.74
697.885	10321.64
698.231	10339.04
698.577	10295.65
698.923	10245.93
699.269	10167.52
699.614	10097.23
699.96	10121.87
700.306	10077.8
700.651	10072.83
700.997	9965.03
701.342	9955.09
701.688	9994.64
702.033	9886.17
702.379	9972.49
702.724	9843.46
703.069	9872.16
703.415	9749.45
703.76	9792.38
704.105	9798.03
704.45	9747.64
704.795	9691.14
705.14	9622.22
705.485	9519.4
705.83	9492.73
706.175	9497.7
706.52	9483.69
706.865	9451.15
707.209	9475.33
707.554	9411.83
707.899	9400.98
708.243	9349.68
708.588	9289.57
708.932	9314.2
709.277	9295.9
709.621	9313.3
709.966	9184.04
710.31	9234.66
710.654	9163.47
710.998	9211.61
711.342	9083.02
711.687	9138.62
712.031	9104.27
712.375	9069.46
712.719	9049.58
713.063	8993.08
713.407	9008.45
713.75	9027.66
714.094	8976.36
714.438	8928
714.782	8935.91
715.125	8863.37
715.469	8855.23
715.812	8867.89
716.156	8808
716.499	8857.04
716.843	8849.36
717.186	8760.55
717.53	8823.14
717.873	8822.92
718.216	8827.44
718.559	8799.64
718.902	8670.61
719.246	8723.71
719.589	8709.93
719.932	8686.2
720.275	8726.88
720.617	8678.51
720.96	8669.93
721.303	8698.18
721.646	8674
721.989	8638.29
722.331	8612.98
722.674	8612.08
723.016	8616.14
723.359	8615.01
723.701	8558.52
724.044	8512.19
724.386	8521.68
724.729	8509.93
725.071	8551.51
725.413	8554
725.755	8551.51
726.097	8509.93
726.439	8481.46
726.782	8501.12
727.124	8484.4
727.465	8467.67
727.807	8487.79
728.149	8451.4
728.491	8441.68
728.833	8476.71
729.175	8404.17
729.516	8429.93
729.858	8430.16
730.199	8466.99
730.541	8459.76
730.882	8398.07
731.224	8471.74
731.565	8402.82
731.906	8437.84
732.248	8406.66
732.589	8402.82
732.93	8376.83
733.271	8425.87
733.612	8435.81
733.953	8497.5
734.294	8475.81
734.635	8431.52
734.976	8474.45
735.317	8426.09
735.658	8505.41
735.999	8472.64
736.339	8396.71
736.68	8429.26
737.021	8376.6
737.361	8463.83
737.702	8510.38
738.042	8475.13
738.383	8452.08
738.723	8479.88
739.063	8450.72
739.404	8516.71
739.744	8516.26
740.084	8489.59
740.424	8584.05
740.764	8519.2
741.104	8555.58
741.444	8585.86
741.784	8512.42
742.124	8626.76
742.464	8584.05
742.804	8598.97
743.143	8575.24
743.483	8708.34
743.823	8647.78
744.162	8737.95
744.502	8814.78
744.841	8794.44
745.181	8777.27
745.52	8853.43
745.86	8851.17
746.199	8980.65
746.538	8942.46
746.877	9002.57
747.216	8969.81
747.556	9024.72
747.895	9084.83
748.234	9117.15
748.573	9274.66
748.911	9276.92
749.25	9334.32
749.589	9369.8
749.928	9475.78
750.267	9527.53
750.605	9632.61
750.944	9670.58
751.283	9716.68
751.621	9911.93
751.96	9952.38
752.298	10017.91
752.636	10119.38
752.975	10232.6
753.313	10238.93
753.651	10472.82
753.989	10464.68
754.327	10664.9
754.666	10688.86
755.004	10842.07
755.342	11026.48
755.679	11140.37
756.017	11264.21
756.355	11455.84
756.693	11566.35
757.031	11709.17
757.368	11806.12
757.706	12019.67
758.044	12139.89
758.381	12278.87
