Data from hue_270_FLMS001491_00045.txt Node
Date: Tue Feb 07 15:57:14 GMT 2017
User: dcchb
Spectrometer: FLMS00149
Trigger mode: 0
Integration Time (sec): 2.000000E-2
Scans to average: 10
Electric dark correction enabled: true
Nonlinearity correction enabled: false
Boxcar width: 0
XAxis mode: Wavelengths
Number of Pixels in Spectrum: 2048
>>>>>Begin Spectral Data<<<<<
341.393	-17.9
341.776	-17.9
342.16	-17.9
342.543	-75.52
342.927	-60.38
343.31	-58.8
343.693	-50.66
344.077	-57.67
344.46	-67.16
344.843	-59.7
345.226	-43.43
345.61	-31
345.993	-27.84
346.376	-2.3
346.759	24.14
347.142	25.04
347.525	36.57
347.908	56.68
348.291	65.72
348.674	80.41
349.057	110.01
349.44	109.33
349.823	156.56
350.206	156.56
350.588	181.87
350.971	197.01
351.354	214.19
351.737	237.47
352.119	240.63
352.502	262.78
352.884	255.32
353.267	276.79
353.65	288.31
354.032	318.82
354.414	297.8
354.797	300.29
355.179	309.78
355.562	303.9
355.944	324.24
356.326	327.41
356.709	336.9
357.091	330.12
357.473	337.8
357.855	323.56
358.238	333.96
358.62	336.45
359.002	335.32
359.384	341.64
359.766	308.2
360.148	320.18
360.53	343.9
360.912	339.38
361.294	326.73
361.676	332.83
362.057	325.37
362.439	332.15
362.821	315.88
363.203	327.63
363.584	308.42
363.966	319.5
364.348	301.19
364.729	319.72
365.111	312.04
365.493	320.63
365.874	313.4
366.256	305.49
366.637	307.75
367.019	297.12
367.4	294.87
367.781	322.44
368.163	291.48
368.544	316.33
368.925	315.2
369.306	311.14
369.688	308.65
370.069	285.15
370.45	302.1
370.831	311.14
371.212	319.5
371.593	307.52
371.974	314.98
372.355	312.94
372.736	317.24
373.117	293.51
373.498	318.59
373.879	314.75
374.26	307.07
374.641	328.54
375.021	306.84
375.402	319.72
375.783	327.18
376.163	333.06
376.544	337.12
376.925	322.66
377.305	299.38
377.686	329.44
378.066	341.42
378.447	343.45
378.827	326.5
379.208	328.54
379.588	338.71
379.968	326.95
380.349	315.43
380.729	341.64
381.109	329.89
381.489	328.54
381.87	335.77
382.25	348.88
382.63	350
383.01	332.38
383.39	326.28
383.77	345.94
384.15	341.87
384.53	345.49
384.91	357.46
385.29	324.24
385.67	352.04
386.049	359.5
386.429	378.25
386.809	346.62
387.189	358.82
387.568	351.59
387.948	350.23
388.328	350.46
388.707	345.49
389.087	366.95
389.466	389.1
389.846	348.65
390.225	376.22
390.605	373.51
390.984	353.39
391.363	366.95
391.743	368.08
392.122	374.41
392.501	355.43
392.881	387.29
393.26	384.58
393.639	387.97
394.018	397.24
394.397	398.59
394.776	414.41
395.155	401.08
395.534	388.2
395.913	387.52
396.292	379.83
396.671	390.46
397.05	391.36
397.429	407.86
397.808	410.79
398.186	409.66
398.565	404.47
398.944	403.56
399.323	383.68
399.701	395.43
400.08	408.76
400.458	404.01
400.837	454.63
401.215	433.84
401.594	400.85
401.972	422.32
402.351	435.43
402.729	445.82
403.107	448.76
403.486	441.98
403.864	439.04
404.242	444.24
404.62	460.74
404.999	463
405.377	455.09
405.755	459.83
406.133	462.09
406.511	451.92
406.889	456.89
407.267	458.93
407.645	482.66
408.023	489.66
408.401	513.84
408.779	498.7
409.156	505.93
409.534	507.97
409.912	498.25
410.29	519.72
410.667	520.17
411.045	531.02
411.422	532.37
411.8	528.76
412.178	536.21
412.555	549.77
412.933	574.41
413.31	560.62
413.687	560.62
414.065	572.82
414.442	575.08
414.819	581.41
415.197	601.07
415.574	608.53
415.951	601.75
416.328	641.75
416.705	615.08
417.082	616.44
417.46	619.38
417.837	645.14
418.214	651.47
418.591	671.13
418.967	660.51
419.344	665.7
419.721	688.53
420.098	683.1
420.475	687.4
420.852	711.35
421.228	718.36
421.605	696.66
421.982	726.94
422.358	729.43
422.735	743.21
423.111	769.43
423.488	753.84
423.864	778.02
424.241	811.46
424.617	804.23
424.994	823.44
425.37	841.97
425.746	821.18
426.123	831.57
426.499	851.01
426.875	846.49
427.251	850.78
427.627	879.03
428.003	893.95
428.379	905.02
428.756	914.96
429.132	917.9
429.507	926.26
429.883	944.57
430.259	942.76
430.635	948.63
431.011	956.54
431.387	1017.11
431.763	997.67
432.138	1007.61
432.514	1032.47
432.89	1043.09
433.265	1036.31
433.641	1058.46
434.016	1071.57
434.392	1100.72
434.767	1111.57
435.143	1139.59
435.518	1161.51
435.894	1170.77
436.269	1188.85
436.644	1211
437.02	1197.21
437.395	1220.49
437.77	1211.9
438.145	1239.7
438.52	1276.99
438.895	1296.65
439.271	1296.65
439.646	1331.9
440.021	1321.5
440.395	1335.74
440.77	1337.55
441.145	1360.37
441.52	1381.62
441.895	1367.61
442.27	1396.76
442.645	1433.59
443.019	1439.92
443.394	1416.87
443.769	1463.87
444.143	1436.98
444.518	1495.74
444.892	1488.28
445.267	1496.42
445.641	1506.58
446.016	1516.98
446.39	1509.75
446.764	1560.37
447.139	1535.28
447.513	1560.82
447.887	1565.57
448.262	1548.17
448.636	1600.82
449.01	1596.75
449.384	1628.16
449.758	1603.53
450.132	1607.15
450.506	1626.13
450.88	1635.85
451.254	1648.5
451.628	1679.46
452.002	1652.57
452.376	1693.02
452.75	1708.84
453.123	1693.25
453.497	1735.05
453.871	1757.43
454.244	1809.63
454.618	1793.36
454.992	1788.16
455.365	1826.35
455.739	1851.43
456.112	1876.07
456.486	1869.29
456.859	1888.27
457.232	1903.41
457.606	1925.56
457.979	1973.01
458.352	2001.94
458.725	1999.45
459.099	1996.29
459.472	2025.67
459.845	2059.79
460.218	2062.95
460.591	2096.63
460.964	2086.46
461.337	2105.89
461.71	2154.7
462.083	2208.26
462.456	2191.54
462.829	2191.31
463.201	2212.1
463.574	2241.03
463.947	2245.77
464.32	2294.13
464.692	2335.94
465.065	2333.91
465.438	2330.74
465.81	2389.5
466.183	2431.98
466.555	2428.59
466.928	2446.45
467.3	2416.17
467.672	2488.03
468.045	2549.04
468.417	2529.16
468.789	2521.25
469.161	2576.84
469.534	2580
469.906	2680.11
470.278	2657.51
470.65	2679.21
471.022	2714.24
471.394	2765.99
471.766	2803.95
472.138	2819.32
472.51	2923.27
472.882	2916.27
473.253	2960.56
473.625	2965.98
473.997	3004.17
474.369	3022.93
474.74	3067.45
475.112	3111.06
475.484	3145.86
475.855	3190.38
476.227	3212.75
476.598	3296.37
476.97	3296.14
477.341	3354.45
477.713	3368.91
478.084	3437.16
478.455	3507.66
478.827	3526.19
479.198	3585.4
479.569	3618.62
479.94	3649.35
480.311	3704.27
480.682	3774.55
481.053	3801.89
481.424	3906.3
481.795	3909.91
482.166	3918.95
482.537	4005.95
482.908	4057.25
483.279	4060.87
483.65	4121.66
484.021	4140.64
484.391	4219.73
484.762	4273.52
485.133	4297.02
485.503	4330.69
485.874	4456.79
486.244	4501.76
486.615	4503.57
486.985	4555.54
487.356	4655.88
487.726	4644.36
488.097	4738.36
488.467	4786.05
488.837	4837.57
489.207	4842.32
489.578	4931.13
489.948	4926.83
490.318	5029.2
490.688	5057.45
491.058	5082.08
491.428	5141.74
491.798	5144.46
492.168	5303.77
492.538	5263.1
492.908	5319.82
493.278	5366.82
493.648	5365.24
494.017	5447.95
494.387	5473.49
494.757	5547.38
495.126	5596.19
495.496	5521.39
495.866	5568.62
496.235	5625.57
496.605	5689.98
496.974	5711.9
497.344	5747.83
497.713	5712.58
498.082	5806.81
498.452	5866.92
498.821	5894.49
499.19	5835.28
499.559	5877.09
499.928	5963.19
500.298	5971.33
500.667	6045
501.036	5965.68
501.405	6087.03
501.774	5959.8
502.143	6031.89
502.512	6103.98
502.88	6094.94
503.249	6145.11
503.618	6122.51
503.987	6176.29
504.356	6247.7
504.724	6263.97
505.093	6242.28
505.462	6289.96
505.83	6258.1
506.199	6317.31
506.567	6456.74
506.936	6369.51
507.304	6428.94
507.672	6488.83
508.041	6435.72
508.409	6494.02
508.777	6447.25
509.145	6532.22
509.514	6569.05
509.882	6504.19
510.25	6562.5
510.618	6637.07
510.986	6608.37
511.354	6612.67
511.722	6710.52
512.09	6724.53
512.458	6702.83
512.826	6765.66
513.193	6712.32
513.561	6775.37
513.929	6787.35
514.297	6810.4
514.664	6871.42
515.032	6863.05
515.4	6886.78
515.767	6914.8
516.135	6905.54
516.502	6842.94
516.869	6962.71
517.237	6968.36
517.604	6919.32
517.972	6996.61
518.339	7019.21
518.706	7004.07
519.073	7004.52
519.44	7040.45
519.808	7090.39
520.175	7068.02
520.542	7095.82
520.909	7189.6
521.276	7081.58
521.643	7174.01
522.009	7206.77
522.376	7209.03
522.743	7259.43
523.11	7297.39
523.477	7281.35
523.843	7371.29
524.21	7430.5
524.577	7409.71
524.943	7457.61
525.31	7418.29
525.676	7494.68
526.043	7519.99
526.409	7584.84
526.776	7596.14
527.142	7590.72
527.508	7581.91
527.874	7618.51
528.241	7627.33
528.607	7670.72
528.973	7652.64
529.339	7691.28
529.705	7753.65
530.071	7818.74
530.437	7843.14
530.803	7811.5
531.169	7827.55
531.535	7801.11
531.901	7831.62
532.267	7846.98
532.632	7871.62
532.998	7891.95
533.364	7951.16
533.73	7974.66
534.095	7976.47
534.461	8010.14
534.826	8051.72
535.192	8034.55
535.557	8049.46
535.923	8008.79
536.288	8072.29
536.653	8054.44
537.019	8040.42
537.384	8049.46
537.749	8136.24
538.114	8101.89
538.479	8062.8
538.845	8103.02
539.21	8096.47
539.575	8126.52
539.94	8115.9
540.305	8169.91
540.67	8090.82
541.034	8129.91
541.399	8115.9
541.764	8136.92
542.129	8159.97
542.494	8202.23
542.858	8193.19
543.223	8193.64
543.587	8258.5
543.952	8194.77
544.316	8230.7
544.681	8211.04
545.045	8226.86
545.41	8260.98
545.774	8325.39
546.138	8299.63
546.503	8317.93
546.867	8271.83
547.231	8311.83
547.595	8362.45
547.959	8322.45
548.324	8335.56
548.688	8337.59
549.052	8392.28
549.416	8302.56
549.779	8362
550.143	8426.85
550.507	8422.56
550.871	8499.62
551.235	8395.67
551.599	8433.63
551.962	8472.05
552.326	8456.46
552.689	8474.09
553.053	8391.38
553.417	8471.37
553.78	8587.98
554.143	8556.79
554.507	8510.69
554.87	8585.49
555.234	8628.66
555.597	8548.89
555.96	8615.1
556.323	8623.46
556.686	8619.17
557.05	8742.78
557.413	8724.47
557.776	8733.06
558.139	8792.49
558.502	8759.95
558.865	8731.03
559.228	8790.46
559.59	8808.77
559.953	8835.66
560.316	8897.8
560.679	8866.17
561.041	8936.22
561.404	8991.13
561.767	8999.27
562.129	8955.43
562.492	9021.87
562.854	9061.41
563.217	9043.11
563.579	9094.41
563.941	9125.14
564.304	9152.71
564.666	9258.92
565.028	9195.65
565.39	9220.96
565.753	9260.96
566.115	9294.85
566.477	9324.46
566.839	9400.39
567.201	9432.93
567.563	9438.13
567.925	9459.14
568.287	9502.98
568.648	9529.42
569.01	9497.11
569.372	9609.2
569.734	9604.68
570.095	9619.14
570.457	9655.52
570.819	9655.75
571.18	9742.3
571.542	9749.76
571.903	9800.6
572.265	9804.9
572.626	9753.6
572.987	9886.03
573.349	9895.97
573.71	9968.96
574.071	9969.86
574.432	9979.13
574.794	10089.18
575.155	10118.11
575.516	10081.5
575.877	10109.3
576.238	10148.62
576.599	10146.81
576.96	10166.24
577.32	10252.12
577.681	10246.02
578.042	10280.14
578.403	10302.51
578.763	10263.42
579.124	10305.68
579.485	10415.5
579.845	10464.77
580.206	10462.96
580.566	10483.3
580.927	10526.01
581.287	10532.56
581.648	10523.07
582.008	10625.67
582.368	10641.26
582.728	10671.54
583.089	10727.13
583.449	10712.9
583.809	10730.07
584.169	10805.1
584.529	10818.2
584.889	10845.55
585.249	10808.94
585.609	10792.89
585.969	10930.97
586.329	10933
586.688	10916.73
587.048	10878.77
587.408	11032.21
587.768	11008.48
588.127	11053
588.487	11020.01
588.846	11066.79
589.206	11095.03
589.565	11084.64
589.925	11156.27
590.284	11219.55
590.643	11207.8
591.003	11201.47
591.362	11287.34
591.721	11238.08
592.08	11290.96
592.44	11363.95
592.799	11324.86
593.158	11405.76
593.517	11390.17
593.876	11440.33
594.235	11368.25
594.593	11370.28
594.952	11431.97
595.311	11459.09
595.67	11473.33
596.029	11607.79
596.387	11658.18
596.746	11583.61
597.104	11570.5
597.463	11636.94
597.822	11634.23
598.18	11586.55
598.538	11561.24
598.897	11662.25
599.255	11602.59
599.613	11702.02
599.972	11697.5
600.33	11700.44
600.688	11778.86
601.046	11704.73
601.404	11795.58
601.762	11775.92
602.12	11809.59
602.478	11862.02
602.836	11800.78
603.194	11786.99
603.552	11893.2
603.91	11847.1
604.268	11811.17
604.625	11796.48
604.983	11860.44
605.341	11824.05
605.698	11859.31
606.056	11914.67
606.413	11903.37
606.771	11901.34
607.128	11913.77
607.485	11827.9
607.843	11927.1
608.2	11975.24
608.557	11984.5
608.914	11920.32
609.272	12019.08
609.629	12023.14
609.986	12034.67
610.343	12060.88
610.7	12128.23
611.057	12119.64
611.414	12104.72
611.771	12116.7
612.127	12212.97
612.484	12192.41
612.841	12210.71
613.198	12152.86
613.554	12189.24
613.911	12230.82
614.267	12165.06
614.624	12241.22
614.98	12181.11
615.337	12310.37
615.693	12342.46
616.05	12284.15
616.406	12366.19
616.762	12363.25
617.118	12290.03
617.475	12366.64
617.831	12412.51
618.187	12410.48
618.543	12383.81
618.899	12378.16
619.255	12358.28
619.611	12487.31
619.967	12431.27
620.323	12482.57
620.678	12360.99
621.034	12390.37
621.39	12354.21
621.746	12448.9
622.101	12585.62
622.457	12439.18
622.812	12441.44
623.168	12483.25
623.523	12454.09
623.879	12503.81
624.234	12335.9
624.589	12466.3
624.945	12522.79
625.3	12493.41
625.655	12474.88
626.01	12471.95
626.365	12484.83
626.72	12446.41
627.075	12438.5
627.43	12512.85
627.785	12430.37
628.14	12520.98
628.495	12402.8
628.85	12457.94
629.205	12338.84
629.559	12449.35
629.914	12337.94
630.269	12378.62
630.623	12322.35
630.978	12343.59
631.332	12377.71
631.687	12463.58
632.041	12371.38
632.396	12342.01
632.75	12344.72
633.104	12286.19
633.459	12286.41
633.813	12259.07
634.167	12204.16
634.521	12280.54
634.875	12347.88
635.229	12214.1
635.583	12231.95
635.937	12179.07
636.291	12244.61
636.645	12149.47
636.999	12137.27
637.352	12199.64
637.706	12076.48
638.06	12134.1
638.413	12111.5
638.767	12074.67
639.121	12072.18
639.474	12085.97
639.828	12023.14
640.181	12023.82
640.534	12067.21
640.888	11999.19
641.241	12000.77
641.594	12029.92
641.947	11992.86
642.301	11984.5
642.654	12048.91
643.007	11923.94
643.36	11882.13
643.713	11940.43
644.066	11996.03
644.419	11884.84
644.771	11882.58
645.124	11765.98
645.477	11704.51
645.83	11625.64
646.182	11659.54
646.535	11531.63
646.888	11525.3
647.24	11494.34
647.593	11565.98
647.945	11525.3
648.298	11511.52
648.65	11511.29
649.002	11441.24
649.355	11506.55
649.707	11590.39
650.059	11577.73
650.411	11722.81
650.763	11688.69
651.115	11793.55
651.467	11771.17
651.819	11694.57
652.171	11699.31
652.523	11657.28
652.875	11678.97
653.227	11645.08
653.578	11763.26
653.93	11733.43
654.282	11671.97
654.633	11736.82
654.985	11678.75
655.337	11736.82
655.688	11735.47
656.039	11763.49
656.391	11597.17
656.742	11662.25
657.094	11678.97
657.445	11675.81
657.796	11716.49
658.147	11749.71
658.498	11612.31
658.849	11781.34
659.2	11619.77
659.551	11690.27
659.902	11740.67
660.253	11702.47
660.604	11776.82
660.955	11684.4
661.306	11720.78
661.656	11681.91
662.007	11725.75
662.358	11704.51
662.708	11718.29
663.059	11653.89
663.409	11718.75
663.76	11715.81
664.11	11721.01
664.461	11706.99
664.811	11711.06
665.161	11760.78
665.511	11668.13
665.862	11729.37
666.212	11745.64
666.562	11720.78
666.912	11770.5
667.262	11718.07
667.612	11755.35
667.962	11757.16
668.312	11700.89
668.662	11743.38
669.011	11745.64
669.361	11648.24
669.711	11733.89
670.06	11721.01
670.41	11715.36
670.76	11673.55
671.109	11751.51
671.459	11657.5
671.808	11697.73
672.157	11698.41
672.507	11599.2
672.856	11598.07
673.205	11647.79
673.554	11643.49
673.904	11610.5
674.253	11655.24
674.602	11577.73
674.951	11425.87
675.3	11381.81
675.649	11580.22
675.998	11595.36
676.346	11536.38
676.695	11561.69
677.044	11586.09
677.393	11448.47
677.741	11531.41
678.09	11497.06
678.438	11450.96
678.787	11459.54
679.135	11476.04
679.484	11437.4
679.832	11442.82
680.181	11330.51
680.529	11387.23
680.877	11403.73
681.225	11422.26
681.573	11359.66
681.922	11270.62
682.27	11255.25
682.618	11312.65
682.966	11176.39
683.314	11210.06
683.661	11215.26
684.009	11162.38
684.357	11206.67
684.705	11192.43
685.053	11169.38
685.4	11057.07
685.748	11016.84
686.095	11109.27
686.443	10994.7
686.79	10931.2
687.138	11009.61
687.485	10965.77
687.832	10959.44
688.18	10958.09
688.527	10807.81
688.874	10917.41
689.221	10830.63
689.568	10827.7
689.915	10848.94
690.262	10748.83
690.609	10787.47
690.956	10707.25
691.303	10641.03
691.65	10619.57
691.997	10573.24
692.344	10531.66
692.69	10509.51
693.037	10565.78
693.383	10439.01
693.73	10475.39
694.077	10417.08
694.423	10400.59
694.769	10390.19
695.116	10353.36
695.462	10293.92
695.808	10227.26
696.155	10292.57
696.501	10148.17
696.847	10176.64
697.193	10168.05
697.539	10143.87
697.885	10025.23
698.231	10014.84
698.577	10029.52
698.923	9970.77
699.269	9911.11
699.614	9845.57
699.96	9863.43
700.306	9838.34
700.651	9844.22
700.997	9720.15
701.342	9750.21
701.688	9679.48
702.033	9673.15
702.379	9636.31
702.724	9589.08
703.069	9631.12
703.415	9523.32
703.76	9567.16
704.105	9481.74
704.45	9451.23
704.795	9356.1
705.14	9420.73
705.485	9365.81
705.83	9332.82
706.175	9356.32
706.52	9375.08
706.865	9193.84
707.209	9258.7
707.554	9220.96
707.899	9286.27
708.243	9093.28
708.588	9149.77
708.932	9084.24
709.277	9122.88
709.621	9123.11
709.966	9047.63
710.31	9073.39
710.654	8964.47
710.998	9019.61
711.342	9075.88
711.687	8974.64
712.031	8928.08
712.375	8877.24
712.719	8932.83
713.063	8828.88
713.407	8879.27
713.75	8877.92
714.094	8830.46
714.438	8748.2
714.782	8793.17
715.125	8829.78
715.469	8832.27
715.812	8715.43
716.156	8640.18
716.499	8747.07
716.843	8678.15
717.186	8641.76
717.53	8691.03
717.873	8733.29
718.216	8743.91
718.559	8612.84
718.902	8620.3
719.246	8607.64
719.589	8526.29
719.932	8508.66
720.275	8563.35
720.617	8579.62
720.96	8513.63
721.303	8529.45
721.646	8507.3
721.989	8518.38
722.331	8536.68
722.674	8561.54
723.016	8456.01
723.359	8394.54
723.701	8473.41
724.044	8408.78
724.386	8319.29
724.729	8416.46
725.071	8353.86
725.413	8410.36
725.755	8363.35
726.097	8334.43
726.439	8309.57
726.782	8326.07
727.124	8373.97
727.465	8319.96
727.807	8301.89
728.149	8305.05
728.491	8339.85
728.833	8300.53
729.175	8382.79
729.516	8261.89
729.858	8299.17
730.199	8298.27
730.541	8266.63
730.882	8283.58
731.224	8316.8
731.565	8312.51
731.906	8224.37
732.248	8287.88
732.589	8271.38
732.93	8279.06
733.271	8230.7
733.612	8295.56
733.953	8242.68
734.294	8223.47
734.635	8170.14
734.976	8239.51
735.317	8183.25
735.658	8218.05
735.999	8252.62
736.339	8202
736.68	8222.34
737.021	8174.66
737.361	8190.7
737.702	8313.64
738.042	8189.57
738.383	8242
738.723	8263.92
739.063	8277.25
739.404	8267.99
739.744	8242.23
740.084	8310.47
740.424	8281.1
740.764	8273.64
741.104	8305.73
741.444	8276.35
741.784	8232.28
742.124	8282.23
742.464	8379.62
742.804	8281.1
743.143	8338.95
743.483	8262.11
743.823	8363.13
744.162	8375.33
744.502	8392.96
744.841	8418.04
745.181	8508.89
745.52	8446.06
745.86	8499.17
746.199	8625.95
746.538	8548.66
746.877	8550.24
747.216	8618.71
747.556	8641.09
747.895	8728.09
748.234	8661.42
748.573	8754.98
748.911	8792.49
749.25	8873.85
749.589	8835.21
749.928	8982.77
750.267	9020.06
750.605	9034.75
750.944	9091.47
751.283	9100.28
751.621	9244.01
751.96	9260.28
752.298	9391.35
752.636	9492.14
752.975	9477.67
753.313	9582.98
753.651	9707.05
753.989	9713.83
754.327	9809.64
754.666	9954.27
755.004	10022.74
755.342	10180.93
755.679	10273.59
756.017	10337.99
756.355	10555.16
756.693	10581.15
757.031	10746.79
757.368	10819.33
757.706	10971.42
758.044	11124.18
758.381	11218.65
758.719	11328.47
759.056	11532.54
759.394	11670.61
759.731	11673.55
760.068	11924.84
760.405	11959.64
760.743	12191.05
761.08	12411.38
761.417	12453.87
761.754	12612.96
762.091	12726.18
