Data from hue_70_FLMS001491_41.txt Node
Date: Mon Feb 06 15:20:57 GMT 2017
User: dcchb
Spectrometer: FLMS00149
Trigger mode: 0
Integration Time (sec): 2.000000E-2
Scans to average: 10
Electric dark correction enabled: true
Nonlinearity correction enabled: false
Boxcar width: 0
XAxis mode: Wavelengths
Number of Pixels in Spectrum: 2048
>>>>>Begin Spectral Data<<<<<
341.393	-7.47
341.776	-7.47
342.16	-7.47
342.543	-80.69
342.927	-54.7
343.31	-59.22
343.693	-82.5
344.077	-44.98
344.46	-67.58
344.843	-44.31
345.226	-40.92
345.61	-42.72
345.993	-25.55
346.376	-14.25
346.759	2.92
347.142	19.19
347.525	54.22
347.908	57.39
348.291	78.18
348.674	86.76
349.057	123.37
349.44	117.27
349.823	139.19
350.206	166.76
350.588	188.23
350.971	192.98
351.354	210.15
351.737	228.23
352.119	239.08
352.502	270.94
352.884	288.11
353.267	275.91
353.65	283.82
354.032	299.64
354.414	279.98
354.797	317.72
355.179	311.84
355.562	335.8
355.944	331.05
356.326	325.63
356.709	319.75
357.091	338.96
357.473	335.34
357.855	326.08
358.238	334.89
358.62	338.51
359.002	333.08
359.384	332.18
359.766	332.18
360.148	325.63
360.53	366.08
360.912	335.12
361.294	331.05
361.676	338.73
362.057	324.27
362.439	324.27
362.821	338.51
363.203	319.07
363.584	315.46
363.966	308.9
364.348	320.66
364.729	339.64
365.111	307.1
365.493	329.69
365.874	302.12
366.256	321.79
366.637	309.58
367.019	317.72
367.4	307.55
367.781	313.2
368.163	321.33
368.544	304.84
368.925	315.01
369.306	336.93
369.688	324.95
370.069	308.45
370.45	312.29
370.831	307.77
371.212	326.98
371.593	316.59
371.974	315.68
372.355	312.52
372.736	293.09
373.117	322.01
373.498	316.81
373.879	295.57
374.26	331.28
374.641	289.47
375.021	269.13
375.402	317.49
375.783	317.49
376.163	342.12
376.544	327.66
376.925	343.48
377.305	317.72
377.686	330.6
378.066	324.27
378.447	331.95
378.827	313.88
379.208	334.89
379.588	309.13
379.968	336.02
380.349	333.31
380.729	338.96
381.109	318.62
381.489	303.25
381.87	313.88
382.25	336.93
382.63	353.65
383.01	336.47
383.39	317.49
383.77	348.23
384.15	355.68
384.53	327.43
384.91	340.09
385.29	340.09
385.67	327.66
386.049	350.94
386.429	350.94
386.809	348.68
387.189	339.86
387.568	344.61
387.948	353.2
388.328	352.52
388.707	354.1
389.087	341.22
389.466	345.97
389.846	350.94
390.225	357.26
390.605	348.68
390.984	349.58
391.363	362.91
391.743	357.94
392.122	352.07
392.501	364.95
392.881	377.38
393.26	362.91
393.639	350.49
394.018	378.51
394.397	361.11
394.776	375.12
395.155	352.29
395.534	396.13
395.913	364.72
396.292	379.64
396.671	377.83
397.05	375.57
397.429	377.6
397.808	351.84
398.186	370.15
398.565	391.16
398.944	378.73
399.323	372.41
399.701	371.73
400.08	400.2
400.458	390.26
400.837	394.78
401.215	402.69
401.594	395.46
401.972	401.78
402.351	366.76
402.729	402.69
403.107	369.47
403.486	409.01
403.864	397.49
404.242	402.69
404.62	374.44
404.999	385.74
405.377	402.24
405.755	408.79
406.133	403.37
406.511	402.69
406.889	414.44
407.267	401.56
407.645	409.47
408.023	427.09
408.401	398.39
408.779	426.87
409.156	401.33
409.534	425.51
409.912	418.28
410.29	430.03
410.667	420.54
411.045	417.15
411.422	439.07
411.8	441.78
412.178	452.18
412.555	472.97
412.933	457.15
413.31	441.1
413.687	446.53
414.065	453.31
414.442	470.48
414.819	447.88
415.197	482.91
415.574	479.07
415.951	479.97
416.328	477.71
416.705	485.4
417.082	478.84
417.46	459.63
417.837	484.49
418.214	483.14
418.591	468
418.967	487.2
419.344	473.42
419.721	522.46
420.098	522.46
420.475	488.79
420.852	491.27
421.228	491.27
421.605	506.41
421.982	513.19
422.358	515
422.735	479.52
423.111	508
423.488	496.02
423.864	517.94
424.241	524.27
424.617	538.5
424.994	508
425.37	533.53
425.746	514.32
426.123	557.26
426.499	521.78
426.875	547.54
427.251	562.68
427.627	557.94
428.003	566.07
428.379	556.81
428.756	547.77
429.132	540.54
429.507	567.65
429.883	571.72
430.259	579.63
430.635	571.5
431.011	591.38
431.387	578.73
431.763	605.62
432.138	592.96
432.514	594.32
432.89	614.66
433.265	592.06
433.641	592.29
434.016	606.3
434.392	616.92
434.767	616.47
435.143	643.81
435.518	642.23
435.894	671.15
436.269	663.92
436.644	653.98
437.02	671.83
437.395	657.37
437.77	679.74
438.145	675.22
438.52	654.21
438.895	683.13
439.271	694.88
439.646	703.24
440.021	687.65
440.395	684.04
440.77	701.21
441.145	700.53
441.52	709.12
441.895	724.26
442.27	718.84
442.645	713.19
443.019	750.47
443.394	731.72
443.769	717.26
444.143	734.88
444.518	753.64
444.892	746.18
445.267	734.2
445.641	769.91
446.016	760.19
446.39	758.61
446.764	790.93
447.139	759.97
447.513	740.98
447.887	780.3
448.262	802.22
448.636	793.64
449.01	786.63
449.384	786.18
449.758	794.32
450.132	810.81
450.506	833.18
450.88	817.14
451.254	815.33
451.628	825.05
452.002	820.3
452.376	845.39
452.75	835.44
453.123	832.51
453.497	847.2
453.871	858.72
454.244	873.18
454.618	886.29
454.992	874.31
455.365	879.28
455.739	926.06
456.112	900.53
456.486	943.01
456.859	935.78
457.232	959.51
457.606	924.48
457.979	948.89
458.352	996.34
458.725	997.93
459.099	1008.09
459.472	1010.13
459.845	1010.13
460.218	1026.4
460.591	997.25
460.964	1032.73
461.337	1079.28
461.71	1071.14
462.083	1083.12
462.456	1074.76
462.829	1086.74
463.201	1131.03
463.574	1138.71
463.947	1142.55
464.32	1170.58
464.692	1204.47
465.065	1178.03
465.438	1182.55
465.81	1228.88
466.183	1241.08
466.555	1264.81
466.928	1281.53
467.3	1266.39
467.672	1312.27
468.045	1313.4
468.417	1345.26
468.789	1349.33
469.161	1366.28
469.534	1430
469.906	1429.78
470.278	1445.15
470.65	1476.11
471.022	1536.89
471.394	1546.16
471.766	1584.8
472.138	1574.41
472.51	1611.47
472.882	1688.76
473.253	1682.43
473.625	1724.91
473.997	1763.56
474.369	1811.24
474.74	1822.31
475.112	1881.29
475.484	1911.35
475.855	1966.94
476.227	2016.88
476.598	2086.03
476.97	2126.48
477.341	2182.08
477.713	2236.54
478.084	2261.62
478.455	2344.56
478.827	2365.57
479.198	2483.99
479.569	2474.27
479.94	2627.04
480.311	2658.9
480.682	2754.49
481.053	2876.29
481.424	2931.43
481.795	3002.39
482.166	3102.5
482.537	3175.5
482.908	3225.89
483.279	3348.82
483.65	3456.84
484.021	3557.41
484.391	3651.42
484.762	3697.74
485.133	3774.35
485.503	3853.67
485.874	4048.24
486.244	4144.51
486.615	4231.51
486.985	4373.43
487.356	4477.16
487.726	4629.47
488.097	4725.96
488.467	4796.24
488.837	4984.26
489.207	5125.05
489.578	5262.22
489.948	5383.57
490.318	5546.73
490.688	5584.92
491.058	5733.85
491.428	5902.66
491.798	6022.65
492.168	6187.17
492.538	6284.34
492.908	6460.83
493.278	6616.76
493.648	6652.24
494.017	6889.52
494.387	7070.08
494.757	7138.33
495.126	7287.25
495.496	7433.91
495.866	7470.3
496.235	7706.9
496.605	7838.88
496.974	7975.37
497.344	8167.91
497.713	8262.82
498.082	8316.83
498.452	8509.59
498.821	8647.44
499.19	8736.03
499.559	8962.69
499.928	9031.39
500.298	9114.77
500.667	9350.02
501.036	9377.14
501.405	9563.8
501.774	9525.16
502.143	9783.01
502.512	9830.24
502.88	9951.14
503.249	10115.43
503.618	10220.73
503.987	10297.34
504.356	10434.74
504.724	10571.46
505.093	10624.11
505.462	10801.06
505.83	10944.78
506.199	11011.45
506.567	11204.66
506.936	11180.71
507.304	11378.44
507.672	11459.8
508.041	11573.24
508.409	11709.51
508.777	11838.32
509.145	11999.22
509.514	12037.41
509.882	12093.45
510.25	12162.83
510.618	12319.44
510.986	12369.6
511.354	12514.69
511.722	12630.61
512.09	12829.03
512.458	12830.16
512.826	12959.65
513.193	13070.83
513.561	13160.09
513.929	13200.54
514.297	13353.76
514.664	13486.64
515.032	13499.29
515.4	13622.23
515.767	13695.22
516.135	13833.07
516.502	13716.01
516.869	14081.65
517.237	14003.91
517.604	14099.73
517.972	14220.4
518.339	14267.63
518.706	14389.21
519.073	14418.59
519.44	14530.45
519.808	14704.01
520.175	14709.88
520.542	14926.15
520.909	14949.65
521.276	14964.56
521.643	15145.35
522.009	15156.2
522.376	15309.41
522.743	15387.83
523.11	15540.82
523.477	15682.74
523.843	15656.3
524.21	15873.69
524.577	15930.19
524.943	15989.62
525.31	16085.44
525.676	16239.11
526.043	16329.5
526.409	16329.27
526.776	16494.69
527.142	16442.72
527.508	16649.27
527.874	16698.08
528.241	16794.8
528.607	16922.7
528.973	17062.81
529.339	16952.53
529.705	17101.46
530.071	17205.86
530.437	17207.22
530.803	17287.89
531.169	17421
531.535	17364.95
531.901	17388.46
532.267	17508.45
532.632	17609.69
532.998	17538.28
533.364	17699.18
533.73	17735.79
534.095	17771.27
534.461	17865.5
534.826	17910.25
535.192	17885.84
535.557	18089
535.923	18004.94
536.288	18087.65
536.653	18085.39
537.019	18086.29
537.384	18050.58
537.749	18178.72
538.114	18202.22
538.479	18150.7
538.845	18266.85
539.21	18252.16
539.575	18292.84
539.94	18256
540.305	18312.05
540.67	18302.1
541.034	18329.22
541.399	18350.69
541.764	18430.69
542.129	18491.93
542.494	18420.74
542.858	18464.13
543.223	18411.48
543.587	18623
543.952	18470.23
544.316	18589.1
544.681	18524.24
545.045	18642.66
545.41	18662.09
545.774	18688.53
546.138	18589.55
546.503	18735.99
546.867	18751.13
547.231	18870.68
547.595	18807.4
547.959	18787.74
548.324	18860.28
548.688	18730.11
549.052	18733.05
549.416	18878.36
549.779	18797.46
550.143	18899.38
550.507	18898.02
550.871	18951.35
551.235	18945.48
551.599	19020.28
551.962	19013.95
552.326	19095.98
552.689	19056.43
553.053	19015.31
553.417	19043.33
553.78	19296.43
554.143	19145.02
554.507	19156.77
554.87	19290.1
555.234	19315.18
555.597	19255.52
555.96	19326.03
556.323	19397.44
556.686	19432.7
557.05	19487.38
557.413	19401.51
557.776	19488.74
558.139	19614.84
558.502	19626.81
558.865	19750.2
559.228	19809.63
559.59	19729.41
559.953	19758.34
560.316	19843.53
560.679	19905.9
561.041	19925.79
561.404	19973.02
561.767	20100.25
562.129	19988.16
562.492	20140.02
562.854	20149.96
563.217	20204.88
563.579	20227.48
563.941	20342.28
564.304	20501.14
564.666	20447.81
565.028	20541.82
565.39	20687.35
565.753	20619.1
566.115	20629.5
566.477	20631.08
566.839	20800.12
567.201	20912.88
567.563	20841.02
567.925	21030.85
568.287	20937.29
568.648	21040.11
569.01	21064.06
569.372	21148.58
569.734	21111.3
570.095	21261.35
570.457	21314
570.819	21343.15
571.18	21371.4
571.542	21463.6
571.903	21549.02
572.265	21596.48
572.626	21533.66
572.987	21592.41
573.349	21602.13
573.71	21785.18
574.071	21727.32
574.432	21787.21
574.794	21888.9
575.155	21810.94
575.516	21816.59
575.877	21840.54
576.238	21954.21
576.599	22053.87
576.96	21948.56
577.32	22099.07
577.681	22082.8
578.042	22224.26
578.403	22118.73
578.763	22101.1
579.124	22156.92
579.485	22300.87
579.845	22319.17
580.206	22224.49
580.566	22290.47
580.927	22199.63
581.287	22330.02
581.648	22274.43
582.008	22333.64
582.368	22348.55
582.728	22319.17
583.089	22316.24
583.449	22277.82
583.809	22403.92
584.169	22424.26
584.529	22276.91
584.889	22480.3
585.249	22454.76
585.609	22362.34
585.969	22412.5
586.329	22351.26
586.688	22349
587.048	22472.62
587.408	22328.44
587.768	22223.81
588.127	22363.92
588.487	22296.35
588.846	22486.4
589.206	22267.65
589.565	22227.88
589.925	22433.07
590.284	22325.73
590.643	22350.13
591.003	22389.23
591.362	22405.05
591.721	22282.11
592.08	22292.73
592.44	22433.75
592.799	22441.88
593.158	22375.67
593.517	22314.88
593.876	22368.21
594.235	22348.32
594.593	22391.94
594.952	22405.27
595.311	22256.35
595.67	22469.9
596.029	22448.44
596.387	22433.75
596.746	22516.91
597.104	22370.02
597.463	22334.09
597.822	22487.08
598.18	22498.6
598.538	22377.48
598.897	22524.14
599.255	22389.68
599.613	22530.24
599.972	22384.26
600.33	22578.15
600.688	22476.01
601.046	22448.44
601.404	22637.13
601.762	22547.64
602.12	22643.23
602.478	22621.99
602.836	22657.02
603.194	22551.03
603.552	22522.56
603.91	22513.52
604.268	22619.73
604.625	22504.25
604.983	22648.66
605.341	22599.84
605.698	22669.67
606.056	22761.65
606.413	22655.66
606.771	22779.5
607.128	22761.42
607.485	22696.34
607.843	22763.46
608.2	22921.42
608.557	22860.85
608.914	22878.48
609.272	22904.92
609.629	22951.47
609.986	23053.84
610.343	22988.99
610.7	23130.23
611.057	23057.91
611.414	23072.37
611.771	23087.97
612.127	23197.57
612.484	23138.13
612.841	23292.03
613.198	23178.13
613.554	23225.59
613.911	23349.43
614.267	23417.9
614.624	23314.18
614.98	23375.87
615.337	23513.94
615.693	23466.26
616.05	23438.01
616.406	23554.17
616.762	23449.54
617.118	23487.05
617.475	23427.84
617.831	23558.24
618.187	23643.21
618.543	23656.99
618.899	23780.15
619.255	23705.8
619.611	23608.63
619.967	23711.45
620.323	23748.74
620.678	23660.61
621.034	23564.11
621.39	23588.74
621.746	23659.48
622.101	23855.4
622.457	23734.5
622.812	23831.9
623.168	23854.05
623.523	23818.34
623.879	23898.34
624.234	23737.67
624.589	23833.48
624.945	23899.7
625.3	23934.5
625.655	23819.25
626.01	23943.54
626.365	23936.53
626.72	23827.16
627.075	23772.69
627.43	23939.24
627.785	23863.31
628.14	23929.3
628.495	23909.41
628.85	23896.31
629.205	23795.52
629.559	23923.2
629.914	23806.59
630.269	23905.57
630.623	23769.08
630.978	23781.51
631.332	23892.46
631.687	23885.46
632.041	23745.12
632.396	23857.66
632.75	23717.33
633.104	23733.37
633.459	23680.04
633.813	23616.09
634.167	23613.15
634.521	23666.03
634.875	23685.69
635.229	23602.08
635.583	23446.6
635.937	23534.06
636.291	23531.12
636.645	23544.68
636.999	23504.9
637.352	23503.32
637.706	23432.36
638.06	23487.5
638.413	23442.99
638.767	23369.99
639.121	23404.12
639.474	23351.01
639.828	23287.74
640.181	23260.84
640.534	23419.03
640.888	23289.77
641.241	23264.46
641.594	23273.05
641.947	23374.29
642.301	23225.14
642.654	23273.95
643.007	23278.24
643.36	23183.33
643.713	23090.23
644.066	23220.17
644.419	23051.58
644.771	22998.03
645.124	22721.87
645.477	22768.43
645.83	22468.77
646.182	22583.12
646.535	22399.4
646.888	22433.52
647.24	22279.85
647.593	22466.74
647.945	22403.92
648.298	22380.64
648.65	22344.94
649.002	22348.78
649.355	22371.38
649.707	22409.34
650.059	22416.12
650.411	22640.29
650.763	22699.28
651.115	22942.89
651.467	22817.24
651.819	22824.02
652.171	22778.82
652.523	22726.62
652.875	22760.29
653.227	22749.44
653.578	22868.54
653.93	22730.24
654.282	22742.21
654.633	22736.56
654.985	22693.63
655.337	22702.21
655.688	22729.11
656.039	22849.55
656.391	22572.73
656.742	22606.4
657.094	22703.34
657.445	22780.18
657.796	22716.68
658.147	22657.47
658.498	22735.89
658.849	22781.08
659.2	22733.17
659.551	22676.45
659.902	22761.42
660.253	22719.61
660.604	22807.07
660.955	22672.38
661.306	22736.56
661.656	22680.29
662.007	22710.35
662.358	22663.34
662.708	22678.26
663.059	22657.24
663.409	22616.57
663.76	22795.77
664.11	22718.26
664.461	22750.35
664.811	22777.92
665.161	22605.95
665.511	22687.75
665.862	22740.86
666.212	22828.31
666.562	22778.37
666.912	22711.48
667.262	22669.45
667.612	22590.8
667.962	22858.59
668.312	22788.99
668.662	22835.54
669.011	22786.51
669.361	22746.28
669.711	22746.96
670.06	22620.86
670.41	22583.12
670.76	22623.35
671.109	22646.4
671.459	22762.33
671.808	22616.79
672.157	22670.58
672.507	22447.98
672.856	22534.76
673.205	22579.96
673.554	22664.25
673.904	22553.52
674.253	22667.64
674.602	22461.77
674.951	22207.99
675.3	22111.49
675.649	22465.61
675.998	22434.42
676.346	22385.61
676.695	22448.89
677.044	22257.71
677.393	22331.6
677.741	22362.56
678.09	22344.26
678.438	22344.03
678.787	22380.19
679.135	22314.2
679.484	22154.21
679.832	22306.52
680.181	22097.71
680.529	22212.51
680.877	22221.1
681.225	22029.46
681.573	22134.32
681.922	21975.91
682.27	22034.21
682.618	21954.44
682.966	21850.48
683.314	21933.65
683.661	21843.93
684.009	21830.15
684.357	21652.75
684.705	21758.51
685.053	21648
685.4	21737.27
685.748	21648.91
686.095	21512.87
686.443	21443.04
686.79	21472.19
687.138	21488.69
687.485	21521.23
687.832	21286.21
688.18	21367.11
688.527	21318.75
688.874	21262.7
689.221	21183.16
689.568	21149.94
689.915	21102.03
690.262	21203.5
690.609	20927.12
690.956	20947.46
691.303	20860.68
691.65	20810.29
691.997	20754.47
692.344	20680.57
692.69	20555.83
693.037	20586.56
693.383	20455.27
693.73	20493.01
694.077	20370.98
694.423	20379.11
694.769	20391.99
695.116	20206.01
695.462	20288.49
695.808	20070.42
696.155	20156.29
696.501	20032.91
696.847	20036.07
697.193	19855.06
697.539	19976.18
697.885	19692.58
698.231	19663.2
698.577	19637.89
698.923	19516.99
699.269	19511.56
699.614	19425.46
699.96	19372.36
700.306	19340.95
700.651	19294.17
700.997	19175.3
701.342	19233.83
701.688	19113.16
702.033	19108.86
702.379	19100.27
702.724	18971.24
703.069	18986.38
703.415	18747.29
703.76	18811.69
704.105	18819.6
704.45	18728.08
704.795	18540.74
705.14	18527.63
705.485	18517.47
705.83	18412.38
706.175	18457.58
706.52	18348.66
706.865	18296.68
707.209	18366.06
707.554	18182.56
707.899	18193.63
708.243	18179.17
708.588	18010.81
708.932	17941.21
709.277	17945.5
709.621	17943.47
709.966	17759.74
710.31	17768.11
710.654	17719.29
710.998	17793.87
711.342	17701.67
711.687	17697.6
712.031	17674.32
712.375	17542.8
712.719	17554.33
713.063	17504.61
713.407	17556.13
713.75	17463.93
714.094	17405.86
714.438	17444.95
714.782	17358.85
715.125	17239.08
715.469	17318.4
715.812	17192.53
716.156	17175.58
716.499	17173.55
716.843	17080.21
717.186	17121.8
717.53	17178.97
717.873	17171.29
718.216	17077.5
718.559	16981.91
718.902	16864.18
719.246	16965.87
719.589	16869.82
719.932	16831.86
720.275	16879.99
720.617	16759.09
720.96	16752.77
721.303	16725.87
721.646	16724.74
721.989	16656.72
722.331	16717.96
722.674	16690.62
723.016	16682.94
723.359	16622.83
723.701	16665.08
724.044	16524.52
724.386	16490.63
724.729	16508.93
725.071	16459.21
725.413	16506.44
725.755	16423.96
726.097	16412.66
726.439	16313
726.782	16304.64
727.124	16438.88
727.465	16362.27
727.807	16361.14
728.149	16224.19
728.491	16207.47
728.833	16361.14
729.175	16294.25
729.516	16191.42
729.858	16293.57
730.199	16228.03
730.541	16169.96
730.882	16118.66
731.224	16202.72
731.565	16092.9
731.906	16169.73
732.248	16217.19
732.589	16064.42
732.93	16045.21
733.271	16078.66
733.612	16086.34
733.953	16139.22
734.294	15982.39
734.635	15969.28
734.976	16118.43
735.317	15995.05
735.658	16065.55
735.999	16054.93
736.339	16029.39
736.68	15982.39
737.021	15973.13
737.361	16009.73
737.702	15979.45
738.042	16016.97
738.383	15948.04
738.723	16014.93
739.063	15993.01
739.404	16053.8
739.744	15994.14
740.084	15938.55
740.424	15925.67
740.764	15988.94
741.104	16021.49
741.444	15889.74
741.784	15961.6
742.124	16032.11
742.464	15906.01
742.804	15933.13
743.143	15987.81
743.483	16023.29
743.823	15956.18
744.162	15923.18
744.502	16071.88
744.841	15952.33
745.181	16062.61
745.52	16011.77
745.86	16092.44
746.199	16096.51
746.538	16013.12
746.877	16181.71
747.216	16251.76
747.556	16141.71
747.895	16213.57
748.234	16302.61
748.573	16249.28
748.911	16280.91
749.25	16305.32
749.589	16394.81
749.928	16443.85
750.267	16482.72
750.605	16471.42
750.944	16522.72
751.283	16489.5
751.621	16668.47
751.96	16727
752.298	16738.3
752.636	16734.69
752.975	16768.81
753.313	16893.55
753.651	16942.82
753.989	16908.47
754.327	17035.7
754.666	17093.1
755.004	17085.41
755.342	17304.16
755.679	17196.6
756.017	17243.83
756.355	17420.09
756.693	17454.44
757.031	17523.59
