Data from hue_90_FLMS001491_13.txt Node
Date: Mon Feb 06 15:24:45 GMT 2017
User: dcchb
Spectrometer: FLMS00149
Trigger mode: 0
Integration Time (sec): 2.000000E-2
Scans to average: 10
Electric dark correction enabled: true
Nonlinearity correction enabled: false
Boxcar width: 0
XAxis mode: Wavelengths
Number of Pixels in Spectrum: 2048
>>>>>Begin Spectral Data<<<<<
341.393	-10.73
341.776	-10.73
342.16	-10.73
342.543	-67.46
342.927	-59.77
343.31	-74.01
343.693	-57.51
344.077	-62.03
344.46	-59.77
344.843	-54.57
345.226	-47.57
345.61	-42.82
345.993	-27.46
346.376	-6.21
346.759	30.39
347.142	44.41
347.525	22.71
347.908	54.8
348.291	73.56
348.674	92.99
349.057	113.1
349.44	119.21
349.823	140.67
350.206	154.46
350.588	188.36
350.971	209.6
351.354	202.59
351.737	236.94
352.119	267.22
352.502	252.31
352.884	263.83
353.267	262.93
353.65	301.57
354.032	303.16
354.414	311.07
354.797	302.7
355.179	328.69
355.562	298.41
355.944	312.42
356.326	348.58
356.709	340.22
357.091	319.43
357.473	311.52
357.855	327.79
358.238	323.95
358.62	354.68
359.002	316.94
359.384	323.04
359.766	346.09
360.148	335.7
360.53	325.75
360.912	317.84
361.294	328.92
361.676	358.75
362.057	329.14
362.439	310.61
362.821	323.49
363.203	330.27
363.584	329.82
363.966	313.33
364.348	326.21
364.729	322.82
365.111	315.36
365.493	319.88
365.874	298.86
366.256	307.68
366.637	307.45
367.019	323.95
367.4	296.6
367.781	305.64
368.163	314.68
368.544	321.69
368.925	320.56
369.306	312.2
369.688	278.07
370.069	292.08
370.45	287.11
370.831	302.25
371.212	310.16
371.593	312.65
371.974	306.32
372.355	304.96
372.736	327.34
373.117	325.3
373.498	312.65
373.879	307.9
374.26	297.96
374.641	286.21
375.021	306.32
375.402	314.91
375.783	329.37
376.163	306.09
376.544	329.82
376.925	312.2
377.305	326.43
377.686	314
378.066	318.97
378.447	339.99
378.827	308.13
379.208	337.51
379.588	312.42
379.968	336.15
380.349	308.81
380.729	327.56
381.109	311.29
381.489	337.28
381.87	343.61
382.25	321.91
382.63	333.89
383.01	342.02
383.39	349.26
383.77	333.44
384.15	323.04
384.53	333.44
384.91	364.4
385.29	347.67
385.67	350.84
386.049	342.7
386.429	329.6
386.809	349.03
387.189	346.77
387.568	350.84
387.948	352.65
388.328	333.66
388.707	354.23
389.087	356.49
389.466	344.06
389.846	340.89
390.225	337.05
390.605	366.88
390.984	367.79
391.363	347.9
391.743	375.92
392.122	355.81
392.501	387
392.881	356.71
393.26	375.02
393.639	364.17
394.018	364.62
394.397	377.05
394.776	366.66
395.155	351.74
395.534	375.7
395.913	387
396.292	357.17
396.671	375.7
397.05	374.11
397.429	376.37
397.808	376.6
398.186	381.35
398.565	388.8
398.944	385.87
399.323	392.19
399.701	402.81
400.08	384.28
400.458	384.06
400.837	360.1
401.215	381.35
401.594	407.56
401.972	395.36
402.351	382.25
402.729	367.33
403.107	394
403.486	408.46
403.864	395.13
404.242	415.02
404.62	416.37
404.999	432.19
405.377	414.79
405.755	393.55
406.133	424.96
406.511	424.06
406.889	427.45
407.267	413.89
407.645	424.06
408.023	401.91
408.401	412.98
408.779	426.32
409.156	433.77
409.534	422.02
409.912	429.93
410.29	431.74
410.667	460.67
411.045	447.56
411.422	469.25
411.8	440.33
412.178	436.49
412.555	459.99
412.933	466.32
413.31	463.38
413.687	449.59
414.065	464.06
414.442	466.99
414.819	479.42
415.197	480.1
415.574	477.16
415.951	457.95
416.328	494.34
416.705	482.81
417.082	489.59
417.46	495.69
417.837	476.94
418.214	486.43
418.591	478.52
418.967	489.37
419.344	494.56
419.721	510.38
420.098	518.07
420.475	488.01
420.852	517.39
421.228	522.81
421.605	533.66
421.982	536.14
422.358	545.64
422.735	526.65
423.111	535.24
423.488	541.34
423.864	525.97
424.241	549.48
424.617	553.54
424.994	570.27
425.37	533.43
425.746	554.67
426.123	541.57
426.499	549.7
426.875	573.66
427.251	580.21
427.627	554.22
428.003	594.22
428.379	588.35
428.756	572.53
429.132	593.77
429.507	584.73
429.883	583.15
430.259	596.93
430.635	584.28
431.011	598.74
431.387	612.98
431.763	639.42
432.138	633.99
432.514	643.94
432.89	616.59
433.265	642.81
433.641	629.02
434.016	653.43
434.392	643.49
434.767	676.71
435.143	656.37
435.518	661.11
435.894	689.81
436.269	676.93
436.644	705.18
437.02	706.31
437.395	706.54
437.77	717.38
438.145	697.27
438.52	725.52
438.895	742.69
439.271	736.14
439.646	746.99
440.021	733.2
440.395	745.86
440.77	727.1
441.145	762.8
441.52	748.79
441.895	779.3
442.27	765.06
442.645	750.15
443.019	785.4
443.394	779.98
443.769	752.64
444.143	779.3
444.518	803.03
444.892	797.15
445.267	822.01
445.641	819.75
446.016	801
446.39	811.39
446.764	829.02
447.139	827.66
447.513	811.84
447.887	823.82
448.262	852.97
448.636	834.67
449.01	852.52
449.384	841.9
449.758	901.56
450.132	861.79
450.506	871.5
450.88	867.43
451.254	890.26
451.628	891.84
452.002	878.96
452.376	908.79
452.75	905.4
453.123	906.08
453.497	926.42
453.871	938.39
454.244	935.91
454.618	976.13
454.992	946.3
455.365	962.8
455.739	970.03
456.112	1004.15
456.486	999.86
456.859	1035.79
457.232	1025.85
457.606	1019.97
457.979	1041.44
458.352	1085.51
458.725	1074.66
459.099	1089.58
459.472	1098.84
459.845	1083.47
460.218	1129.8
460.591	1104.26
460.964	1124.6
461.337	1141.33
461.71	1163.47
462.083	1192.4
462.456	1179.74
462.829	1212.74
463.201	1209.8
463.574	1227.43
463.947	1240.98
464.32	1290.02
464.692	1268.33
465.065	1262.68
465.438	1307.65
465.81	1322.79
466.183	1320.98
466.555	1360.98
466.928	1409.34
467.3	1385.16
467.672	1398.27
468.045	1471.94
468.417	1471.26
468.789	1485.72
469.161	1490.24
469.534	1526.63
469.906	1556.23
470.278	1606.4
470.65	1620.86
471.022	1607.3
471.394	1662.22
471.766	1707.86
472.138	1743.12
472.51	1779.28
472.882	1831.25
473.253	1831.03
473.625	1845.49
473.997	1925.71
474.369	1963.9
474.74	1975.2
475.112	2013.85
475.484	2057.46
475.855	2107.85
476.227	2136.33
476.598	2232.14
476.97	2222.2
477.341	2350.56
477.713	2359.6
478.084	2407.28
478.455	2481.86
478.827	2526.83
479.198	2649.53
479.569	2650.66
479.94	2753.71
480.311	2847.27
480.682	2880.94
481.053	3013.82
481.424	3056.53
481.795	3133.36
482.166	3170.2
482.537	3304.43
482.908	3407.48
483.279	3425.56
483.65	3544.88
484.021	3706.46
484.391	3744.65
484.762	3826.68
485.133	3881.59
485.503	3981.48
485.874	4131.53
486.244	4190.96
486.615	4327
486.985	4416.27
487.356	4566.77
487.726	4670.5
488.097	4806.77
488.467	4887.44
488.837	5026.2
489.207	5155.01
489.578	5264.61
489.948	5382.8
490.318	5492.4
490.688	5607.88
491.058	5713.64
491.428	5836.8
491.798	5965.61
492.168	6150.23
492.538	6184.36
492.908	6317.01
493.278	6447.63
493.648	6565.36
494.017	6674.97
494.387	6802.87
494.757	6962.87
495.126	7083.77
495.496	7115.18
495.866	7139.36
496.235	7323.76
496.605	7453.7
496.974	7536.64
497.344	7689.63
497.713	7754.26
498.082	7895.95
498.452	8004.65
498.821	8069.28
499.19	8161.71
499.559	8295.94
499.928	8321.02
500.298	8411.19
500.667	8596.05
501.036	8603.05
501.405	8732.09
501.774	8832.42
502.143	8872.65
502.512	8957.62
502.88	9068.12
503.249	9088.01
503.618	9188.12
503.987	9252.98
504.356	9383.37
504.724	9432.63
505.093	9455.23
505.462	9562.12
505.83	9616.13
506.199	9677.15
506.567	9859.74
506.936	9914.43
507.304	9991.26
507.672	10034.88
508.041	10094.31
508.409	10114.2
508.777	10229.45
509.145	10336.11
509.514	10224.02
509.882	10360.07
510.25	10402.33
510.618	10438.26
510.986	10532.94
511.354	10600.74
511.722	10718.48
512.09	10765.03
512.458	10777.46
512.826	10858.13
513.193	10906.27
513.561	10859.26
513.929	10928.19
514.297	11024.46
514.664	11087.96
515.032	11116.66
515.4	11219.7
515.767	11219.03
516.135	11326.82
516.502	11245.47
516.869	11399.36
517.237	11409.98
517.604	11342.64
517.972	11403.2
518.339	11475.29
518.706	11458.34
519.073	11433.26
519.44	11558.68
519.808	11666.7
520.175	11585.57
520.542	11704.21
520.909	11774.27
521.276	11662.41
521.643	11781.05
522.009	11770.65
522.376	11891.55
522.743	11883.64
523.11	12010.64
523.477	11993.02
523.843	12153.47
524.21	12158.44
524.577	12116.4
524.943	12214.03
525.31	12184.2
525.676	12275.5
526.043	12313.24
526.409	12241.37
526.776	12380.35
527.142	12352.56
527.508	12350.75
527.874	12439.11
528.241	12360.01
528.607	12423.29
528.973	12402.95
529.339	12395.27
529.705	12490.63
530.071	12557.52
530.437	12576.51
530.803	12487.92
531.169	12558.43
531.535	12508.94
531.901	12594.13
532.267	12520.91
532.632	12561.14
532.998	12521.37
533.364	12590.06
533.73	12511.42
534.095	12576.28
534.461	12545.09
534.826	12580.57
535.192	12526.34
535.557	12591.42
535.923	12543.96
536.288	12555.49
536.653	12555.49
537.019	12463.97
537.384	12454.02
537.749	12501.93
538.114	12419.67
538.479	12367.25
538.845	12375.83
539.21	12337.42
539.575	12362.05
539.94	12326.12
540.305	12306.23
540.67	12170.41
541.034	12235.72
541.399	12255.16
541.764	12217.19
542.129	12194.82
542.494	12239.57
542.858	12192.79
543.223	12148.27
543.587	12179
543.952	12087.48
544.316	12171.32
544.681	12089.06
545.045	12029.63
545.41	12132.45
545.774	12005.9
546.138	11955.05
546.503	11993.02
546.867	11916.64
547.231	11946.01
547.595	11981.49
547.959	11865.56
548.324	11899.01
548.688	11818.56
549.052	11786.47
549.416	11778.33
549.779	11744.21
550.143	11736.08
550.507	11738.79
550.871	11756.19
551.235	11671.67
551.599	11707.83
551.962	11709.64
552.326	11687.49
552.689	11697.88
553.053	11608.85
553.417	11624.67
553.78	11683.87
554.143	11565.01
554.507	11676.42
554.87	11547.15
555.234	11573.59
555.597	11456.76
555.96	11508.96
556.323	11494.05
556.686	11494.27
557.05	11532.92
557.413	11556.87
557.776	11514.61
558.139	11531.34
558.502	11529.08
558.865	11517.78
559.228	11468.51
559.59	11533.6
559.953	11493.6
560.316	11572.24
560.679	11476.42
561.041	11517.55
561.404	11480.49
561.767	11564.1
562.129	11488.62
562.492	11534.95
562.854	11526.82
563.217	11532.01
563.579	11563.65
563.941	11588.28
564.304	11595.29
564.666	11616.53
565.028	11598.9
565.39	11597.1
565.753	11737.21
566.115	11636.64
566.477	11675.06
566.839	11676.19
567.201	11790.54
567.563	11745.79
567.925	11798.9
568.287	11725.23
568.648	11709.86
569.01	11805.45
569.372	11838.9
569.734	11744.44
570.095	11804.55
570.457	11845.45
570.819	11802.97
571.18	11837.99
571.542	11878.9
571.903	11847.49
572.265	11902.17
572.626	11975.84
572.987	11910.08
573.349	11815.85
573.71	11927.48
574.071	11922.29
574.432	12004.09
574.794	11973.58
575.155	12020.36
575.516	11962.96
575.877	11977.88
576.238	12007.25
576.599	12037.08
576.96	12005.9
577.32	11962.51
577.681	12101.26
578.042	12124.54
578.403	12020.36
578.763	11995.96
579.124	12015.16
579.485	12139.45
579.845	12130.19
580.206	12100.59
580.566	11999.57
580.927	12058.33
581.287	12126.35
581.648	12063.52
582.008	12000.7
582.368	12014.94
582.728	12106.01
583.089	12022.4
583.449	11982.17
583.809	11998.67
584.169	12001.61
584.529	12018.78
584.889	12102.85
585.249	12054.03
585.609	11961.83
585.969	12042.51
586.329	11969.06
586.688	12008.38
587.048	11970.87
587.408	11918.22
587.768	11967.71
588.127	11938.33
588.487	11945.79
588.846	11934.26
589.206	11842.51
589.565	11878.44
589.925	11921.38
590.284	11925.45
590.643	11898.11
591.003	11941.95
591.362	11880.7
591.721	11924.55
592.08	11896.3
592.44	11934.71
592.799	11895.62
593.158	11874.15
593.517	11927.03
593.876	11888.84
594.235	11852.91
594.593	11921.61
594.952	11906.47
595.311	11837.77
595.67	11866.47
596.029	11900.37
596.387	11878.67
596.746	11899.46
597.104	11868.28
597.463	11840.25
597.822	11844.55
598.18	11875.73
598.538	11773.14
598.897	11905.11
599.255	11755.74
599.613	11923.19
599.972	11830.76
600.33	11848.16
600.688	11816.3
601.046	11899.01
601.404	11883.19
601.762	11846.13
602.12	11851.1
602.478	11851.1
602.836	11840.71
603.194	11808.39
603.552	11778.33
603.91	11768.17
604.268	11853.13
604.625	11784.66
604.983	11817.66
605.341	11803.64
605.698	11849.07
606.056	11845
606.413	11859.46
606.771	11884.09
607.128	11904.21
607.485	11806.36
607.843	11889.29
608.2	11878.9
608.557	11932.23
608.914	11870.99
609.272	11968.84
609.629	11994.83
609.986	11931.55
610.343	11880.03
610.7	12016.97
611.057	11995.05
611.414	11920.7
611.771	11925
612.127	12044.99
612.484	12000.25
612.841	11991.44
613.198	11949.86
613.554	12014.49
613.911	12038.89
614.267	12060.13
614.624	12052.45
614.98	12053.13
615.337	12132.45
615.693	12034.82
616.05	12134.03
616.406	12179.91
616.762	12076.86
617.118	12135.84
617.475	12099
617.831	12113.69
618.187	12052.9
618.543	12178.32
618.899	12230.07
619.255	12107.37
619.611	12133.81
619.967	12165.44
620.323	12217.64
620.678	12115.05
621.034	12075.5
621.39	12098.55
621.746	12143.52
622.101	12232.56
622.457	12157.08
622.812	12168.15
623.168	12255.61
623.523	12157.08
623.879	12258.32
624.234	12146.23
624.589	12183.75
624.945	12170.64
625.3	12251.99
625.655	12210.64
626.01	12233.69
626.365	12178.55
626.72	12223.29
627.075	12207.02
627.43	12190.3
627.785	12204.54
628.14	12134.94
628.495	12150.98
628.85	12111.43
629.205	12119.34
629.559	12220.81
629.914	12103.52
630.269	12084.09
630.623	12122.51
630.978	12068.95
631.332	12106.46
631.687	12098.55
632.041	12013.81
632.396	12097.87
632.75	12073.02
633.104	12037.76
633.459	12049.74
633.813	12036.18
634.167	12004.09
634.521	11921.16
634.875	11997.09
635.229	11904.88
635.583	11947.14
635.937	11884.77
636.291	11856.52
636.645	11870.54
636.999	11868.95
637.352	11898.33
637.706	11873.47
638.06	11817.66
638.413	11813.81
638.767	11782.63
639.121	11882.06
639.474	11790.99
639.828	11803.64
640.181	11797.77
640.534	11821.5
640.888	11714.61
641.241	11682.29
641.594	11676.87
641.947	11750.09
642.301	11663.76
642.654	11638.9
643.007	11666.92
643.36	11658.34
643.713	11616.3
644.066	11624.67
644.419	11606.36
644.771	11552.35
645.124	11473.03
645.477	11434.16
645.83	11349.65
646.182	11278.91
646.535	11249.99
646.888	11231.68
647.24	11242.53
647.593	11302.64
647.945	11320.72
648.298	11187.39
648.65	11171.34
649.002	11191.01
649.355	11261.29
649.707	11289.53
650.059	11302.87
650.411	11375.18
650.763	11325.46
651.115	11581.73
651.467	11507.16
651.819	11510.09
652.171	11548.28
652.523	11520.04
652.875	11516.87
653.227	11409.53
653.578	11468.51
653.93	11558.91
654.282	11446.82
654.633	11419.93
654.985	11539.02
655.337	11470.77
655.688	11521.17
656.039	11494.95
656.391	11412.47
656.742	11395.52
657.094	11430.09
657.445	11473.03
657.796	11454.05
658.147	11403.65
658.498	11433.71
658.849	11551
659.2	11457.44
659.551	11411.11
659.902	11491.79
660.253	11452.69
660.604	11477.78
660.955	11477.33
661.306	11506.25
661.656	11529.3
662.007	11516.42
662.358	11495.63
662.708	11505.35
663.059	11496.31
663.409	11455.63
663.76	11507.38
664.11	11461.96
664.461	11462.86
664.811	11488.4
665.161	11570.43
665.511	11506.03
665.862	11506.48
666.212	11543.31
666.562	11569.75
666.912	11476.42
667.262	11484.1
667.612	11536.53
667.962	11513.71
668.312	11453.6
668.662	11601.16
669.011	11442.75
669.361	11458.34
669.711	11473.94
670.06	11448.17
670.41	11455.18
670.76	11431
671.109	11480.72
671.459	11468.96
671.808	11476.87
672.157	11543.76
672.507	11373.83
672.856	11386.93
673.205	11408.4
673.554	11436.2
673.904	11364.79
674.253	11404.11
674.602	11437.78
674.951	11255.41
675.3	11122.31
675.649	11402.98
675.998	11285.01
676.346	11375.18
676.695	11389.64
677.044	11305.8
677.393	11304.9
677.741	11294.28
678.09	11308.74
678.438	11206.6
678.787	11220.16
679.135	11320.72
679.484	11210.44
679.832	11272.81
680.181	11185.58
680.529	11228.29
680.877	11174.28
681.225	11129.31
681.573	11261.74
681.922	11062.2
682.27	11020.61
682.618	11073.27
682.966	10999.37
683.314	11101.74
683.661	11061.29
684.009	10928.41
684.357	10932.93
684.705	10908.3
685.053	10990.78
685.4	10846.83
685.748	10836.66
686.095	10771.13
686.443	10830.11
686.79	10769.32
687.138	10781.52
687.485	10794.18
687.832	10722.54
688.18	10698.81
688.527	10620.85
688.874	10606.61
689.221	10645.26
689.568	10579.72
689.915	10588.08
690.262	10550.34
690.609	10529.55
690.956	10470.12
691.303	10461.08
691.65	10385.83
691.997	10347.64
692.344	10332.72
692.69	10292.72
693.037	10320.07
693.383	10254.53
693.73	10219.05
694.077	10220.41
694.423	10197.81
694.769	10083.92
695.116	10183.57
695.462	10051.6
695.808	10116.46
696.155	10039.85
696.501	9982.9
696.847	9956.24
697.193	9867.42
697.539	9898.61
697.885	9735.45
698.231	9806.41
698.577	9770.7
698.923	9790.36
699.269	9604.38
699.614	9608.9
699.96	9649.12
700.306	9654.1
700.651	9564.61
700.997	9527.55
701.342	9525.74
701.688	9471.73
702.033	9495.68
702.379	9414.55
702.724	9398.06
703.069	9378.62
703.415	9279.87
703.76	9328.23
704.105	9259.98
704.45	9276.03
704.795	9201.9
705.14	9079.87
705.485	9144.51
705.83	9148.8
706.175	9106.31
706.52	9117.39
706.865	9112.19
707.209	9001.01
707.554	9001.68
707.899	8945.87
708.243	8944.06
708.588	8918.3
708.932	8782.71
709.277	8878.75
709.621	8852.99
709.966	8793.1
710.31	8793.55
710.654	8720.79
710.998	8709.04
711.342	8680.79
711.687	8700.22
712.031	8669.04
712.375	8572.32
712.719	8659.55
713.063	8663.39
713.407	8678.53
713.75	8617.97
714.094	8627.23
714.438	8549.94
714.782	8628.59
715.125	8467.23
715.469	8567.12
715.812	8459.55
716.156	8471.98
716.499	8423.39
716.843	8514.01
717.186	8355.83
717.53	8514.69
717.873	8462.94
718.216	8429.95
718.559	8352.44
718.902	8323.28
719.246	8315.15
719.589	8347.69
719.932	8315.83
720.275	8300.46
720.617	8308.37
720.96	8306.79
721.303	8282.83
721.646	8273.79
721.989	8191.31
722.331	8242.38
722.674	8206.45
723.016	8212.33
723.359	8175.72
723.701	8273.57
724.044	8234.92
724.386	8171.88
724.729	8203.29
725.071	8192.89
725.413	8118.77
725.755	8161.71
726.097	8074.02
726.439	8100.24
726.782	8086.23
727.124	8135.27
727.465	8100.92
727.807	8074.7
728.149	8157.19
728.491	8135.94
728.833	8032.44
729.175	8096.85
729.516	8027.7
729.858	8008.72
730.199	8077.64
730.541	8052.56
730.882	7998.32
731.224	8105.44
731.565	8036.51
731.906	8034.93
732.248	8033.57
732.589	8088.49
732.93	8042.16
733.271	8040.13
733.612	8071.77
733.953	8067.25
734.294	8051.43
734.635	8032.22
734.976	8055.27
735.317	8013.24
735.658	8022.27
735.999	7997.87
736.339	7983.86
736.68	8111.76
737.021	8047.13
737.361	8038.09
737.702	8128.03
738.042	8085.32
738.383	8094.82
738.723	8038.09
739.063	8079.67
739.404	8051.88
739.744	8089.84
740.084	8086.23
740.424	8066.79
740.764	8101.82
741.104	8224.53
741.444	8134.36
741.784	8108.37
742.124	8148.37
742.464	8150.63
742.804	8084.65
743.143	8201.48
743.483	8200.58
743.823	8159.45
744.162	8185.21
744.502	8243.96
744.841	8243.96
745.181	8335.26
745.52	8359.89
745.86	8363.06
746.199	8397.63
746.538	8448.48
746.877	8445.09
747.216	8497.29
747.556	8518.99
747.895	8537.29
748.234	8599.43
748.573	8601.02
748.911	8620.23
749.25	8726.89
749.589	8692.54
749.928	8785.42
750.267	8885.98
750.605	8899.09
750.944	8999.88
751.283	8989.03
751.621	9098.63
751.96	9112.64
752.298	9330.04
752.636	9316.48
752.975	9339.75
753.313	9382.69
753.651	9610.71
753.989	9628.79
754.327	9713.53
754.666	9762.34
755.004	9871.94
755.342	10039.62
755.679	10104.71
756.017	10223.8
756.355	10347.64
756.693	10417.47
757.031	10565.94
757.368	10681.19
757.706	10782.2
758.044	10986.94
758.381	11116.43
758.719	11158.69
759.056	11349.65
759.394	11373.6
759.731	11444.11
760.068	11673.93
