Data from hue_250_FLMS001491_00078.txt Node
Date: Tue Feb 07 16:01:27 GMT 2017
User: dcchb
Spectrometer: FLMS00149
Trigger mode: 0
Integration Time (sec): 2.000000E-2
Scans to average: 10
Electric dark correction enabled: true
Nonlinearity correction enabled: false
Boxcar width: 0
XAxis mode: Wavelengths
Number of Pixels in Spectrum: 2048
>>>>>Begin Spectral Data<<<<<
341.393	-11.2
341.776	-11.2
342.16	-11.2
342.543	-51.43
342.927	-49.84
343.31	-89.84
343.693	-84.64
344.077	-55.72
344.46	-57.3
344.843	-50.3
345.226	-42.84
345.61	-33.35
345.993	-6.23
346.376	-7.36
346.759	13.43
347.142	14.56
347.525	37.84
347.908	62.24
348.291	73.32
348.674	116.03
349.057	110.15
349.44	124.16
349.823	150.15
350.206	165.07
350.588	178.63
350.971	211.84
351.354	203.71
351.737	230.6
352.119	248.23
352.502	257.95
352.884	275.12
353.267	292.75
353.65	285.29
354.032	308.57
354.414	290.71
354.797	323.25
355.179	328.68
355.562	309.02
355.944	315.8
356.326	326.19
356.709	325.29
357.091	331.16
357.473	330.26
357.855	320.09
358.238	336.81
358.62	335.91
359.002	326.87
359.384	329.13
359.766	327.32
360.148	338.85
360.53	327.32
360.912	312.18
361.294	320.99
361.676	339.07
362.057	324.16
362.439	309.02
362.821	313.76
363.203	324.38
363.584	307.89
363.966	324.61
364.348	299.3
364.729	337.72
365.111	317.15
365.493	312.63
365.874	323.48
366.256	297.49
366.637	298.4
367.019	316.02
367.4	307.66
367.781	311.73
368.163	310.37
368.544	301.56
368.925	317.6
369.306	290.71
369.688	309.7
370.069	293.2
370.45	303.82
370.831	311.96
371.212	299.98
371.593	304.27
371.974	298.85
372.355	295.91
372.736	313.31
373.117	300.43
373.498	310.15
373.879	321.9
374.26	320.99
374.641	297.49
375.021	286.65
375.402	307.44
375.783	306.53
376.163	307.44
376.544	327.32
376.925	317.83
377.305	320.77
377.686	311.96
378.066	320.32
378.447	307.66
378.827	314.89
379.208	330.71
379.588	319.86
379.968	321.22
380.349	324.84
380.729	315.34
381.109	338.85
381.489	323.25
381.87	338.62
382.25	338.4
382.63	345.85
383.01	319.41
383.39	330.26
383.77	347.43
384.15	329.81
384.53	331.62
384.91	351.05
385.29	338.4
385.67	343.59
386.049	356.47
386.429	356.25
386.809	349.69
387.189	350.37
387.568	334.78
387.948	339.3
388.328	334.33
388.707	351.95
389.087	362.35
389.466	365.96
389.846	369.81
390.225	358.96
390.605	356.47
390.984	368.68
391.363	353.08
391.743	357.38
392.122	368.45
392.501	356.93
392.881	379.98
393.26	370.94
393.639	383.14
394.018	370.26
394.397	379.07
394.776	367.09
395.155	383.37
395.534	386.98
395.913	395.12
396.292	393.99
396.671	386.53
397.05	416.59
397.429	384.04
397.808	403.03
398.186	399.64
398.565	378.85
398.944	398.05
399.323	401.9
399.701	427.43
400.08	405.29
400.458	396.02
400.837	417.26
401.215	417.94
401.594	428.56
401.972	411.16
402.351	406.87
402.729	427.88
403.107	402.35
403.486	430.14
403.864	450.26
404.242	425.62
404.62	434.89
404.999	444.15
405.377	448.9
405.755	446.87
406.133	460.65
406.511	410.03
406.889	467.88
407.267	474.44
407.645	464.04
408.023	494.55
408.401	481.22
408.779	459.07
409.156	489.58
409.534	492.06
409.912	513.76
410.29	512.63
410.667	519.41
411.045	524.38
411.422	530.71
411.8	511.27
412.178	520.31
412.555	540.2
412.933	572.29
413.31	559.63
413.687	564.15
414.065	566.86
414.442	561.89
414.819	561.67
415.197	598.95
415.574	589.46
415.951	614.77
416.328	608.22
416.705	611.83
417.082	632.62
417.46	623.13
417.837	628.1
418.214	648.9
418.591	624.49
418.967	633.3
419.344	674.88
419.721	654.77
420.098	670.14
420.475	690.02
420.852	674.21
421.228	682.34
421.605	696.8
421.982	704.49
422.358	706.75
422.735	707.2
423.111	722.79
423.488	743.81
423.864	744.26
424.241	774.77
424.617	777.48
424.994	781.1
425.37	796.01
425.746	815.67
426.123	813.86
426.499	817.93
426.875	831.04
427.251	836.24
427.627	840.75
428.003	842.34
428.379	868.78
428.756	861.09
429.132	903.8
429.507	929.57
429.883	925.05
430.259	914.65
430.635	924.59
431.011	933.63
431.387	930.24
431.763	978.83
432.138	974.76
432.514	978.83
432.89	1021.09
433.265	1030.13
433.641	1053.4
434.016	1055.44
434.392	1054.99
434.767	1098.83
435.143	1105.38
435.518	1103.8
435.894	1129.11
436.269	1136.11
436.644	1175.89
437.02	1174.98
437.395	1158.71
437.77	1206.85
438.145	1222.67
438.52	1219.28
438.895	1232.38
439.271	1243.68
439.646	1277.81
440.021	1283.91
440.395	1280.74
440.77	1300.86
441.145	1325.26
441.52	1331.14
441.895	1346.28
442.27	1363
442.645	1363
443.019	1388.08
443.394	1384.47
443.769	1417.24
444.143	1417.24
444.518	1438.93
444.892	1435.54
445.267	1461.3
445.641	1475.54
446.016	1474.41
446.39	1506.95
446.764	1485.48
447.139	1497.46
447.513	1543.56
447.887	1539.04
448.262	1517.12
448.636	1548.76
449.01	1572.26
449.384	1575.65
449.758	1589.21
450.132	1599.6
450.506	1650.68
450.88	1652.48
451.254	1597.8
451.628	1663.78
452.002	1663.56
452.376	1670.11
452.75	1711.69
453.123	1702.2
453.497	1717.57
453.871	1729.09
454.244	1753.05
454.618	1765.25
454.992	1800.05
455.365	1828.98
455.739	1848.86
456.112	1857.23
456.486	1868.07
456.859	1879.37
457.232	1925.92
457.606	1922.31
457.979	1915.53
458.352	1969.31
458.725	1974.06
459.099	2023.77
459.472	2019.71
459.845	2050.44
460.218	2035.75
460.591	2095.64
460.964	2132.25
461.337	2103.09
461.71	2167.05
462.083	2188.97
462.456	2188.06
462.829	2205.24
463.201	2214.05
463.574	2263.77
463.947	2253.37
464.32	2339.92
464.692	2323.65
465.065	2352.58
465.438	2404.33
465.81	2407.95
466.183	2391.67
466.555	2483.42
466.928	2492.69
467.3	2509.41
467.672	2533.37
468.045	2595.96
468.417	2602.06
468.789	2613.59
469.161	2617.21
469.534	2655.17
469.906	2731.1
470.278	2750.31
470.65	2760.48
471.022	2845.22
471.394	2848.39
471.766	2907.59
472.138	2912.11
472.51	2966.35
472.882	3014.26
473.253	2991.21
473.625	3093.35
473.997	3135.84
474.369	3147.13
474.74	3135.61
475.112	3218.09
475.484	3291.31
475.855	3296.74
476.227	3306.68
476.598	3462.83
476.97	3459.44
477.341	3548.25
477.713	3556.62
478.084	3616.5
478.455	3661.92
478.827	3691.08
479.198	3795.25
479.569	3762.49
479.94	3864.86
480.311	3880
480.682	3987.56
481.053	4101.91
481.424	4092.87
481.795	4162.02
482.166	4194.11
482.537	4282.25
482.908	4305.52
483.279	4369.93
483.65	4394.33
484.021	4510.71
484.391	4565.18
484.762	4570.37
485.133	4599.07
485.503	4661.67
485.874	4727.21
486.244	4780.99
486.615	4870.93
486.985	4865.96
487.356	4997.03
487.726	4984.83
488.097	5103.24
488.467	5139.85
488.837	5208.78
489.207	5212.17
489.578	5313.18
489.948	5379.62
490.318	5386.85
490.688	5405.83
491.058	5496
491.428	5545.94
491.798	5599.73
492.168	5717.69
492.538	5784.58
492.908	5816.9
493.278	5876.55
493.648	5831.36
494.017	5907.06
494.387	5985.93
494.757	5978.92
495.126	6054.4
495.496	6023.67
495.866	6142.99
496.235	6180.5
496.605	6165.59
496.974	6194.29
497.344	6251.46
497.713	6272.02
498.082	6328.29
498.452	6346.15
498.821	6414.62
499.19	6389.08
499.559	6442.19
499.928	6499.59
500.298	6501.62
500.667	6561.96
501.036	6591.56
501.405	6611.45
501.774	6619.59
502.143	6724.89
502.512	6695.74
502.88	6790.43
503.249	6749.53
503.618	6755.18
503.987	6727.38
504.356	6823.65
504.724	6854.38
505.093	6844.66
505.462	6884.66
505.83	6886.25
506.199	6953.14
506.567	7020.48
506.936	6989.29
507.304	7074.26
507.672	7107.71
508.041	7105.22
508.409	7132.79
508.777	7190.19
509.145	7224.32
509.514	7174.83
509.882	7219.8
510.25	7224.99
510.618	7242.39
510.986	7246.24
511.354	7339.57
511.722	7396.51
512.09	7384.31
512.458	7408.04
512.826	7391.99
513.193	7476.51
513.561	7433.8
513.929	7554.7
514.297	7606.45
514.664	7570.52
515.032	7530.52
515.4	7616.4
515.767	7680.57
516.135	7680.8
516.502	7570.52
516.869	7712.44
517.237	7674.47
517.604	7658.88
517.972	7678.54
518.339	7694.81
518.706	7738.2
519.073	7747.24
519.44	7795.15
519.808	7840.57
520.175	7795.6
520.542	7889.61
520.909	7949.04
521.276	7866.78
521.643	7909.72
522.009	7962.15
522.376	7970.06
522.743	8045.54
523.11	8080.34
523.477	8137.51
523.843	8122.82
524.21	8121.92
524.577	8179.32
524.943	8204.18
525.31	8179.54
525.676	8282.37
526.043	8249.15
526.409	8256.38
526.776	8343.83
527.142	8293.89
527.508	8317.39
527.874	8314.46
528.241	8435.81
528.607	8356.26
528.973	8387.45
529.339	8323.95
529.705	8439.2
530.071	8468.8
530.437	8492.53
530.803	8494.79
531.169	8542.7
531.535	8555.81
531.901	8537.5
532.267	8489.59
532.632	8523.72
532.998	8443.94
533.364	8522.81
533.73	8546.54
534.095	8615.47
534.461	8536.6
534.826	8573.66
535.192	8617.05
535.557	8650.49
535.923	8573.66
536.288	8581.79
536.653	8573.66
537.019	8549.48
537.384	8545.41
537.749	8635.8
538.114	8595.81
538.479	8612.98
538.845	8670.38
539.21	8588.8
539.575	8602.13
539.94	8591.06
540.305	8637.16
540.67	8529.37
541.034	8585.41
541.399	8587.9
541.764	8558.07
542.129	8583.83
542.494	8577.05
542.858	8536.15
543.223	8578.86
543.587	8610.27
543.952	8566.88
544.316	8606.65
544.681	8575.47
545.045	8595.13
545.41	8586.54
545.774	8586.09
546.138	8583.83
546.503	8545.86
546.867	8515.13
547.231	8568.91
547.595	8558.29
547.959	8575.69
548.324	8596.71
548.688	8552.87
549.052	8594.68
549.416	8586.31
549.779	8598.74
550.143	8558.52
550.507	8542.93
550.871	8635.35
551.235	8540.21
551.599	8577.95
551.962	8557.39
552.326	8565.3
552.689	8550.61
553.053	8511.06
553.417	8569.82
553.78	8624.5
554.143	8548.35
554.507	8598.06
554.87	8559.65
555.234	8629.7
555.597	8596.48
555.96	8606.65
556.323	8653.88
556.686	8620.66
557.05	8688.91
557.413	8677.61
557.776	8695.46
558.139	8734.11
558.502	8690.27
558.865	8712.86
559.228	8763.71
559.59	8741.11
559.953	8803.48
560.316	8837.83
560.679	8800.77
561.041	8810.26
561.404	8799.19
561.767	8800.77
562.129	8888
562.492	8953.54
562.854	8895.68
563.217	8871.96
563.579	8910.15
563.941	8930.26
564.304	8923.71
564.666	9000.54
565.028	9036.92
565.39	8992.86
565.753	9072.85
566.115	9119.18
566.477	9095.68
566.839	9118.5
567.201	9184.49
567.563	9160.54
567.925	9275.79
568.287	9190.14
568.648	9228.56
569.01	9266.07
569.372	9356.24
569.734	9303.58
570.095	9365.05
570.457	9362.11
570.819	9399.4
571.18	9419.06
571.542	9359.63
571.903	9400.53
572.265	9513.52
572.626	9431.94
572.987	9477.59
573.349	9543.58
573.71	9562.11
574.071	9610.92
574.432	9608.89
574.794	9659.28
575.155	9643.24
575.516	9664.93
575.877	9658.38
576.238	9700.18
576.599	9764.36
576.96	9750.35
577.32	9661.31
577.681	9799.39
578.042	9856.79
578.403	9833.74
578.763	9861.76
579.124	9897.24
579.485	9917.13
579.845	9930.69
580.206	9967.52
580.566	9964.36
580.927	9917.58
581.287	9920.74
581.648	9934.07
582.008	10021.76
582.368	9996.22
582.728	10174.52
583.089	10029.67
583.449	10025.37
583.809	10027.63
584.169	10118.48
584.529	10080.06
584.889	10144.01
585.249	10147.4
585.609	10065.37
585.969	10196.44
586.329	10169.32
586.688	10179.94
587.048	10075.77
587.408	10175.2
587.768	10172.49
588.127	10163.9
588.487	10134.07
588.846	10336.78
589.206	10159.83
589.565	10219.27
589.925	10261.98
590.284	10250.9
590.643	10268.98
591.003	10222.65
591.362	10319.38
591.721	10338.13
592.08	10227.63
592.44	10408.64
592.799	10354.63
593.158	10344.91
593.517	10327.96
593.876	10406.38
594.235	10347.85
594.593	10321.64
594.952	10340.39
595.311	10380.62
595.67	10366.38
596.029	10438.02
596.387	10519.82
596.746	10429.66
597.104	10452.93
597.463	10351.01
597.822	10573.83
598.18	10378.58
598.538	10391.92
598.897	10486.83
599.255	10398.02
599.613	10541.97
599.972	10404.12
600.33	10533.61
600.688	10440.05
601.046	10477.56
601.404	10564.79
601.762	10535.87
602.12	10577
602.478	10499.03
602.836	10551.91
603.194	10588.3
603.552	10481.86
603.91	10562.76
604.268	10538.8
604.625	10469.2
604.983	10615.19
605.341	10549.88
605.698	10621.06
606.056	10665.58
606.413	10585.13
606.771	10582.87
607.128	10680.27
607.485	10563.21
607.843	10671.23
608.2	10670.33
608.557	10738.35
608.914	10699.03
609.272	10757.1
609.629	10716.88
609.986	10832.13
610.343	10709.87
610.7	10831
611.057	10794.62
611.414	10764.79
611.771	10787.39
612.127	10784
612.484	10853.82
612.841	10826.25
613.198	10787.61
613.554	10744.45
613.911	10847.72
614.267	10870.1
614.624	10835.97
614.98	10887.04
615.337	10917.33
615.693	10785.8
616.05	10842.53
616.406	10922.3
616.762	10914.61
617.118	10882.3
617.475	10876.2
617.831	11038.9
618.187	10998.68
618.543	11025.8
618.899	10990.77
619.255	10964.78
619.611	10894.73
619.967	10969.3
620.323	10956.87
620.678	10975.86
621.034	10940.15
621.39	10958.68
621.746	11007.72
622.101	11034.39
622.457	10921.85
622.812	11009.3
623.168	11086.36
623.523	11027.83
623.879	11076.42
624.234	10932.47
624.589	10981.28
624.945	10977.21
625.3	10999.36
625.655	11003.43
626.01	11038.45
626.365	11003.43
626.72	10976.99
627.075	10995.29
627.43	11001.17
627.785	10914.61
628.14	10849.53
628.495	10985.12
628.85	10949.87
629.205	10925.69
629.559	11030.77
629.914	10954.84
630.269	11012.69
630.623	10871.23
630.978	10873.71
631.332	10899.25
631.687	10968.85
632.041	10875.29
632.396	10845.69
632.75	10798.91
633.104	10847.95
633.459	10790.1
633.813	10774.5
634.167	10798.23
634.521	10796.2
634.875	10747.39
635.229	10824.9
635.583	10743.55
635.937	10727.05
636.291	10718.01
636.645	10750.32
636.999	10633.94
637.352	10642.76
637.706	10673.49
638.06	10693.15
638.413	10666.26
638.767	10600.05
639.121	10649.08
639.474	10579.93
639.828	10604.11
640.181	10603.21
640.534	10582.19
640.888	10582.87
641.241	10662.64
641.594	10485.47
641.947	10586.26
642.301	10502.42
642.654	10520.73
643.007	10537
643.36	10551.69
643.713	10460.61
644.066	10487.96
644.419	10468.75
644.771	10416.32
645.124	10370.45
645.477	10323.67
645.83	10232.37
646.182	10116.67
646.535	10107.4
646.888	10186.95
647.24	10096.33
647.593	10142.88
647.945	10080.29
648.298	10097.23
648.65	10109.89
649.002	10006.16
649.355	10122.09
649.707	10017.01
650.059	10078.93
650.411	10226.95
650.763	10207.51
651.115	10304.69
651.467	10270.34
651.819	10179.72
652.171	10308.98
652.523	10275.76
652.875	10260.39
653.227	10188.98
653.578	10273.5
653.93	10291.35
654.282	10291.35
654.633	10223.56
654.985	10275.76
655.337	10246.16
655.688	10250
656.039	10276.66
656.391	10224.24
656.742	10184.01
657.094	10240.96
657.445	10257
657.796	10217.46
658.147	10166.39
658.498	10220.4
658.849	10230.34
659.2	10141.08
659.551	10191.47
659.902	10215.42
660.253	10164.13
660.604	10218.59
660.955	10195.54
661.306	10224.69
661.656	10218.59
662.007	10206.38
662.358	10228.53
662.708	10220.4
663.059	10150.11
663.409	10166.16
663.76	10212.49
664.11	10252.94
664.461	10291.58
664.811	10176.33
665.161	10182.43
665.511	10196.67
665.862	10198.02
666.212	10203.9
666.562	10191.02
666.912	10201.19
667.262	10133.84
667.612	10198.93
667.962	10197.57
668.312	10135.65
668.662	10260.85
669.011	10187.63
669.361	10161.87
669.711	10144.24
670.06	10180.62
670.41	10187.18
670.76	10189.66
671.109	10176.78
671.459	10175.2
671.808	10079.83
672.157	10191.02
672.507	10113.96
672.856	10065.6
673.205	10130.23
673.554	10152.83
673.904	10085.71
674.253	10133.62
674.602	10089.55
674.951	9926.84
675.3	9853.85
675.649	10059.72
675.998	10007.75
676.346	10075.54
676.695	10051.13
677.044	9936.33
677.393	9986.05
677.741	9995.77
678.09	9968.88
678.438	9966.84
678.787	9960.51
679.135	10010.23
679.484	9958.48
679.832	9919.39
680.181	9816.79
680.529	9897.24
680.877	9848.43
681.225	9846.39
681.573	9865.6
681.922	9864.25
682.27	9757.81
682.618	9843
682.966	9854.53
683.314	9788.99
683.661	9771.82
684.009	9767.53
684.357	9701.31
684.705	9689.11
685.053	9662.9
685.4	9686.17
685.748	9591.03
686.095	9645.04
686.443	9581.99
686.79	9574.99
687.138	9543.35
687.485	9591.49
687.832	9547.64
688.18	9546.51
688.527	9530.47
688.874	9457.93
689.221	9437.36
689.568	9401.21
689.915	9419.74
690.262	9361.89
690.609	9325.05
690.956	9235.79
691.303	9319.63
691.65	9222.91
691.997	9233.53
692.344	9171.16
692.69	9189.46
693.037	9184.49
693.383	9125.51
693.73	9090.48
694.077	9020.88
694.423	9062.46
694.769	9024.72
695.116	8961.9
695.462	8980.2
695.808	9006.19
696.155	8944.72
696.501	8841
696.847	8887.55
697.193	8798.74
697.539	8826.53
697.885	8751.73
698.231	8680.1
698.577	8777.04
698.923	8726.2
699.269	8665.41
699.614	8631.96
699.96	8599.65
700.306	8640.1
700.651	8551.29
700.997	8462.93
701.342	8527.11
701.688	8550.61
702.033	8466.32
702.379	8497.5
702.724	8436.94
703.069	8433.1
703.415	8363.49
703.76	8380.67
704.105	8339.54
704.45	8265.64
704.795	8267.68
705.14	8171.41
705.485	8237.62
705.83	8163.95
706.175	8160.34
706.52	8127.79
706.865	8108.36
707.209	8161.47
707.554	8028.59
707.899	8064.29
708.243	8132.77
708.588	8006.67
708.932	7966.22
709.277	7975.93
709.621	7981.81
709.966	7884.64
710.31	8003.5
710.654	7809.16
710.998	7888.25
711.342	7872.89
711.687	7822.49
712.031	7815.94
712.375	7800.35
712.719	7804.41
713.063	7775.04
713.407	7837.63
713.75	7715.6
714.094	7754.7
714.438	7683.29
714.782	7716.51
715.125	7652.33
715.469	7700.69
715.812	7636.06
716.156	7667.24
716.499	7578.43
716.843	7614.14
717.186	7579.33
717.53	7604.87
717.873	7559.45
718.216	7589.28
718.559	7526.45
718.902	7510.64
719.246	7563.74
719.589	7492.11
719.932	7547.02
720.275	7462.73
720.617	7444.42
720.96	7462.5
721.303	7474.25
721.646	7415.27
721.989	7437.64
722.331	7470.86
722.674	7447.59
723.016	7322.39
723.359	7441.03
723.701	7414.37
724.044	7356.29
724.386	7277.2
724.729	7308.38
725.071	7350.87
725.413	7372.33
725.755	7301.83
726.097	7256.41
726.439	7278.78
726.782	7237.87
727.124	7301.38
727.465	7214.82
727.807	7268.61
728.149	7198.1
728.491	7269.74
728.833	7194.03
729.175	7249.17
729.516	7239.46
729.858	7227.03
730.199	7194.49
730.541	7194.26
730.882	7185.67
731.224	7167.37
731.565	7133.24
731.906	7168.27
732.248	7170.98
732.589	7176.18
732.93	7149.29
733.271	7141.61
733.612	7205.11
733.953	7100.25
734.294	7117.2
734.635	7158.33
734.976	7161.94
735.317	7117.88
735.658	7111.78
735.999	7154.26
736.339	7090.31
736.68	7161.72
737.021	7091.21
737.361	7116.07
737.702	7188.38
738.042	7107.48
738.383	7155.62
738.723	7140.93
739.063	7142.28
739.404	7108.61
739.744	7131.89
740.084	7120.14
740.424	7178.44
740.764	7109.74
741.104	7188.84
741.444	7149.29
741.784	7153.13
742.124	7072.46
742.464	7184.54
742.804	7191.32
743.143	7218.67
743.483	7243.07
743.823	7133.24
744.162	7150.65
744.502	7162.85
744.841	7189.74
745.181	7236.74
745.52	7277.42
745.86	7247.37
746.199	7251.66
746.538	7307.25
746.877	7336.18
747.216	7373.24
747.556	7351.54
747.895	7384.31
748.234	7430.64
748.573	7465.89
748.911	7481.48
749.25	7564.42
749.589	7514.93
749.928	7611.88
750.267	7654.13
750.605	7711.99
750.944	7724.64
751.283	7766.67
751.621	7879.67
751.96	7843.96
752.298	7905.65
752.636	8010.28
752.975	8009.83
753.313	8055.93
753.651	8114.46
753.989	8216.61
754.327	8230.84
754.666	8259.99
755.004	8377.96
755.342	8457.73
755.679	8516.26
756.017	8502.25
756.355	8744.95
756.693	8758.51
757.031	8900.2
757.368	8959.41
757.706	9095.9
758.044	9088.45
758.381	9243.25
758.719	9318.95
759.056	9487.53
759.394	9490.24
759.731	9573.18
760.068	9613.18
760.405	9671.48
760.743	9848.88
761.08	9922.1
761.417	10023.34
761.754	10119.83
762.091	10260.85
762.428	10338.58
762.765	10358.02
763.102	10510.33
763.438	10535.64
763.775	10662.87
764.112	10835.75
