Data from hue_100_FLMS001491_00035.txt Node
Date: Tue Feb 07 17:03:04 GMT 2017
User: dcchb
Spectrometer: FLMS00149
Trigger mode: 0
Integration Time (sec): 2.000000E-2
Scans to average: 10
Electric dark correction enabled: true
Nonlinearity correction enabled: false
Boxcar width: 0
XAxis mode: Wavelengths
Number of Pixels in Spectrum: 2048
>>>>>Begin Spectral Data<<<<<
341.393	-9.04
341.776	-9.04
342.16	-9.04
342.543	-67.12
342.927	-49.49
343.31	-65.31
343.693	-55.14
344.077	-63.05
344.46	-57.63
344.843	-64.18
345.226	-55.14
345.61	-19.66
345.993	-22.6
346.376	-4.52
346.759	27.34
347.142	14.01
347.525	27.57
347.908	52.65
348.291	64.18
348.674	102.14
349.057	119.32
349.44	113.9
349.823	143.95
350.206	155.7
350.588	199.99
350.971	200.9
351.354	227.56
351.737	227.79
352.119	244.29
352.502	250.39
352.884	272.54
353.267	293.33
353.65	317.05
354.032	275.25
354.414	311.4
354.797	312.76
355.179	325.87
355.562	329.03
355.944	328.58
356.326	327.22
356.709	329.48
357.091	325.42
357.473	361.8
357.855	335.36
358.238	339.65
358.62	359.09
359.002	358.18
359.384	342.59
359.766	333.55
360.148	353.21
360.53	342.59
360.912	344.17
361.294	342.14
361.676	322.48
362.057	325.64
362.439	349.82
362.821	319.99
363.203	327.9
363.584	320.9
363.966	330.84
364.348	330.39
364.729	331.29
365.111	321.8
365.493	319.99
365.874	342.36
366.256	315.02
366.637	324.74
367.019	319.54
367.4	319.77
367.781	332.87
368.163	298.98
368.544	337.62
368.925	327.68
369.306	327.45
369.688	304.4
370.069	327.45
370.45	319.99
370.831	319.09
371.212	323.83
371.593	321.8
371.974	307.79
372.355	316.38
372.736	336.04
373.117	322.7
373.498	328.13
373.879	313.66
374.26	344.17
374.641	311.4
375.021	319.77
375.402	319.31
375.783	351.86
376.163	336.71
376.544	340.1
376.925	332.87
377.305	345.08
377.686	335.36
378.066	354.11
378.447	331.52
378.827	358.18
379.208	354.57
379.588	348.01
379.968	334.45
380.349	333.55
380.729	354.57
381.109	344.17
381.489	351.63
381.87	364.28
382.25	358.63
382.63	357.28
383.01	344.85
383.39	363.61
383.77	362.93
384.15	346.43
384.53	376.71
384.91	359.31
385.29	365.19
385.67	381.23
386.049	366.77
386.429	373.32
386.809	370.16
387.189	365.87
387.568	380.55
387.948	385.3
388.328	375.81
388.707	378.07
389.087	400.67
389.466	390.72
389.846	396.83
390.225	401.12
390.605	397.73
390.984	388.01
391.363	396.37
391.743	381.91
392.122	383.94
392.501	387.11
392.881	412.64
393.26	432.98
393.639	404.74
394.018	417.62
394.397	397.96
394.776	426.66
395.155	439.08
395.534	432.53
395.913	406.32
396.292	420.1
396.671	423.04
397.05	442.25
397.429	417.16
397.808	434.79
398.186	422.81
398.565	420.78
398.944	420.55
399.323	446.77
399.701	455.36
400.08	429.82
400.458	454.23
400.837	449.48
401.215	440.21
401.594	438.18
401.972	467.33
402.351	442.02
402.729	435.92
403.107	463.04
403.486	446.77
403.864	468.91
404.242	446.09
404.62	476.37
404.999	477.73
405.377	477.5
405.755	462.13
406.133	487.67
406.511	478.18
406.889	476.37
407.267	498.74
407.645	493.55
408.023	493.32
408.401	515.01
408.779	501
409.156	503.49
409.534	506.65
409.912	505.52
410.29	528.12
410.667	541
411.045	526.99
411.422	535.35
411.8	530.83
412.178	536.48
412.555	558.86
412.933	538.06
413.31	570.15
413.687	561.57
414.065	576.48
414.442	575.8
414.819	561.57
415.197	563.83
415.574	566.54
415.951	571.74
416.328	607.67
416.705	603.83
417.082	605.86
417.46	619.87
417.837	616.25
418.214	604.73
418.591	606.31
418.967	601.57
419.344	629.36
419.721	628.68
420.098	618.51
420.475	607.89
420.852	621.45
421.228	657.61
421.605	653.32
421.982	657.16
422.358	653.54
422.735	660.1
423.111	657.61
423.488	685.18
423.864	661
424.241	660.55
424.617	678.4
424.994	683.6
425.37	712.98
425.746	691.06
426.123	706.2
426.499	695.8
426.875	698.29
427.251	737.38
427.627	736.93
428.003	737.83
428.379	744.16
428.756	764.95
429.132	757.49
429.507	745.97
429.883	745.07
430.259	763.82
430.635	779.64
431.011	784.16
431.387	791.84
431.763	828
432.138	800.88
432.514	818.74
432.89	851.96
433.265	846.98
433.641	874.55
434.016	848.34
434.392	879.98
434.767	890.82
435.143	882.24
435.518	892.63
435.894	885.85
436.269	902.8
436.644	938.28
437.02	925.17
437.395	922.24
437.77	929.69
438.145	972.63
438.52	972.18
438.895	971.5
439.271	993.65
439.646	967.21
440.021	978.05
440.395	999.3
440.77	993.19
441.145	1006.53
441.52	1039.97
441.895	1029.8
442.27	1034.1
442.645	1028.22
443.019	1038.62
443.394	1048.56
443.769	1037.71
444.143	1051.72
444.518	1085.85
444.892	1073.42
445.267	1082.01
445.641	1086.07
446.016	1098.73
446.39	1139.86
446.764	1132.4
447.139	1107.54
447.513	1128.33
447.887	1134.43
448.262	1106.64
448.636	1132.4
449.01	1157.71
449.384	1180.08
449.758	1198.61
450.132	1195.45
450.506	1191.83
450.88	1204.04
451.254	1210.14
451.628	1235.22
452.002	1222.11
452.376	1215.34
452.75	1255.79
453.123	1273.19
453.497	1292.17
453.871	1288.33
454.244	1339.63
454.618	1333.75
454.992	1346.18
455.365	1324.03
455.739	1376.46
456.112	1383.69
456.486	1397.03
456.859	1410.13
457.232	1456.46
457.606	1438.38
457.979	1476.35
458.352	1503.46
458.725	1503.24
459.099	1522.67
459.472	1530.58
459.845	1572.84
460.218	1595.89
460.591	1593.86
460.964	1608.32
461.337	1650.58
461.71	1675.89
462.083	1686.74
462.456	1696.23
462.829	1700.29
463.201	1736.45
463.574	1743.01
463.947	1766.06
464.32	1836.79
464.692	1834.3
465.065	1864.58
465.438	1878.37
465.81	1903.45
466.183	1922.44
466.555	1961.98
466.928	1954.07
467.3	1987.07
467.672	2030.23
468.045	2094.86
468.417	2112.94
468.789	2147.74
469.161	2165.14
469.534	2213.28
469.906	2287.17
470.278	2258.7
470.65	2321.75
471.022	2374.63
471.394	2452.82
471.766	2434.96
472.138	2451.23
472.51	2554.96
472.882	2610.1
473.253	2669.76
473.625	2704.11
473.997	2734.39
474.369	2798.57
474.74	2833.82
475.112	2929.64
475.484	2963.99
475.855	3049.86
476.227	3106.58
476.598	3271.55
476.97	3273.59
477.341	3376.41
477.713	3445.79
478.084	3485.78
478.455	3627.48
478.827	3639.23
479.198	3802.61
479.569	3848.26
479.94	4005.54
480.311	4030.85
480.682	4164.41
481.053	4281.24
481.424	4388.81
481.795	4537.28
482.166	4594.68
482.537	4693.21
482.908	4874
483.279	4968.46
483.65	5019.53
484.021	5259.52
484.391	5324.83
484.762	5486.18
485.133	5541.1
485.503	5698.38
485.874	5911.48
486.244	5960.75
486.615	6184.02
486.985	6305.37
487.356	6455.88
487.726	6557.34
488.097	6801.4
488.467	6858.12
488.837	7067.61
489.207	7238.68
489.578	7413.14
489.948	7574.04
490.318	7774.48
490.688	7848.61
491.058	8076.17
491.428	8266
491.798	8410.17
492.168	8605.88
492.538	8785.08
492.908	8969.93
493.278	9141.45
493.648	9222.58
494.017	9361.11
494.387	9577.83
494.757	9731.95
495.126	9887.42
495.496	10009
495.866	10154.31
496.235	10321.31
496.605	10533.06
496.974	10614.41
497.344	10828.87
497.713	10889.21
498.082	11053.95
498.452	11206.26
498.821	11381.17
499.19	11389.53
499.559	11643.31
499.928	11673.59
500.298	11825.68
500.667	12011.21
501.036	12067.71
501.405	12295.27
501.774	12323.74
502.143	12466.79
502.512	12597.41
502.88	12782.49
503.249	12668.82
503.618	12863.84
503.987	13054.8
504.356	13187.45
504.724	13251.4
505.093	13275.13
505.462	13481.68
505.83	13615.91
506.199	13666.76
506.567	13859.52
506.936	13800.99
507.304	14044.6
507.672	14130.7
508.041	14224.71
508.409	14275.78
508.777	14356.23
509.145	14509.9
509.514	14561.43
509.882	14626.73
510.25	14804.13
510.618	14827.86
510.986	14889.55
511.354	15040.06
511.722	15098.13
512.09	15223.78
512.458	15238.7
512.826	15314.63
513.193	15402.31
513.561	15464
513.929	15593.94
514.297	15629.65
514.664	15750.55
515.032	15733.15
515.4	15845.46
515.767	15913.71
516.135	16003.42
516.502	15894.5
516.869	16117.09
517.237	16162.74
517.604	16128.84
517.972	16257.43
518.339	16353.02
518.706	16370.42
519.073	16409.74
519.44	16528.83
519.808	16691.54
520.175	16544.88
520.542	16783.97
520.909	16836.62
521.276	16790.07
521.643	16892.44
522.009	16897.63
522.376	17018.76
522.743	17047.69
523.11	17284.97
523.477	17291.97
523.843	17301.69
524.21	17440.9
524.577	17493.1
524.943	17509.14
525.31	17526.09
525.676	17669.82
526.043	17682.92
526.409	17787.55
526.776	17824.39
527.142	17858.06
527.508	18005.4
527.874	18020.09
528.241	18083.14
528.607	17971.28
528.973	18160.43
529.339	18059.41
529.705	18196.13
530.071	18234.55
530.437	18254.44
530.803	18223.02
531.169	18267.09
531.535	18330.59
531.901	18163.59
532.267	18253.08
532.632	18307.77
532.998	18326.3
533.364	18279.97
533.73	18417.59
534.095	18360.87
534.461	18393.41
534.826	18406.3
535.192	18561.55
535.557	18469.57
535.923	18444.26
536.288	18476.8
536.653	18431.83
537.019	18368.1
537.384	18382.12
537.749	18378.95
538.114	18334.43
538.479	18343.7
538.845	18337.82
539.21	18312.74
539.575	18266.41
539.94	18359.07
540.305	18353.87
540.67	18175.57
541.034	18237.71
541.399	18381.21
541.764	18258.05
542.129	18237.94
542.494	18220.99
542.858	18182.57
543.223	18180.76
543.587	18133.53
543.952	18170.82
544.316	18023.71
544.681	18014.22
545.045	18047.21
545.41	18067.55
545.774	18051.5
546.138	18066.64
546.503	18020.77
546.867	17884.73
547.231	17973.31
547.595	17958.85
547.959	17946.65
548.324	17938.96
548.688	17930.38
549.052	17865.97
549.416	17911.17
549.779	17760.21
550.143	17847.44
550.507	17775.58
550.871	17872.98
551.235	17706.88
551.599	17811.74
551.962	17765.86
552.326	17661.68
552.689	17747.78
553.053	17627.79
553.417	17584.62
553.78	17797.72
554.143	17596.83
554.507	17654.9
554.87	17645.19
555.234	17831.62
555.597	17687.67
555.96	17670.5
556.323	17705.75
556.686	17619.42
557.05	17750.27
557.413	17631.4
557.776	17622.36
558.139	17645.64
558.502	17701.68
558.865	17690.16
559.228	17825.07
559.59	17759.99
559.953	17775.8
560.316	17859.87
560.679	17717.73
561.041	17881.34
561.404	17921.56
561.767	17974.44
562.129	17826.65
562.492	17916.59
562.854	17894.44
563.217	17849.7
563.579	17921.11
563.941	17951.17
564.304	18100.09
564.666	18009.92
565.028	18135.79
565.39	18083.82
565.753	18137.15
566.115	18091.95
566.477	18227.09
566.839	18174.44
567.201	18265.28
567.563	18234.1
567.925	18394.77
568.287	18301.44
568.648	18317.94
569.01	18291.27
569.372	18508.21
569.734	18340.76
570.095	18502.11
570.457	18568.55
570.819	18502.56
571.18	18487.65
571.542	18630.47
571.903	18671.37
572.265	18643.58
572.626	18632.5
572.987	18727.87
573.349	18691.94
573.71	18758.6
574.071	18738.04
574.432	18722.22
574.794	18936.23
575.155	18764.48
575.516	18626.18
575.877	18773.52
576.238	18790.01
576.599	18755.44
576.96	18936.45
577.32	18821.88
577.681	18857.58
578.042	18934.87
578.403	18849
578.763	18857.81
579.124	18928.77
579.485	19043.57
579.845	19031.59
580.206	18960.86
580.566	18981.42
580.927	18933.29
581.287	19057.13
581.648	18948.65
582.008	19103.45
582.368	18921.08
582.728	18936.45
583.089	18953.4
583.449	18810.13
583.809	18931.93
584.169	19016.22
584.529	18984.36
584.889	18979.61
585.249	18884.25
585.609	18897.58
585.969	18920.41
586.329	18935.55
586.688	18894.19
587.048	18880.63
587.408	18885.15
587.768	18780.3
588.127	18738.49
588.487	18764.03
588.846	18760.86
589.206	18759.73
589.565	18799.73
589.925	18744.59
590.284	18598.83
590.643	18781.43
591.003	18789.56
591.362	18795.66
591.721	18774.2
592.08	18766.06
592.44	18853.97
592.799	18800.64
593.158	18714.54
593.517	18736.23
593.876	18841.09
594.235	18647.87
594.593	18753.63
594.952	18777.81
595.311	18698.49
595.67	18738.04
596.029	18839.05
596.387	18785.95
596.746	18804.93
597.104	18711.82
597.463	18685.16
597.822	18708.66
598.18	18718.6
598.538	18598.61
598.897	18710.69
599.255	18563.81
599.613	18823.46
599.972	18589.79
600.33	18740.3
600.688	18574.2
601.046	18639.96
601.404	18690.81
601.762	18654.65
602.12	18746.4
602.478	18806.96
602.836	18698.72
603.194	18605.61
603.552	18741.43
603.91	18609.45
604.268	18707.08
604.625	18594.31
604.983	18717.47
605.341	18677.93
605.698	18678.38
606.056	18693.75
606.413	18758.15
606.771	18821.88
607.128	18903.23
607.485	18704.82
607.843	18738.72
608.2	18832.27
608.557	18799.28
608.914	18776
609.272	18887.41
609.629	19025.49
609.986	18886.96
610.343	18821.65
610.7	19001.76
611.057	18975.55
611.414	18978.03
611.771	18980.52
612.127	19079.95
612.484	19096.22
612.841	19108.65
613.198	18989.56
613.554	19030.01
613.911	19085.83
614.267	19069.56
614.624	18970.57
614.98	19032.95
615.337	19196.78
615.693	19119.05
616.05	19220.29
616.406	19210.34
616.762	19169.44
617.118	19144.36
617.475	19155.88
617.831	19112.94
618.187	19173.96
618.543	19282.88
618.899	19275.88
619.255	19232.94
619.611	19162.89
619.967	19349.1
620.323	19467.28
620.678	19305.48
621.034	19214.86
621.39	19237.23
621.746	19200.63
622.101	19454.86
622.457	19345.71
622.812	19355.42
623.168	19355.2
623.523	19367.4
623.879	19446.04
624.234	19304.8
624.589	19365.14
624.945	19371.24
625.3	19395.87
625.655	19220.29
626.01	19319.94
626.365	19358.14
626.72	19306.84
627.075	19403.56
627.43	19297.8
627.785	19250.57
628.14	19370.11
628.495	19231.36
628.85	19273.62
629.205	19231.13
629.559	19348.19
629.914	19144.36
630.269	19175.09
630.623	19154.07
630.978	19208.31
631.332	19241.08
631.687	19199.72
632.041	19176.22
632.396	19200.85
632.75	19048.31
633.104	19052.83
633.459	18998.6
633.813	18948.88
634.167	19068.65
634.521	18829.11
634.875	19021.87
635.229	18940.74
635.583	18834.08
635.937	18835.21
636.291	18912.05
636.645	18824.36
636.999	18795.21
637.352	18765.38
637.706	18658.94
638.06	18761.09
638.413	18722.9
638.767	18707.08
639.121	18769.68
639.474	18624.6
639.828	18619.62
640.181	18603.35
640.534	18730.35
640.888	18622.34
641.241	18569.23
641.594	18595.22
641.947	18542.34
642.301	18552.73
642.654	18522.68
643.007	18624.14
643.36	18537.82
643.713	18459.18
644.066	18557.48
644.419	18451.27
644.771	18323.36
645.124	18119.98
645.477	18211.95
645.83	18064.84
646.182	17871.17
646.535	17941.9
646.888	17942.13
647.24	17766.99
647.593	17917.95
647.945	17835.92
648.298	17827.33
648.65	17850.83
649.002	17693.77
649.355	17882.02
649.707	17790.27
650.059	17932.86
650.411	18189.13
650.763	18218.73
651.115	18298.28
651.467	18245.62
651.819	18229.35
652.171	18152.07
652.523	18099.64
652.875	18235.9
653.227	18124.95
653.578	18243.14
653.93	18230.26
654.282	18181.44
654.633	18064.38
654.985	18151.61
655.337	18204.27
655.688	18218.73
656.039	18265.51
656.391	18074.78
656.742	18101.44
657.094	18097.15
657.445	18279.75
657.796	18139.18
658.147	18209.46
658.498	18160.43
658.849	18170.14
659.2	18175.79
659.551	18152.52
659.902	18160.2
660.253	18140.54
660.604	18178.28
660.955	18148.68
661.306	18241.1
661.656	18092.86
662.007	18161.33
662.358	18228
662.708	18183.02
663.059	18209.01
663.409	18141.22
663.76	18233.19
664.11	18187.77
664.461	18235.68
664.811	18206.75
665.161	18195.91
665.511	18131.27
665.862	18169.24
666.212	18220.09
666.562	18163.82
666.912	18120.88
667.262	18164.27
667.612	18179.86
667.962	18141.9
668.312	18271.61
668.662	18330.14
669.011	18163.82
669.361	18177.15
669.711	18164.49
670.06	18237.71
670.41	18146.19
670.76	18135.34
671.109	18188.9
671.459	18137.83
671.808	18131.95
672.157	18155
672.507	18005.63
672.856	18072.29
673.205	18022.13
673.554	18072.75
673.904	17998.85
674.253	18065.06
674.602	18046.08
674.951	17807.67
675.3	17644.06
675.649	18022.35
675.998	17847.44
676.346	17911.62
676.695	17898.06
677.044	17789.81
677.393	17888.12
677.741	17893.99
678.09	17884.5
678.438	17838.85
678.787	17770.83
679.135	17809.48
679.484	17724.51
679.832	17711.17
680.181	17694.22
680.529	17622.59
680.877	17646.54
681.225	17609.71
681.573	17673.89
681.922	17513.66
682.27	17492.42
682.618	17518.18
682.966	17361.13
683.314	17428.92
683.661	17498.75
684.009	17276.38
684.357	17243.39
684.705	17269.38
685.053	17282.26
685.4	17238.87
685.748	17125.2
686.095	17087.01
686.443	17061.47
686.79	16984.86
687.138	17079.78
687.485	16983.96
687.832	16926.11
688.18	17023.06
688.527	16906.22
688.874	16813.12
689.221	16799.33
689.568	16788.71
689.915	16684.08
690.262	16659.67
690.609	16639.34
690.956	16560.69
691.303	16595.27
691.65	16502.39
691.997	16463.52
692.344	16318.89
692.69	16272.57
693.037	16330.87
693.383	16150.08
693.73	16171.78
694.077	16039.13
694.423	16082.97
694.769	16074.61
695.116	15960.94
695.462	15975.17
695.808	15899.47
696.155	15840.49
696.501	15774.05
696.847	15778.57
697.193	15596.43
697.539	15630.55
697.885	15448.63
698.231	15500.38
698.577	15541.29
698.923	15478.69
699.269	15333.83
699.614	15329.77
699.96	15164.57
700.306	15179.94
700.651	15134.74
700.997	15122.09
701.342	15013.84
701.688	14957.12
702.033	14868.54
702.379	14857.91
702.724	14874.19
703.069	14877.57
703.415	14651.14
703.76	14711.7
704.105	14648.65
704.45	14656.11
704.795	14553.29
705.14	14486.17
705.485	14488.66
705.83	14375.89
706.175	14348.78
706.52	14343.8
706.865	14323.47
707.209	14311.94
707.554	14146.97
707.899	14244.37
708.243	14107.43
708.588	14046.64
708.932	13982.68
709.277	14047.99
709.621	13925.96
709.966	13880.76
710.31	13948.79
710.654	13828.79
710.998	13863.82
711.342	13843.03
711.687	13777.94
712.031	13653.43
712.375	13703.37
712.719	13640.55
713.063	13617.95
713.407	13711.05
713.75	13573.43
714.094	13619.75
714.438	13585.18
714.782	13591.73
715.125	13468.35
715.469	13507.44
715.812	13366.2
716.156	13294.11
716.499	13314.45
716.843	13288.46
717.186	13240.78
717.53	13338.18
717.873	13352.64
718.216	13226.32
718.559	13237.39
718.902	13162.14
719.246	13204.85
719.589	13113.1
719.932	13105.19
720.275	13131.86
720.617	13054.8
720.96	13078.07
721.303	13021.35
721.646	13096.15
721.989	12985.2
722.331	12963.95
722.674	12969.6
723.016	13050.96
723.359	13024.74
723.701	12956.27
724.044	12817.29
724.386	12888.7
724.729	12989.49
725.071	12860.45
725.413	12942.94
725.755	12846.67
726.097	12797.86
726.439	12721.25
726.782	12740.23
727.124	12763.05
727.465	12773.45
727.807	12673.79
728.149	12666.79
728.491	12774.81
728.833	12723.96
729.175	12665.2
729.516	12671.08
729.858	12653.68
730.199	12667.24
730.541	12696.39
730.882	12666.11
731.224	12666.11
731.565	12595.83
731.906	12665.43
732.248	12704.07
732.589	12599.22
732.93	12569.61
733.271	12617.07
733.612	12561.7
733.953	12658.42
734.294	12565.77
734.635	12512.67
734.976	12645.77
735.317	12516.73
735.658	12538.88
735.999	12527.58
736.339	12526.22
736.68	12589.27
737.021	12510.63
737.361	12515.15
737.702	12651.64
738.042	12582.27
738.383	12561.7
738.723	12563.51
739.063	12540.01
739.404	12606.9
739.744	12564.19
740.084	12546.79
740.424	12616.17
740.764	12559.44
741.104	12670.85
741.444	12665.66
741.784	12559.9
742.124	12727.57
742.464	12640.12
742.804	12689.16
743.143	12656.84
743.483	12670.63
743.823	12635.15
744.162	12659.33
744.502	12800.79
744.841	12754.69
745.181	12925.76
745.52	12802.15
745.86	12984.52
746.199	12900
746.538	13028.13
746.877	13100.67
747.216	13155.13
747.556	13085.76
747.895	13177.73
748.234	13173.66
748.573	13245.53
748.911	13342.25
749.25	13440.1
749.589	13430.38
749.928	13561.45
750.267	13646.19
750.605	13669.02
750.944	13792.86
751.283	13826.76
751.621	14026.07
751.96	14027.2
752.298	14052.74
752.636	14290.02
752.975	14240.53
753.313	14310.36
753.651	14506.29
753.989	14655.89
754.327	14719.16
754.666	14785.37
755.004	14979.72
755.342	15111.24
