Data from hue_100_FLMS001491_00077.txt Node
Date: Tue Feb 07 17:03:38 GMT 2017
User: dcchb
Spectrometer: FLMS00149
Trigger mode: 0
Integration Time (sec): 2.000000E-2
Scans to average: 10
Electric dark correction enabled: true
Nonlinearity correction enabled: false
Boxcar width: 0
XAxis mode: Wavelengths
Number of Pixels in Spectrum: 2048
>>>>>Begin Spectral Data<<<<<
341.393	-5.24
341.776	-5.24
342.16	-5.24
342.543	-59.7
342.927	-65.35
343.31	-62.41
343.693	-80.94
344.077	-83.88
344.46	-56.54
344.843	-49.98
345.226	-47.05
345.61	-11.12
345.993	-21.06
346.376	-7.73
346.759	33.18
347.142	33.86
347.525	50.58
347.908	27.3
348.291	67.53
348.674	97.58
349.057	110.69
349.44	126.96
349.823	146.17
350.206	173.29
350.588	213.51
350.971	234.75
351.354	217.81
351.737	241.53
352.119	249.44
352.502	277.46
352.884	272.49
353.267	292.15
353.65	301.19
354.032	304.36
354.414	315.43
354.797	334.86
355.179	322.21
355.562	332.38
355.944	324.92
356.326	330.8
356.709	351.81
357.091	343
357.473	352.26
357.855	342.77
358.238	339.16
358.62	335.09
359.002	336.45
359.384	340.29
359.766	351.36
360.148	350.23
360.53	331.47
360.912	338.93
361.294	340.51
361.676	335.99
362.057	335.54
362.439	339.61
362.821	333.73
363.203	328.76
363.584	348.65
363.966	340.51
364.348	324.47
364.729	326.73
365.111	336.67
365.493	324.92
365.874	351.36
366.256	318.59
366.637	311.59
367.019	318.59
367.4	324.92
367.781	321.53
368.163	360.63
368.544	328.31
368.925	318.37
369.306	325.6
369.688	309.78
370.069	310.46
370.45	319.72
370.831	333.06
371.212	314.07
371.593	352.04
371.974	318.59
372.355	333.96
372.736	337.8
373.117	333.73
373.498	319.72
373.879	332.6
374.26	317.01
374.641	336.22
375.021	323.34
375.402	342.77
375.783	340.29
376.163	327.63
376.544	336.67
376.925	343.23
377.305	336.67
377.686	334.64
378.066	343
378.447	343.23
378.827	349.78
379.208	332.38
379.588	332.15
379.968	338.25
380.349	348.42
380.729	328.54
381.109	344.58
381.489	363.11
381.87	345.03
382.25	348.2
382.63	361.08
383.01	361.3
383.39	343.23
383.77	375.54
384.15	350.68
384.53	377.57
384.91	366.73
385.29	352.26
385.67	374.19
386.049	363.11
386.429	366.73
386.809	369.44
387.189	355.43
387.568	381.19
387.948	363.11
388.328	346.39
388.707	354.98
389.087	364.24
389.466	375.99
389.846	400.17
390.225	379.38
390.605	394.52
390.984	397.91
391.363	369.21
391.743	399.95
392.122	401.3
392.501	389.78
392.881	387.29
393.26	407.4
393.639	395.2
394.018	409.66
394.397	402.66
394.776	404.92
395.155	397.91
395.534	404.01
395.913	424.35
396.292	400.85
396.671	422.55
397.05	413.96
397.429	428.65
397.808	386.16
398.186	403.11
398.565	433.17
398.944	414.86
399.323	416.22
399.701	408.76
400.08	408.99
400.458	453.05
400.837	439.95
401.215	442.43
401.594	419.16
401.972	435.2
402.351	411.02
402.729	437.23
403.107	434.97
403.486	445.14
403.864	457.35
404.242	460.06
404.62	465.71
404.999	465.93
405.377	467.29
405.755	448.08
406.133	455.31
406.511	455.99
406.889	476.78
407.267	454.86
407.645	461.41
408.023	459.15
408.401	484.01
408.779	494.63
409.156	493.96
409.534	481.75
409.912	503.45
410.29	505.48
410.667	528.08
411.045	516.55
411.422	520.4
411.8	525.82
412.178	528.08
412.555	511.36
412.933	515.88
413.31	506.16
413.687	543.22
414.065	544.12
414.442	528.53
414.819	548.19
415.197	541.19
415.574	553.62
415.951	558.59
416.328	557.68
416.705	550.23
417.082	584.12
417.46	585.7
417.837	582.99
418.214	557.01
418.591	567.85
418.967	575.08
419.344	574.41
419.721	579.38
420.098	594.74
420.475	592.71
420.852	609.66
421.228	598.36
421.605	586.83
421.982	623.44
422.358	620.28
422.735	623.44
423.111	629.09
423.488	625.7
423.864	637
424.241	648.98
424.617	655.99
424.994	650.11
425.37	664.57
425.746	633.61
426.123	651.92
426.499	651.69
426.875	650.11
427.251	655.08
427.627	680.39
428.003	683.1
428.379	697.57
428.756	681.3
429.132	716.77
429.507	707.28
429.883	718.58
430.259	721.07
430.635	744.12
431.011	752.03
431.387	755.87
431.763	757.9
432.138	761.97
432.514	780.05
432.89	781.86
433.265	798.58
433.641	779.37
434.016	793.38
434.392	798.58
434.767	830.44
435.143	821.86
435.518	829.31
435.894	811.46
436.269	848.75
436.644	846.94
437.02	856.43
437.395	853.49
437.77	870.67
438.145	891.01
438.52	885.13
438.895	894.62
439.271	874.06
439.646	907.05
440.021	918.58
440.395	926.03
440.77	916.77
441.145	932.36
441.52	934.17
441.895	951.12
442.27	946.6
442.645	961.29
443.019	970.78
443.394	973.49
443.769	994.28
444.143	973.04
444.518	976.88
444.892	1001.97
445.267	988.63
445.641	997.67
446.016	1005.35
446.39	1007.61
446.764	1020.5
447.139	1016.88
447.513	1028.41
447.887	1027.05
448.262	1030.44
448.636	1061.62
449.01	1033.38
449.384	1054.17
449.758	1068.86
450.132	1096.43
450.506	1098.91
450.88	1107.27
451.254	1117.44
451.628	1095.3
452.002	1109.08
452.376	1122.64
452.75	1126.93
453.123	1165.58
453.497	1159.93
453.871	1196.76
454.244	1205.58
454.618	1206.25
454.992	1211
455.365	1230.89
455.739	1255.07
456.112	1253.03
456.486	1241.96
456.859	1295.52
457.232	1325.12
457.606	1323.09
457.979	1321.05
458.352	1334.84
458.725	1368.96
459.099	1389.3
459.472	1389.98
459.845	1412.35
460.218	1436.76
460.591	1459.13
460.964	1429.07
461.337	1481.95
461.71	1511.1
462.083	1522.86
462.456	1542.29
462.829	1542.74
463.201	1577.54
463.574	1610.31
463.947	1623.87
464.32	1635.62
464.692	1668.84
465.065	1668.39
465.438	1672.46
465.81	1744.77
466.183	1730.76
466.555	1765.11
466.928	1767.37
467.3	1827.25
467.672	1847.59
468.045	1874.71
468.417	1881.94
468.789	1926.23
469.161	1935.27
469.534	1997.19
469.906	2031.09
470.278	2076.51
470.65	2102.28
471.022	2109.73
471.394	2174.36
471.766	2179.11
472.138	2234.7
472.51	2335.49
472.882	2377.52
473.253	2411.42
473.625	2448.48
473.997	2528.7
474.369	2574.81
474.74	2573.9
475.112	2651.19
475.484	2753.11
475.855	2794.23
476.227	2814.12
476.598	2919.2
476.97	2958.52
477.341	3059.76
477.713	3119.88
478.084	3167.78
478.455	3252.53
478.827	3347.89
479.198	3428.57
479.569	3525.06
479.94	3639.18
480.311	3719.86
480.682	3833.76
481.053	3924.83
481.424	4010.7
481.795	4134.54
482.166	4196.23
482.537	4304.7
482.908	4419.95
483.279	4533.62
483.65	4651.81
484.021	4785.59
484.391	4923.9
484.762	4963.67
485.133	5144.91
485.503	5229.42
485.874	5387.39
486.244	5513.03
486.615	5681.84
486.985	5844.1
487.356	5960.93
487.726	6050.42
488.097	6206.12
488.467	6362.5
488.837	6568.82
489.207	6643.85
489.578	6806.78
489.948	6948.25
490.318	7174.23
490.688	7232.54
491.058	7436.37
491.428	7598.63
491.798	7774.67
492.168	7996.13
492.538	8012.18
492.908	8209.46
493.278	8358.16
493.648	8402
494.017	8640.86
494.387	8797.69
494.757	8886.5
495.126	9089.21
495.496	9200.62
495.866	9298.92
496.235	9473.15
496.605	9655.97
496.974	9724
497.344	9889.64
497.713	10004.21
498.082	10090.31
498.452	10332.12
498.821	10401.49
499.19	10504.99
499.559	10653.69
499.928	10732.56
500.298	10879.9
500.667	11055.49
501.036	11003.06
501.405	11211.41
501.774	11334.57
502.143	11401.92
502.512	11528.02
502.88	11652.08
503.249	11722.59
503.618	11801
503.987	11913.54
504.356	12043.26
504.724	12104.72
505.093	12140.88
505.462	12305.4
505.83	12412.51
506.199	12515.56
506.567	12693.41
506.936	12697.02
507.304	12831.03
507.672	12906.51
508.041	13011.37
508.409	13100.4
508.777	13185.15
509.145	13358.93
509.514	13376.1
509.882	13321.42
510.25	13464.24
510.618	13590.79
510.986	13656.32
511.354	13745.36
511.722	13867.62
512.09	13913.94
512.458	13912.59
512.826	14031.68
513.193	14074.16
513.561	14090.43
513.929	14239.58
514.297	14356.19
514.664	14381.27
515.032	14464.89
515.4	14517.99
515.767	14628.95
516.135	14603.19
516.502	14542.4
516.869	14742.39
517.237	14759.34
517.604	14733.58
517.972	14846.8
518.339	14933.35
518.706	14926.12
519.073	14969.06
519.44	15041.37
519.808	15170.41
520.175	15049.96
520.542	15201.82
520.909	15249.73
521.276	15238.2
521.643	15367.92
522.009	15434.58
522.376	15511.41
522.743	15500.34
523.11	15717.74
523.477	15703.95
523.843	15731.07
524.21	15813.33
524.577	15985.53
524.943	15903.72
525.31	16014.23
525.676	16061.91
526.043	16126.99
526.409	16200.21
526.776	16323.14
527.142	16291.28
527.508	16275.69
527.874	16332.86
528.241	16333.54
528.607	16310.04
528.973	16411.96
529.339	16358.17
529.705	16589.58
530.071	16604.27
530.437	16536.25
530.803	16607.88
531.169	16608.56
531.535	16459.64
531.901	16566.08
532.267	16585.06
532.632	16646.75
532.998	16577.15
533.364	16584.61
533.73	16651.72
534.095	16706.41
534.461	16673.64
534.826	16687.43
535.192	16731.95
535.557	16717.71
535.923	16641.55
536.288	16714.77
536.653	16656.69
537.019	16639.07
537.384	16620.31
537.749	16591.39
538.114	16596.36
538.479	16574.44
538.845	16609.92
539.21	16475.23
539.575	16569.69
539.94	16551.16
540.305	16610.14
540.67	16508.9
541.034	16529.01
541.399	16496.7
541.764	16470.03
542.129	16479.52
542.494	16392.75
542.858	16433.88
543.223	16391.17
543.587	16398.4
543.952	16374.89
544.316	16344.39
544.681	16241.79
545.045	16330.15
545.41	16233.2
545.774	16237.5
546.138	16230.27
546.503	16152.08
546.867	16127.44
547.231	16145.07
547.595	16105.97
547.959	16077.73
548.324	16051.29
548.688	16090.61
549.052	16068.24
549.416	16005.41
549.779	15949.82
550.143	15991.18
550.507	15992.76
550.871	15932.65
551.235	15944.17
551.599	15936.04
551.962	15942.82
552.326	15874.12
552.689	15894.45
553.053	15788.02
553.417	15807.45
553.78	15887.68
554.143	15858.98
554.507	15753.44
554.87	15823.5
555.234	15894
555.597	15698.98
555.96	15667.79
556.323	15782.37
556.686	15764.06
557.05	15874.34
557.413	15727.23
557.776	15782.82
558.139	15827.11
558.502	15807
558.865	15858.98
559.228	15837.73
559.59	15901.69
559.953	15814.46
560.316	15962.48
560.679	15936.71
561.041	15782.37
561.404	15848.81
561.767	16041.57
562.129	15884.74
562.492	15935.13
562.854	15956.6
563.217	15928.35
563.579	15876.83
563.941	16017.84
564.304	16020.33
564.666	16071.85
565.028	16001.34
565.39	16103.94
565.753	16067.11
566.115	16166.54
566.477	16116.82
566.839	16115.47
567.201	16228.91
567.563	16146.65
567.925	16317.95
568.287	16264.39
568.648	16247.89
569.01	16349.81
569.372	16402.46
569.734	16360.21
570.095	16507.32
570.457	16469.58
570.819	16408.57
571.18	16440.88
571.542	16469.58
571.903	16391.17
572.265	16519.98
572.626	16482.01
572.987	16540.77
573.349	16537.38
573.71	16675.45
574.071	16651.95
574.432	16637.03
574.794	16714.55
575.155	16654.43
575.516	16567.21
575.877	16700.54
576.238	16630.71
576.599	16742.57
576.96	16639.75
577.32	16679.07
577.681	16694.89
578.042	16722.91
578.403	16692.63
578.763	16744.83
579.124	16736.69
579.485	16734.88
579.845	16835.45
580.206	16719.97
580.566	16693.08
580.927	16744.38
581.287	16806.52
581.648	16683.81
582.008	16806.75
582.368	16818.72
582.728	16809.23
583.089	16781.66
583.449	16799.74
583.809	16837.48
584.169	16734.21
584.529	16731.72
584.889	16793.87
585.249	16665.73
585.609	16657.37
585.969	16802.23
586.329	16702.8
586.688	16710.7
587.048	16589.13
587.408	16668.22
587.768	16643.81
588.127	16584.83
588.487	16539.86
588.846	16689.46
589.206	16542.12
589.565	16527.21
589.925	16575.34
590.284	16500.31
590.643	16589.58
591.003	16623.93
591.362	16705.96
591.721	16530.82
592.08	16626.41
592.44	16581.89
592.799	16599.97
593.158	16519.98
593.517	16517.72
593.876	16598.17
594.235	16465.06
594.593	16544.61
594.952	16607.66
595.311	16549.8
595.67	16547.32
596.029	16728.33
596.387	16571.73
596.746	16655.79
597.104	16602.23
597.463	16456.47
597.822	16548.9
598.18	16572.4
598.538	16452.86
598.897	16509.58
599.255	16336.7
599.613	16645.85
599.972	16494.21
600.33	16562.91
600.688	16491.73
601.046	16514.1
601.404	16628.22
601.762	16544.16
602.12	16696.24
602.478	16660.99
602.836	16549.58
603.194	16504.61
603.552	16620.09
603.91	16447.89
604.268	16533.99
604.625	16501.67
604.983	16565.85
605.341	16494.89
605.698	16551.16
606.056	16603.81
606.413	16631.38
606.771	16573.53
607.128	16690.37
607.485	16469.13
607.843	16567.21
608.2	16679.97
608.557	16686.07
608.914	16589.8
609.272	16655.56
609.629	16653.53
609.986	16729.46
610.343	16669.12
610.7	16742.57
611.057	16794.54
611.414	16747.31
611.771	16723.59
612.127	16811.27
612.484	16757.94
612.841	16719.52
613.198	16749.57
613.554	16859.85
613.911	16906.63
614.267	16885.84
614.624	16857.59
614.98	16945.73
615.337	16900.76
615.693	16999.74
616.05	16993.41
616.406	16979.4
616.762	16874.99
617.118	16912.96
617.475	16949.57
617.831	16921.55
618.187	16993.41
618.543	17011.94
618.899	17119.51
619.255	17035.44
619.611	16995.67
619.967	17110.02
620.323	17037.93
620.678	17039.51
621.034	16972.39
621.39	17097.59
621.746	17034.54
622.101	17115.67
622.457	17072.05
622.812	17175.78
623.168	17073.41
623.523	17146.85
623.879	17190.69
624.234	17038.15
624.589	17107.76
624.945	17090.58
625.3	17158.38
625.655	17168.32
626.01	17137.59
626.365	17082.45
626.72	17053.07
627.075	17044.93
627.43	16965.84
627.785	17010.58
628.14	17049.23
628.495	17022.79
628.85	16993.18
629.205	16971.71
629.559	17075.67
629.914	17033.18
630.269	16968.33
630.623	16989.57
630.978	16916.35
631.332	17009.45
631.687	17039.96
632.041	16893.98
632.396	16978.27
632.75	16831.38
633.104	16898.5
633.459	16809.46
633.813	16756.58
634.167	16841.1
634.521	16793.64
634.875	16834.77
635.229	16790.02
635.583	16721.33
635.937	16627.09
636.291	16652.18
636.645	16604.94
636.999	16578.73
637.352	16687.43
637.706	16548
638.06	16622.12
638.413	16517.26
638.767	16522.24
639.121	16543.7
639.474	16430.94
639.828	16514.1
640.181	16462.8
640.534	16488.34
640.888	16425.74
641.241	16363.14
641.594	16407.89
641.947	16471.84
642.301	16345.74
642.654	16453.31
643.007	16425.74
643.36	16386.87
643.713	16293.99
644.066	16379.19
644.419	16274.11
644.771	16232.75
645.124	16143.71
645.477	15984.17
645.83	15947.56
646.182	15911.63
646.535	15788.92
646.888	15867.34
647.24	15680.45
647.593	15732.88
647.945	15771.75
648.298	15642.48
648.65	15682.94
649.002	15637.29
649.355	15848.13
649.707	15708.47
650.059	15787.34
650.411	16043.15
650.763	16000.44
651.115	16162.24
651.467	16089.7
651.819	16043.83
652.171	16046.77
652.523	16072.08
652.875	16085.41
653.227	15973.55
653.578	16105.3
653.93	16023.27
654.282	16050.16
654.633	16014.23
654.985	16061.68
655.337	16003.6
655.688	16010.61
656.039	16171.28
656.391	16004.73
656.742	16093.77
657.094	16089.48
657.445	16138.06
657.796	16113.43
658.147	16110.49
658.498	16059.65
658.849	16108.23
659.2	16164.05
659.551	16057.84
659.902	16199.53
660.253	16076.37
660.604	16129.7
660.955	16000.89
661.306	16078.86
661.656	16151.62
662.007	16169.25
662.358	16074.34
662.708	16127.44
663.059	16157.72
663.409	16007.67
663.76	16115.92
664.11	16133.54
664.461	16103.94
664.811	16180.78
665.161	16161.79
665.511	16078.86
665.862	16129.93
666.212	16218.06
666.562	16176.93
666.912	16083.83
667.262	16150.95
667.612	16127.9
667.962	16126.54
668.312	16041.57
668.662	16172.87
669.011	16157.95
669.361	16138.06
669.711	16062.13
670.06	16023.94
670.41	16027.33
670.76	16048.58
671.109	16111.4
671.459	16146.2
671.808	16014.23
672.157	16086.77
672.507	15987.56
672.856	15936.49
673.205	16021.01
673.554	15993.44
673.904	15944.62
674.253	16028.01
674.602	15919.09
674.951	15735.36
675.3	15684.29
675.649	15874.12
675.998	15946.66
676.346	15844.74
676.695	15917.96
677.044	15804.97
677.393	15855.81
677.741	15884.06
678.09	15813.78
678.438	15800.67
678.787	15845.19
679.135	15810.62
679.484	15644.29
679.832	15739.88
680.181	15627.12
680.529	15710.28
680.877	15633.22
681.225	15538.53
681.573	15665.53
681.922	15472.77
682.27	15470.06
682.618	15469.83
682.966	15421.7
683.314	15402.72
683.661	15393.68
684.009	15296.73
684.357	15233
684.705	15287.47
685.053	15199.33
685.4	15247.47
685.748	15098.54
686.095	15100.58
686.443	15075.27
686.79	15078.88
687.138	15116.85
687.485	15094.25
687.832	15086.11
688.18	15074.82
688.527	14969.06
688.874	14875.5
689.221	14882.73
689.568	14814.94
689.915	14852.67
690.262	14863.75
690.609	14800.47
690.956	14675.28
691.303	14701.27
691.65	14559.8
691.997	14668.27
692.344	14524.77
692.69	14466.7
693.037	14435.28
693.383	14344.89
693.73	14383.99
694.077	14254.5
694.423	14195.06
694.769	14222.86
695.116	14174.05
695.462	14084.56
695.808	14097.67
696.155	14127.04
696.501	13983.77
696.847	13927.73
697.193	13882.53
697.539	13821.74
697.885	13706.26
698.231	13657.9
698.577	13605.25
698.923	13729.99
699.269	13598.02
699.614	13493.16
699.96	13447.97
700.306	13480.28
700.651	13340.85
700.997	13307.63
701.342	13264.69
701.688	13222.21
702.033	13154.64
702.379	13245.49
702.724	13201.42
703.069	13148.31
703.415	12968.2
703.76	13059.95
704.105	13020.63
704.45	13007.53
704.795	12918.94
705.14	12854.08
705.485	12942.89
705.83	12759.85
706.175	12774.76
706.52	12770.02
706.865	12718.04
707.209	12738.61
707.554	12575.45
707.899	12612.73
708.243	12621.55
708.588	12449.12
708.932	12442.57
709.277	12373.64
709.621	12370.48
709.966	12349.24
710.31	12307.88
710.654	12220.2
710.998	12166.64
711.342	12156.02
711.687	12132.75
712.031	12168.68
712.375	12112.63
712.719	12118.28
713.063	12105.85
713.407	12121.67
713.75	12085.74
714.094	11972.3
714.438	12002.58
714.782	11986.54
715.125	11823.6
715.469	11914.67
715.812	11789.48
716.156	11721.01
716.499	11810.95
716.843	11826.31
717.186	11756.48
717.53	11769.37
717.873	11779.31
718.216	11724.62
718.559	11746.99
718.902	11591.52
719.246	11667.22
719.589	11619.31
719.932	11602.82
720.275	11565.76
720.617	11536.38
720.96	11564.4
721.303	11589.71
721.646	11606.66
721.989	11450.73
722.331	11510.39
722.674	11470.39
723.016	11489.15
723.359	11414.35
723.701	11481.69
724.044	11372.54
724.386	11403.27
724.729	11485.53
725.071	11396.27
725.413	11420.22
725.755	11344.52
726.097	11269.04
726.439	11270.85
726.782	11299.55
727.124	11311.98
727.465	11272.43
727.807	11275.37
728.149	11267.68
728.491	11226.78
728.833	11262.49
729.175	11196.27
729.516	11190.4
729.858	11183.17
730.199	11213
730.541	11240.79
730.882	11256.38
731.224	11211.87
731.565	11181.58
731.906	11213.9
732.248	11214.8
732.589	11066.56
732.93	11108.14
733.271	11150.4
733.612	11112.21
733.953	11205.31
734.294	11147.01
734.635	11090.29
734.976	11109.04
735.317	11051.19
735.658	11184.3
735.999	11097.07
736.339	11155.14
736.68	11237.18
737.021	11137.97
737.361	11112.66
737.702	11138.2
738.042	11155.14
738.383	11177.06
738.723	11188.59
739.063	11186.56
739.404	11307.23
739.744	11169.16
740.084	11212.54
740.424	11195.14
740.764	11121.7
741.104	11285.08
741.444	11224.07
741.784	11226.1
742.124	11284.86
742.464	11261.58
742.804	11328.02
743.143	11348.81
743.483	11331.86
743.823	11330.28
744.162	11357.85
744.502	11373.9
744.841	11394.46
745.181	11459.09
745.52	11470.84
745.86	11524.85
746.199	11462.48
746.538	11598.07
746.877	11678.75
747.216	11784.96
747.556	11716.49
747.895	11697.28
748.234	11763.26
748.573	11830.83
748.911	11919.19
749.25	11982.92
749.589	11988.57
749.928	12136.59
750.267	12233.08
750.605	12268.34
750.944	12294.55
751.283	12387.43
751.621	12457.94
751.96	12647.76
752.298	12672.17
752.636	12769.79
752.975	12768.66
753.313	12886.17
753.651	13077.81
753.989	13144.24
754.327	13182.21
754.666	13353.5
755.004	13492.03
755.342	13708.52
755.679	13714.85
