Data from hue_280_FLMS001491_00056.txt Node
Date: Tue Feb 07 15:55:28 GMT 2017
User: dcchb
Spectrometer: FLMS00149
Trigger mode: 0
Integration Time (sec): 2.000000E-2
Scans to average: 10
Electric dark correction enabled: true
Nonlinearity correction enabled: false
Boxcar width: 0
XAxis mode: Wavelengths
Number of Pixels in Spectrum: 2048
>>>>>Begin Spectral Data<<<<<
341.393	-30.62
341.776	-30.62
342.16	-30.62
342.543	-68.81
342.927	-66.1
343.31	-62.03
343.693	-63.16
344.077	-78.98
344.46	-71.3
344.843	-47.12
345.226	-40.34
345.61	-24.52
345.993	-20.45
346.376	-4.41
346.759	20.23
347.142	21.36
347.525	52.09
347.908	44.86
348.291	78.98
348.674	92.54
349.057	102.26
349.44	117.62
349.823	121.24
350.206	141.8
350.588	181.13
350.971	208.92
351.354	223.38
351.737	230.16
352.119	246.89
352.502	246.89
352.884	274.91
353.267	291.63
353.65	290.73
354.032	293.44
354.414	292.31
354.797	320.56
355.179	300.9
355.562	314.23
355.944	333.44
356.326	337.73
356.709	329.14
357.091	345.41
357.473	334.79
357.855	330.5
358.238	338.64
358.62	344.96
359.002	357.62
359.384	348.8
359.766	346.32
360.148	326.43
360.53	306.77
360.912	325.75
361.294	337.05
361.676	316.71
362.057	327.56
362.439	321.69
362.821	340.89
363.203	316.71
363.584	326.88
363.966	326.43
364.348	323.72
364.729	317.39
365.111	310.84
365.493	320.56
365.874	312.42
366.256	315.81
366.637	316.71
367.019	333.21
367.4	331.18
367.781	302.48
368.163	309.94
368.544	310.84
368.925	332.53
369.306	339.54
369.688	316.49
370.069	319.88
370.45	323.04
370.831	328.47
371.212	328.69
371.593	302.7
371.974	325.53
372.355	318.07
372.736	331.86
373.117	307.68
373.498	304.74
373.879	308.58
374.26	298.18
374.641	302.7
375.021	338.64
375.402	304.51
375.783	329.82
376.163	331.86
376.544	326.43
376.925	309.03
377.305	331.4
377.686	350.39
378.066	320.56
378.447	317.62
378.827	322.36
379.208	328.69
379.588	341.35
379.968	342.02
380.349	335.92
380.729	349.48
381.109	338.18
381.489	346.32
381.87	326.43
382.25	338.64
382.63	328.92
383.01	335.47
383.39	313.78
383.77	335.7
384.15	354.68
384.53	370.5
384.91	342.25
385.29	368.69
385.67	345.19
386.049	347.45
386.429	357.17
386.809	331.4
387.189	378.63
387.568	354.23
387.948	362.59
388.328	360.78
388.707	364.62
389.087	372.31
389.466	376.6
389.846	379.54
390.225	378.63
390.605	365.08
390.984	364.85
391.363	394
391.743	379.09
392.122	392.19
392.501	388.8
392.881	391.52
393.26	396.49
393.639	388.13
394.018	389.48
394.397	389.71
394.776	397.39
395.155	400.55
395.534	388.13
395.913	384.74
396.292	405.3
396.671	391.97
397.05	403.04
397.429	396.49
397.808	415.7
398.186	403.49
398.565	417.05
398.944	415.02
399.323	434
399.701	416.15
400.08	432.87
400.458	410.95
400.837	452.53
401.215	428.58
401.594	440.78
401.972	441.68
402.351	438.97
402.729	443.72
403.107	426.32
403.486	452.98
403.864	449.82
404.242	445.98
404.62	457.95
404.999	476.03
405.377	452.53
405.755	458.86
406.133	492.76
406.511	483.04
406.889	487.78
407.267	476.48
407.645	480.1
408.023	508.35
408.401	493.66
408.779	502.02
409.156	499.99
409.534	518.97
409.912	527.33
410.29	516.03
410.667	523.26
411.045	570.49
411.422	571.17
411.8	520.55
412.178	552.87
412.555	577.27
412.933	604.16
413.31	589.7
413.687	581.79
414.065	598.74
414.442	584.28
414.819	619.76
415.197	622.7
415.574	639.87
415.951	638.29
416.328	640.55
416.705	666.99
417.082	637.84
417.46	667.21
417.837	691.85
418.214	668.8
418.591	678.51
418.967	687.1
419.344	708.79
419.721	723.94
420.098	731.62
420.475	726.2
420.852	713.31
421.228	736.59
421.605	756.7
421.982	769.13
422.358	741.56
422.735	790.83
423.111	793.54
423.488	794.89
423.864	814.33
424.241	832.41
424.617	809.58
424.994	831.5
425.37	867.21
425.746	863.59
426.123	856.36
426.499	886.87
426.875	890.26
427.251	897.72
427.627	918.51
428.003	928.45
428.379	928.45
428.756	932.52
429.132	965.51
429.507	958.96
429.883	954.66
430.259	973.19
430.635	995.12
431.011	999.86
431.387	1025.85
431.763	1027.66
432.138	1033.53
432.514	1048.9
432.89	1064.94
433.265	1097.71
433.641	1106.3
434.016	1130.48
434.392	1172.29
434.767	1164.38
435.143	1159.18
435.518	1170.25
435.894	1192.62
436.269	1174.32
436.644	1208.44
437.02	1238.72
437.395	1247.31
437.77	1266.52
438.145	1262.68
438.52	1297.03
438.895	1283.92
439.271	1319.63
439.646	1350.13
440.021	1347.65
440.395	1364.14
440.77	1372.96
441.145	1374.99
441.52	1412.28
441.895	1404.6
442.27	1419.06
442.645	1426.29
443.019	1436.91
443.394	1415.22
443.769	1447.31
444.143	1483.46
444.518	1471.26
444.892	1487.98
445.267	1471.49
445.641	1496.12
446.016	1461.77
446.39	1506.74
446.764	1538.38
447.139	1514.65
447.513	1536.57
447.887	1544.93
448.262	1544.25
448.636	1555.78
449.01	1574.31
449.384	1588.32
449.758	1573.4
450.132	1609.79
450.506	1619.96
450.88	1621.99
451.254	1642.1
451.628	1637.58
452.002	1661.54
452.376	1678.49
452.75	1680.75
453.123	1691.59
453.497	1722.1
453.871	1721.42
454.244	1719.62
454.618	1753.51
454.992	1763.68
455.365	1766.17
455.739	1817.24
456.112	1845.04
456.486	1856.34
456.859	1842.32
457.232	1882.32
457.606	1879.84
457.979	1904.02
458.352	1925.49
458.725	1915.32
459.099	1931.81
459.472	1952.6
459.845	1964.13
460.218	1971.59
460.591	2008.2
460.964	2038.03
461.337	2068.31
461.71	2095.88
462.083	2124.12
462.456	2101.07
462.829	2100.85
463.201	2146.05
463.574	2145.82
463.947	2172.94
464.32	2208.64
464.692	2263.56
465.065	2273.05
465.438	2258.13
465.81	2317.11
466.183	2329.54
466.555	2360.73
466.928	2337.68
467.3	2370.22
467.672	2397.56
468.045	2395.3
468.417	2448.64
468.789	2457.22
469.161	2478.24
469.534	2502.87
469.906	2590.55
470.278	2565.47
470.65	2573.6
471.022	2619.03
471.394	2695.18
471.766	2701.74
472.138	2693.38
472.51	2786.48
472.882	2764.79
473.253	2800.04
473.625	2851.11
473.997	2860.6
474.369	2871.22
474.74	2936.76
475.112	2996.19
475.484	3025.34
475.855	3059.47
476.227	3070.77
476.598	3174.27
476.97	3139.24
477.341	3193.25
477.713	3202.06
478.084	3270.76
478.455	3334.94
478.827	3348.73
479.198	3414.94
479.569	3464.2
479.94	3507.37
480.311	3527.7
480.682	3578.55
481.053	3644.76
481.424	3710.07
481.795	3722.73
482.166	3764.76
482.537	3806.11
482.908	3889.28
483.279	3874.59
483.65	3927.92
484.021	4040.23
484.391	3996.17
484.762	4076.84
485.133	4127.46
485.503	4153
485.874	4210.17
486.244	4231.19
486.615	4273.9
486.985	4365.65
487.356	4405.19
487.726	4423.73
488.097	4506.44
488.467	4515.25
488.837	4591.4
489.207	4658.75
489.578	4682.48
489.948	4717.5
490.318	4688.35
490.688	4743.94
491.058	4824.39
491.428	4863.49
491.798	4916.14
492.168	5003.15
492.538	5026.65
492.908	5089.24
493.278	5139.19
493.648	5142.8
494.017	5128.79
494.387	5209.92
494.757	5289.92
495.126	5276.58
495.496	5266.19
495.866	5307.54
496.235	5411.5
496.605	5459.4
496.974	5443.36
497.344	5498.95
497.713	5484.04
498.082	5538.27
498.452	5535.33
498.821	5537.37
499.19	5626.63
499.559	5645.16
499.928	5707.76
500.298	5746.85
500.667	5714.09
501.036	5709.12
501.405	5816.23
501.774	5783.24
502.143	5846.29
502.512	5834.08
502.88	5860.75
503.249	5828.43
503.618	5899.17
503.987	5903.01
504.356	6003.57
504.724	5977.36
505.093	6004.47
505.462	5999.96
505.83	6044.7
506.199	6031.82
506.567	6141.87
506.936	6174.19
507.304	6144.58
507.672	6219.84
508.041	6221.19
508.409	6235.2
508.777	6263.45
509.145	6338.7
509.514	6344.8
509.882	6374.41
510.25	6341.19
510.618	6440.62
510.986	6442.88
511.354	6493.5
511.722	6455.76
512.09	6484.01
512.458	6496.21
512.826	6577.34
513.193	6576.21
513.561	6560.17
513.929	6614.85
514.297	6650.79
514.664	6686.72
515.032	6709.99
515.4	6647.17
515.767	6757.9
516.135	6770.78
516.502	6743.89
516.869	6812.59
517.237	6806.49
517.604	6818.92
517.972	6870.89
518.339	6883.55
518.706	6877.45
519.073	6917.45
519.44	6910.44
519.808	7050.78
520.175	6975.97
520.542	7054.62
520.909	7074.96
521.276	7009.87
521.643	7158.79
522.009	7149.08
522.376	7229.08
522.743	7194.27
523.11	7199.92
523.477	7276.08
523.843	7325.57
524.21	7393.82
524.577	7397.66
524.943	7442.86
525.31	7450.09
525.676	7461.84
526.043	7514.72
526.409	7534.38
526.776	7625.22
527.142	7577.09
527.508	7638.78
527.874	7786.12
528.241	7720.14
528.607	7773.69
528.973	7813.24
529.339	7780.47
529.705	7873.8
530.071	7961.26
530.437	7965.33
530.803	7918.55
531.169	8025.21
531.535	8031.31
531.901	8067.7
532.267	8098.66
532.632	8034.03
532.998	8044.2
533.364	8149.05
533.73	8165.55
534.095	8205.77
534.461	8229.95
534.826	8246.22
535.192	8255.04
535.557	8260.91
535.923	8291.65
536.288	8302.72
536.653	8339.78
537.019	8309.73
537.384	8375.94
537.749	8362.38
538.114	8405.77
538.479	8443.51
538.845	8460.68
539.21	8482.6
539.575	8528.48
539.94	8473.79
540.305	8522.37
540.67	8543.84
541.034	8533.45
541.399	8627.23
541.764	8565.54
542.129	8537.74
542.494	8609.38
542.858	8770.05
543.223	8689.38
543.587	8713.1
543.952	8684.18
544.316	8723.05
544.681	8822.03
545.045	8781.58
545.41	8833.55
545.774	8868.35
546.138	8811.63
546.503	8898.41
546.867	8869.03
547.231	8916.26
547.595	8914.91
547.959	8993.1
548.324	8942.93
548.688	8954.68
549.052	9001.68
549.416	9051.85
549.779	9081.23
550.143	8995.58
550.507	9150.61
550.871	9143.83
551.235	9095.92
551.599	9101.34
551.962	9155.35
552.326	9232.41
552.689	9172.98
553.053	9151.51
553.417	9184.5
553.78	9322.81
554.143	9292.98
554.507	9321
554.87	9269.02
555.234	9413.2
555.597	9368
555.96	9394.22
556.323	9485.74
556.686	9425.63
557.05	9473.54
557.413	9444.16
557.776	9492.97
558.139	9545.62
558.502	9633.76
558.865	9618.39
559.228	9663.81
559.59	9655.23
559.953	9673.53
560.316	9775.9
560.679	9750.37
561.041	9825.84
561.404	9811.61
561.767	9858.38
562.129	9890.7
562.492	9950.36
562.854	9897.48
563.217	9924.15
563.579	9976.12
563.941	9964.82
564.304	10099.73
564.666	10130.92
565.028	10119.62
565.39	10160.52
565.753	10269.9
566.115	10286.85
566.477	10306.73
566.839	10335.21
567.201	10340.18
567.563	10337.02
567.925	10396.9
568.287	10394.64
568.648	10454.08
569.01	10516.67
569.372	10599.83
569.734	10471.02
570.095	10572.04
570.457	10667.18
570.819	10607.74
571.18	10637.8
571.542	10779.26
571.903	10795.08
572.265	10748.76
572.626	10877.57
572.987	10829.21
573.349	10877.12
573.71	10907.85
574.071	10927.96
574.432	11002.31
574.794	11084.12
575.155	11127.28
575.516	11082.99
575.877	11194.39
576.238	11238.69
576.599	11276.43
576.96	11308.52
577.32	11265.13
577.681	11422.19
578.042	11367.95
578.403	11433.26
578.763	11470.55
579.124	11553.71
579.485	11606.81
579.845	11609.3
580.206	11672.57
580.566	11687.04
580.927	11766.58
581.287	11926.35
581.648	11809.29
582.008	11912.57
582.368	11931.78
582.728	12017.65
583.089	12063.3
583.449	12036.41
583.809	12121.6
584.169	12240.7
584.529	12289.73
584.889	12351.88
585.249	12375.83
585.609	12490.18
585.969	12495.15
586.329	12514.36
586.688	12658.09
587.048	12641.36
587.408	12704.19
587.768	12779.66
588.127	12839.32
588.487	12875.71
588.846	13077.96
589.206	13047.91
589.565	12997.74
589.925	13148.92
590.284	13162.48
590.643	13262.36
591.003	13296.94
591.362	13360.67
591.721	13504.16
592.08	13572.64
592.44	13667.55
592.799	13653.99
593.158	13764.5
593.517	13735.8
593.876	13808.34
594.235	13851.05
594.593	13925.17
594.952	14083.81
595.311	14033.87
595.67	14152.28
596.029	14259.4
596.387	14272.28
596.746	14330.81
597.104	14316.12
597.463	14368.77
597.822	14526.06
598.18	14517.25
598.538	14573.74
598.897	14716.56
599.255	14631.14
599.613	14895.77
599.972	14788.2
600.33	14827.97
600.688	14762.66
601.046	14980.06
601.404	15059.38
601.762	15008.98
602.12	15090.34
602.478	15171.47
602.836	15192.03
603.194	15222.31
603.552	15170.79
603.91	15300.5
604.268	15332.14
604.625	15375.75
604.983	15408.07
605.341	15391.8
605.698	15487.39
606.056	15588.63
606.413	15556.31
606.771	15618.23
607.128	15669.53
607.485	15527.39
607.843	15707.27
608.2	15717.21
608.557	15862.29
608.914	15773.26
609.272	15899.58
609.629	15998.56
609.986	15998.56
610.343	15955.63
610.7	16123.3
611.057	16129.18
611.414	16055.74
611.771	16100.71
612.127	16203.3
612.484	16194.94
612.841	16183.42
613.198	16190.2
613.554	16242.62
613.911	16358.55
614.267	16348.38
614.624	16341.83
614.98	16375.95
615.337	16493.01
615.693	16460.02
616.05	16477.87
616.406	16567.59
616.762	16523.29
617.118	16567.36
617.475	16520.36
617.831	16617.08
618.187	16602.39
618.543	16698.21
618.899	16756.51
619.255	16718.77
619.611	16699.11
619.967	16729.39
620.323	16781.37
620.678	16728.94
621.034	16753.8
621.39	16772.1
621.746	16757.19
622.101	16980.23
622.457	16823.17
622.812	16831.76
623.168	16887.58
623.523	16826.34
623.879	16965.99
624.234	16784.08
624.589	16922.83
624.945	16968.03
625.3	16970.51
625.655	16942.04
626.01	16909.05
626.365	16963.28
626.72	17012.1
627.075	16974.58
627.43	16934.58
627.785	16903.85
628.14	16871.99
628.495	16927.35
628.85	16874.92
629.205	16898.65
629.559	16948.37
629.914	16935.94
630.269	16888.93
630.623	16888.93
630.978	16742.95
631.332	17004.19
631.687	16968.48
632.041	16836.05
632.396	16945.2
632.75	16815.94
633.104	16871.08
633.459	16799.67
633.813	16796.06
634.167	16834.25
634.521	16761.03
634.875	16781.37
635.229	16789.73
635.583	16636.51
635.937	16724.42
636.291	16770.97
636.645	16692.78
636.999	16669.28
637.352	16702.5
637.706	16637.19
638.06	16615.72
638.413	16670.86
638.767	16537.76
639.121	16643.52
639.474	16483.97
639.828	16513.8
640.181	16509.51
640.534	16554.71
640.888	16489.62
641.241	16406.24
641.594	16450.08
641.947	16491.88
642.301	16520.81
642.654	16518.1
643.007	16460.25
643.36	16470.64
643.713	16372.79
644.066	16349.06
644.419	16323.75
644.771	16258.89
645.124	16151.1
645.477	16070.42
645.83	16050.76
646.182	15903.65
646.535	15775.74
646.888	15916.53
647.24	15890.77
647.593	15867.04
647.945	15763.77
648.298	15835.18
648.65	15866.81
649.002	15779.13
649.355	15864.1
649.707	15849.87
650.059	15921.5
650.411	16053.93
650.763	16133.7
651.115	16212.79
651.467	16236.07
651.819	16184.32
652.171	16150.42
652.523	16233.58
652.875	16078.11
653.227	16161.95
653.578	16325.56
653.93	16341.83
654.282	16092.12
654.633	16096.19
654.985	16227.03
655.337	16236.3
655.688	16181.61
656.039	16253.47
656.391	16108.16
656.742	16183.42
657.094	16178.44
657.445	16235.62
657.796	16189.29
658.147	16227.26
658.498	16229.06
658.849	16241.04
659.2	16170.76
659.551	16184.32
659.902	16323.98
660.253	16180.93
660.604	16173.02
660.955	16210.31
661.306	16273.13
661.656	16265.9
662.007	16197.2
662.358	16276.75
662.708	16246.24
663.059	16296.41
663.409	16114.27
663.76	16286.24
664.11	16327.82
664.461	16328.05
664.811	16282.85
665.161	16258.44
665.511	16336.18
665.862	16273.81
666.212	16295.73
666.562	16340.47
666.912	16199.24
667.262	16325.79
667.612	16367.14
667.962	16367.59
668.312	16314.03
668.662	16341.83
669.011	16295.5
669.361	16303.87
669.711	16140.93
670.06	16227.71
670.41	16189.07
670.76	16238.78
671.109	16243.3
671.459	16257.76
671.808	16153.81
672.157	16228.61
672.507	16190.87
672.856	16144.77
673.205	16247.14
673.554	16215.96
673.904	16176.41
674.253	16195.85
674.602	16163.98
674.951	15927.83
675.3	15880.6
675.649	16074.72
675.998	16204.66
676.346	16039.69
676.695	16147.03
677.044	16013.25
677.393	16070.65
677.741	16085.79
678.09	16001.27
678.438	15986.59
678.787	15915.63
679.135	16006.25
679.484	15862.07
679.832	15909.3
680.181	15749.98
680.529	15838.11
680.877	15789.3
681.225	15788.62
681.573	15799.7
681.922	15753.82
682.27	15684.9
682.618	15771.22
682.966	15613.71
683.314	15634.96
683.661	15609.65
684.009	15532.13
684.357	15446.26
684.705	15581.62
685.053	15484
685.4	15491.23
685.748	15359.71
686.095	15397
686.443	15261.18
686.79	15232.48
687.138	15357
687.485	15249.2
687.832	15151.13
688.18	15208.53
688.527	15052.37
688.874	15050.11
689.221	15120.85
689.568	14983.22
689.915	14991.36
690.262	14927.4
690.609	14847.41
690.956	14781.19
691.303	14889.66
691.65	14746.39
691.997	14734.64
692.344	14624.14
692.69	14707.52
693.037	14651.03
693.383	14534.65
693.73	14473.86
694.077	14506.17
694.423	14488.32
694.769	14379.4
695.116	14357.25
695.462	14377.36
695.808	14261.88
696.155	14260.98
696.501	14202.68
696.847	14162.68
697.193	13993.19
697.539	14070.48
697.885	14020.76
698.231	13833.42
698.577	13869.8
698.923	13917.49
699.269	13823.93
699.614	13767.21
699.96	13691.96
700.306	13688.11
700.651	13545.75
700.997	13485.63
701.342	13459.42
701.688	13495.8
702.033	13359.31
702.379	13353.21
702.724	13314.11
703.069	13334
703.415	13124.51
703.76	13156.6
704.105	13155.02
704.45	12990.51
704.795	13020.34
705.14	13003.16
705.485	12985.76
705.83	12932.65
706.175	12838.42
706.52	12928.13
706.865	12842.04
707.209	12803.17
707.554	12689.27
707.899	12691.3
708.243	12669.38
708.588	12635.71
708.932	12519.78
709.277	12616.28
709.621	12553.91
709.966	12491.31
710.31	12510.29
710.654	12399.11
710.998	12393.23
711.342	12360.47
711.687	12394.59
712.031	12302.61
712.375	12276.4
712.719	12324.99
713.063	12289.96
713.407	12287.93
713.75	12188.72
714.094	12190.53
714.438	12204.99
714.782	12171.77
715.125	12132.68
715.469	12131.32
715.812	12001.83
716.156	12022.85
716.499	11989.85
716.843	11981.27
717.186	11990.53
717.53	11997.31
717.873	12007.03
718.216	11947.82
718.559	11837.77
718.902	11746.7
719.246	11870.76
719.589	11793.7
719.932	11760.48
720.275	11792.12
720.617	11738.79
720.96	11667.15
721.303	11690.65
721.646	11683.2
721.989	11708.28
722.331	11698.79
722.674	11628.96
723.016	11627.6
723.359	11616.3
723.701	11637.1
724.044	11506.03
724.386	11577.66
724.729	11585.35
725.071	11558.68
725.413	11536.76
725.755	11598.45
726.097	11411.11
726.439	11350.55
726.782	11440.72
727.124	11428.06
727.465	11503.54
727.807	11447.27
728.149	11460.6
728.491	11395.07
728.833	11478.68
729.175	11383.99
729.516	11421.96
729.858	11329.76
730.199	11442.75
730.541	11413.15
730.882	11376.99
731.224	11459.92
731.565	11383.09
731.906	11388.29
732.248	11400.94
732.589	11375.18
732.93	11305.13
733.271	11365.01
733.612	11428.06
733.953	11395.29
734.294	11361.4
734.635	11348.52
734.976	11359.36
735.317	11282.98
735.658	11382.19
735.999	11378.12
736.339	11318.69
736.68	11305.58
737.021	11410.89
737.361	11344
737.702	11463.09
738.042	11386.48
738.383	11386.03
738.723	11460.83
739.063	11415.41
739.404	11448.63
739.744	11334.5
740.084	11405.91
740.424	11370.44
740.764	11370.66
741.104	11498.34
741.444	11362.07
741.784	11364.11
742.124	11475.29
742.464	11401.4
742.804	11467.83
743.143	11443.88
743.483	11483.65
743.823	11486.14
744.162	11518
744.502	11595.29
744.841	11582.86
745.181	11645
745.52	11662.86
745.86	11666.02
746.199	11692.69
746.538	11767.26
746.877	11857.88
747.216	11893.13
747.556	11901.04
747.895	11962.96
748.234	11989.63
748.573	12005.22
748.911	12050.87
749.25	12167.02
749.589	12128.83
749.928	12270.3
750.267	12375.83
750.605	12376.74
750.944	12486.34
751.283	12501.03
751.621	12662.6
751.96	12630.52
752.298	12841.58
752.636	12893.56
752.975	12933.11
753.313	12991.64
753.651	13190.73
753.989	13216.71
754.327	13322.7
754.666	13432.98
755.004	13604.05
755.342	13724.5
755.679	13858.73
756.017	13906.64
756.355	13951.84
756.693	14164.71
757.031	14317.93
757.368	14353.18
757.706	14606.51
758.044	14667.75
758.381	14873.62
758.719	14934.64
