Data from hue_130_FLMS001491_00051.txt Node
Date: Tue Feb 07 16:57:47 GMT 2017
User: dcchb
Spectrometer: FLMS00149
Trigger mode: 0
Integration Time (sec): 2.000000E-2
Scans to average: 10
Electric dark correction enabled: true
Nonlinearity correction enabled: false
Boxcar width: 0
XAxis mode: Wavelengths
Number of Pixels in Spectrum: 2048
>>>>>Begin Spectral Data<<<<<
341.393	-13.45
341.776	-13.45
342.16	-13.45
342.543	-69.04
342.927	-67.91
343.31	-53.9
343.693	-63.16
344.077	-68.36
344.46	-49.83
344.843	-37.17
345.226	-51.41
345.61	-32.2
345.993	-32.65
346.376	-13.45
346.759	13.45
347.142	45.08
347.525	25.65
347.908	54.57
348.291	51.64
348.674	91.64
349.057	120.11
349.44	134.57
349.823	159.66
350.206	169.6
350.588	212.99
350.971	191.75
351.354	219.99
351.737	245.76
352.119	242.82
352.502	256.38
352.884	275.36
353.267	286.43
353.65	295.47
354.032	302.03
354.414	299.77
354.797	310.61
355.179	314.23
355.562	300.67
355.944	346.09
356.326	348.58
356.709	341.57
357.091	307.45
357.473	339.99
357.855	329.82
358.238	348.35
358.62	346.54
359.002	341.57
359.384	331.86
359.766	354.68
360.148	349.26
360.53	334.57
360.912	334.79
361.294	341.12
361.676	334.79
362.057	315.36
362.439	333.21
362.821	343.83
363.203	326.66
363.584	321.91
363.966	328.24
364.348	322.59
364.729	327.79
365.111	306.32
365.493	307.22
365.874	311.52
366.256	312.87
366.637	311.74
367.019	320.78
367.4	339.99
367.781	322.14
368.163	321.46
368.544	307
368.925	320.1
369.306	329.6
369.688	321.01
370.069	321.23
370.45	324.17
370.831	333.89
371.212	304.74
371.593	325.98
371.974	299.77
372.355	317.17
372.736	325.98
373.117	303.38
373.498	326.66
373.879	316.94
374.26	316.04
374.641	314.46
375.021	316.49
375.402	327.11
375.783	316.94
376.163	331.4
376.544	328.47
376.925	317.84
377.305	328.92
377.686	341.8
378.066	340.44
378.447	344.74
378.827	335.92
379.208	337.05
379.588	341.57
379.968	314.23
380.349	335.7
380.729	346.54
381.109	331.4
381.489	342.7
381.87	343.15
382.25	327.79
382.63	337.73
383.01	339.09
383.39	361.23
383.77	353.32
384.15	328.47
384.53	335.92
384.91	354.91
385.29	342.25
385.67	367.33
386.049	352.42
386.429	356.71
386.809	355.81
387.189	341.35
387.568	375.47
387.948	363.49
388.328	360.78
388.707	362.14
389.087	381.12
389.466	364.4
389.846	356.94
390.225	367.33
390.605	358.97
390.984	392.87
391.363	377.05
391.743	381.12
392.122	359.2
392.501	387.22
392.881	382.02
393.26	379.54
393.639	370.95
394.018	389.93
394.397	380.89
394.776	378.86
395.155	408.46
395.534	375.02
395.913	394.9
396.292	380.67
396.671	394.68
397.05	400.78
397.429	398.29
397.808	381.57
398.186	398.52
398.565	388.13
398.944	386.54
399.323	401.68
399.701	399.42
400.08	388.35
400.458	417.05
400.837	402.14
401.215	420.89
401.594	408.24
401.972	424.06
402.351	414.79
402.729	411.85
403.107	436.03
403.486	405.98
403.864	411.85
404.242	413.89
404.62	436.49
404.999	430.61
405.377	443.94
405.755	448.91
406.133	439.42
406.511	458.86
406.889	438.29
407.267	455.24
407.645	438.07
408.023	446.65
408.401	465.64
408.779	457.95
409.156	431.29
409.534	459.31
409.912	474
410.29	475.35
410.667	488.46
411.045	462.47
411.422	467.67
411.8	468.12
412.178	469.25
412.555	480.1
412.933	489.37
413.31	490.72
413.687	501.57
414.065	521.91
414.442	509.7
414.819	496.37
415.197	508.8
415.574	505.41
415.951	518.97
416.328	515.58
416.705	504.51
417.082	531.17
417.46	518.97
417.837	523.04
418.214	525.07
418.591	532.3
418.967	530.95
419.344	549.93
419.721	542.47
420.098	542.02
420.475	569.14
420.852	536.82
421.228	546.54
421.605	556.26
421.982	592.87
422.358	570.95
422.735	591.74
423.111	564.84
423.488	566.43
423.864	586.09
424.241	584.5
424.617	589.93
424.994	601.68
425.37	606.65
425.746	565.3
426.123	587.67
426.499	597.84
426.875	618.63
427.251	628.12
427.627	642.36
428.003	643.94
428.379	645.75
428.756	651.62
429.132	649.36
429.507	653.2
429.883	651.62
430.259	658.17
430.635	660.43
431.011	659.3
431.387	686.65
431.763	692.07
432.138	705.86
432.514	690.04
432.89	693.43
433.265	737.95
433.641	720.09
434.016	706.31
434.392	747.66
434.767	736.14
435.143	725.52
435.518	760.54
435.894	735.23
436.269	767.1
436.644	763.03
437.02	760.54
437.395	777.95
437.77	800.77
438.145	786.53
438.52	829.7
438.895	795.12
439.271	811.39
439.646	802.8
440.021	847.1
440.395	833.54
440.77	822.46
441.145	841.22
441.52	881.45
441.895	848.23
442.27	841.9
442.645	867.66
443.019	864.95
443.394	862.69
443.769	881.22
444.143	869.69
444.518	880.99
444.892	901.56
445.267	884.61
445.641	902.69
446.016	933.2
446.39	922.8
446.764	930.48
447.139	938.62
447.513	960.99
447.887	956.7
448.262	918.51
448.636	937.94
449.01	944.49
449.384	940.65
449.758	937.49
450.132	972.74
450.506	980.65
450.88	987.43
451.254	985.4
451.628	986.3
452.002	1003.93
452.376	1013.65
452.75	1032.63
453.123	1031.95
453.497	1057.26
453.871	1043.25
454.244	1100.2
454.618	1069.24
454.992	1109.01
455.365	1121.89
455.739	1115.34
456.112	1153.53
456.486	1119.41
456.859	1138.16
457.232	1177.48
457.606	1173.87
457.979	1182
458.352	1192.62
458.725	1207.54
459.099	1239.63
459.472	1245.73
459.845	1269.91
460.218	1272.17
460.591	1291.6
460.964	1316.91
461.337	1317.59
461.71	1327.76
462.083	1367.53
462.456	1379.96
462.829	1371.6
463.201	1414.09
463.574	1387.2
463.947	1429.68
464.32	1479.62
464.692	1478.72
465.065	1509.9
465.438	1524.14
465.81	1537.93
466.183	1573.4
466.555	1571.82
466.928	1586.29
467.3	1626.06
467.672	1627.87
468.045	1650.69
468.417	1680.97
468.789	1739.5
469.161	1713.97
469.534	1757.13
469.906	1814.3
470.278	1836.9
470.65	1838.71
471.022	1931.81
471.394	1931.81
471.766	1949.89
472.138	1975.88
472.51	2038.93
472.882	2085.71
473.253	2135.42
473.625	2148.08
473.997	2267.62
474.369	2264.69
474.74	2303.56
475.112	2376.1
475.484	2405.7
475.855	2479.6
476.227	2564.79
476.598	2624
476.97	2665.35
477.341	2740.38
477.713	2784.9
478.084	2831
478.455	2945.12
478.827	2975.63
479.198	3110.54
479.569	3097.43
479.94	3217.2
480.311	3329.07
480.682	3440.93
481.053	3514.37
481.424	3615.84
481.795	3693.35
482.166	3765.66
482.537	3875.27
482.908	4008.6
483.279	4108.03
483.65	4221.02
484.021	4331.52
484.391	4423.73
484.762	4537.39
485.133	4638.64
485.503	4788.46
485.874	4891.74
486.244	5015.35
486.615	5204.5
486.985	5250.14
487.356	5462.79
487.726	5548.89
488.097	5705.05
488.467	5780.98
488.837	5987.3
489.207	6098.71
489.578	6212.15
489.948	6382.54
490.318	6534.18
490.688	6630.9
491.058	6809.2
491.428	6956.54
491.798	7140.26
492.168	7308.62
492.538	7424.78
492.908	7549.29
493.278	7801.72
493.648	7826.8
494.017	8006.68
494.387	8139.79
494.757	8231.53
495.126	8424.75
495.496	8440.12
495.866	8661.58
496.235	8820.45
496.605	8953.55
496.974	9086.43
497.344	9216.59
497.713	9289.81
498.082	9458.62
498.452	9597.83
498.821	9705.39
499.19	9784.71
499.559	9910.13
499.928	9984.48
500.298	10066.29
500.667	10245.72
501.036	10294.08
501.405	10571.13
501.774	10587.18
502.143	10668.31
502.512	10750.56
502.88	10854.29
503.249	10964.8
503.618	11060.39
503.987	11160.27
504.356	11200.04
504.724	11279.82
505.093	11393.26
505.462	11400.72
505.83	11568.62
506.199	11666.47
506.567	11778.11
506.936	11777.66
507.304	11948.95
507.672	12090.19
508.041	12039.34
508.409	12238.89
508.777	12233.24
509.145	12318.89
509.514	12370.86
509.882	12495.83
510.25	12515.04
510.618	12588.71
510.986	12594.58
511.354	12738.31
511.722	12729.5
512.09	12967
512.458	12883.62
512.826	12941.92
513.193	13097.4
513.561	13071.86
513.929	13175.81
514.297	13282.25
514.664	13275.24
515.032	13363.15
515.4	13435.69
515.767	13462.58
516.135	13487.22
516.502	13449.02
516.869	13608.12
517.237	13679.53
517.604	13592.07
517.972	13702.8
518.339	13756.14
518.706	13794.1
519.073	13748.23
519.44	13872.74
519.808	13941.67
520.175	13924.72
520.542	14046.07
520.909	14116.35
521.276	14030.7
521.643	14151.38
522.009	14179.85
522.376	14238.38
522.743	14266.86
523.11	14360.19
523.477	14471.37
523.843	14477.25
524.21	14531.48
524.577	14548.21
524.943	14588.2
525.31	14629.11
525.676	14757.92
526.043	14740.74
526.409	14782.32
526.776	14793.85
527.142	14816.22
527.508	14855.77
527.874	14897.12
528.241	14912.04
528.607	14883.56
528.973	14966.27
529.339	14956.33
529.705	14997.23
530.071	15054.86
530.437	15049.43
530.803	15078.81
531.169	15018.48
531.535	15025.93
531.901	14987.06
532.267	15013.5
532.632	15027.06
532.998	15061.64
533.364	15081.75
533.73	15077.68
534.095	15077.91
534.461	15055.99
534.826	15080.17
535.192	15112.94
535.557	15105.93
535.923	15108.19
536.288	15050.11
536.653	15053.95
537.019	15016.67
537.384	15021.19
537.749	14964.92
538.114	14966.95
538.479	14848.99
538.845	14949.55
539.21	14836.56
539.575	14796.11
539.94	14816.9
540.305	14824.13
540.67	14821.64
541.034	14793.85
541.399	14730.57
541.764	14757.69
542.129	14725.15
542.494	14736
542.858	14623.23
543.223	14649.9
543.587	14629.56
543.952	14546.17
544.316	14571.93
544.681	14443.12
545.045	14444.7
545.41	14448.09
545.774	14413.29
546.138	14271.83
546.503	14474.76
546.867	14360.87
547.231	14399.51
547.595	14364.93
547.959	14331.26
548.324	14314.54
548.688	14176.24
549.052	14185.05
549.416	14203.13
549.779	14188.44
550.143	14132.62
550.507	14126.3
550.871	14106.18
551.235	14031.16
551.599	14022.12
551.962	14033.87
552.326	13954.32
552.689	14003.13
553.053	13931.72
553.417	13973.53
553.78	13973.08
554.143	13909.13
554.507	13892.63
554.87	13917.04
555.234	13926.3
555.597	13799.98
555.96	13816.47
556.323	13775.12
556.686	13843.14
557.05	13872.06
557.413	13859.86
557.776	13756.14
558.139	13841.1
558.502	13812.18
558.865	13800.88
559.228	13791.16
559.59	13761.33
559.953	13733.54
560.316	13915.68
560.679	13795.46
561.041	13839.3
561.404	13825.06
561.767	13943.93
562.129	13830.26
562.492	13955
562.854	13943.7
563.217	13884.04
563.579	13839.3
563.941	14023.02
564.304	13934.89
564.666	14008.11
565.028	13902.12
565.39	13946.19
565.753	14073.19
566.115	14059.63
566.477	14084.94
566.839	14079.74
567.201	14093.53
567.563	14115.22
567.925	14118.61
568.287	14155.9
568.648	14135.11
569.01	14145.28
569.372	14272.05
569.734	14167.65
570.095	14202.68
570.457	14264.37
570.819	14266.63
571.18	14242
571.542	14301.21
571.903	14291.49
572.265	14295.56
572.626	14282.9
572.987	14331.71
573.349	14345.05
573.71	14352.73
574.071	14344.37
574.432	14377.14
574.794	14472.73
575.155	14410.13
575.516	14377.59
575.877	14456.68
576.238	14463.01
576.599	14472.05
576.96	14468.43
577.32	14429.11
577.681	14529.9
578.042	14488.77
578.403	14452.16
578.763	14533.06
579.124	14492.84
579.485	14507.98
579.845	14516.34
580.206	14411.26
580.566	14415.33
580.927	14537.58
581.287	14470.02
581.648	14500.3
582.008	14594.53
582.368	14560.63
582.728	14516.57
583.089	14514.76
583.449	14495.55
583.809	14494.87
584.169	14538.04
584.529	14386.18
584.889	14505.04
585.249	14426.4
585.609	14392.5
585.969	14576
586.329	14422.33
586.688	14544.36
587.048	14365.84
587.408	14461.43
587.768	14397.02
588.127	14330.36
588.487	14298.49
588.846	14407.87
589.206	14319.74
589.565	14293.52
589.925	14404.71
590.284	14348.89
590.643	14389.34
591.003	14327.65
591.362	14360.41
591.721	14359.51
592.08	14350.7
592.44	14366.74
592.799	14347.98
593.158	14370.36
593.517	14258.27
593.876	14322
594.235	14234.31
594.593	14271.38
594.952	14293.07
595.311	14164.03
595.67	14307.99
596.029	14314.99
596.387	14336.23
596.746	14282.68
597.104	14252.17
597.463	14163.81
597.822	14168.78
598.18	14179.85
598.538	14202.23
598.897	14237.25
599.255	14084.94
599.613	14295.33
599.972	14119.06
600.33	14206.29
600.688	14252.62
601.046	14208.33
601.404	14263.24
601.762	14256.24
602.12	14298.95
602.478	14285.84
602.836	14282.68
603.194	14223.69
603.552	14281.32
603.91	14169.01
604.268	14227.08
604.625	14290.36
604.983	14254.2
605.341	14084.04
605.698	14242.9
606.056	14339.17
606.413	14273.18
606.771	14314.54
607.128	14293.52
607.485	14229.34
607.843	14265.73
608.2	14332.62
608.557	14362.9
608.914	14340.3
609.272	14377.14
609.629	14370.36
609.986	14418.04
610.343	14333.75
610.7	14361.09
611.057	14420.75
611.414	14458.04
611.771	14411.71
612.127	14472.27
612.484	14439.51
612.841	14554.08
613.198	14409.9
613.554	14465.72
613.911	14496.91
614.267	14574.42
614.624	14466.85
614.98	14462.56
615.337	14609.45
615.693	14576
616.05	14558.6
616.406	14613.29
616.762	14532.16
617.118	14545.95
617.475	14605.15
617.831	14653.29
618.187	14628.88
618.543	14620.07
618.899	14674.53
619.255	14696.68
619.611	14681.31
619.967	14806.5
620.323	14720.18
620.678	14664.13
621.034	14687.64
621.39	14735.54
621.746	14600.18
622.101	14722.89
622.457	14705.49
622.812	14619.84
623.168	14665.72
623.523	14741.65
623.879	14783.23
624.234	14695.09
624.589	14698.03
624.945	14740.52
625.3	14758.14
625.655	14660.97
626.01	14663.46
626.365	14694.87
626.72	14636.11
627.075	14698.94
627.43	14729.44
627.785	14706.17
628.14	14708.88
628.495	14749.56
628.85	14568.32
629.205	14641.54
629.559	14790.01
629.914	14685.38
630.269	14602.89
630.623	14602.44
630.978	14590.69
631.332	14668.65
631.687	14667.07
632.041	14538.04
632.396	14683.34
632.75	14539.17
633.104	14578.49
633.459	14480.18
633.813	14447.42
634.167	14491.48
634.521	14471.14
634.875	14582.1
635.229	14471.37
635.583	14329.68
635.937	14442.22
636.291	14336.69
636.645	14459.39
636.999	14364.03
637.352	14339.85
637.706	14253.3
638.06	14344.82
638.413	14233.86
638.767	14273.86
639.121	14241.32
639.474	14295.78
639.828	14199.29
640.181	14234.09
640.534	14302.56
640.888	14208.78
641.241	14105.73
641.594	14171.94
641.947	14191.15
642.301	14130.81
642.654	14191.83
643.007	14186.63
643.36	14192.73
643.713	14110.25
644.066	14154.77
644.419	14104.15
644.771	13937.37
645.124	13955.45
645.477	13890.82
645.83	13695.8
646.182	13678.17
646.535	13665.52
646.888	13621
647.24	13566.31
647.593	13630.94
647.945	13631.84
648.298	13565.41
648.65	13514.79
649.002	13554.56
649.355	13551.85
649.707	13561.79
650.059	13576.93
650.411	13771.95
650.763	13799.52
651.115	13971.72
651.467	13833.2
651.819	13963.81
652.171	13806.3
652.523	13841.33
652.875	13886.3
653.227	13860.09
653.578	14002.23
653.93	13917.26
654.282	13819.18
654.633	13839.07
654.985	13858.51
655.337	13891.05
655.688	13902.12
656.039	13940.99
656.391	13898.96
656.742	13864.61
657.094	13878.17
657.445	13954.55
657.796	13883.36
658.147	13982.57
658.498	13857.38
658.849	13924.04
659.2	13957.94
659.551	13893.31
659.902	13996.13
660.253	13900.31
660.604	13892.86
660.955	13852.4
661.306	13900.31
661.656	13935.34
662.007	13891.5
662.358	13922.91
662.708	13917.49
663.059	13902.57
663.409	13868.45
663.76	13961.55
664.11	13963.36
664.461	13952.29
664.811	13898.05
665.161	13864.61
665.511	13870.71
665.862	13936.02
666.212	13981.67
666.562	13937.37
666.912	13929.46
667.262	13929.46
667.612	14023.47
667.962	13946.64
668.312	13869.58
668.662	14027.77
669.011	13977.6
669.361	13979.41
669.711	13919.52
670.06	13922.01
670.41	13935.79
670.76	13791.16
671.109	13938.05
671.459	13934.44
671.808	13818.73
672.157	13923.59
672.507	13792.97
672.856	13823.7
673.205	13750.94
673.554	13910.71
673.904	13851.05
674.253	13813.76
674.602	13791.61
674.951	13652.41
675.3	13554.78
675.649	13792.29
675.998	13690.83
676.346	13841.33
676.695	13786.19
677.044	13626.87
677.393	13670.04
677.741	13665.74
678.09	13577.84
678.438	13606.53
678.787	13702.13
679.135	13639.53
679.484	13505.29
679.832	13683.37
680.181	13522.02
680.529	13525.63
680.877	13476.82
681.225	13408.35
681.573	13609.92
681.922	13424.84
682.27	13472.98
682.618	13370.38
682.966	13296.03
683.314	13347.78
683.661	13430.27
684.009	13285.19
684.357	13282.7
684.705	13281.8
685.053	13225.98
685.4	13237.51
685.748	13205.87
686.095	13145.76
686.443	13049.49
686.79	12974.91
687.138	13089.49
687.485	13018.3
687.832	12961.13
688.18	13033.89
688.527	12889.72
688.874	12899.43
689.221	12835.71
689.568	12835.48
689.915	12789.83
690.262	12828.25
690.609	12736.05
690.956	12763.62
691.303	12664.86
691.65	12568.82
691.997	12562.04
692.344	12600.69
692.69	12506.45
693.037	12515.49
693.383	12417.87
693.73	12392.78
694.077	12327.02
694.423	12317.53
694.769	12223.75
695.116	12167.93
695.462	12274.82
695.808	12226.23
696.155	12118.89
696.501	12002.28
696.847	12109.85
697.193	12008.84
697.539	11992.79
697.885	11880.7
698.231	11948.73
698.577	11779.69
698.923	11822.85
699.269	11763.87
699.614	11656.3
699.96	11739.47
700.306	11673.48
700.651	11505.35
700.997	11581.5
701.342	11467.16
701.688	11490.43
702.033	11397.78
702.379	11423.54
702.724	11427.16
703.069	11438.68
703.415	11209.99
703.76	11240.72
704.105	11213.83
704.45	11209.99
704.795	11159.82
705.14	11106.26
705.485	11072.36
705.83	11080.05
706.175	11005.25
706.52	11013.61
706.865	10988.75
707.209	10877.57
707.554	10851.13
707.899	10873.05
708.243	10795.76
708.588	10907.62
708.932	10775.2
709.277	10771.81
709.621	10709.21
709.966	10721.86
710.31	10732.94
710.654	10559.16
710.998	10618.82
711.342	10584.92
711.687	10570.46
712.031	10539.5
712.375	10475.77
712.719	10471.25
713.063	10471.02
713.407	10460.63
713.75	10442.1
714.094	10444.13
714.438	10409.78
714.782	10391.03
715.125	10348.54
715.469	10337.02
715.812	10249.34
716.156	10265.15
716.499	10219.73
716.843	10249.79
717.186	10223.12
717.53	10253.85
717.873	10239.39
718.216	10146.29
718.559	10179.73
718.902	10087.76
719.246	10123.24
719.589	10107.64
719.932	10022.67
720.275	10099.51
720.617	10059.74
720.96	9982.9
721.303	10052.05
721.646	10043.46
721.989	10000.08
722.331	9973.18
722.674	10024.48
723.016	9958.72
723.359	9943.13
723.701	9962.11
724.044	9914.2
724.386	9910.36
724.729	9893.19
725.071	9894.77
725.413	9895.45
725.755	9956.01
726.097	9814.09
726.439	9859.06
726.782	9845.73
727.124	9913.75
727.465	9812.74
727.807	9804.37
728.149	9823.13
728.491	9856.13
728.833	9815
729.175	9757.14
729.516	9765.73
729.858	9782.23
730.199	9805.05
730.541	9757.82
730.882	9746.52
731.224	9757.6
731.565	9749.24
731.906	9751.04
732.248	9682.8
732.589	9704.26
732.93	9734.09
733.271	9738.16
733.612	9784.94
733.953	9770.93
734.294	9819.97
734.635	9680.08
734.976	9671.5
735.317	9657.03
735.658	9689.58
735.999	9730.48
736.339	9652.06
736.68	9750.82
737.021	9744.94
737.361	9744.72
737.702	9785.17
738.042	9734.77
738.383	9719.18
738.723	9655
739.063	9829.46
739.404	9867.88
739.744	9788.1
740.084	9788.1
740.424	9800.31
740.764	9794.43
741.104	9778.16
741.444	9869.91
741.784	9808.22
742.124	9867.88
742.464	9826.3
742.804	9917.82
743.143	9942.9
743.483	9898.84
743.823	9871.04
744.162	9952.62
744.502	9988.1
744.841	9990.81
745.181	10045.05
745.52	10042.56
745.86	10151.48
746.199	10101.99
746.538	10187.19
746.877	10226.28
747.216	10241.43
747.556	10259.05
747.895	10344.47
748.234	10403.46
748.573	10469.44
748.911	10492.94
749.25	10506.73
749.589	10600.29
749.928	10682.54
750.267	10704.24
750.605	10829.21
750.944	10853.84
751.283	10868.3
751.621	10998.47
751.96	11132.25
752.298	11250.44
752.636	11346.48
752.975	11334.28
753.313	11405.69
753.651	11598
753.989	11693.36
754.327	11753.25
754.666	11844.55
755.004	11986.69
755.342	12146.46
755.679	12301.94
756.017	12329.96
756.355	12627.35
756.693	12588.48
757.031	12785.99
757.368	12874.12
757.706	13080
758.044	13214
