Data from hue_60_FLMS001491_48.txt Node
Date: Mon Feb 06 15:17:27 GMT 2017
User: dcchb
Spectrometer: FLMS00149
Trigger mode: 0
Integration Time (sec): 2.000000E-2
Scans to average: 10
Electric dark correction enabled: true
Nonlinearity correction enabled: false
Boxcar width: 0
XAxis mode: Wavelengths
Number of Pixels in Spectrum: 2048
>>>>>Begin Spectral Data<<<<<
341.393	-10.49
341.776	-10.49
342.16	-10.49
342.543	-75.13
342.927	-65.86
343.31	-74.22
343.693	-51.85
344.077	-44.84
344.46	-53.43
344.843	-43.49
345.226	-51.62
345.61	-53.43
345.993	-24.05
346.376	14.82
346.759	7.36
347.142	27.25
347.525	35.38
347.908	64.08
348.291	55.94
348.674	81.25
349.057	110.86
349.44	125.55
349.823	142.5
350.206	167.35
350.588	186.56
350.971	217.3
351.354	228.14
351.737	225.66
352.119	245.54
352.502	276.73
352.884	281.48
353.267	279.89
353.65	288.71
354.032	312.66
354.414	301.81
354.797	311.31
355.179	325.54
355.562	346.78
355.944	320.12
356.326	345.88
356.709	331.42
357.091	349.5
357.473	363.06
357.855	325.32
358.238	344.98
358.62	339.78
359.002	351.98
359.384	355.82
359.766	331.42
360.148	336.39
360.53	334.13
360.912	347.69
361.294	353.11
361.676	345.65
362.057	334.58
362.439	337.07
362.821	340.46
363.203	313.11
363.584	338.2
363.966	353.56
364.348	341.81
364.729	314.02
365.111	318.54
365.493	326.22
365.874	321.25
366.256	334.58
366.637	340.23
367.019	310.63
367.4	300.91
367.781	318.99
368.163	330.06
368.544	325.09
368.925	303.17
369.306	316.73
369.688	324.86
370.069	322.83
370.45	311.31
370.831	330.51
371.212	314.24
371.593	308.37
371.974	325.54
372.355	316.73
372.736	319.67
373.117	298.88
373.498	325.99
373.879	317.86
374.26	320.8
374.641	294.81
375.021	332.55
375.402	316.95
375.783	334.13
376.163	346.11
376.544	330.74
376.925	302.94
377.305	330.74
377.686	325.99
378.066	322.38
378.447	313.79
378.827	325.77
379.208	334.58
379.588	326.67
379.968	319.21
380.349	338.88
380.729	301.59
381.109	324.41
381.489	320.8
381.87	342.72
382.25	349.72
382.63	347.24
383.01	346.11
383.39	340.46
383.77	350.4
384.15	312.21
384.53	367.8
384.91	347.24
385.29	342.04
385.67	338.88
386.049	351.76
386.429	348.82
386.809	344.07
387.189	337.75
387.568	352.89
387.948	352.66
388.328	351.76
388.707	348.59
389.087	353.11
389.466	342.72
389.846	344.3
390.225	337.07
390.605	355.15
390.984	335.03
391.363	342.27
391.743	360.34
392.122	369.16
392.501	348.82
392.881	377.07
393.26	351.53
393.639	351.98
394.018	368.7
394.397	351.08
394.776	369.16
395.155	363.51
395.534	374.58
395.913	376.84
396.292	375.03
396.671	386.33
397.05	373.45
397.429	374.58
397.808	394.47
398.186	379.33
398.565	397.4
398.944	383.39
399.323	370.74
399.701	378.42
400.08	383.39
400.458	387.01
400.837	400.12
401.215	396.27
401.594	367.35
401.972	383.62
402.351	378.87
402.729	369.16
403.107	370.06
403.486	394.69
403.864	391.76
404.242	407.57
404.62	405.54
404.999	418.87
405.377	423.17
405.755	403.96
406.133	399.44
406.511	380
406.889	438.99
407.267	388.82
407.645	408.93
408.023	413.45
408.401	427.01
408.779	426.1
409.156	443.28
409.534	402.38
409.912	406.44
410.29	425.43
410.667	412.77
411.045	418.87
411.422	424.3
411.8	435.6
412.178	422.94
412.555	441.02
412.933	423.84
413.31	442.83
413.687	457.52
414.065	448.93
414.442	442.38
414.819	439.89
415.197	466.1
415.574	478.76
415.951	449.61
416.328	482.37
416.705	485.99
417.082	475.37
417.46	450.51
417.837	469.27
418.214	485.99
418.591	464.3
418.967	470.85
419.344	476.95
419.721	478.76
420.098	482.83
420.475	481.7
420.852	496.16
421.228	489.38
421.605	532.32
421.982	500.9
422.358	490.96
422.735	498.42
423.111	515.59
423.488	514.24
423.864	504.52
424.241	516.72
424.617	517.85
424.994	515.14
425.37	502.03
425.746	519.44
426.123	520.57
426.499	512.2
426.875	523.5
427.251	522.6
427.627	545.88
428.003	551.3
428.379	548.81
428.756	546.1
429.132	565.54
429.507	559.66
429.883	546.78
430.259	569.6
430.635	557.85
431.011	553.56
431.387	570.96
431.763	578.64
432.138	594.01
432.514	585.87
432.89	589.26
433.265	622.94
433.641	590.85
434.016	604.86
434.392	627.68
434.767	612.09
435.143	619.55
435.518	614.8
435.894	612.09
436.269	625.2
436.644	669.26
437.02	636.04
437.395	641.92
437.77	643.05
438.145	642.37
438.52	655.25
438.895	661.58
439.271	671.52
439.646	656.61
440.021	670.17
440.395	657.28
440.77	659.77
441.145	666.78
441.52	687.34
441.895	701.35
442.27	697.06
442.645	689.83
443.019	695.48
443.394	703.84
443.769	705.19
444.143	694.57
444.518	723.27
444.892	708.36
445.267	693.67
445.641	727.57
446.016	735.7
446.39	714.46
446.764	710.62
447.139	738.41
447.513	743.61
447.887	728.02
448.262	725.76
448.636	752.2
449.01	769.6
449.384	769.82
449.758	758.53
450.132	785.87
450.506	744.74
450.88	772.99
451.254	784.51
451.628	786.77
452.002	764.63
452.376	781.8
452.75	813.44
453.123	820.22
453.497	817.51
453.871	817.28
454.244	818.64
454.618	855.02
454.992	849.82
455.365	842.82
455.739	838.07
456.112	865.19
456.486	865.87
456.859	865.87
457.232	906.54
457.606	897.28
457.979	902.48
458.352	899.76
458.725	918.97
459.099	949.48
459.472	957.62
459.845	958.52
460.218	965.98
460.591	959.88
460.964	977.95
461.337	990.61
461.71	991.97
462.083	1036.03
462.456	1031.96
462.829	1024.96
463.201	1042.59
463.574	1043.26
463.947	1069.48
464.32	1084.62
464.692	1096.37
465.065	1111.96
465.438	1118.29
465.81	1141.79
466.183	1132.53
466.555	1165.97
466.928	1170.49
467.3	1191.28
467.672	1220.21
468.045	1214.11
468.417	1258.85
468.789	1243.26
469.161	1292.07
469.534	1301.79
469.906	1354.44
470.278	1367.32
470.65	1373.2
471.022	1416.81
471.394	1417.04
471.766	1461.56
472.138	1485.74
472.51	1521.67
472.882	1545.85
473.253	1559.18
473.625	1632.63
473.997	1657.03
474.369	1651.16
474.74	1722.57
475.112	1749.23
475.484	1801.44
475.855	1860.19
476.227	1881.21
476.598	1928.66
476.97	2000.75
477.341	2047.53
477.713	2089.79
478.084	2104.25
478.455	2202.56
478.827	2289.56
479.198	2360.52
479.569	2370.46
479.94	2473.73
480.311	2503.11
480.682	2612.04
481.053	2698.36
481.424	2800.96
481.795	2838.47
482.166	2884.8
482.537	2990.33
482.908	3098.12
483.279	3174.51
483.65	3287.27
484.021	3379.02
484.391	3506.7
484.762	3554.84
485.133	3642.74
485.503	3744.89
485.874	3877.99
486.244	3980.36
486.615	4092.45
486.985	4230.3
487.356	4364.53
487.726	4497.64
488.097	4595.26
488.467	4688.37
488.837	4846.55
489.207	4926.33
489.578	5081.35
489.948	5256.71
490.318	5347.78
490.688	5473.66
491.058	5630.71
491.428	5771.05
491.798	5945.96
492.168	6109.35
492.538	6180.08
492.908	6342.79
493.278	6531.93
493.648	6608.99
494.017	6821.87
494.387	6872.49
494.757	7060.05
495.126	7214.4
495.496	7364.68
495.866	7472.02
496.235	7651.9
496.605	7766.7
496.974	7980.26
497.344	8055.96
497.713	8237.2
498.082	8446.46
498.452	8582.5
498.821	8628.83
499.19	8772.33
499.559	8921.47
499.928	9063.62
500.298	9280.11
500.667	9367.34
501.036	9419.77
501.405	9659.76
501.774	9771.4
502.143	9901.11
502.512	10051.84
502.88	10193.53
503.249	10271.04
503.618	10452.96
503.987	10539.96
504.356	10740.86
504.724	10811.14
505.093	10980.18
505.462	11049.1
505.83	11195.99
506.199	11350.34
506.567	11584.23
506.936	11519.37
507.304	11888.4
507.672	11930.43
508.041	12003.2
508.409	12189.64
508.777	12280.03
509.145	12499.01
509.514	12538.33
509.882	12715.95
510.25	12807.7
510.618	13012.21
510.986	13049.05
511.354	13250.4
511.722	13450.62
512.09	13582.59
512.458	13606.55
512.826	13709.15
513.193	13857.16
513.561	13906.88
513.929	14035.01
514.297	14230.49
514.664	14367.88
515.032	14340.54
515.4	14663.7
515.767	14732.17
516.135	14862.11
516.502	14851.71
516.869	15153.18
517.237	15262.78
517.604	15262.55
517.972	15549.55
518.339	15640.17
518.706	15666.16
519.073	15826.38
519.44	15968.52
519.808	16119.25
520.175	16125.35
520.542	16434.27
520.909	16488.96
521.276	16578.67
521.643	16755.84
522.009	16937.76
522.376	17104.99
522.743	17153.35
523.11	17311.08
523.477	17580.23
523.843	17686.67
524.21	17900
524.577	17987.68
524.943	18149.71
525.31	18259.53
525.676	18365.07
526.043	18524.61
526.409	18657.94
526.776	18860.87
527.142	18838.95
527.508	18996.24
527.874	19167.53
528.241	19260.19
528.607	19292.73
528.973	19579.05
529.339	19620.63
529.705	19811.13
530.071	19992.14
530.437	20038.47
530.803	20292.47
531.169	20252.02
531.535	20279.37
531.901	20324.79
532.267	20530.89
532.632	20743.54
532.998	20723.65
533.364	20877.77
533.73	20937.2
534.095	21173.81
534.461	21153.92
534.826	21346.23
535.192	21382.62
535.557	21515.04
535.923	21527.24
536.288	21728.6
536.653	21805.43
537.019	21794.81
537.384	21904.18
537.749	22058.53
538.114	22078.42
538.479	22057.85
538.845	22200.9
539.21	22108.7
539.575	22373.1
539.94	22433.89
540.305	22552.98
540.67	22416.03
541.034	22626.88
541.399	22774.67
541.764	22744.84
542.129	22895.12
542.494	22966.53
542.858	23044.72
543.223	22985.06
543.587	23325.39
543.952	23193.19
544.316	23268.67
544.681	23348.67
545.045	23369.23
545.41	23577.36
545.774	23629.56
546.138	23700.29
546.503	23795.43
546.867	23693.74
547.231	24053.05
547.595	23950.68
547.959	24111.13
548.324	24141.19
548.688	24204.46
549.052	24221.19
549.416	24241.3
549.779	24347.06
550.143	24457.79
550.507	24597.45
550.871	24694.62
551.235	24662.76
551.599	24865.69
551.962	24869.53
552.326	25047.6
552.689	25236.53
553.053	25138
553.417	25150.43
553.78	25494.15
554.143	25445.79
554.507	25500.93
554.87	25611.43
555.234	25896.4
555.597	25793.8
555.96	25937.98
556.323	26002.83
556.686	25946.11
557.05	26174.35
557.413	26335.71
557.776	26328.02
558.139	26482.59
558.502	26600.33
558.865	26681.69
559.228	26919.19
559.59	26854.56
559.953	27038.74
560.316	27275.79
560.679	27408.22
561.041	27607.76
561.404	27617.93
561.767	27786.29
562.129	27739.74
562.492	28032.38
562.854	28025.6
563.217	27999.16
563.579	28206.17
563.941	28332.94
564.304	28488.42
564.666	28606.15
565.028	28603.44
565.39	28741.97
565.753	28916.2
566.115	29035.52
566.477	29208.4
566.839	29192.58
567.201	29408.85
567.563	29468.73
567.925	29636.64
568.287	29579.24
568.648	29737.88
569.01	29962.96
569.372	30134.25
569.734	30027.36
570.095	30251.31
570.457	30392.77
570.819	30468.93
571.18	30448.37
571.542	30645.65
571.903	30695.59
572.265	30661.92
572.626	30950.05
572.987	31017.62
573.349	31132.64
573.71	31188.23
574.071	31275.91
574.432	31387.1
574.794	31578.05
575.155	31547.55
575.516	31485.17
575.877	31760.65
576.238	31774.43
576.599	31853.75
576.96	31880.19
577.32	31928.55
577.681	32063.46
578.042	32111.6
578.403	32063.24
578.763	32251.71
579.124	32213.74
579.485	32431.82
579.845	32448.54
580.206	32398.37
580.566	32408.77
580.927	32512.27
581.287	32505.49
581.648	32451.48
582.008	32740.06
582.368	32589.33
582.728	32678.59
583.089	32720.4
583.449	32716.78
583.809	32663
584.169	32865.93
584.529	32692.6
584.889	32990.9
585.249	32746.16
585.609	32781.41
585.969	32945.02
586.329	32865.48
586.688	32846.27
587.048	32907.51
587.408	32821.41
587.768	32889.66
588.127	32872.03
588.487	32969.43
588.846	33193.6
589.206	32935.98
589.565	32982.31
589.925	33311.12
590.284	33010.78
590.643	33253.49
591.003	33129.2
591.362	33259.14
591.721	33272.92
592.08	33214.4
592.44	33226.82
592.799	33275.18
593.158	33221.17
593.517	33231.34
593.876	33369.19
594.235	33350.44
594.593	33292.36
594.952	33373.03
595.311	33250.33
595.67	33450.77
596.029	33592.46
596.387	33588.85
596.746	33681.95
597.104	33400.83
597.463	33498.46
597.822	33655.97
598.18	33417.1
598.538	33490.55
598.897	33946.81
599.255	33517.44
599.613	34071.32
599.972	33778.67
600.33	33935.51
600.688	33802.85
601.046	34110.19
601.404	34046.92
601.762	34026.13
602.12	34134.14
602.478	34256.18
602.836	34149.29
603.194	33994.71
603.552	34162.84
603.91	34105.45
604.268	34276.97
604.625	34216.63
604.983	34324.42
605.341	34239
605.698	34320.13
606.056	34420.69
606.413	34421.37
606.771	34590.86
607.128	34547.69
607.485	34566.68
607.843	34574.81
608.2	34789.04
608.557	34847.35
608.914	34781.13
609.272	35080.79
609.629	35025.87
609.986	35240.1
610.343	35072.88
610.7	35317.62
611.057	35323.04
611.414	35182.03
611.771	35329.14
612.127	35475.8
612.484	35386.09
612.841	35646.65
613.198	35530.72
613.554	35414.56
613.911	35746.31
614.267	35654.33
614.624	35499.53
614.98	35674.9
615.337	35935.91
615.693	35847.77
616.05	35809.58
616.406	36121.89
616.762	35796.25
617.118	36006.86
617.475	36029.24
617.831	36173.19
618.187	36115.79
618.543	36260.42
618.899	36375.67
619.255	36361.2
619.611	36396.01
619.967	36427.87
620.323	36611.59
620.678	36532.5
621.034	36407.76
621.39	36429.23
621.746	36492.27
622.101	36937.01
622.457	36740.63
622.812	36704.92
623.168	36818.82
623.523	36776.11
623.879	36900.63
624.234	36737.24
624.589	36906.05
624.945	36918.48
625.3	36911.47
625.655	36831.93
626.01	36964.8
626.365	36985.37
626.72	36840.51
627.075	36761.42
627.43	36908.31
627.785	36887.74
628.14	36985.14
628.495	37025.82
628.85	36921.19
629.205	36822.21
629.559	37165.48
629.914	36833.28
630.269	36848.65
630.623	36798.71
630.978	36741.31
631.332	36996.67
631.687	36981.08
632.041	36899.5
632.396	36857.92
632.75	36692.5
633.104	36800.52
633.459	36634.87
633.813	36760.74
634.167	36584.93
634.521	36697.69
634.875	36807.07
635.229	36640.07
635.583	36508.55
635.937	36598.71
636.291	36583.35
636.645	36624.47
636.999	36383.8
637.352	36713.06
637.706	36571.37
638.06	36591.26
638.413	36428.55
638.767	36296.12
639.121	36496.34
639.474	36291.6
639.828	36294.09
640.181	36314.88
640.534	36334.09
640.888	36175.67
641.241	36092.74
641.594	36116.01
641.947	36301.77
642.301	36196.92
642.654	36183.58
643.007	36275.56
643.36	36215.67
643.713	36038.73
644.066	36195.33
644.419	35974.32
644.771	35664.73
645.124	35382.02
645.477	35359.2
645.83	35172.31
646.182	35067.23
646.535	34994.69
646.888	35129.82
647.24	34936.84
647.593	35033.78
647.945	34912.66
648.298	34918.31
648.65	34732.1
649.002	34646.9
649.355	34900.45
649.707	34783.62
650.059	34856.61
650.411	35438.74
650.763	35223.83
651.115	35719.41
651.467	35510.61
651.819	35404.39
652.171	35479.65
652.523	35379.08
652.875	35373.21
653.227	35303.38
653.578	35436.03
653.93	35480.78
654.282	35344.28
654.633	35243.72
654.985	35241.69
655.337	35248.01
655.688	35296.37
656.039	35340.44
656.391	35097.96
656.742	35162.37
657.094	35129.15
657.445	35251.86
657.796	35246.43
658.147	35115.81
658.498	35253.21
658.849	35136.15
659.2	35076.94
659.551	34955.59
659.902	35113.33
660.253	34968.47
660.604	35102.25
660.955	35005.99
661.306	35093.67
661.656	34922.37
662.007	35047.34
662.358	35025.19
662.708	35039.43
663.059	35000.56
663.409	34773.9
663.76	35054.57
664.11	34960.34
664.461	35069.49
664.811	34882.83
665.161	34950.62
665.511	34840.11
665.862	34866.1
666.212	35013.22
666.562	34934.58
666.912	34838.76
667.262	34848.48
667.612	34939.77
667.962	34965.31
668.312	34880.11
668.662	35010.28
669.011	34827.91
669.361	34695.03
669.711	34733.23
670.06	34705.2
670.41	34573.91
670.76	34705.66
671.109	34708.14
671.459	34763.05
671.808	34632.66
672.157	34718.54
672.507	34629.5
672.856	34532.55
673.205	34582.27
673.554	34703.17
673.904	34530.74
674.253	34717.63
674.602	34429.96
674.951	34010.98
675.3	34010.08
675.649	34356.06
675.998	34469.5
676.346	34415.72
676.695	34596.05
677.044	34191.77
677.393	34363.74
677.741	34455.72
678.09	34252.56
678.438	34264.31
678.787	34263.18
679.135	34264.99
679.484	34061.15
679.832	34231.32
680.181	34036.29
680.529	34139.79
680.877	33894.83
681.225	34075.84
681.573	34206.91
681.922	33897.09
682.27	33682.86
682.618	33843.53
682.966	33743.87
683.314	33796.75
683.661	33731.67
684.009	33546.82
684.357	33481.51
684.705	33353.83
685.053	33489.19
685.4	33470.43
685.748	33301.4
686.095	33335.07
686.443	33098.69
686.79	33101.63
687.138	33209.2
687.485	33168.97
687.832	33087.84
688.18	33009.65
688.527	32858.92
688.874	32824.12
689.221	32740.06
689.568	32737.57
689.915	32709.78
690.262	32574.41
690.609	32446.51
690.956	32421.2
691.303	32364.93
691.65	32232.27
691.997	32329.22
692.344	31973.3
692.69	32065.72
693.037	32128.55
693.383	31840.42
693.73	32084.48
694.077	31691.95
694.423	31869.35
694.769	31648.11
695.116	31574.89
695.462	31548.22
695.808	31527.43
696.155	31485.63
696.501	31345.29
696.847	31319.53
697.193	31018.07
697.539	31209.02
697.885	31036.6
698.231	30814.46
698.577	30782.59
698.923	30843.16
699.269	30597.51
699.614	30440.91
699.96	30468.48
700.306	30491.53
700.651	30303.29
700.997	30271.2
701.342	30092.9
701.688	30104.42
702.033	29937.19
702.379	29990.75
702.724	29870.3
703.069	30009.73
703.415	29586.47
703.76	29679.8
704.105	29697.2
704.45	29554.38
704.795	29385.57
705.14	29364.78
705.485	29217.21
705.83	29183.99
706.175	29324.55
706.52	29127.72
706.865	28990.78
707.209	28940.61
707.554	28874.62
707.899	29030.78
708.243	28757.79
708.588	28753.27
708.932	28668.53
709.277	28362.09
709.621	28576.78
709.966	28418.14
710.31	28457.46
710.654	28249.78
710.998	28316.22
711.342	28349.21
711.687	28250.23
712.031	28086.39
712.375	28008.66
712.719	27998.49
713.063	27977.02
713.407	28002.78
713.75	27803.01
714.094	28024.93
714.438	27725.5
714.782	27838.94
715.125	27657.93
715.469	27631.49
715.812	27582.68
716.156	27396.47
716.499	27432.63
716.843	27374.32
717.186	27247.32
717.53	27384.04
717.873	27367.32
718.216	27274.44
718.559	27199.41
718.902	26917.84
719.246	27005.74
719.589	26933.66
719.932	26804.85
720.275	26826.77
720.617	26800.1
720.96	26758.52
721.303	26779.99
721.646	26786.09
721.989	26519.2
722.331	26751.97
722.674	26530.28
723.016	26578.19
723.359	26554.68
723.701	26435.59
724.044	26263.62
724.386	26202.15
724.729	26289.83
725.071	26114.69
725.413	26242.15
725.755	26304.29
726.097	26156.73
726.439	25843.06
726.782	25972.78
727.124	26094.13
727.465	25913.8
727.807	25844.19
728.149	25860.69
728.491	25789.73
728.833	25850.75
729.175	25707.25
729.516	25698.43
729.858	25656.63
730.199	25619.11
730.541	25584.54
730.882	25608.04
731.224	25721.94
731.565	25454.6
731.906	25497.08
732.248	25418.22
732.589	25347.71
732.93	25192.69
733.271	25166.25
733.612	25274.72
733.953	25275.62
734.294	25033.14
734.635	25068.39
734.976	25154.27
735.317	25115.4
735.658	25057.1
735.999	25015.06
736.339	24951.79
736.68	24988.4
737.021	24822.3
737.361	24896.65
737.702	24970.09
738.042	24794.73
738.383	24782.3
738.723	24761.06
739.063	24653.04
739.404	24678.35
739.744	24557.45
740.084	24657.56
740.424	24468.64
740.764	24612.81
741.104	24527.39
741.444	24344.35
741.784	24393.16
742.124	24399.94
742.464	24245.82
742.804	24359.03
743.143	24237.91
743.483	24272.26
743.823	24109.55
744.162	24169.21
744.502	24127.4
744.841	23997.91
745.181	24065.94
745.52	23969.89
745.86	24114.52
746.199	23862.1
746.538	23867.97
746.877	24013.28
747.216	23898.26
747.556	23823
747.895	23875.43
748.234	23709.33
748.573	23724.93
748.911	23566.29
749.25	23573.52
749.589	23572.16
749.928	23494.42
750.267	23532.62
750.605	23542.56
750.944	23453.97
751.283	23377.82
751.621	23399.06
751.96	23181.44
752.298	23244.49
752.636	23231.61
752.975	23133.53
753.313	23143.7
753.651	23102.12
753.989	23045.4
754.327	23098.05
754.666	22873.42
755.004	22992.97
755.342	22952.52
755.679	22779.87
756.017	22771.73
756.355	22751.85
756.693	22649.02
