Data from hue_00_FLMS001491_19.txt Node
Date: Mon Feb 06 15:29:21 GMT 2017
User: dcchb
Spectrometer: FLMS00149
Trigger mode: 0
Integration Time (sec): 2.000000E-2
Scans to average: 10
Electric dark correction enabled: true
Nonlinearity correction enabled: false
Boxcar width: 0
XAxis mode: Wavelengths
Number of Pixels in Spectrum: 2048
>>>>>Begin Spectral Data<<<<<
341.393	-13.78
341.776	-13.78
342.16	-13.78
342.543	-45.87
342.927	-55.37
343.31	-68.25
343.693	-76.16
344.077	-65.31
344.46	-72.54
344.843	-62.6
345.226	-27.34
345.61	-31.19
345.993	-15.59
346.376	-0.23
346.759	4.07
347.142	29.38
347.525	46.1
347.908	70.05
348.291	79.55
348.674	89.72
349.057	100.34
349.44	115.93
349.823	140.34
350.206	150.05
350.588	211.97
350.971	216.04
351.354	227.34
351.737	247.9
352.119	234.12
352.502	241.8
352.884	288.13
353.267	280.22
353.65	274.8
354.032	265.98
354.414	302.82
354.797	318.64
355.179	307.34
355.562	312.53
355.944	320.22
356.326	320.9
356.709	329.48
357.091	339.65
357.473	330.84
357.855	322.93
358.238	355.24
358.62	335.36
359.002	326.55
359.384	328.35
359.766	331.74
360.148	329.71
360.53	337.62
360.912	334.45
361.294	317.73
361.676	331.74
362.057	334
362.439	339.43
362.821	333.55
363.203	336.26
363.584	342.82
363.966	318.86
364.348	335.13
364.729	344.85
365.111	310.27
365.493	310.95
365.874	339.43
366.256	320.67
366.637	312.99
367.019	331.74
367.4	310.05
367.781	317.51
368.163	315.02
368.544	312.76
368.925	303.49
369.306	335.36
369.688	289.03
370.069	320.9
370.45	301.01
370.831	298.3
371.212	307.79
371.593	326.77
371.974	289.94
372.355	304.85
372.736	299.43
373.117	310.73
373.498	317.73
373.879	314.34
374.26	315.02
374.641	321.8
375.021	305.75
375.402	343.04
375.783	318.41
376.163	312.31
376.544	301.01
376.925	316.38
377.305	303.72
377.686	310.05
378.066	317.51
378.447	303.95
378.827	321.35
379.208	298.98
379.588	323.61
379.968	322.25
380.349	313.89
380.729	341.91
381.109	320.22
381.489	315.92
381.87	321.12
382.25	327.22
382.63	316.15
383.01	326.32
383.39	325.87
383.77	319.09
384.15	315.25
384.53	327.9
384.91	350.73
385.29	348.24
385.67	338.07
386.049	335.81
386.429	331.06
386.809	350.05
387.189	356.15
387.568	346.21
387.948	350.05
388.328	338.52
388.707	349.37
389.087	361.8
389.466	352.31
389.846	355.02
390.225	356.15
390.605	357.28
390.984	355.47
391.363	351.4
391.743	361.57
392.122	353.66
392.501	368.58
392.881	364.96
393.26	369.71
393.639	356.15
394.018	365.87
394.397	365.64
394.776	367.9
395.155	349.14
395.534	363.83
395.913	361.35
396.292	359.31
396.671	390.05
397.05	365.64
397.429	367
397.808	347.79
398.186	385.3
398.565	369.48
398.944	382.81
399.323	362.93
399.701	392.08
400.08	378.07
400.458	388.24
400.837	370.61
401.215	389.37
401.594	372.19
401.972	389.37
402.351	404.51
402.729	394.11
403.107	402.25
403.486	406.77
403.864	376.94
404.242	395.24
404.62	409.71
404.999	406.77
405.377	402.48
405.755	421.23
406.133	403.83
406.511	382.14
406.889	425.53
407.267	409.71
407.645	432.76
408.023	417.62
408.401	413.32
408.779	400.89
409.156	414.68
409.534	408.58
409.912	418.75
410.29	431.4
410.667	444.06
411.045	436.82
411.422	441.8
411.8	425.75
412.178	447.9
412.555	448.12
412.933	445.86
413.31	467.33
413.687	450.61
414.065	479.76
414.442	467.56
414.819	481.34
415.197	480.67
415.574	458.74
415.951	504.85
416.328	497.84
416.705	485.41
417.082	476.6
417.46	472.98
417.837	496.48
418.214	510.95
418.591	526.54
418.967	499.65
419.344	497.61
419.721	489.93
420.098	525.86
420.475	515.47
420.852	518.4
421.228	531.74
421.605	526.09
421.982	532.19
422.358	528.8
422.735	547.1
423.111	533.32
423.488	536.48
423.864	546.2
424.241	540.1
424.617	549.14
424.994	531.96
425.37	547.1
425.746	545.97
426.123	566.99
426.499	543.71
426.875	570.15
427.251	558.63
427.627	562.02
428.003	562.25
428.379	584.39
428.756	559.76
429.132	598.85
429.507	591.62
429.883	576.03
430.259	612.19
430.635	620.32
431.011	601.34
431.387	647.44
431.763	627.33
432.138	618.74
432.514	627.33
432.89	642.69
433.265	644.28
433.641	660.55
434.016	649.02
434.392	652.86
434.767	666.88
435.143	658.74
435.518	700.32
435.894	649.25
436.269	693.99
436.644	699.64
437.02	714.11
437.395	670.72
437.77	716.82
438.145	709.59
438.52	731.96
438.895	724.73
439.271	723.6
439.646	726.31
440.021	722.47
440.395	753.2
440.77	730.6
441.145	765.18
441.52	763.6
441.895	764.5
442.27	754.78
442.645	782.8
443.019	753.43
443.394	767.21
443.769	770.6
444.143	776.93
444.518	770.6
444.892	776.7
445.267	764.95
445.641	795.69
446.016	817.61
446.39	793.2
446.764	798.85
447.139	788.91
447.513	797.72
447.887	822.35
448.262	792.75
448.636	795.69
449.01	839.98
449.384	831.39
449.758	832.52
450.132	824.39
450.506	856.47
450.88	860.77
451.254	869.81
451.628	845.4
452.002	853.76
452.376	884.95
452.75	885.63
453.123	894.21
453.497	888.34
453.871	887.43
454.244	886.98
454.618	904.16
454.992	922.91
455.365	884.72
455.739	926.53
456.112	931.95
456.486	941.22
456.859	951.16
457.232	952.29
457.606	993.19
457.979	985.06
458.352	1002.69
458.725	995.91
459.099	1012.63
459.472	1033.42
459.845	1023.48
460.218	1028
460.591	1044.27
460.964	1030.93
461.337	1067.32
461.71	1081.78
462.083	1064.83
462.456	1080.2
462.829	1110.93
463.201	1085.85
463.574	1131.27
463.947	1123.36
464.32	1157.94
464.692	1146.18
465.065	1146.86
465.438	1163.36
465.81	1202.68
466.183	1193.19
466.555	1223.24
466.928	1204.94
467.3	1207.2
467.672	1277.25
468.045	1287.2
468.417	1296.24
468.789	1287.65
469.161	1307.76
469.534	1312.06
469.906	1336.46
470.278	1364.94
470.65	1360.64
471.022	1372.39
471.394	1414.88
471.766	1394.31
472.138	1451.49
472.51	1465.5
472.882	1473.86
473.253	1498.27
473.625	1530.81
473.997	1575.55
474.369	1585.27
474.74	1614.19
475.112	1574.2
475.484	1611.71
475.855	1681.99
476.227	1645.15
476.598	1708.43
476.97	1729.22
477.341	1776
477.713	1781.65
478.084	1807.86
478.455	1853.74
478.827	1892.15
479.198	1942.32
479.569	1931.02
479.94	1964.92
480.311	2005.37
480.682	2055.54
481.053	2083.11
481.424	2113.62
481.795	2192.71
482.166	2180.28
482.537	2215.31
482.908	2272.26
483.279	2295.98
483.65	2296.66
484.021	2345.25
484.391	2404.46
484.762	2454.62
485.133	2482.87
485.503	2472.93
485.874	2569.88
486.244	2556.32
486.615	2607.84
486.985	2660.5
487.356	2663.21
487.726	2751.11
488.097	2788.63
488.467	2821.39
488.837	2853.03
489.207	2850.32
489.578	2929.41
489.948	2958.79
490.318	3058.9
490.688	3030.88
491.058	3104.55
491.428	3147.94
491.798	3144.78
492.168	3210.54
492.538	3221.61
492.908	3303.19
493.278	3358.33
493.648	3342.06
494.017	3406.01
494.387	3417.54
494.757	3457.76
495.126	3451.89
495.496	3497.54
495.866	3557.42
496.235	3549.51
496.605	3565.1
496.974	3619.57
497.344	3641.26
497.713	3659.56
498.082	3684.87
498.452	3752.9
498.821	3739.79
499.19	3761.48
499.559	3783.86
499.928	3791.54
500.298	3838.32
500.667	3874.25
501.036	3893.91
501.405	3934.81
501.774	3935.04
502.143	3982.49
502.512	4006.22
502.88	4036.96
503.249	4054.81
503.618	4039.22
503.987	4103.17
504.356	4097.07
504.724	4121.25
505.093	4130.74
505.462	4145.43
505.83	4139.1
506.199	4198.99
506.567	4289.6
506.936	4244.18
507.304	4292.99
507.672	4277.63
508.041	4260.45
508.409	4305.42
508.777	4353.33
509.145	4391.07
509.514	4381.58
509.882	4401.01
510.25	4428.36
510.618	4450.5
510.986	4476.04
511.354	4443.27
511.722	4522.82
512.09	4520.33
512.458	4539.77
512.826	4564.17
513.193	4584.74
513.561	4592.42
513.929	4610.27
514.297	4645.75
514.664	4658.86
515.032	4699.76
515.4	4735.69
515.767	4697.05
516.135	4751.06
516.502	4730.5
516.869	4795.13
517.237	4838.29
517.604	4818.18
517.972	4831.29
518.339	4838.97
518.706	4873.77
519.073	4901.57
519.44	4916.93
519.808	4933.2
520.175	4975.69
520.542	4984.05
520.909	5021.11
521.276	4991.73
521.643	5015.24
522.009	5025.86
522.376	5061.56
522.743	5102.69
523.11	5110.37
523.477	5143.37
523.843	5229.92
524.21	5226.3
524.577	5224.95
524.943	5253.65
525.31	5330.93
525.676	5327.32
526.043	5394.21
526.409	5378.16
526.776	5404.15
527.142	5469.91
527.508	5508.33
527.874	5535
528.241	5545.16
528.607	5537.26
528.973	5585.16
529.339	5597.37
529.705	5594.88
530.071	5670.13
530.437	5736.12
530.803	5710.81
531.169	5793.29
531.535	5700.64
531.901	5767.31
532.267	5747.87
532.632	5855.89
532.998	5893.86
533.364	5891.6
533.73	5939.05
534.095	5985.38
534.461	5956.68
534.826	6026.06
535.192	5976.11
535.557	6046.39
535.923	6107.64
536.288	6102.21
536.653	6125.94
537.019	6100.18
537.384	6162.78
537.749	6233.28
538.114	6217.24
538.479	6198.71
538.845	6252.26
539.21	6264.02
539.575	6196.22
539.94	6271.47
540.305	6386.95
540.67	6335.88
541.034	6340.17
541.399	6432.37
541.764	6520.05
542.129	6463.78
542.494	6530.45
542.858	6480.06
543.223	6534.29
543.587	6600.73
543.952	6591.69
544.316	6634.4
544.681	6624.46
545.045	6672.14
545.41	6712.14
545.774	6749.88
546.138	6724.34
546.503	6781.97
546.867	6780.39
547.231	6832.14
547.595	6821.74
547.959	6877.79
548.324	6903.32
548.688	6922.3
549.052	6937.67
549.416	6939.25
549.779	6929.31
550.143	6992.58
550.507	7030.32
550.871	7083.43
551.235	7013.6
551.599	7066.71
551.962	7117.55
552.326	7193.71
552.689	7182.86
553.053	7144.67
553.417	7261.28
553.78	7342.86
554.143	7242.52
554.507	7268.28
554.87	7355.06
555.234	7385.34
555.597	7257.21
555.96	7353.7
556.323	7384.89
556.686	7421.95
557.05	7444.55
557.413	7429.18
557.776	7459.46
558.139	7548.05
558.502	7487.94
558.865	7564.09
559.228	7608.61
559.59	7602.29
559.953	7595.05
560.316	7735.16
560.679	7678.44
561.041	7754.82
561.404	7793.47
561.767	7814.03
562.129	7824.65
562.492	7841.38
562.854	7924.31
563.217	7852.45
563.579	7874.37
563.941	7983.07
564.304	7956.4
564.666	8065.1
565.028	8005.21
565.39	8050.41
565.753	8131.76
566.115	8162.5
566.477	8207.24
566.839	8194.81
567.201	8247.01
567.563	8177.86
567.925	8296.05
568.287	8340.12
568.648	8404.07
569.01	8405.43
569.372	8439.55
569.734	8456.27
570.095	8504.41
570.457	8523.62
570.819	8529.04
571.18	8581.24
571.542	8604.07
571.903	8647
572.265	8662.82
572.626	8647.91
572.987	8728.36
573.349	8775.81
573.71	8825.76
574.071	8922.25
574.432	9018.07
574.794	9032.76
575.155	9075.02
575.516	9029.82
575.877	9160.89
576.238	9195.24
576.599	9287.67
576.96	9376.93
577.32	9391.84
577.681	9564.27
578.042	9531.95
578.403	9662.57
578.763	9683.81
579.124	9819.85
579.485	9946.41
579.845	9945.05
580.206	10063.69
580.566	10159.73
580.927	10255.1
581.287	10397.01
581.648	10511.14
582.008	10648.31
582.368	10756.33
582.728	10841.3
583.089	11023.89
583.449	11120.61
583.809	11340.94
584.169	11497.1
584.529	11587.72
584.889	11820.25
585.249	11902.51
585.609	12097.76
585.969	12340.47
586.329	12377.98
586.688	12668.82
587.048	12818.65
587.408	13041.46
587.768	13208.24
588.127	13407.78
588.487	13529.59
588.846	13916.02
589.206	13968.22
589.565	14225.39
589.925	14555.1
590.284	14716.9
590.643	15014.07
591.003	15220.39
591.362	15481.17
591.721	15732.24
592.08	15941.28
592.44	16200.48
592.799	16418.33
593.158	16721.37
593.517	17016.73
593.876	17223.05
594.235	17490.61
594.593	17652.19
594.952	17959.75
595.311	18318.61
595.67	18529.91
596.029	18924.02
596.387	19087.86
596.746	19440.39
597.104	19547.96
597.463	19883.09
597.822	20196.08
598.18	20479.24
598.538	20613.24
598.897	21001.48
599.255	21111.31
599.613	21630.17
599.972	21710.62
600.33	22080.1
600.688	22220.43
601.046	22536.36
601.404	22914.2
601.762	23033.74
602.12	23370.68
602.478	23575.88
602.836	23830.79
603.194	24110.1
603.552	24238.91
603.91	24546.93
604.268	24776.3
604.625	24988.95
604.983	25247.47
605.341	25356.85
605.698	25706.89
606.056	26010.84
606.413	26153.21
606.771	26451.28
607.128	26677.94
607.485	26717.49
607.843	26986.86
608.2	27266.4
608.557	27534.19
608.914	27584.81
609.272	27936.67
609.629	28180.73
609.986	28486.48
610.343	28524.9
610.7	28862.29
611.057	28928.5
611.414	29114.26
611.771	29312
612.127	29701.37
612.484	29733.68
612.841	29863.17
613.198	29866.11
613.554	30153.56
613.911	30520.33
614.267	30524.4
614.624	30693.88
614.98	30875.12
615.337	31182.23
615.693	31193.3
616.05	31238.5
616.406	31684.14
616.762	31615.44
617.118	31828.77
617.475	31776.57
617.831	32127.97
618.187	32164.8
618.543	32245.93
618.899	32631.46
619.255	32621.97
619.611	32687.05
619.967	32903.09
620.323	33103.54
620.678	33081.39
621.034	33103.08
621.39	33205.45
621.746	33255.17
622.101	33701.03
622.457	33544.65
622.812	33636.63
623.168	33798.66
623.523	33906
623.879	34144.64
624.234	33867.81
624.589	34090.86
624.945	34205.2
625.3	34399.77
625.655	34362.49
626.01	34530.39
626.365	34501.47
626.72	34576.72
627.075	34563.84
627.43	34591.63
627.785	34588.02
628.14	34729.26
628.495	34872.53
628.85	35012.64
629.205	34769.93
629.559	35085.86
629.914	34894.45
630.269	34998.18
630.623	34982.58
630.978	34871.4
631.332	35122.01
631.687	35301.67
632.041	35017.38
632.396	35163.37
632.75	35031.85
633.104	35233.88
633.459	35140.77
633.813	35196.59
634.167	35200.88
634.521	35171.05
634.875	35208.57
635.229	35152.75
635.583	35039.08
635.937	35136.7
636.291	35046.99
636.645	35196.59
636.999	35104.16
637.352	35283.14
637.706	35070.94
638.06	35307.09
638.413	35153.65
638.767	35182.8
639.121	35298.05
639.474	35077.5
639.828	35223.03
640.181	35179.41
640.534	35276.81
640.888	35095.12
641.241	34931.96
641.594	35056.93
641.947	35147.55
642.301	35111.39
642.654	35117.04
643.007	35115.23
643.36	35012.41
643.713	34912.53
644.066	35190.49
644.419	34913.66
644.771	34727.67
645.124	34490.62
645.477	34303.73
645.83	34191.19
646.182	34040.01
646.535	34025.55
646.888	34161.36
647.24	33974.93
647.593	34035.72
647.945	34164.3
648.298	34025.32
648.65	33865.78
649.002	33911.65
649.355	33978.09
649.707	33847.7
650.059	34034.81
650.411	34439.77
650.763	34438.64
651.115	34873.21
651.467	34753.21
651.819	34691.29
652.171	34695.81
652.523	34510.28
652.875	34505.08
653.227	34450.85
653.578	34772.42
653.93	34641.8
654.282	34441.35
654.633	34390.51
654.985	34470.96
655.337	34598.64
655.688	34494.23
656.039	34711.18
656.391	34340.34
656.742	34391.86
657.094	34469.83
657.445	34533.78
657.796	34451.75
658.147	34444.07
658.498	34340.57
658.849	34531.97
659.2	34413.33
659.551	34314.58
659.902	34507.79
660.253	34326.56
660.604	34484.07
660.955	34212.89
661.306	34397.74
661.656	34244.75
662.007	34244.98
662.358	34314.58
662.708	34260.79
663.059	34320.91
663.409	34075.26
663.76	34389.38
664.11	34282.26
664.461	34453.11
664.811	34178.08
665.161	34364.29
665.511	34190.97
665.862	34330.4
666.212	34437.29
666.562	34316.16
666.912	34267.12
667.262	34304.41
667.612	34350.06
667.962	34260.34
668.312	34300.57
668.662	34415.59
669.011	34188.25
669.361	34191.42
669.711	34225.54
670.06	34133.79
670.41	34068.48
670.76	34064.19
671.109	34244.3
671.459	34143.51
671.808	33950.97
672.157	34213.34
672.507	33926.11
672.856	33884.98
673.205	33901.93
673.554	34125.66
673.904	33957.75
674.253	34094.92
674.602	34090.4
674.951	33558.89
675.3	33274.61
675.649	33956.62
675.998	33826.23
676.346	33944.42
676.695	34064.87
677.044	33641.83
677.393	33967.24
677.741	33874.59
678.09	33783.07
678.438	33784.42
678.787	33850.18
679.135	33755.5
679.484	33678.44
679.832	33682.5
680.181	33561.6
680.529	33717.98
680.877	33535.39
681.225	33544.65
681.573	33701.71
681.922	33445.9
682.27	33421.49
682.618	33386.92
682.966	33337.43
683.314	33405.22
683.661	33201.16
684.009	33119.58
684.357	33048.4
684.705	33024.67
685.053	32992.8
685.4	32923.43
685.748	32802.98
686.095	32768.18
686.443	32747.16
686.79	32626.03
687.138	32743.77
687.485	32798.23
687.832	32588.52
688.18	32579.71
688.527	32422.88
688.874	32442.76
689.221	32245.48
689.568	32323.67
689.915	32214.97
690.262	32146.73
690.609	32159.15
690.956	31986.96
691.303	31889.33
691.65	31784.93
691.997	31861.08
692.344	31669
692.69	31567.76
693.037	31734.98
693.383	31377.48
693.73	31501.09
694.077	31379.97
694.423	31369.8
694.769	31242.12
695.116	31293.64
695.462	31164.83
695.808	31044.61
696.155	31052.52
696.501	30814.33
696.847	30794.44
697.193	30629.48
697.539	30694.79
697.885	30482.14
698.231	30362.14
698.577	30327.56
698.923	30446.88
699.269	30196.27
699.614	30091.64
699.96	30020.23
700.306	29935.26
700.651	29945.43
700.997	29744.75
701.342	29873.79
701.688	29683.51
702.033	29496.17
702.379	29663.85
702.724	29566.23
703.069	29649.16
703.415	29141.38
703.76	29206.24
704.105	29336.4
704.45	29180.02
704.795	28993.14
705.14	28960.37
705.485	29025.68
705.83	28943.19
706.175	28948.62
706.52	28781.62
706.865	28738.68
707.209	28633.82
707.554	28586.37
707.899	28594.73
708.243	28415.75
708.588	28321.74
708.932	28252.36
709.277	28182.99
709.621	28225.25
709.966	28126.04
710.31	28153.61
710.654	27949.32
710.998	27955.42
711.342	27940.73
711.687	27839.72
712.031	27681.76
712.375	27690.8
712.719	27671.59
713.063	27758.59
713.407	27688.54
713.75	27691.48
714.094	27443.8
714.438	27359.51
714.782	27427.75
715.125	27267.08
715.469	27244.26
715.812	27158.83
716.156	27064.83
716.499	27082
716.843	27043.36
717.186	26901.67
717.53	27008.78
717.873	26960.2
718.216	26912.51
718.559	26888.11
718.902	26736.47
719.246	26652.18
719.589	26536.03
719.932	26538.96
720.275	26648.79
720.617	26435.46
720.96	26398.85
721.303	26427.33
721.646	26418.51
721.989	26153.44
722.331	26371.96
722.674	26215.36
723.016	26133.1
723.359	26156.6
723.701	26235.92
724.044	25958.19
724.386	25950.73
724.729	25930.17
725.071	25954.57
725.413	25945.08
725.755	25783.73
726.097	25709.61
726.439	25719.55
726.782	25652.21
727.124	25734.01
727.465	25594.81
727.807	25574.24
728.149	25552.1
728.491	25481.36
728.833	25483.62
729.175	25447.69
729.516	25386.45
729.858	25418.77
730.199	25324.76
730.541	25376.06
730.882	25251.99
731.224	25313.91
731.565	25125.22
731.906	25186
732.248	25188.26
732.589	24980.59
732.93	25004.77
733.271	25047.03
733.612	25108.04
733.953	24989.63
734.294	24898.33
734.635	24829.63
734.976	24918.21
735.317	24762.96
735.658	24774.72
735.999	24774.94
736.339	24653.59
736.68	24770.87
737.021	24740.14
737.361	24565.91
737.702	24645.68
738.042	24499.24
738.383	24515.51
738.723	24553.03
739.063	24518.68
739.404	24468.06
739.744	24448.17
740.084	24339.7
740.424	24347.38
740.764	24392.35
741.104	24416.99
741.444	24248.63
741.784	24101.97
742.124	24240.27
742.464	24139.93
742.804	24151.46
743.143	24102.19
743.483	24081.63
743.823	23894.51
744.162	23916.89
744.502	23963.66
744.841	23869.2
745.181	23925.25
745.52	23836.21
745.86	23808.87
746.199	23844.8
746.538	23839.83
746.877	23841.18
747.216	23739.04
747.556	23711.47
747.895	23628.76
748.234	23709.89
748.573	23561.41
748.911	23481.19
749.25	23469.44
749.589	23410.46
749.928	23379.5
750.267	23403
750.605	23382.21
750.944	23306.05
751.283	23229.9
751.621	23316
751.96	23164.59
752.298	23221.99
752.636	23160.29
752.975	23123.46
753.313	22915.78
753.651	23160.97
753.989	22925.05
754.327	22817.25
754.666	22709.46
755.004	22903.8
755.342	22807.54
755.679	22698.84
756.017	22648.44
756.355	22751.27
756.693	22558.05
757.031	22609.58
757.368	22464.04
757.706	22595.11
758.044	22384.27
758.381	22410.94
758.719	22335.23
759.056	22267.66
759.394	22356.93
759.731	22156.48
760.068	22078.29
760.405	21988.12
760.743	22010.49
761.08	21897.5
