Data from hue_230_FLMS001491_00065.txt Node
Date: Tue Feb 07 16:37:35 GMT 2017
User: dcchb
Spectrometer: FLMS00149
Trigger mode: 0
Integration Time (sec): 2.000000E-2
Scans to average: 10
Electric dark correction enabled: true
Nonlinearity correction enabled: false
Boxcar width: 0
XAxis mode: Wavelengths
Number of Pixels in Spectrum: 2048
>>>>>Begin Spectral Data<<<<<
341.393	-23.39
341.776	-23.39
342.16	-23.39
342.543	-60.45
342.927	-75.14
343.31	-49.83
343.693	-73.78
344.077	-72.43
344.46	-63.61
344.843	-67.91
345.226	-29.26
345.61	-45.08
345.993	-29.72
346.376	3.28
346.759	27
347.142	29.72
347.525	52.32
347.908	50.96
348.291	65.65
348.674	97.51
349.057	105.19
349.44	136.38
349.823	132.09
350.206	162.37
350.588	164.18
350.971	203.72
351.354	199.43
351.737	219.32
352.119	236.49
352.502	261.12
352.884	267.22
353.267	267
353.65	264.06
354.032	285.08
354.414	299.31
354.797	304.96
355.179	313.78
355.562	305.64
355.944	324.17
356.326	344.74
356.709	309.26
357.091	348.8
357.473	356.49
357.855	330.95
358.238	334.12
358.62	337.73
359.002	333.66
359.384	349.48
359.766	338.41
360.148	307.22
360.53	334.12
360.912	318.3
361.294	329.82
361.676	321.01
362.057	336.38
362.439	330.95
362.821	311.97
363.203	322.82
363.584	322.82
363.966	318.52
364.348	329.14
364.729	332.31
365.111	308.13
365.493	327.79
365.874	314
366.256	302.25
366.637	316.94
367.019	316.49
367.4	290.95
367.781	288.69
368.163	315.13
368.544	319.2
368.925	307.68
369.306	316.49
369.688	293.21
370.069	307.22
370.45	309.94
370.831	305.19
371.212	303.16
371.593	294.57
371.974	293.66
372.355	307.45
372.736	303.16
373.117	330.27
373.498	317.62
373.879	284.17
374.26	315.13
374.641	308.58
375.021	299.99
375.402	299.31
375.783	309.03
376.163	305.64
376.544	309.94
376.925	308.81
377.305	347
377.686	306.32
378.066	324.17
378.447	329.37
378.827	316.04
379.208	324.62
379.588	312.65
379.968	306.32
380.349	321.46
380.729	325.98
381.109	334.34
381.489	321.23
381.87	327.34
382.25	334.79
382.63	327.34
383.01	321.69
383.39	343.83
383.77	332.08
384.15	332.99
384.53	351.29
384.91	346.77
385.29	344.96
385.67	322.36
386.049	328.01
386.429	364.17
386.809	334.79
387.189	336.38
387.568	322.59
387.948	335.25
388.328	349.93
388.707	342.93
389.087	339.09
389.466	351.06
389.846	348.13
390.225	362.36
390.605	352.42
390.984	361.23
391.363	356.26
391.743	360.56
392.122	351.29
392.501	373.21
392.881	368.92
393.26	350.39
393.639	349.03
394.018	356.49
394.397	354.91
394.776	362.59
395.155	404.17
395.534	396.94
395.913	365.98
396.292	365.53
396.671	374.57
397.05	384.96
397.429	371.18
397.808	372.98
398.186	387.9
398.565	380.22
398.944	384.51
399.323	379.54
399.701	405.53
400.08	396.71
400.458	391.74
400.837	397.84
401.215	423.15
401.594	397.16
401.972	406.43
402.351	388.35
402.729	401.23
403.107	409.82
403.486	410.05
403.864	410.27
404.242	409.14
404.62	424.51
404.999	428.58
405.377	424.73
405.755	439.42
406.133	415.92
406.511	473.32
406.889	434.68
407.267	448.01
407.645	449.82
408.023	447.78
408.401	455.92
408.779	460.44
409.156	478.07
409.534	469.71
409.912	492.98
410.29	466.32
410.667	503.38
411.045	491.17
411.422	500.44
411.8	517.84
412.178	516.03
412.555	485.98
412.933	529.14
413.31	549.7
413.687	540.21
414.065	554
414.442	553.54
414.819	579.53
415.197	549.7
415.574	566.65
415.951	563.94
416.328	570.72
416.705	589.48
417.082	585.86
417.46	591.06
417.837	611.17
418.214	598.74
418.591	619.08
418.967	636.93
419.344	634.45
419.721	656.37
420.098	649.81
420.475	648.46
420.852	643.94
421.228	662.47
421.605	672.64
421.982	690.49
422.358	685.52
422.735	711.05
423.111	695.01
423.488	739.53
423.864	751.05
424.241	749.02
424.617	747.21
424.994	763.48
425.37	759.87
425.746	755.57
426.123	793.54
426.499	807.78
426.875	809.36
427.251	807.55
427.627	835.57
428.003	832.63
428.379	832.63
428.756	851.39
429.132	870.15
429.507	858.17
429.883	864.72
430.259	896.59
430.635	893.42
431.011	897.94
431.387	911.5
431.763	936.59
432.138	931.61
432.514	933.87
432.89	945.4
433.265	973.19
433.641	986.98
434.016	1021.1
434.392	1031.95
434.767	1037.15
435.143	1089.58
435.518	1094.1
435.894	1096.13
436.269	1112.85
436.644	1133.64
437.02	1135.68
437.395	1156.92
437.77	1145.85
438.145	1196.01
438.52	1215.45
438.895	1220.65
439.271	1230.82
439.646	1243.7
440.021	1272.4
440.395	1255.22
440.77	1266.97
441.145	1297.71
441.52	1305.16
441.895	1334.32
442.27	1359.17
442.645	1363.02
443.019	1359.4
443.394	1372.73
443.769	1411.6
444.143	1397.14
444.518	1421.54
444.892	1389.91
445.267	1409.79
445.641	1449.11
446.016	1428.55
446.39	1474.42
446.764	1473.52
447.139	1484.82
447.513	1501.77
447.887	1502.45
448.262	1519.62
448.636	1532.95
449.01	1582.9
449.384	1521.2
449.758	1545.84
450.132	1578.6
450.506	1599.39
450.88	1587.19
451.254	1610.01
451.628	1636
452.002	1623.57
452.376	1660.18
452.75	1681.2
453.123	1664.93
453.497	1691.59
453.871	1698.83
454.244	1751.03
454.618	1753.51
454.992	1754.87
455.365	1769.56
455.739	1823.34
456.112	1833.96
456.486	1822.66
456.859	1832.61
457.232	1866.05
457.606	1898.37
457.979	1909.22
458.352	1922.77
458.725	1981.3
459.099	1981.53
459.472	1994.64
459.845	2043.68
460.218	2065.6
460.591	2052.71
460.964	2060.85
461.337	2091.36
461.71	2164.58
462.083	2184.69
462.456	2160.51
462.829	2142.66
463.201	2227.17
463.574	2203.22
463.947	2228.75
464.32	2283.22
464.692	2287.06
465.065	2329.09
465.438	2313.05
465.81	2373.38
466.183	2405.93
466.555	2434.4
466.928	2453.83
467.3	2432.82
467.672	2467.62
468.045	2572.47
468.417	2511.01
468.789	2554.62
469.161	2598.69
469.534	2638.91
469.906	2696.99
470.278	2671
470.65	2751.45
471.022	2743.54
471.394	2825.12
471.766	2852.92
472.138	2849.76
472.51	2911.9
472.882	2949.64
473.253	2976.53
473.625	3012.24
473.997	3056.98
474.369	3109.86
474.74	3130.43
475.112	3149.18
475.484	3202.74
475.855	3278.67
476.227	3248.84
476.598	3363.41
476.97	3407.93
477.341	3452.45
477.713	3469.17
478.084	3536.97
478.455	3576.29
478.827	3619.68
479.198	3705.1
479.569	3708.26
479.94	3794.82
480.311	3823.06
480.682	3838.88
481.053	3982.16
481.424	4000.46
481.795	4031.87
482.166	4082.27
482.537	4160.23
482.908	4207.46
483.279	4277.74
483.65	4276.61
484.021	4397.51
484.391	4430.73
484.762	4425.76
485.133	4478.87
485.503	4527.9
485.874	4569.26
486.244	4648.13
486.615	4746.88
486.985	4778.07
487.356	4839.99
487.726	4878.85
488.097	4965.86
488.467	5006.76
488.837	5033.43
489.207	5100.54
489.578	5181.45
489.948	5235
490.318	5282.23
490.688	5305.74
491.058	5358.62
491.428	5423.25
491.798	5376.24
492.168	5504.15
492.538	5549.35
492.908	5603.36
493.278	5665.27
493.648	5657.59
494.017	5737.36
494.387	5776.68
494.757	5797.47
495.126	5880.86
495.496	5858.94
495.866	5920.64
496.235	5967.87
496.605	5988.88
496.974	6007.41
497.344	6057.58
497.713	6049.22
498.082	6084.7
498.452	6123.12
498.821	6163.34
499.19	6211.02
499.559	6256.9
499.928	6254.19
500.298	6239.72
500.667	6301.19
501.036	6316.78
501.405	6384.58
501.774	6330.79
502.143	6413.96
502.512	6392.71
502.88	6478.13
503.249	6473.16
503.618	6461.19
503.987	6537.34
504.356	6552.71
504.724	6538.7
505.093	6524.91
505.462	6602.88
505.83	6601.52
506.199	6664.57
506.567	6672.25
506.936	6738.92
507.304	6764.23
507.672	6778.47
508.041	6729.2
508.409	6870.44
508.777	6857.56
509.145	6899.82
509.514	6837.9
509.882	6930.55
510.25	6903.21
510.618	6959.25
510.986	6943.89
511.354	7011.23
511.722	6970.78
512.09	7080.83
512.458	7020.72
512.826	7008.29
513.193	7103.66
513.561	7041.96
513.929	7048.74
514.297	7126.03
514.664	7189.08
515.032	7187.95
515.4	7190.43
515.767	7163.54
516.135	7182.3
516.502	7137.78
516.869	7256.19
517.237	7242.41
517.604	7224.1
517.972	7269.98
518.339	7297.1
518.706	7281.28
519.073	7241.96
519.44	7304.1
519.808	7292.12
520.175	7285.57
520.542	7337.55
520.909	7375.51
521.276	7288.51
521.643	7332.58
522.009	7410.09
522.376	7374.83
522.743	7404.21
523.11	7436.98
523.477	7563.76
523.843	7475.62
524.21	7553.36
524.577	7528.95
524.943	7524.66
525.31	7562.17
525.676	7577.54
526.043	7624.77
526.409	7536.86
526.776	7642.85
527.142	7605.56
527.508	7672.23
527.874	7678.78
528.241	7584.09
528.607	7656.63
528.973	7758.1
529.339	7712.9
529.705	7722.17
530.071	7752.23
530.437	7708.16
530.803	7749.51
531.169	7767.14
531.535	7709.06
531.901	7635.39
532.267	7717.42
532.632	7701.83
532.998	7725.11
533.364	7734.6
533.73	7701.15
534.095	7745.45
534.461	7641.72
534.826	7679.46
535.192	7664.54
535.557	7762.17
535.923	7684.88
536.288	7692.57
536.653	7760.36
537.019	7681.27
537.384	7602.85
537.749	7691.89
538.114	7680.14
538.479	7585
538.845	7632.91
539.21	7659.35
539.575	7641.27
539.94	7606.69
540.305	7590.65
540.67	7568.5
541.034	7557.43
541.399	7623.19
541.764	7607.6
542.129	7453.25
542.494	7523.08
542.858	7561.27
543.223	7500.71
543.587	7508.16
543.952	7515.62
544.316	7529.18
544.681	7445.11
545.045	7528.28
545.41	7490.09
545.774	7519.01
546.138	7439.92
546.503	7404.66
546.867	7373.03
547.231	7437.43
547.595	7408.28
547.959	7433.36
548.324	7364.67
548.688	7343.42
549.052	7360.6
549.416	7338.45
549.779	7321.05
550.143	7305.23
550.507	7361.28
550.871	7320.15
551.235	7276.08
551.599	7285.12
551.962	7317.66
552.326	7263.88
552.689	7264.1
553.053	7299.13
553.417	7221.62
553.78	7297.1
554.143	7273.59
554.507	7203.31
554.87	7267.04
555.234	7294.84
555.597	7215.97
555.96	7226.14
556.323	7250.77
556.686	7213.93
557.05	7306.81
557.413	7216.42
557.776	7261.84
558.139	7259.58
558.502	7255.06
558.865	7242.63
559.228	7281.73
559.59	7262.29
559.953	7250.54
560.316	7293.25
560.679	7268.62
561.041	7338
561.404	7264.1
561.767	7393.14
562.129	7308.85
562.492	7389.75
562.854	7410.99
563.217	7347.94
563.579	7422.52
563.941	7349.98
564.304	7348.62
564.666	7427.71
565.028	7409.18
565.39	7389.07
565.753	7487.15
566.115	7500.93
566.477	7480.59
566.839	7514.49
567.201	7484.89
567.563	7464.55
567.925	7551.1
568.287	7508.16
568.648	7606.47
569.01	7590.42
569.372	7585
569.734	7578.22
570.095	7610.76
570.457	7599.69
570.819	7655.96
571.18	7661.38
571.542	7731.89
571.903	7688.72
572.265	7710.64
572.626	7773.02
572.987	7757.88
573.349	7726.92
573.71	7820.92
574.071	7769.17
574.432	7835.84
574.794	7833.13
575.155	7832.22
575.516	7832.68
575.877	7883.52
576.238	7924.88
576.599	7947.7
576.96	7970.3
577.32	7965.33
577.681	8013.01
578.042	7949.06
578.403	8023.4
578.763	8009.17
579.124	8016.85
579.485	8035.61
579.845	8088.49
580.206	8029.51
580.566	8074.25
580.927	8144.31
581.287	8148.83
581.648	8094.59
582.008	8051.65
582.368	8123.06
582.728	8178.2
583.089	8123.74
583.449	8118.54
583.809	8169.84
584.169	8191.76
584.529	8148.15
584.889	8218.88
585.249	8235.38
585.609	8203.29
585.969	8241.93
586.329	8238.99
586.688	8294.13
587.048	8201.71
587.408	8265.43
587.768	8248.94
588.127	8201.25
588.487	8196.96
588.846	8267.01
589.206	8258.2
589.565	8294.81
589.925	8295.26
590.284	8278.54
590.643	8386.56
591.003	8402.6
591.362	8384.75
591.721	8364.19
592.08	8379.55
592.44	8439.67
592.799	8427.91
593.158	8407.12
593.517	8448.48
593.876	8404.64
594.235	8415.48
594.593	8450.29
594.952	8475.6
595.311	8438.31
595.67	8449.83
596.029	8497.29
596.387	8552.2
596.746	8498.65
597.104	8478.31
597.463	8471.3
597.822	8491.64
598.18	8529.38
598.538	8525.31
598.897	8505.2
599.255	8471.98
599.613	8601.92
599.972	8551.07
600.33	8552.2
600.688	8501.36
601.046	8524.41
601.404	8629.04
601.762	8618.64
602.12	8634.01
602.478	8626.1
602.836	8640.11
603.194	8524.63
603.552	8591.75
603.91	8579.1
604.268	8635.59
604.625	8538.87
604.983	8600.34
605.341	8582.26
605.698	8667.91
606.056	8608.93
606.413	8637.63
606.771	8641.47
607.128	8634.69
607.485	8678.3
607.843	8639.43
608.2	8711.75
608.557	8737.06
608.914	8634.24
609.272	8729.6
609.629	8728.92
609.986	8751.52
610.343	8706.32
610.7	8743.84
611.057	8747.23
611.414	8716.95
611.771	8755.81
612.127	8748.81
612.484	8788.81
612.841	8799.2
613.198	8806.44
613.554	8794.01
613.911	8798.75
614.267	8818.41
614.624	8775.48
614.98	8834.91
615.337	8860.67
615.693	8835.59
616.05	8803.05
616.406	8908.13
616.762	8896.6
617.118	8851.86
617.475	8894.57
617.831	8878.52
618.187	8925.08
618.543	8909.94
618.899	8908.35
619.255	8911.52
619.611	8908.35
619.967	8926.88
620.323	8902.25
620.678	8866.55
621.034	8955.36
621.39	8903.38
621.746	8930.73
622.101	9015.92
622.457	8903.16
622.812	8935.7
623.168	8921.46
623.523	8974.57
623.879	8967.56
624.234	8923.49
624.589	9004.4
624.945	8945.64
625.3	8970.5
625.655	8932.53
626.01	8907.22
626.365	9016.15
626.72	8947
627.075	8921.69
627.43	8930.5
627.785	8972.31
628.14	8933.66
628.495	8954.45
628.85	8976.83
629.205	8889.82
629.559	8928.01
629.914	8906.77
630.269	8880.33
630.623	8893.66
630.978	8893.21
631.332	8885.98
631.687	8977.05
632.041	8895.7
632.396	8874.23
632.75	8768.7
633.104	8924.85
633.459	8772.99
633.813	8853.44
634.167	8808.69
634.521	8776.61
634.875	8782.93
635.229	8728.02
635.583	8751.3
635.937	8744.29
636.291	8780.67
636.645	8735.02
636.999	8703.39
637.352	8702.71
637.706	8642.37
638.06	8737.74
638.413	8675.37
638.767	8617.97
639.121	8621.81
639.474	8618.64
639.828	8610.96
640.181	8580.9
640.534	8594.46
640.888	8572.54
641.241	8532.54
641.594	8613.67
641.947	8605.31
642.301	8552.43
642.654	8607.57
643.007	8585.2
643.36	8615.25
643.713	8551.3
644.066	8555.82
644.419	8509.04
644.771	8497.06
645.124	8389.95
645.477	8397.41
645.83	8386.56
646.182	8294.58
646.535	8304.75
646.888	8272.89
647.24	8211.87
647.593	8363.73
647.945	8176.62
648.298	8226.79
648.65	8195.38
649.002	8206.68
649.355	8206
649.707	8274.7
650.059	8317.41
650.411	8343.85
650.763	8327.13
651.115	8468.36
651.467	8404.86
651.819	8402.83
652.171	8451.19
652.523	8395.15
652.875	8404.19
653.227	8359.44
653.578	8432.43
653.93	8400.57
654.282	8382.49
654.633	8373.68
654.985	8410.06
655.337	8452.32
655.688	8373.9
656.039	8513.11
656.391	8374.13
656.742	8394.92
657.094	8365.32
657.445	8334.81
657.796	8379.78
658.147	8442.6
658.498	8324.19
658.849	8401.47
659.2	8335.94
659.551	8334.81
659.902	8404.19
660.253	8398.99
660.604	8404.19
660.955	8480.57
661.306	8413
661.656	8416.84
662.007	8395.6
662.358	8381.59
662.708	8411.87
663.059	8416.61
663.409	8382.27
663.76	8405.09
664.11	8459.33
664.461	8334.36
664.811	8416.84
665.161	8395.15
665.511	8393.56
665.862	8452.55
666.212	8416.61
666.562	8406.9
666.912	8402.38
667.262	8362.38
667.612	8406.45
667.962	8407.12
668.312	8399.44
668.662	8463.39
669.011	8429.04
669.361	8319.67
669.711	8414.13
670.06	8407.58
670.41	8368.48
670.76	8335.71
671.109	8391.76
671.459	8375.26
671.808	8369.61
672.157	8349.95
672.507	8308.82
672.856	8296.62
673.205	8347.24
673.554	8317.41
673.904	8295.94
674.253	8344.3
674.602	8299.33
674.951	8224.3
675.3	8126.68
675.649	8270.18
675.998	8247.81
676.346	8309.27
676.695	8282.83
677.044	8232.66
677.393	8191.31
677.741	8242.16
678.09	8236.96
678.438	8176.62
678.787	8217.52
679.135	8212.55
679.484	8108.6
679.832	8140.46
680.181	8146.57
680.529	8169.84
680.877	8071.54
681.225	8112.22
681.573	8196.96
681.922	8081.71
682.27	8015.04
682.618	8092.1
682.966	8008.94
683.314	8079.9
683.661	8023.63
684.009	8026.34
684.357	8006
684.705	7968.27
685.053	7961.26
685.4	7912
685.748	7918.55
686.095	7880.58
686.443	7843.07
686.79	7833.81
687.138	7876.06
687.485	7877.42
687.832	7819.34
688.18	7883.75
688.527	7827.25
688.874	7802.62
689.221	7757.88
689.568	7630.65
689.915	7643.98
690.262	7635.39
690.609	7653.92
690.956	7666.8
691.303	7615.28
691.65	7584.55
691.997	7552
692.344	7537.99
692.69	7597.88
693.037	7488.96
693.383	7429.3
693.73	7484.66
694.077	7433.59
694.423	7388.39
694.769	7380.03
695.116	7375.51
695.462	7342.07
695.808	7320.82
696.155	7301.84
696.501	7228.62
696.847	7264.1
697.193	7149.53
697.539	7277.89
697.885	7143.65
698.231	7152.02
698.577	7102.75
698.923	7137.1
699.269	7084.22
699.614	7107.5
699.96	7010.78
700.306	7011.45
700.651	6982.53
700.997	6945.47
701.342	6978.91
701.688	6898.91
702.033	6922.87
702.379	6880.38
702.724	6852.81
703.069	6869.08
703.415	6810.1
703.76	6746.83
704.105	6774.4
704.45	6775.98
704.795	6705.7
705.14	6651.46
705.485	6677.45
705.83	6691.91
706.175	6639.49
706.52	6621.86
706.865	6589.54
707.209	6569.43
707.554	6519.72
707.899	6620.28
708.243	6581.18
708.588	6542.77
708.932	6496.89
709.277	6519.94
709.621	6453.05
709.966	6491.92
710.31	6437.68
710.654	6411.92
710.998	6407.18
711.342	6395.43
711.687	6412.6
712.031	6315.43
712.375	6298.03
712.719	6390.68
713.063	6336.9
713.407	6381.41
713.75	6316.33
714.094	6296.22
714.438	6244.47
714.782	6287.18
715.125	6249.67
715.469	6279.5
715.812	6241.98
716.156	6222.1
716.499	6239.72
716.843	6169.44
717.186	6227.75
717.53	6157.01
717.873	6161.98
718.216	6155.21
718.559	6059.61
718.902	6074.98
719.246	6138.71
719.589	6098.26
719.932	6127.41
720.275	6085.83
720.617	6049.67
720.96	6140.97
721.303	6147.3
721.646	6056.68
721.989	6019.16
722.331	6063.23
722.674	6115.88
723.016	6078.6
723.359	6048.99
723.701	6044.47
724.044	6023.23
724.386	6020.75
724.729	5986.4
725.071	5954.98
725.413	5998.15
725.755	5990.46
726.097	5962.44
726.439	5919.51
726.782	5946.17
727.124	5999.5
727.465	5950.47
727.807	5978.03
728.149	5917.25
728.491	5920.64
728.833	5932.84
729.175	5894.65
729.516	5925.83
729.858	5888.09
730.199	5907.08
730.541	5897.81
730.882	5920.41
731.224	5923.8
731.565	5918.6
731.906	5892.39
732.248	5926.28
732.589	5911.14
732.93	5864.14
733.271	5869.11
733.612	5852.16
733.953	5856.91
734.294	5823.46
734.635	5906.62
734.976	5929.9
735.317	5891.03
735.658	5875.44
735.999	5856
736.339	5894.42
736.68	5886.29
737.021	5884.7
737.361	5907.08
737.702	5930.8
738.042	5879.05
738.383	5877.92
738.723	5943.23
739.063	5888.09
739.404	5908.43
739.744	5927.64
740.084	5878.38
740.424	5951.14
740.764	5955.66
741.104	6003.12
741.444	5947.3
741.784	5989.33
742.124	6011.71
742.464	6030.69
742.804	6011.25
743.143	5964.93
743.483	6035.21
743.823	5998.15
744.162	6001.99
744.502	6056.45
744.841	6084.7
745.181	6105.26
745.52	6155.43
745.86	6105.26
746.199	6186.17
746.538	6170.57
746.877	6200.18
747.216	6268.87
747.556	6281.08
747.895	6328.53
748.234	6335.99
748.573	6345.48
748.911	6402.2
749.25	6428.42
749.589	6491.47
749.928	6519.26
750.267	6574.4
750.605	6570.79
750.944	6700.73
751.283	6652.37
751.621	6730.56
751.96	6782.08
752.298	6915.19
752.636	6934.62
752.975	6992.7
753.313	7074.73
753.651	7152.24
753.989	7183.2
754.327	7306.36
754.666	7316.3
755.004	7413.7
755.342	7529.18
755.679	7637.88
756.017	7730.08
756.355	7812.56
756.693	7880.13
757.031	8010.07
757.368	7993.35
757.706	8183.63
758.044	8245.77
758.381	8463.17
758.719	8459.55
759.056	8608.7
759.394	8716.95
759.731	8754.23
760.068	8883.5
760.405	9038.29
760.743	9105.18
761.08	9246.88
761.417	9336.36
761.754	9476.47
762.091	9591.05
762.428	9698.16
762.765	9827.88
763.102	9934.77
763.438	9991.04
763.775	10152.84
764.112	10205.72
764.449	10431.93
764.785	10479.61
765.122	10612.72
765.458	10679.61
765.795	10780.39
766.131	10915.53
766.467	11007.51
766.804	11061.97
767.14	11152.14
767.476	11278.69
767.812	11365.01
768.148	11497.66
768.485	11523.2
768.821	11567.72
769.157	11723.19
769.492	11797.32
769.828	11835.73
