Data from hue_170_FLMS001491_00017.txt Node
Date: Tue Feb 07 16:48:20 GMT 2017
User: dcchb
Spectrometer: FLMS00149
Trigger mode: 0
Integration Time (sec): 2.000000E-2
Scans to average: 10
Electric dark correction enabled: true
Nonlinearity correction enabled: false
Boxcar width: 0
XAxis mode: Wavelengths
Number of Pixels in Spectrum: 2048
>>>>>Begin Spectral Data<<<<<
341.393	-9.45
341.776	-9.45
342.16	-9.45
342.543	-41.09
342.927	-75.89
343.31	-75.44
343.693	-67.07
344.077	-76.57
344.46	-75.66
344.843	-67.53
345.226	-41.76
345.61	-25.49
345.993	-1.77
346.376	-0.64
346.759	2.98
347.142	25.8
347.525	35.75
347.908	64.9
348.291	95.86
348.674	100.38
349.057	106.25
349.44	107.16
349.823	127.95
350.206	146.71
350.588	203.43
350.971	186.93
351.354	225.8
351.737	238.23
352.119	249.08
352.502	255.85
352.884	268.96
353.267	267.38
353.65	275.97
354.032	305.8
354.414	292.01
354.797	292.24
355.179	319.36
355.562	311.22
355.944	316.87
356.326	340.6
356.709	324.33
357.091	321.62
357.473	318.68
357.855	341.5
358.238	337.43
358.62	332.24
359.002	342.41
359.384	320.03
359.766	339.24
360.148	327.04
360.53	324.1
360.912	339.47
361.294	327.94
361.676	344.44
362.057	340.37
362.439	325.46
362.821	325.01
363.203	313.93
363.584	333.37
363.966	312.8
364.348	330.88
364.729	316.19
365.111	311.22
365.493	306.47
365.874	314.61
366.256	300.37
366.637	303.09
367.019	315.74
367.4	320.26
367.781	325.46
368.163	319.13
368.544	307.6
368.925	323.42
369.306	298.34
369.688	310.77
370.069	309.86
370.45	314.38
370.831	310.09
371.212	299.92
371.593	322.75
371.974	317.32
372.355	298.57
372.736	287.94
373.117	310.77
373.498	304.67
373.879	314.84
374.26	315.06
374.641	316.64
375.021	345.34
375.402	337.66
375.783	328.85
376.163	312.35
376.544	329.07
376.925	318.9
377.305	306.47
377.686	317.1
378.066	317.1
378.447	317.55
378.827	334.04
379.208	312.35
379.588	326.59
379.968	316.42
380.349	341.95
380.729	321.62
381.109	335.17
381.489	318.23
381.87	302.86
382.25	348.06
382.63	320.03
383.01	346.25
383.39	330.88
383.77	341.05
384.15	347.38
384.53	353.25
384.91	351.9
385.29	346.47
385.67	344.67
386.049	337.66
386.429	341.95
386.809	358.9
387.189	368.39
387.568	356.64
387.948	341.95
388.328	360.48
388.707	348.96
389.087	354.16
389.466	356.64
389.846	370.2
390.225	342.18
390.605	371.56
390.984	370.88
391.363	359.58
391.743	375.85
392.122	379.69
392.501	365.23
392.881	373.37
393.26	379.02
393.639	369.98
394.018	367.26
394.397	375.63
394.776	374.5
395.155	392.8
395.534	393.03
395.913	382.41
396.292	381.5
396.671	378.34
397.05	402.07
397.429	393.03
397.808	384.21
398.186	389.86
398.565	405
398.944	400.71
399.323	396.42
399.701	403.2
400.08	386.47
400.458	413.14
400.837	406.36
401.215	402.74
401.594	404.55
401.972	419.92
402.351	412.23
402.729	422.63
403.107	406.59
403.486	439.35
403.864	394.61
404.242	444.32
404.62	421.95
404.999	438
405.377	437.09
405.755	449.3
406.133	435.51
406.511	436.87
406.889	442.97
407.267	459.69
407.645	462.4
408.023	459.01
408.401	478.67
408.779	477.54
409.156	459.01
409.534	463.53
409.912	476.64
410.29	492.46
410.667	479.8
411.045	515.51
411.422	503.08
411.8	503.31
412.178	506.47
412.555	510.31
412.933	506.24
413.31	517.77
413.687	526.81
414.065	538.79
414.442	526.58
414.819	547.37
415.197	533.59
415.574	555.96
415.951	554.6
416.328	563.64
416.705	558.9
417.082	588.5
417.46	583.3
417.837	573.13
418.214	590.99
418.591	595.05
418.967	604.09
419.344	618.56
419.721	601.61
420.098	601.38
420.475	610.42
420.852	636.64
421.228	631.44
421.605	628.05
421.982	652.23
422.358	650.19
422.735	668.95
423.111	675.28
423.488	667.6
423.864	689.97
424.241	689.52
424.617	700.14
424.994	689.74
425.37	696.3
425.746	702.85
426.123	712.34
426.499	729.97
426.875	714.83
427.251	731.77
427.627	765.9
428.003	759.8
428.379	780.81
428.756	774.49
429.132	767.48
429.507	795.05
429.883	800.7
430.259	814.48
430.635	837.99
431.011	814.48
431.387	845.44
431.763	848.38
432.138	867.82
432.514	861.04
432.89	863.07
433.265	863.3
433.641	879.79
434.016	891.54
434.392	916.85
434.767	925.67
435.143	917.98
435.518	946.68
435.894	955.05
436.269	961.37
436.644	979.45
437.02	994.59
437.395	1001.37
437.77	1008.83
438.145	1013.12
438.52	1013.12
438.895	1031.2
439.271	1054.48
439.646	1080.24
440.021	1074.59
440.395	1095.38
440.77	1082.5
441.145	1088.83
441.52	1123.4
441.895	1149.84
442.27	1158.2
442.645	1139.45
443.019	1188.71
443.394	1168.83
443.769	1166.79
444.143	1178.54
444.518	1183.51
444.892	1219.45
445.267	1220.8
445.641	1227.13
446.016	1241.82
446.39	1239.11
446.764	1234.13
447.139	1257.86
447.513	1248.37
447.887	1293.12
448.262	1261.7
448.636	1276.39
449.01	1305.09
449.384	1313.45
449.758	1333.11
450.132	1330.85
450.506	1363.62
450.88	1378.99
451.254	1356.62
451.628	1409.27
452.002	1386.67
452.376	1402.49
452.75	1449.04
453.123	1458.99
453.497	1474.81
453.871	1482.94
454.244	1477.07
454.618	1503.28
454.992	1516.84
455.365	1516.84
455.739	1571.53
456.112	1579.21
456.486	1600
456.859	1621.47
457.232	1656.04
457.606	1664.63
457.979	1652.43
458.352	1723.61
458.725	1765.65
459.099	1733.33
459.472	1761.58
459.845	1765.19
460.218	1821.69
460.591	1825.98
460.964	1827.11
461.337	1872.76
461.71	1918.86
462.083	1931.52
462.456	1940.1
462.829	1969.93
463.201	1988.01
463.574	1996.15
463.947	2051.29
464.32	2109.14
464.692	2116.37
465.065	2128.8
465.438	2154.79
465.81	2233.43
466.183	2187.1
466.555	2258.06
466.928	2293.77
467.3	2290.83
467.672	2359.53
468.045	2410.15
468.417	2450.6
468.789	2479.07
469.161	2512.74
469.534	2529.92
469.906	2637.71
470.278	2633.87
470.65	2671.38
471.022	2715.23
471.394	2786.64
471.766	2839.06
472.138	2887.42
472.51	2966.97
472.882	2994.54
473.253	3074.31
473.625	3094.88
473.997	3192.5
474.369	3223.69
474.74	3266.85
475.112	3369.45
475.484	3440.86
475.855	3481.08
476.227	3554.75
476.598	3672.26
476.97	3770.79
477.341	3858.7
477.713	3869.77
478.084	3942.31
478.455	4076.55
478.827	4133.04
479.198	4280.16
479.569	4314.28
479.94	4437.21
480.311	4523.99
480.682	4647.38
481.053	4781.61
481.424	4841.5
481.795	4982.28
482.166	5092.11
482.537	5167.36
482.908	5298.89
483.279	5420.01
483.65	5528.48
484.021	5672.44
484.391	5761.92
484.762	5916.95
485.133	5945.87
485.503	6080.33
485.874	6258.63
486.244	6365.52
486.615	6502.24
486.985	6630.83
487.356	6812.52
487.726	6916.7
488.097	7076.24
488.467	7127.54
488.837	7317.59
489.207	7419.28
489.578	7593.06
489.948	7717.13
490.318	7882.55
490.688	7861.76
491.058	8067.17
491.428	8207.74
491.798	8334.96
492.168	8572.02
492.538	8576.54
492.908	8777.21
493.278	8894.05
493.648	8896.98
494.017	9129.07
494.387	9212.91
494.757	9384.65
495.126	9426.69
495.496	9553.46
495.866	9644.31
496.235	9743.06
496.605	9873.46
496.974	9926.34
497.344	10088.14
497.713	10174.01
498.082	10258.53
498.452	10321.35
498.821	10430.5
499.19	10542.59
499.559	10642.93
499.928	10678.41
500.298	10737.61
500.667	10887.21
501.036	10926.31
501.405	11050.15
501.774	11105.51
502.143	11170.82
502.512	11224.61
502.88	11322.46
503.249	11335.79
503.618	11404.49
503.987	11461.44
504.356	11630.25
504.724	11613.52
505.093	11604.93
505.462	11708.21
505.83	11806.06
506.199	11835.89
506.567	12039.73
506.936	12018.71
507.304	12108.2
507.672	12206.73
508.041	12203.11
508.409	12273.62
508.777	12337.8
509.145	12456.66
509.514	12430.9
509.882	12455.99
510.25	12592.03
510.618	12616.89
510.986	12527.85
511.354	12669.31
511.722	12695.08
512.09	12879.7
512.458	12797.45
512.826	12942.07
513.193	12859.37
513.561	12969.19
513.929	12966.26
514.297	13142.52
514.664	13133.71
515.032	13132.35
515.4	13170.77
515.767	13282.4
516.135	13236.08
516.502	13106.82
516.869	13345.45
517.237	13288.51
517.604	13326.92
517.972	13358.79
518.339	13475.85
518.706	13440.14
519.073	13464.32
519.44	13461.16
519.808	13526.69
520.175	13542.74
520.542	13635.39
520.909	13653.02
521.276	13594.49
521.643	13704.77
522.009	13757.87
522.376	13810.75
522.743	13776.63
523.11	13903.41
523.477	13982.95
523.843	14016.17
524.21	14005.55
524.577	14110.41
524.943	14040.8
525.31	14042.84
525.676	14151.31
526.043	14238.76
526.409	14206.67
526.776	14209.84
527.142	14207.58
527.508	14279.44
527.874	14290.29
528.241	14253.23
528.607	14314.24
528.973	14368.93
529.339	14237.86
529.705	14231.98
530.071	14378.2
530.437	14266.79
530.803	14339.78
531.169	14317.18
531.535	14272.44
531.901	14320.8
532.267	14198.31
532.632	14305.88
532.998	14327.8
533.364	14330.96
533.73	14224.75
534.095	14266.56
534.461	14222.95
534.826	14202.61
535.192	14234.47
535.557	14274.24
535.923	14205.54
536.288	14183.85
536.653	14138.2
537.019	14013.01
537.384	14134.13
537.749	14075.38
538.114	14099.56
538.479	13995.38
538.845	13942.73
539.21	13934.82
539.575	13958.09
539.94	13881.49
540.305	13858.89
540.67	13778.44
541.034	13884.42
541.399	13773.69
541.764	13752.45
542.129	13699.57
542.494	13683.98
542.858	13616.18
543.223	13542.06
543.587	13573.92
543.952	13519.23
544.316	13519.01
544.681	13448.95
545.045	13444.43
545.41	13517.2
545.774	13394.27
546.138	13362.4
546.503	13305.68
546.867	13262.52
547.231	13249.41
547.595	13188.4
547.959	13257.09
548.324	13112.69
548.688	13082.64
549.052	12976.88
549.416	13057.78
549.779	12983.66
550.143	12975.75
550.507	13005.35
550.871	12915.41
551.235	12815.07
551.599	12824.11
551.962	12844.45
552.326	12891.68
552.689	12819.14
553.053	12713.38
553.417	12695.53
553.78	12780.95
554.143	12717.45
554.507	12705.47
554.87	12654.62
555.234	12724
555.597	12511.35
555.96	12611.01
556.323	12623.44
556.686	12567.62
557.05	12597.9
557.413	12518.58
557.776	12394.07
558.139	12521.3
558.502	12560.39
558.865	12525.59
559.228	12491.47
559.59	12411.24
559.953	12456.44
560.316	12485.14
560.679	12443.33
561.041	12537.34
561.404	12496.21
561.767	12492.82
562.129	12404.46
562.492	12514.29
562.854	12469.77
563.217	12416.89
563.579	12407.4
563.941	12474.74
564.304	12513.16
564.666	12538.02
565.028	12446.95
565.39	12484.91
565.753	12574.85
566.115	12556.55
566.477	12563.33
566.839	12582.54
567.201	12672.93
567.563	12606.94
567.925	12568.53
568.287	12676.55
568.648	12641.29
569.01	12560.39
569.372	12702.99
569.734	12620.73
570.095	12664.34
570.457	12722.65
570.819	12632.7
571.18	12684
571.542	12693.95
571.903	12705.47
572.265	12655.3
572.626	12709.09
572.987	12746.83
573.349	12815.07
573.71	12742.31
574.071	12791.12
574.432	12791.12
574.794	12810.33
575.155	12771.23
575.516	12698.92
575.877	12728.52
576.238	12742.98
576.599	12855.07
576.96	12822.98
577.32	12776.2
577.681	12782.53
578.042	12787.73
578.403	12772.14
578.763	12717.45
579.124	12800.61
579.485	12808.29
579.845	12895.3
580.206	12879.7
580.566	12823.66
580.927	12851.68
581.287	12810.55
581.648	12689.43
582.008	12908.4
582.368	12777.79
582.728	12839.93
583.089	12823.43
583.449	12757.45
583.809	12786.37
584.169	12771.68
584.529	12657.79
584.889	12851.91
585.249	12702.08
585.609	12745.02
585.969	12712.25
586.329	12646.72
586.688	12697.34
587.048	12709.76
587.408	12577.11
587.768	12609.88
588.127	12597
588.487	12705.47
588.846	12702.53
589.206	12597.9
589.565	12619.15
589.925	12688.07
590.284	12587.28
590.643	12510.67
591.003	12611.01
591.362	12624.12
591.721	12541.63
592.08	12512.26
592.44	12532.59
592.799	12579.82
593.158	12625.02
593.517	12509.77
593.876	12612.37
594.235	12517.23
594.593	12487.85
594.952	12643.33
595.311	12440.62
595.67	12458.02
596.029	12494.63
596.387	12449.21
596.746	12538.7
597.104	12455.08
597.463	12495.76
597.822	12498.47
598.18	12527.17
598.538	12399.94
598.897	12548.86
599.255	12389.32
599.613	12510.9
599.972	12474.29
600.33	12527.62
600.688	12430
601.046	12430.9
601.404	12520.39
601.762	12468.19
602.12	12530.79
602.478	12447.17
602.836	12484.23
603.194	12410.11
603.552	12461.86
603.91	12399.04
604.268	12454.18
604.625	12461.64
604.983	12460.73
605.341	12413.95
605.698	12454.63
606.056	12459.38
606.413	12438.81
606.771	12523.55
607.128	12552.71
607.485	12387.06
607.843	12420.73
608.2	12514.29
608.557	12543.22
608.914	12569.88
609.272	12522.42
609.629	12526.72
609.986	12603.33
610.343	12463.67
610.7	12592.71
611.057	12526.04
611.414	12601.74
611.771	12529.88
612.127	12573.27
612.484	12555.64
612.841	12590.9
613.198	12575.76
613.554	12599.03
613.911	12639.03
614.267	12630.44
614.624	12633.83
614.98	12665.47
615.337	12756.77
615.693	12622.99
616.05	12684.68
616.406	12778.46
616.762	12678.81
617.118	12706.83
617.475	12708.41
617.831	12709.54
618.187	12751.57
618.543	12653.49
618.899	12794.96
619.255	12780.72
619.611	12768.75
619.967	12790.21
620.323	12866.37
620.678	12780.95
621.034	12735.07
621.39	12759.25
621.746	12768.97
622.101	12789.99
622.457	12757
622.812	12844.45
623.168	12794.73
623.523	12836.09
623.879	12839.48
624.234	12787.73
624.589	12819.59
624.945	12759.25
625.3	12800.38
625.655	12734.85
626.01	12795.86
626.365	12779.82
626.72	12874.96
627.075	12785.69
627.43	12753.38
627.785	12801.51
628.14	12800.61
628.495	12792.25
628.85	12786.37
629.205	12661.18
629.559	12755.87
629.914	12708.86
630.269	12662.08
630.623	12696.88
630.978	12736.43
631.332	12625.02
631.687	12752.02
632.041	12698.92
632.396	12732.81
632.75	12655.53
633.104	12634.96
633.459	12604.46
633.813	12608.3
634.167	12538.92
634.521	12564.01
634.875	12498.7
635.229	12481.97
635.583	12445.36
635.937	12394.97
636.291	12540.05
636.645	12453.05
636.999	12397.46
637.352	12406.04
637.706	12415.54
638.06	12505.25
638.413	12404.69
638.767	12392.26
639.121	12378.25
639.474	12384.12
639.828	12289.21
640.181	12353.16
640.534	12395.2
640.888	12299.38
641.241	12243.56
641.594	12337.8
641.947	12362.2
642.301	12253.73
642.654	12350.45
643.007	12259.83
643.36	12274.07
643.713	12252.38
644.066	12341.86
644.419	12159.95
644.771	12157.01
645.124	12036.34
645.477	11996.34
645.83	11895.32
646.182	11871.14
646.535	11875.44
646.888	11901.88
647.24	11824.82
647.593	11880.18
647.945	11819.39
648.298	11729
648.65	11720.86
649.002	11743.01
649.355	11764.03
649.707	11819.17
650.059	11944.14
650.411	11970.58
650.763	11929.22
651.115	12070.46
651.467	12054.19
651.819	12089.22
652.171	12071.14
652.523	12051.48
652.875	12088.54
653.227	11961.54
653.578	12095.32
653.93	12039.95
654.282	12024.58
654.633	11975.77
654.985	12067.07
655.337	12037.24
655.688	12088.31
656.039	12092.61
656.391	12018.26
656.742	12112.94
657.094	12063
657.445	12014.64
657.796	12027.52
658.147	12064.58
658.498	12103.23
658.849	12155.2
659.2	12050.12
659.551	12074.08
659.902	12097.8
660.253	12065.94
660.604	12143
660.955	12075.21
661.306	12132.83
661.656	12063
662.007	12077.46
662.358	12161.53
662.708	12176.67
663.059	12107.97
663.409	12067.3
663.76	12210.79
664.11	12138.71
664.461	12121.31
664.811	12141.19
665.161	12135.54
665.511	12117.46
665.862	12165.6
666.212	12195.65
666.562	12192.72
666.912	12223.22
667.262	12135.32
667.612	12126.96
667.962	12237.69
668.312	12181.87
668.662	12146.84
669.011	12146.84
669.361	12098.48
669.711	12106.62
670.06	12197.24
670.41	12072.95
670.76	12182.77
671.109	12099.61
671.459	12114.53
671.808	12005.38
672.157	12108.2
672.507	12026.62
672.856	12044.7
673.205	12049.44
673.554	12078.14
673.904	12051.48
674.253	12021.87
674.602	12020.07
674.951	11894.87
675.3	11775.1
675.649	11961.99
675.998	12004.02
676.346	12027.97
676.695	12026.62
677.044	11878.6
677.393	11932.61
677.741	11976.68
678.09	11913.85
678.438	11936
678.787	11928.54
679.135	11806.96
679.484	11780.98
679.832	11807.87
680.181	11717.25
680.529	11743.69
680.877	11725.61
681.225	11634.31
681.573	11872.05
681.922	11651.94
682.27	11673.41
682.618	11674.76
682.966	11653.75
683.314	11662.11
683.661	11625.05
684.009	11510.7
684.357	11475.67
684.705	11472.74
685.053	11562.9
685.4	11508.44
685.748	11416.01
686.095	11445.17
686.443	11389.12
686.79	11380.53
687.138	11411.04
687.485	11382.12
687.832	11310.48
688.18	11347.99
688.527	11246.98
688.874	11283.81
689.221	11201.78
689.568	11106.42
689.915	11115.68
690.262	11156.36
690.609	11032.75
690.956	11026.87
691.303	11005.63
691.65	10987.78
691.997	10953.43
692.344	10857.84
692.69	10831.85
693.037	10896.48
693.383	10682.7
693.73	10782.58
694.077	10779.65
694.423	10687.67
694.769	10703.49
695.116	10614.45
695.462	10618.75
695.808	10556.6
696.155	10529.26
696.501	10447
696.847	10439.09
697.193	10403.61
697.539	10447.9
697.885	10308.02
698.231	10253.56
698.577	10239.32
698.923	10250.62
699.269	10256.04
699.614	10097.4
699.96	10111.64
700.306	10066.9
700.651	10039.33
700.997	9927.46
701.342	9947.58
701.688	9880.01
702.033	9915.04
702.379	9863.51
702.724	9818.54
703.069	9896.28
703.415	9716.17
703.76	9765.66
704.105	9743.29
704.45	9676.4
704.795	9617.19
705.14	9600.02
705.485	9581.49
705.83	9578.77
706.175	9560.92
706.52	9477.53
706.865	9457.42
707.209	9435.5
707.554	9402.73
707.899	9428.5
708.243	9288.39
708.588	9347.59
708.932	9265.56
709.277	9251.32
709.621	9276.18
709.966	9209.52
710.31	9176.98
710.654	9143.3
710.998	9177.43
711.342	9167.03
711.687	9036.64
712.031	9025.12
712.375	9015.85
712.719	9055.4
713.063	9049.97
713.407	9081.16
713.75	8957.09
714.094	8994.83
714.438	8934.04
714.782	8965.68
715.125	8865.8
715.469	8930.66
715.812	8872.58
716.156	8895.85
716.499	8821.05
716.843	8834.39
717.186	8805.46
717.53	8935.63
717.873	8889.75
718.216	8786.48
718.559	8699.25
718.902	8708.29
719.246	8715.97
719.589	8699.7
719.932	8696.31
720.275	8747.83
720.617	8675.75
720.96	8732.47
721.303	8599.59
721.646	8698.34
721.989	8666.93
722.331	8702.41
722.674	8580.16
723.016	8594.62
723.359	8561.4
723.701	8581.96
724.044	8503.77
724.386	8473.49
724.729	8604.34
725.071	8523.66
725.413	8461.74
725.755	8507.16
726.097	8517.56
726.439	8449.54
726.782	8457.9
727.124	8503.1
727.465	8463.1
727.807	8443.21
728.149	8428.52
728.491	8438.46
728.833	8477.79
729.175	8478.24
729.516	8468.75
729.858	8420.16
730.199	8402.53
730.541	8460.61
730.882	8397.79
731.224	8479.59
731.565	8399.14
731.906	8399.37
732.248	8474.85
732.589	8390.1
732.93	8438.01
733.271	8405.47
733.612	8398.47
733.953	8394.62
734.294	8413.61
734.635	8390.56
734.976	8466.03
735.317	8404.79
735.658	8425.81
735.999	8447.73
736.339	8404.79
736.68	8466.03
737.021	8381.52
737.361	8378.58
737.702	8449.99
738.042	8427.62
738.383	8408.86
738.723	8495.64
739.063	8460.16
739.404	8566.6
739.744	8516.88
740.084	8463.77
740.424	8492.93
740.764	8426.94
741.104	8545.35
741.444	8466.94
741.784	8540.61
742.124	8563.43
742.464	8571.79
742.804	8613.15
743.143	8589.87
743.483	8684.11
743.823	8672.58
744.162	8705.12
744.502	8755.52
744.841	8753.94
745.181	8771.34
745.52	8790.55
745.86	8808.62
746.199	8887.72
746.538	8908.96
746.877	8930.66
747.216	8978.11
747.556	8987.15
747.895	9109.63
748.234	9068.96
748.573	9181.72
748.911	9230.53
749.25	9270.31
749.589	9315.28
749.928	9421.49
750.267	9523.86
750.605	9538.77
750.944	9593.91
751.283	9621.03
751.621	9866.22
751.96	9868.48
752.298	10004.98
752.636	10066.67
752.975	10105.09
753.313	10219.21
753.651	10361.35
753.989	10329.94
754.327	10511.18
754.666	10630.05
755.004	10794.11
755.342	10923.37
755.679	10999.3
756.017	11169.01
756.355	11352.06
756.693	11465.5
757.031	11591.6
757.368	11692.39
757.706	11915.44
758.044	12054.41
758.381	12166.05
