Data from hue_00_FLMS001491_26.txt Node
Date: Mon Feb 06 15:29:29 GMT 2017
User: dcchb
Spectrometer: FLMS00149
Trigger mode: 0
Integration Time (sec): 2.000000E-2
Scans to average: 10
Electric dark correction enabled: true
Nonlinearity correction enabled: false
Boxcar width: 0
XAxis mode: Wavelengths
Number of Pixels in Spectrum: 2048
>>>>>Begin Spectral Data<<<<<
341.393	4.59
341.776	4.59
342.16	4.59
342.543	-55.97
342.927	-59.59
343.31	-75.63
343.693	-61.4
344.077	-44.22
344.46	-66.59
344.843	-49.87
345.226	-48.52
345.61	-25.24
345.993	-22.3
346.376	12.27
346.759	8.66
347.142	17.7
347.525	57.02
347.908	45.49
348.291	81.42
348.674	72.16
349.057	99.05
349.44	116
349.823	132.27
350.206	164.81
350.588	186.96
350.971	227.64
351.354	223.79
351.737	224.7
352.119	245.26
352.502	242.55
352.884	261.08
353.267	275.77
353.65	296.56
354.032	308.31
354.414	303.57
354.797	310.12
355.179	302.66
355.562	324.58
355.944	323
356.326	340.85
356.709	325.26
357.091	342.21
357.473	324.13
357.855	325.03
358.238	330.23
358.62	356.67
359.002	321.19
359.384	328.42
359.766	338.59
360.148	328.65
360.53	340.17
360.912	327.29
361.294	325.03
361.676	325.94
362.057	311.47
362.439	337.69
362.821	324.13
363.203	337.91
363.584	323.68
363.966	326.39
364.348	333.62
364.729	328.2
365.111	309.67
365.493	318.71
365.874	330.68
366.256	320.06
366.637	314.64
367.019	319.38
367.4	298.37
367.781	307.63
368.163	324.81
368.544	307.41
368.925	294.53
369.306	343.79
369.688	313.51
370.069	301.98
370.45	299.5
370.831	300.85
371.212	321.64
371.593	295.66
371.974	319.84
372.355	302.21
372.736	290.68
373.117	319.84
373.498	312.15
373.879	314.41
374.26	300.63
374.641	318.03
375.021	317.12
375.402	299.95
375.783	321.64
376.163	330.46
376.544	340.63
376.925	329.78
377.305	314.41
377.686	308.09
378.066	333.17
378.447	330.46
378.827	319.38
379.208	323.45
379.588	341.3
379.968	337.24
380.349	332.04
380.729	325.71
381.109	329.33
381.489	349.67
381.87	337.01
382.25	346.73
382.63	340.4
383.01	357.8
383.39	331.14
383.77	342.21
384.15	331.59
384.53	336.33
384.91	333.4
385.29	359.16
385.67	350.34
386.049	349.67
386.429	363.45
386.809	353.51
387.189	351.93
387.568	332.27
387.948	383.56
388.328	352.6
388.707	365.03
389.087	358.03
389.466	347.18
389.846	353.28
390.225	369.1
390.605	370.68
390.984	364.81
391.363	355.09
391.743	368.42
392.122	364.13
392.501	359.61
392.881	369.78
393.26	370.68
393.639	386.28
394.018	368.2
394.397	356.9
394.776	365.26
395.155	367.29
395.534	371.36
395.913	396.22
396.292	380.17
396.671	340.4
397.05	350.8
397.429	372.94
397.808	387.18
398.186	370.91
398.565	382.43
398.944	397.57
399.323	364.35
399.701	404.81
400.08	370.46
400.458	392.38
400.837	417.01
401.215	397.57
401.594	394.64
401.972	390.34
402.351	396.44
402.729	388.31
403.107	397.8
403.486	404.35
403.864	419.27
404.242	422.21
404.62	407.29
404.999	417.69
405.377	395.99
405.755	416.1
406.133	419.04
406.511	412.72
406.889	418.36
407.267	419.72
407.645	414.52
408.023	429.44
408.401	418.82
408.779	404.35
409.156	413.39
409.534	435.54
409.912	435.54
410.29	461.75
410.667	461.08
411.045	466.73
411.422	457.91
411.8	419.95
412.178	443.45
412.555	446.84
412.933	466.95
413.31	460.17
413.687	453.62
414.065	462.88
414.442	482.54
414.819	478.48
415.197	490.23
415.574	494.07
415.951	484.35
416.328	502.2
416.705	512.37
417.082	505.82
417.46	508.53
417.837	502.43
418.214	509.66
418.591	499.27
418.967	511.24
419.344	517.8
419.721	513.96
420.098	497.01
420.475	518.48
420.852	512.6
421.228	536.78
421.605	516.44
421.982	528.64
422.358	538.14
422.735	501.3
423.111	547.17
423.488	549.66
423.864	570.9
424.241	553.95
424.617	549.66
424.994	569.1
425.37	564.12
425.746	551.69
426.123	556.21
426.499	546.95
426.875	561.86
427.251	572.26
427.627	570.23
428.003	581.3
428.379	586.27
428.756	615.2
429.132	612.71
429.507	590.11
429.883	603.44
430.259	618.81
430.635	623.56
431.011	631.92
431.387	618.59
431.763	645.48
432.138	626.72
432.514	649.77
432.89	671.92
433.265	657
433.641	665.82
434.016	662.65
434.392	690.22
434.767	694.52
435.143	694.74
435.518	692.48
435.894	716.44
436.269	691.35
436.644	697.23
437.02	696.1
437.395	706.49
437.77	695.19
438.145	713.05
438.52	739.03
438.895	714.4
439.271	744.23
439.646	742.65
440.021	764.34
440.395	748.98
440.77	758.69
441.145	762.08
441.52	764.12
441.895	765.7
442.27	775.19
442.645	771.12
443.019	789.65
443.394	773.16
443.769	799.37
444.143	786.94
444.518	804.12
444.892	791.01
445.267	804.8
445.641	809.54
446.016	805.93
446.39	804.12
446.764	824.23
447.139	810.44
447.513	805.7
447.887	819.71
448.262	843.44
448.636	828.98
449.01	838.47
449.384	874.85
449.758	845.7
450.132	858.35
450.506	856.32
450.88	855.19
451.254	864
451.628	885.92
452.002	871.46
452.376	881.18
452.75	861.06
453.123	899.03
453.497	902.19
453.871	919.14
454.244	918.69
454.618	935.64
454.992	945.58
455.365	923.21
455.739	969.08
456.112	959.82
456.486	974.28
456.859	989.88
457.232	986.26
457.606	988.07
457.979	992.36
458.352	999.14
458.725	1018.12
459.099	1032.13
459.472	1048.18
459.845	1026.94
460.218	1063.32
460.591	1075.97
460.964	1101.74
461.337	1095.41
461.71	1106.48
462.083	1118.69
462.456	1134.05
462.829	1120.27
463.201	1134.05
463.574	1156.42
463.947	1159.59
464.32	1169.76
464.692	1185.8
465.065	1184.9
465.438	1192.36
465.81	1242.07
466.183	1248.4
466.555	1243.43
466.928	1263.77
467.3	1246.82
467.672	1281.84
468.045	1315.74
468.417	1291.11
468.789	1322.52
469.161	1360.03
469.534	1374.27
469.906	1393.48
470.278	1396.64
470.65	1422.86
471.022	1450.88
471.394	1461.05
471.766	1450.43
472.138	1480.48
472.51	1522.06
472.882	1534.27
473.253	1549.63
473.625	1557.77
473.997	1620.82
474.369	1608.62
474.74	1614.27
475.112	1659.46
475.484	1663.3
475.855	1707.82
476.227	1720.93
476.598	1756.18
476.97	1786.46
477.341	1832.11
477.713	1844.77
478.084	1866.01
478.455	1927.03
478.827	1951.21
479.198	1991.66
479.569	2018.55
479.94	2050.86
480.311	2065.1
480.682	2129.05
481.053	2174.02
481.424	2195.04
481.795	2214.93
482.166	2251.76
482.537	2279.33
482.908	2324.76
483.279	2337.18
483.65	2396.62
484.021	2456.73
484.391	2469.84
484.762	2524.75
485.133	2547.57
485.503	2558.42
485.874	2636.61
486.244	2668.25
486.615	2724.29
486.985	2763.84
487.356	2809.26
487.726	2789.6
488.097	2890.39
488.467	2894.91
488.837	2976.72
489.207	2999.77
489.578	3046.32
489.948	3070.5
490.318	3145.52
490.688	3094.68
491.058	3189.37
491.428	3188.01
491.798	3271.85
492.168	3321.79
492.538	3353.65
492.908	3356.82
493.278	3424.39
493.648	3450.6
494.017	3502.8
494.387	3523.82
494.757	3548.68
495.126	3575.57
495.496	3602.01
495.866	3651.95
496.235	3681.56
496.605	3717.94
496.974	3757.94
497.344	3745.28
497.713	3779.63
498.082	3813.3
498.452	3870.25
498.821	3885.84
499.19	3913.41
499.559	3909.35
499.928	3926.52
500.298	3978.5
500.667	4015.78
501.036	3977.14
501.405	4092.39
501.774	4041.55
502.143	4112.28
502.512	4128.55
502.88	4159.28
503.249	4124.93
503.618	4181.43
503.987	4206.97
504.356	4235.44
504.724	4248.55
505.093	4255.33
505.462	4264.14
505.83	4291.03
506.199	4286.51
506.567	4356.11
506.936	4377.13
507.304	4402.21
507.672	4437.92
508.041	4495.55
508.409	4446.73
508.777	4518.82
509.145	4562.89
509.514	4530.35
509.882	4566.05
510.25	4571.48
510.618	4635.65
510.986	4615.09
511.354	4647.86
511.722	4689.89
512.09	4709.55
512.458	4720.4
512.826	4713.62
513.193	4733.73
513.561	4747.52
513.929	4767.18
514.297	4816.44
514.664	4820.28
515.032	4859.15
515.4	4885.14
515.767	4928.98
516.135	4905.93
516.502	4889.43
516.869	4953.39
517.237	4998.58
517.604	4959.26
517.972	4919.26
518.339	5051.46
518.706	5049.2
519.073	5033.16
519.44	5054.18
519.808	5077.68
520.175	5073.61
520.542	5132.59
520.909	5176.88
521.276	5164.23
521.643	5197
522.009	5252.36
522.376	5282.87
522.743	5239.93
523.11	5311.12
523.477	5362.87
523.843	5340.95
524.21	5383.43
524.577	5427.27
524.943	5475.86
525.31	5448.74
525.676	5578.23
526.043	5547.95
526.409	5550.43
526.776	5601.51
527.142	5620.04
527.508	5673.82
527.874	5679.24
528.241	5721.05
528.607	5724.21
528.973	5790.2
529.339	5766.25
529.705	5791.1
530.071	5867.71
530.437	5842.63
530.803	5916.07
531.169	5964.89
531.535	5941.38
531.901	5971.89
532.267	6003.3
532.632	5976.41
532.998	6029.29
533.364	6088.5
533.73	6071.1
534.095	6127.82
534.461	6153.81
534.826	6191.09
535.192	6190.19
535.557	6284.43
535.923	6287.14
536.288	6291.43
536.653	6315.84
537.019	6302.28
537.384	6377.98
537.749	6376.17
538.114	6357.87
538.479	6434.48
538.845	6495.72
539.21	6443.97
539.575	6465.89
539.94	6504.76
540.305	6542.05
540.67	6522.84
541.034	6571.42
541.399	6607.35
541.764	6654.81
542.129	6622.04
542.494	6676.51
542.858	6733
543.223	6739.1
543.587	6769.38
543.952	6735.26
544.316	6878.76
544.681	6828.82
545.045	6953.56
545.41	6928.7
545.774	6924.63
546.138	6955.14
546.503	6966.89
546.867	6958.53
547.231	7048.47
547.595	7016.38
547.959	7089.38
548.324	7091.64
548.688	7148.58
549.052	7103.16
549.416	7123.95
549.779	7219.09
550.143	7177.96
550.507	7223.61
550.871	7274.68
551.235	7280.56
551.599	7373.44
551.962	7356.49
552.326	7412.53
552.689	7415.02
553.053	7431.06
553.417	7413.66
553.78	7484.85
554.143	7467.44
554.507	7505.41
554.87	7589.7
555.234	7641
555.597	7598.97
555.96	7589.48
556.323	7644.16
556.686	7650.94
557.05	7708.79
557.413	7783.82
557.776	7807.1
558.139	7797.83
558.502	7837.15
558.865	7807.55
559.228	7853.65
559.59	7947.88
559.953	7895.23
560.316	7968.9
560.679	7914.66
561.041	7943.59
561.404	8050.48
561.767	8077.15
562.129	8078.05
562.492	8151.95
562.854	8165.51
563.217	8055.68
563.579	8193.08
563.941	8228.55
564.304	8301.1
564.666	8348.55
565.028	8311.04
565.39	8335.9
565.753	8421.54
566.115	8417.25
566.477	8455.67
566.839	8456.57
567.201	8387.65
567.563	8543.8
567.925	8552.84
568.287	8552.84
568.648	8634.87
569.01	8689.79
569.372	8727.07
569.734	8665.15
570.095	8779.05
570.457	8807.52
570.819	8881.19
571.18	8812.49
571.542	8894.98
571.903	8878.48
572.265	8974.52
572.626	8967.74
572.987	9069.21
573.349	9114.18
573.71	9165.48
574.071	9163.9
574.432	9258.81
574.794	9361.18
575.155	9365.25
575.516	9361.86
575.877	9528.18
576.238	9561.4
576.599	9554.17
576.96	9669.65
577.32	9740.38
577.681	9773.6
578.042	9866.48
578.403	9995.51
578.763	10019.02
579.124	10136.53
579.485	10302.62
579.845	10342.17
580.206	10487.48
580.566	10615.61
580.927	10707.81
581.287	10803.63
581.648	10844.53
582.008	10963.85
582.368	11122.72
582.728	11275.03
583.089	11358.42
583.449	11508.69
583.809	11628.69
584.169	11870.72
584.529	11977.16
584.889	12277.49
585.249	12294.66
585.609	12523.58
585.969	12794.76
586.329	12942.56
586.688	13124.02
587.048	13306.39
587.408	13463.67
587.768	13764.45
588.127	13936.43
588.487	14157.89
588.846	14453.25
589.206	14632
589.565	14768.5
589.925	15187.47
590.284	15363.06
590.643	15674.69
591.003	15908.58
591.362	16152.64
591.721	16429.02
592.08	16683.93
592.44	16983.58
592.799	17207.75
593.158	17478.71
593.517	17834.86
593.876	18151.91
594.235	18353.03
594.593	18597.55
594.952	18921.38
595.311	19254.48
595.67	19562.72
596.029	19927.91
596.387	20220.78
596.746	20487.44
597.104	20680.43
597.463	20966.98
597.822	21347.76
598.18	21572.84
598.538	21835.2
598.897	22324
599.255	22289.43
599.613	23090.76
599.972	23012.8
600.33	23398.33
600.688	23480.81
601.046	23919.89
601.404	24232.65
601.762	24532.53
602.12	24861.79
602.478	25067.89
602.836	25388.78
603.194	25625.61
603.552	25843.01
603.91	26118.03
604.268	26394.63
604.625	26623.78
604.983	26985.8
605.341	27039.13
605.698	27543.3
606.056	27761.15
606.413	27960.24
606.771	28280.68
607.128	28488.36
607.485	28591.64
607.843	28784.17
608.2	29229.13
608.557	29431.39
608.914	29577.82
609.272	29818.27
609.629	30123.8
609.986	30447.86
610.343	30526.95
610.7	30898.24
611.057	30978.92
611.414	31240.15
611.771	31304.11
612.127	31596.08
612.484	31837.43
612.841	32187.02
613.198	32013.01
613.554	32239.22
613.911	32626.11
614.267	32764.63
614.624	32918.53
614.98	33172.31
615.337	33454.78
615.693	33476.93
616.05	33671.73
616.406	33980.87
616.762	33871.04
617.118	34162.79
617.475	34309
617.831	34404.82
618.187	34617.24
618.543	34829.89
618.899	35072.82
619.255	35019.94
619.611	35152.37
619.967	35417.44
620.323	35498.8
620.678	35582.41
621.034	35539.02
621.39	35724.1
621.746	35830.99
622.101	36199.57
622.457	35957.32
622.812	36252.22
623.168	36281.83
623.523	36497.19
623.879	36543.97
624.234	36524.53
624.589	36762.72
624.945	36621.48
625.3	36888.37
625.655	36953
626.01	36966.78
626.365	37244.29
626.72	37107.12
627.075	37185.76
627.43	37304.85
627.785	37151.18
628.14	37449.03
628.495	37500.1
628.85	37449.71
629.205	37522.7
629.559	37753.43
629.914	37528.12
630.269	37633.66
630.623	37362.93
630.978	37615.58
631.332	37875.23
631.687	37805.18
632.041	37708.68
632.396	37952.97
632.75	37748.23
633.104	37780.09
633.459	37655.35
633.813	37680.21
634.167	37816.48
634.521	37781.9
634.875	37869.81
635.229	37790.04
635.583	37770.38
635.937	37868
636.291	37780.09
636.645	37850.83
636.999	37852.86
637.352	37874.33
637.706	37763.6
638.06	37952.07
638.413	37859.19
638.767	37776.7
639.121	37832.3
639.474	37611.29
639.828	37718.17
640.181	37846.53
640.534	37715.01
640.888	37722.69
641.241	37621.68
641.594	37698.06
641.947	37693.99
642.301	37718.17
642.654	37644.73
643.007	37785.29
643.36	37777.61
643.713	37656.71
644.066	37823.93
644.419	37489.93
644.771	37308.92
645.124	37032.32
645.477	36952.09
645.83	36776.96
646.182	36711.42
646.535	36497.87
646.888	36745.55
647.24	36447.47
647.593	36638.2
647.945	36624.19
648.298	36508.49
648.65	36413.8
649.002	36353.01
649.355	36380.13
649.707	36426.68
650.059	36596.17
650.411	37052.88
650.763	36987.8
651.115	37345.53
651.467	37240.67
651.819	37323.38
652.171	37244.74
652.523	37175.59
652.875	37290.84
653.227	37140.56
653.578	37201.13
653.93	37129.26
654.282	37160
654.633	36861.93
654.985	37051.07
655.337	37014.24
655.688	36974.47
656.039	37201.58
656.391	36815.83
656.742	37001.81
657.094	36811.98
657.445	37148.92
657.796	36994.13
658.147	36918.42
658.498	36875.94
658.849	36935.37
659.2	36830.29
659.551	36865.54
659.902	37089.04
660.253	36976.95
660.604	36955.71
660.955	36860.57
661.306	36973.11
661.656	36786
662.007	36849.95
662.358	36903.06
662.708	36827.8
663.059	36820.8
663.409	36682.72
663.76	36839.1
664.11	36893.79
664.461	36957.74
664.811	36713
665.161	36972.88
665.511	36744.19
665.862	36924.75
666.212	36888.82
666.562	36990.51
666.912	36832.32
667.262	36686.34
667.612	36684.98
667.962	36790.52
668.312	36791.87
668.662	36867.8
669.011	36862.38
669.361	36672.55
669.711	36669.84
670.06	36626.23
670.41	36662.16
670.76	36679.78
671.109	36726.79
671.459	36651.08
671.808	36704.64
672.157	36745.77
672.507	36381.71
672.856	36524.08
673.205	36604.76
673.554	36765.66
673.904	36560.69
674.253	36633.91
674.602	36511.65
674.951	36042.29
675.3	35900.37
675.649	36407.7
675.998	36245.9
676.346	36418.55
676.695	36493.35
677.044	36192.79
677.393	36423.29
677.741	36432.56
678.09	36258.33
678.438	36170.19
678.787	36207.93
679.135	36220.59
679.484	35984.44
679.832	36228.95
680.181	35932.01
680.529	36060.14
680.877	35997.54
681.225	35926.81
681.573	36206.35
681.922	35891.1
682.27	35799.58
682.618	35797.32
682.966	35786.93
683.314	35706.93
683.661	35715.74
684.009	35570.21
684.357	35365.92
684.705	35439.59
685.053	35364.56
685.4	35480.27
685.748	35329.99
686.095	35249.54
686.443	35114.4
686.79	35081.63
687.138	35205.7
687.485	35231.23
687.832	34986.72
688.18	35003.44
688.527	34850.91
688.874	34909.89
689.221	34686.16
689.568	34587.18
689.915	34660.85
690.262	34651.59
690.609	34503.57
690.956	34387.19
691.303	34330.92
691.65	34161.88
691.997	34191.26
692.344	33929.35
692.69	33910.82
693.037	34014.77
693.383	33644.84
693.73	33825.17
694.077	33582.46
694.423	33549.02
694.769	33428.57
695.116	33508.79
695.462	33333.66
695.808	33259.31
696.155	33253.43
696.501	33005.98
696.847	33027.22
697.193	32804.63
697.539	33035.81
697.885	32735.48
698.231	32681.92
698.577	32727.35
698.923	32643.73
699.269	32488.93
699.614	32367.58
699.96	32343.63
700.306	32264.98
700.651	32119
700.997	32015.95
701.342	32049.85
701.688	31959.46
702.033	31884.66
702.379	31917.88
702.724	31621.61
703.069	31793.58
703.415	31561.73
703.76	31492.35
704.105	31455.29
704.45	31408.96
704.795	31193.15
705.14	31128.07
705.485	31107.95
705.83	30892.82
706.175	31031.57
706.52	30916.09
706.865	30791.8
707.209	30808.53
707.554	30768.3
707.899	30788.87
708.243	30544.58
708.588	30484.92
708.932	30412.6
709.277	30235.43
709.621	30246.51
709.966	30143.68
710.31	30151.59
710.654	29854.65
710.998	29980.98
711.342	29910.02
711.687	29840.64
712.031	29721.1
712.375	29712.06
712.719	29658.27
713.063	29663.7
713.407	29615.11
713.75	29502.12
714.094	29493.53
714.438	29399.52
714.782	29343.48
715.125	29228.91
715.469	29276.59
715.812	29044.96
716.156	29039.53
716.499	29024.84
716.843	29112.75
717.186	28838.18
717.53	29007.9
717.873	28944.85
718.216	28866.88
718.559	28713.67
718.902	28576.49
719.246	28578.08
719.589	28605.65
719.932	28428.93
720.275	28516.83
720.617	28386.89
720.96	28384.86
721.303	28407.01
721.646	28370.4
721.989	28199.33
722.331	28353.9
722.674	28226.22
723.016	28226
723.359	28182.83
723.701	28152.78
724.044	27956.17
724.386	27910.07
724.729	28023.29
725.071	27760.24
725.413	27884.08
725.755	27777.42
726.097	27724.31
726.439	27554.83
726.782	27652.9
727.124	27684.09
727.465	27600.25
727.807	27566.35
728.149	27496.52
728.491	27386.47
728.833	27414.27
729.175	27334.49
729.516	27297.43
729.858	27284.32
730.199	27299.92
730.541	27234.38
730.882	27140.15
731.224	27151.45
731.565	27023.31
731.906	27066.03
732.248	26993.26
732.589	26899.7
732.93	26813.38
733.271	26920.72
733.612	26735.19
733.953	26785.36
734.294	26766.37
734.635	26656.77
734.976	26713.04
735.317	26564.34
735.658	26621.97
735.999	26630.56
736.339	26626.72
736.68	26671.91
737.021	26478.24
737.361	26442.77
737.702	26540.39
738.042	26299.49
738.383	26345.82
738.723	26442.31
739.063	26161.42
739.404	26223.34
739.744	26188.53
740.084	26057.24
740.424	26112.15
740.764	26002.55
741.104	26228.31
741.444	25989.67
741.784	25855.66
742.124	25927.98
742.464	25770.47
742.804	25771.82
743.143	25710.81
743.483	25792.84
743.823	25596.46
744.162	25706.06
744.502	25805.72
744.841	25569.34
745.181	25663.35
745.52	25489.57
745.86	25521.66
746.199	25519.63
746.538	25415
746.877	25507.87
747.216	25438.5
747.556	25303.81
747.895	25370.93
748.234	25312.4
748.573	25290.25
748.911	25223.14
749.25	25208.67
749.589	25085.51
749.928	25093.42
750.267	25158.28
750.605	25053.88
750.944	25024.95
751.283	24937.95
751.621	24872.64
751.96	24796.71
752.298	24814.56
752.636	24914.67
752.975	24668.8
753.313	24587.9
753.651	24739.53
753.989	24485.98
754.327	24453.66
754.666	24412.54
755.004	24309.26
755.342	24462.03
755.679	24406.89
756.017	24142.49
756.355	24330.96
756.693	24111.53
757.031	24222.03
757.368	23980.68
757.706	23915.37
758.044	23937.29
758.381	23903.17
758.719	23820.91
759.056	23960.34
759.394	23702.72
759.731	23639
760.068	23582.05
760.405	23546.34
760.743	23489.62
761.08	23573.24
