Data from hue_10_FLMS001491_8.txt Node
Date: Mon Feb 06 15:31:19 GMT 2017
User: dcchb
Spectrometer: FLMS00149
Trigger mode: 0
Integration Time (sec): 2.000000E-2
Scans to average: 10
Electric dark correction enabled: true
Nonlinearity correction enabled: false
Boxcar width: 0
XAxis mode: Wavelengths
Number of Pixels in Spectrum: 2048
>>>>>Begin Spectral Data<<<<<
341.393	-3.39
341.776	-3.39
342.16	-3.39
342.543	-61.92
342.927	-64.63
343.31	-54.24
343.693	-78.19
344.077	-65.54
344.46	-52.43
344.843	-47.23
345.226	-49.49
345.61	-40.9
345.993	-22.6
346.376	-11.98
346.759	5.88
347.142	28.93
347.525	28.02
347.908	73.67
348.291	92.43
348.674	83.61
349.057	110.05
349.44	117.51
349.823	126.32
350.206	167.45
350.588	175.14
350.971	209.71
351.354	216.04
351.737	249.71
352.119	253.33
352.502	264.63
352.884	285.42
353.267	255.36
353.65	304.17
354.032	296.49
354.414	301.46
354.797	307.11
355.179	323.16
355.562	331.52
355.944	322.7
356.326	349.14
356.709	328.58
357.091	359.99
357.473	327.68
357.855	349.82
358.238	324.96
358.62	331.52
359.002	352.99
359.384	334.91
359.766	341.23
360.148	353.66
360.53	337.17
360.912	334.45
361.294	337.84
361.676	316.38
362.057	350.27
362.439	316.83
362.821	319.31
363.203	319.54
363.584	327
363.966	336.26
364.348	324.06
364.729	315.92
365.111	313.66
365.493	311.86
365.874	310.5
366.256	301.24
366.637	308.24
367.019	310.05
367.4	316.6
367.781	311.63
368.163	312.76
368.544	315.47
368.925	301.69
369.306	313.89
369.688	314.79
370.069	321.12
370.45	316.6
370.831	318.18
371.212	315.92
371.593	289.94
371.974	298.75
372.355	297.39
372.736	293.55
373.117	322.25
373.498	308.92
373.879	309.82
374.26	308.01
374.641	303.27
375.021	311.18
375.402	312.99
375.783	313.44
376.163	332.65
376.544	313.44
376.925	333.55
377.305	335.13
377.686	330.39
378.066	308.69
378.447	300.78
378.827	329.26
379.208	314.12
379.588	333.1
379.968	328.8
380.349	319.77
380.729	318.41
381.109	340.56
381.489	339.2
381.87	314.12
382.25	352.31
382.63	327.67
383.01	346.21
383.39	340.56
383.77	336.49
384.15	340.33
384.53	343.95
384.91	351.4
385.29	326.32
385.67	336.71
386.049	367
386.429	327.45
386.809	337.39
387.189	338.97
387.568	344.17
387.948	331.29
388.328	348.69
388.707	353.44
389.087	356.6
389.466	363.61
389.846	355.02
390.225	344.85
390.605	339.2
390.984	358.86
391.363	373.55
391.743	343.72
392.122	353.89
392.501	362.25
392.881	358.41
393.26	361.8
393.639	382.14
394.018	367.22
394.397	359.76
394.776	377.39
395.155	366.09
395.534	355.02
395.913	376.26
396.292	383.72
396.671	386.43
397.05	372.87
397.429	385.75
397.808	365.87
398.186	387.33
398.565	369.03
398.944	380.78
399.323	383.72
399.701	379.2
400.08	378.97
400.458	370.39
400.837	369.48
401.215	386.88
401.594	383.27
401.972	410.61
402.351	398.63
402.729	386.88
403.107	398.18
403.486	391.85
403.864	394.11
404.242	395.47
404.62	400.22
404.999	387.33
405.377	404.96
405.755	399.99
406.133	406.32
406.511	411.97
406.889	397.5
407.267	422.81
407.645	435.92
408.023	420.78
408.401	421.46
408.779	395.92
409.156	424.85
409.534	443.38
409.912	426.66
410.29	432.76
410.667	420.1
411.045	439.54
411.422	423.94
411.8	440.44
412.178	442.25
412.555	439.99
412.933	436.6
413.31	440.89
413.687	434.11
414.065	455.58
414.442	457.16
414.819	466.43
415.197	481.34
415.574	462.81
415.951	472.53
416.328	463.26
416.705	463.94
417.082	444.73
417.46	470.27
417.837	470.95
418.214	477.05
418.591	489.93
418.967	497.16
419.344	470.04
419.721	500.78
420.098	474.34
420.475	482.47
420.852	479.08
421.228	497.16
421.605	496.94
421.982	509.59
422.358	504.62
422.735	488.35
423.111	516.6
423.488	500.1
423.864	502.59
424.241	510.27
424.617	502.81
424.994	528.35
425.37	537.84
425.746	508.46
426.123	551.4
426.499	547.78
426.875	534.68
427.251	529.48
427.627	538.29
428.003	536.26
428.379	529.25
428.756	574
429.132	571.51
429.507	556.37
429.883	572.87
430.259	574.45
430.635	579.42
431.011	562.02
431.387	590.72
431.763	585.07
432.138	603.37
432.514	598.18
432.89	621.68
433.265	612.64
433.641	632.07
434.016	610.61
434.392	638.85
434.767	624.39
435.143	646.99
435.518	624.62
435.894	618.97
436.269	627.78
436.644	625.07
437.02	648.8
437.395	664.16
437.77	635.24
438.145	685.63
438.52	678.4
438.895	658.74
439.271	669.13
439.646	678.17
440.021	677.04
440.395	722.24
440.77	691.06
441.145	684.5
441.52	678.4
441.895	666.88
442.27	702.81
442.645	713.88
443.019	734.22
443.394	709.13
443.769	721.79
444.143	702.58
444.518	725.86
444.892	700.32
445.267	730.15
445.641	724.5
446.016	728.12
446.39	710.49
446.764	765.63
447.139	752.3
447.513	762.47
447.887	750.26
448.262	771.51
448.636	754.33
449.01	765.18
449.384	762.92
449.758	791.17
450.132	771.51
450.506	813.09
450.88	781.9
451.254	811.96
451.628	794.78
452.002	803.14
452.376	799.3
452.75	808.79
453.123	809.02
453.497	857.6
453.871	853.08
454.244	820.32
454.618	847.44
454.992	838.62
455.365	851.95
455.739	885.63
456.112	859.86
456.486	882.24
456.859	883.37
457.232	905.06
457.606	903.71
457.979	902.12
458.352	925.85
458.725	925.85
459.099	926.53
459.472	940.54
459.845	944.16
460.218	974.66
460.591	970.6
460.964	989.13
461.337	949.81
461.71	976.92
462.083	1010.82
462.456	1008.11
462.829	1030.03
463.201	1024.83
463.574	1023.02
463.947	1036.36
464.32	1077.26
464.692	1072.29
465.065	1092.17
465.438	1110.71
465.81	1100.54
466.183	1125.85
466.555	1148.22
466.928	1125.62
467.3	1142.79
467.672	1188.67
468.045	1190.48
468.417	1172.85
468.789	1184.6
469.161	1210.36
469.534	1248.1
469.906	1257.59
470.278	1271.15
470.65	1270.7
471.022	1287.2
471.394	1290.59
471.766	1325.84
472.138	1356.57
472.51	1370.13
472.882	1426.18
473.253	1393.86
473.625	1440.64
473.997	1446.29
474.369	1476.12
474.74	1467.76
475.112	1491.03
475.484	1516.8
475.855	1577.81
476.227	1586.4
476.598	1607.64
476.97	1632.27
477.341	1638.6
477.713	1693.06
478.084	1694.87
478.455	1714.76
478.827	1750.24
479.198	1776.68
479.569	1850.57
479.94	1847.86
480.311	1858.48
480.682	1915.2
481.053	1949.1
481.424	1978.71
481.795	2019.61
482.166	2052.38
482.537	2073.84
482.908	2153.84
483.279	2137.12
483.65	2200.39
484.021	2237.68
484.391	2245.14
484.762	2279.49
485.133	2315.87
485.503	2354.29
485.874	2379.37
486.244	2416.66
486.615	2473.61
486.985	2493.49
487.356	2559.71
487.726	2586.15
488.097	2664.56
488.467	2672.25
488.837	2716.99
489.207	2747.27
489.578	2793.82
489.948	2811.9
490.318	2843.77
490.688	2895.74
491.058	2931.22
491.428	2937.32
491.798	2969.64
492.168	3050.77
492.538	3095.74
492.908	3133.7
493.278	3180.26
493.648	3182.74
494.017	3276.07
494.387	3266.13
494.757	3260.71
495.126	3284.89
495.496	3342.74
495.866	3402.62
496.235	3470.19
496.605	3413.47
496.974	3471.55
497.344	3524.65
497.713	3568.04
498.082	3559.45
498.452	3613.92
498.821	3650.53
499.19	3621.37
499.559	3654.82
499.928	3674.03
500.298	3704.31
500.667	3748.15
501.036	3766
501.405	3798.77
501.774	3778.88
502.143	3850.97
502.512	3831.99
502.88	3878.32
503.249	3899.11
503.618	3906.79
503.987	3949.05
504.356	3987.92
504.724	3996.73
505.093	3999.89
505.462	4045.09
505.83	4020.46
506.199	4099.78
506.567	4095.26
506.936	4129.61
507.304	4163.28
507.672	4196.05
508.041	4181.81
508.409	4221.81
508.777	4191.98
509.145	4269.27
509.514	4285.76
509.882	4323.28
510.25	4272.2
510.618	4356.95
510.986	4328.7
511.354	4406.21
511.722	4419.77
512.09	4475.81
512.458	4411.64
512.826	4434.01
513.193	4476.27
513.561	4527.79
513.929	4514.68
514.297	4521.69
514.664	4593.1
515.032	4616.38
515.4	4585.64
515.767	4606.21
516.135	4648.47
516.502	4641.69
516.869	4701.57
517.237	4693.66
517.604	4725.75
517.972	4782.25
518.339	4717.16
518.706	4800.78
519.073	4795.13
519.44	4802.13
519.808	4830.83
520.175	4808.91
520.542	4844.39
520.909	4885.3
521.276	4838.97
521.643	4921.23
522.009	4963.03
522.376	4947.21
522.743	5045.29
523.11	4998.06
523.477	5037.61
523.843	5122.8
524.21	5132.29
524.577	5142.24
524.943	5185.17
525.31	5158.96
525.676	5284.15
526.043	5277.15
526.409	5313.98
526.776	5321.22
527.142	5365.28
527.508	5344.72
527.874	5402.34
528.241	5429.91
528.607	5438.95
528.973	5473.3
529.339	5454.77
529.705	5492.96
530.071	5535.9
530.437	5570.02
530.803	5633.75
531.169	5657.7
531.535	5615.45
531.901	5679.85
532.267	5628.55
532.632	5713.3
532.998	5677.82
533.364	5768.21
533.73	5791.71
534.095	5842.11
534.461	5885.72
534.826	5869.45
535.192	5930.92
535.557	5939.5
535.923	5994.42
536.288	5989.22
536.653	6016.11
537.019	5994.19
537.384	6036.23
537.749	6106.96
538.114	6073.06
538.479	6126.17
538.845	6094.76
539.21	6132.72
539.575	6150.35
539.94	6212.04
540.305	6200.06
540.67	6226.73
541.034	6255.65
541.399	6265.82
541.764	6330.68
542.129	6335.2
542.494	6287.52
542.858	6391.02
543.223	6386.27
543.587	6407.74
543.952	6419.72
544.316	6456.1
544.681	6462.2
545.045	6543.56
545.41	6568.19
545.774	6592.14
546.138	6587.4
546.503	6640.5
546.867	6643.22
547.231	6671.24
547.595	6673.27
547.959	6723.89
548.324	6727.28
548.688	6762.99
549.052	6844.11
549.416	6842.31
549.779	6822.19
550.143	6917.56
550.507	6871.01
550.871	6904.68
551.235	6900.84
551.599	6979.93
551.962	6947.61
552.326	7014.96
552.689	7111.68
553.053	7106.48
553.417	7089.76
553.78	7139.25
554.143	7079.81
554.507	7186.93
554.87	7118.68
555.234	7262.63
555.597	7183.99
555.96	7210.66
556.323	7352.8
556.686	7309.64
557.05	7335.63
557.413	7376.08
557.776	7319.81
558.139	7382.86
558.502	7337.66
558.865	7461.95
559.228	7433.7
559.59	7492.91
559.953	7471.22
560.316	7547.37
560.679	7537.88
561.041	7568.61
561.404	7616.07
561.767	7659.69
562.129	7605.9
562.492	7693.58
562.854	7684.77
563.217	7728.61
563.579	7758.44
563.941	7817.2
564.304	7823.98
564.666	7808.38
565.028	7944.2
565.39	7865.56
565.753	7891.32
566.115	7969.06
566.477	7965.67
566.839	7985.33
567.201	8042.27
567.563	8068.49
567.925	8129.96
568.287	8135.83
568.648	8217.64
569.01	8233
569.372	8245.88
569.734	8221.25
570.095	8283.62
570.457	8389.38
570.819	8392.1
571.18	8388.93
571.542	8508.7
571.903	8526.56
572.265	8566.78
572.626	8583.28
572.987	8640
573.349	8619.21
573.71	8697.17
574.071	8714.12
574.432	8790.73
574.794	8856.49
575.155	8872.31
575.516	8938.52
575.877	9022.81
576.238	9025.07
576.599	9091.06
576.96	9163.37
577.32	9199.31
577.681	9342.35
578.042	9366.31
578.403	9405.85
578.763	9566.08
579.124	9635.23
579.485	9686.75
579.845	9825.28
580.206	9850.59
580.566	9976.46
580.927	10070.47
581.287	10156.8
581.648	10294.19
582.008	10401.76
582.368	10505.49
582.728	10632.94
583.089	10777.34
583.449	10926.04
583.809	11076.54
584.169	11246.48
584.529	11313.15
584.889	11516.31
585.249	11672.91
585.609	11815.06
585.969	12024.77
586.329	12217.31
586.688	12441.48
587.048	12588.82
587.408	12789.27
587.768	12970.96
588.127	13233.1
588.487	13447.1
588.846	13713.54
589.206	13814.78
589.565	14036.92
589.925	14368.21
590.284	14501.31
590.643	14838.93
591.003	15160.96
591.362	15390.33
591.721	15596.88
592.08	15844.33
592.44	16131.1
592.799	16387.14
593.158	16680.69
593.517	16911.65
593.876	17233.67
594.235	17397.96
594.593	17705.52
594.952	18096.93
595.311	18260.31
595.67	18615.1
596.029	19027.3
596.387	19237.46
596.746	19522.42
597.104	19730.33
597.463	19996.08
597.822	20401.27
598.18	20542.96
598.538	20903.41
598.897	21213.68
599.255	21407.12
599.613	21941.34
599.972	22063.37
600.33	22462.91
600.688	22561.67
601.046	22897.03
601.404	23252.04
601.762	23572.04
602.12	23855.42
602.478	24110.1
602.836	24419.47
603.194	24546.02
603.552	24846.8
603.91	25080.92
604.268	25335.15
604.625	25716.84
604.983	25991.63
605.341	26086.09
605.698	26458.51
606.056	26682.91
606.413	27028.44
606.771	27399.05
607.128	27581.87
607.485	27560.41
607.843	27856.22
608.2	28263.44
608.557	28571.9
608.914	28772.58
609.272	28981.61
609.629	29256.18
609.986	29542.73
610.343	29572.1
610.7	30153.11
611.057	30258.41
611.414	30436.49
611.771	30578.18
612.127	30957.6
612.484	31050.26
612.841	31252.74
613.198	31293.19
613.554	31492.73
613.911	31855.89
614.267	32008.42
614.624	32032.38
614.98	32344.23
615.337	32634.85
615.693	32623.32
616.05	32885.69
616.406	33270.31
616.762	33082.07
617.118	33375.62
617.475	33389.18
617.831	33701.03
618.187	33937.64
618.543	33953.01
618.899	34223.28
619.255	34409.04
619.611	34530.17
619.967	34556.15
620.323	34792.98
620.678	34720.89
621.034	34928.35
621.39	35009.93
621.746	34978.52
622.101	35534.88
622.457	35408.11
622.812	35592.74
623.168	35687.42
623.523	35666.86
623.879	35933.74
624.234	35750.25
624.589	35990.24
624.945	36142.55
625.3	36241.53
625.655	36253.51
626.01	36399.49
626.365	36540.51
626.72	36446.05
627.075	36515.42
627.43	36577.8
627.785	36477.23
628.14	36741.18
628.495	36801.97
628.85	36720.84
629.205	36624.8
629.559	37030.21
629.914	36936.66
630.269	37019.82
630.623	36928.52
630.978	36908.86
631.332	37161.06
631.687	37258.68
632.041	37093.04
632.396	37216.2
632.75	37099.82
633.104	37249.87
633.459	37197.67
633.813	37260.49
634.167	37222.98
634.521	37176.65
634.875	37290.77
635.229	37270.88
635.583	37144.56
635.937	37383.88
636.291	37224.56
636.645	37257.55
636.999	37224.78
637.352	37390.43
637.706	37262.3
638.06	37421.16
638.413	37425.23
638.767	37337.78
639.121	37326.02
639.474	37055.75
639.828	37158.35
640.181	37291.9
640.534	37231.11
640.888	37264.78
641.241	37051
641.594	37113.15
641.947	37260.94
642.301	37194.5
642.654	37172.13
643.007	37209.19
643.36	37167.61
643.713	37136.42
644.066	37262.75
644.419	37054.62
644.771	36804.23
645.124	36514.52
645.477	36516.1
645.83	36282.89
646.182	36145.72
646.535	36063.46
646.888	36326.28
647.24	36088.99
647.593	36136.68
647.945	36187.98
648.298	35850.13
648.65	35863.01
649.002	35854.65
649.355	36106.85
649.707	36082.67
650.059	36181.2
650.411	36632.26
650.763	36551.81
651.115	36966.71
651.467	36767.17
651.819	36850.56
652.171	36782.08
652.523	36662.76
652.875	36822.53
653.227	36500.74
653.578	36869.99
653.93	36743.21
654.282	36600.17
654.633	36498.7
654.985	36620.51
655.337	36624.8
655.688	36594.97
656.039	36652.6
656.391	36415.77
656.742	36460.06
657.094	36630.68
657.445	36629.32
657.796	36518.36
658.147	36543.22
658.498	36589.55
658.849	36629.32
659.2	36504.35
659.551	36453.5
659.902	36602.43
660.253	36458.02
660.604	36491.02
660.955	36297.35
661.306	36571.69
661.656	36359.72
662.007	36350.91
662.358	36302.77
662.708	36442.43
663.059	36281.53
663.409	36261.87
663.76	36320.17
664.11	36307.29
664.461	36348.87
664.811	36326.28
665.161	36379.16
665.511	36338.25
665.862	36247.63
666.212	36448.08
666.562	36481.75
666.912	36539.83
667.262	36266.84
667.612	36305.03
667.962	36385.94
668.312	36190.91
668.662	36585.48
669.011	36226.39
669.361	36321.76
669.711	36277.01
670.06	36148.43
670.41	36178.71
670.76	36048.77
671.109	36263
671.459	36192.49
671.808	36134.87
672.157	36303.23
672.507	36042.44
672.856	36031.37
673.205	36031.59
673.554	36289.89
673.904	36131.03
674.253	36194.75
674.602	36107.98
674.951	35641.77
675.3	35331.73
675.649	35952.05
675.998	35979.84
676.346	35988.66
676.695	36011.93
677.044	35827.31
677.393	35937.59
677.741	35993.18
678.09	35810.58
678.438	35747.08
678.787	35972.84
679.135	35563.81
679.484	35619.85
679.832	35724.94
680.181	35672.96
680.529	35630.02
680.877	35563.13
681.225	35447.2
681.573	35732.39
681.922	35477.71
682.27	35275
682.618	35401.1
682.966	35303.48
683.314	35280.2
683.661	35328.56
684.009	35109.59
684.357	35211.28
684.705	34868.69
685.053	34981.45
685.4	35000.21
685.748	34764.96
686.095	34705.08
686.443	34575.14
686.79	34589.15
687.138	34752.08
687.485	34627.34
687.832	34682.93
688.18	34545.08
688.527	34441.81
688.874	34373.79
689.221	34357.06
689.568	34233.9
689.915	34204.52
690.262	34159.78
690.609	34042.04
690.956	33951.65
691.303	33854.03
691.65	33632.79
691.997	33748.27
692.344	33419.23
692.69	33547.14
693.037	33668.49
693.383	33085.68
693.73	33427.37
694.077	33202.29
694.423	33134.27
694.769	33066.48
695.116	33002.97
695.462	32907.61
695.808	32831
696.155	32826.26
696.501	32493.38
696.847	32741.51
697.193	32407.06
697.539	32608.41
697.885	32402.76
698.231	32204.8
698.577	32170.45
698.923	32282.54
699.269	32083.22
699.614	31878.71
699.96	31882.33
700.306	31869.9
700.651	31699.96
700.997	31706.96
701.342	31619.28
701.688	31600.98
702.033	31473.97
702.379	31591.49
702.724	31398.27
703.069	31426.07
703.415	31080.54
703.76	31084.15
704.105	31091.61
704.45	31088.67
704.795	30805.52
705.14	30761.68
705.485	30675.8
705.83	30519.88
706.175	30688.68
706.52	30527.78
706.865	30361.91
707.209	30422.7
707.554	30237.4
707.899	30319.43
708.243	30283.05
708.588	30188.81
708.932	29926.9
709.277	29974.58
709.621	29997.4
709.966	29727.13
710.31	29983.39
710.654	29647.36
710.998	29545.44
711.342	29685.32
711.687	29503.63
712.031	29329.62
712.375	29357.87
712.719	29363.07
713.063	29212.34
713.407	29316.97
713.75	29225.45
714.094	29219.12
714.438	28979.13
714.782	29085.79
715.125	28927.6
715.469	29016.86
715.812	28836.08
716.156	28691.67
716.499	28598.12
716.843	28684.9
717.186	28435.86
717.53	28704.1
717.873	28680.83
718.216	28545.24
718.559	28365.58
718.902	28183.67
719.246	28404
719.589	28193.16
719.932	28140.28
720.275	28131.46
720.617	28045.82
720.96	28050.79
721.303	28033.16
721.646	27997.68
721.989	27823
722.331	27846.73
722.674	27847.18
723.016	27931.92
723.359	27870.91
723.701	27668.65
724.044	27555.43
724.386	27475.89
724.729	27550.69
725.071	27547.75
725.413	27521.31
725.755	27519.05
726.097	27463.46
726.439	27276.34
726.782	27278.83
727.124	27322.67
727.465	27178.27
727.807	27209
728.149	27103.69
728.491	27088.78
728.833	27033.87
729.175	26979.63
729.516	26873.64
729.858	26880.65
730.199	27025.96
730.541	26955.9
730.882	26826.87
731.224	26923.81
731.565	26697.83
731.906	26647.21
732.248	26780.99
732.589	26575.35
732.93	26525.4
733.271	26583.48
733.612	26462.13
733.953	26571.73
734.294	26275.92
734.635	26359.08
734.976	26413.09
735.317	26300.33
735.658	26260.1
735.999	26217.84
736.339	26218.97
736.68	26205.41
737.021	26150.95
737.361	26051.97
737.702	26174.23
738.042	26016.27
738.383	26041.58
738.723	26047.45
739.063	25898.3
739.404	25893.56
739.744	25880.68
740.084	25849.94
740.424	25826.67
740.764	25748.25
741.104	25825.76
741.444	25767.01
741.784	25626.44
742.124	25677.29
742.464	25588.25
742.804	25615.82
743.143	25519.55
743.483	25574.69
743.823	25372.67
744.162	25411.99
744.502	25435.49
744.841	25353.46
745.181	25388.48
745.52	25197.76
745.86	25160.24
746.199	25200.24
746.538	25252.44
746.877	25250.86
747.216	25051.32
747.556	25033.69
747.895	25102.84
748.234	25023.3
748.573	24930.87
748.911	24883.19
749.25	24902.4
749.589	24773.13
749.928	24819.23
750.267	24821.95
750.605	24674.83
750.944	24621.05
751.283	24556.42
751.621	24653.14
751.96	24497.66
752.298	24503.76
752.636	24523.42
752.975	24423.54
753.313	24306.71
753.651	24375.86
753.989	24354.84
754.327	24403.43
754.666	24096.99
755.004	24276.2
755.342	24214.96
755.679	24185.8
756.017	23946.94
756.355	24106.26
756.693	23985.36
757.031	23947.17
757.368	23806.83
757.706	23828.75
758.044	23743.56
758.381	23656.78
758.719	23677.57
759.056	23677.8
759.394	23572.94
759.731	23425.37
760.068	23449.1
760.405	23301.76
760.743	23275.55
761.08	23353.51
761.417	23080.3
