Data from hue_110_FLMS001491_00017.txt Node
Date: Tue Feb 07 17:00:58 GMT 2017
User: dcchb
Spectrometer: FLMS00149
Trigger mode: 0
Integration Time (sec): 2.000000E-2
Scans to average: 10
Electric dark correction enabled: true
Nonlinearity correction enabled: false
Boxcar width: 0
XAxis mode: Wavelengths
Number of Pixels in Spectrum: 2048
>>>>>Begin Spectral Data<<<<<
341.393	0.44
341.776	0.44
342.16	0.44
342.543	-60.35
342.927	-67.58
343.31	-73.91
343.693	-69.62
344.077	-77.75
344.46	-39.56
344.843	-46.11
345.226	-47.7
345.61	-29.39
345.993	-16.51
346.376	-19.45
346.759	-11.99
347.142	32.3
347.525	37.27
347.908	57.16
348.291	89.7
348.674	99.87
349.057	115.69
349.44	120.66
349.823	147.33
350.206	162.24
350.588	186.2
350.971	223.26
351.354	221.22
351.737	210.6
352.119	243.14
352.502	261.67
352.884	258.74
353.267	296.25
353.65	297.83
354.032	293.76
354.414	311.39
354.797	311.84
355.179	318.62
355.562	326.08
355.944	325.85
356.326	325.63
356.709	338.73
357.091	348
357.473	337.6
357.855	351.62
358.238	324.72
358.62	348.23
359.002	313.88
359.384	337.38
359.766	321.79
360.148	343.71
360.53	319.75
360.912	335.8
361.294	345.74
361.676	333.08
362.057	338.73
362.439	343.03
362.821	340.77
363.203	329.24
363.584	331.05
363.966	327.21
364.348	314.78
364.729	324.5
365.111	335.57
365.493	334.21
365.874	307.32
366.256	319.98
366.637	318.62
367.019	308.23
367.4	289.7
367.781	291.28
368.163	333.54
368.544	325.18
368.925	326.53
369.306	304.84
369.688	323.14
370.069	321.79
370.45	312.29
370.831	304.38
371.212	324.27
371.593	309.81
371.974	317.27
372.355	314.33
372.736	308.45
373.117	311.39
373.498	307.77
373.879	312.97
374.26	324.72
374.641	317.27
375.021	294.67
375.402	321.56
375.783	318.85
376.163	319.98
376.544	326.98
376.925	326.76
377.305	322.46
377.686	330.37
378.066	322.69
378.447	330.82
378.827	325.85
379.208	317.27
379.588	317.27
379.968	354.78
380.349	340.77
380.729	340.09
381.109	322.92
381.489	322.46
381.87	323.14
382.25	352.74
382.63	354.78
383.01	335.12
383.39	373.76
383.77	345.51
384.15	339.86
384.53	339.19
384.91	349.13
385.29	357.94
385.67	367.43
386.049	344.84
386.429	363.14
386.809	354.33
387.189	353.65
387.568	373.08
387.948	341.9
388.328	345.97
388.707	353.2
389.087	363.37
389.466	345.29
389.846	352.52
390.225	357.04
390.605	363.59
390.984	365.17
391.363	368.79
391.743	369.24
392.122	387.32
392.501	358.85
392.881	366.53
393.26	382.57
393.639	373.54
394.018	391.84
394.397	381.9
394.776	371.05
395.155	377.6
395.534	373.76
395.913	386.19
396.292	396.36
396.671	398.39
397.05	390.26
397.429	404.5
397.808	371.5
398.186	380.54
398.565	389.81
398.944	416.25
399.323	388.45
399.701	371.28
400.08	391.39
400.458	416.02
400.837	395.68
401.215	404.27
401.594	404.5
401.972	417.6
402.351	379.41
402.729	412.18
403.107	407.21
403.486	398.62
403.864	417.38
404.242	427.09
404.62	419.41
404.999	412.18
405.377	430.48
405.755	429.58
406.133	429.35
406.511	441.56
406.889	448.79
407.267	432.74
407.645	431.61
408.023	430.03
408.401	451.73
408.779	435.45
409.156	452.18
409.534	453.31
409.912	433.87
410.29	441.56
410.667	462.12
411.045	467.54
411.422	449.92
411.8	460.54
412.178	448.79
412.555	465.28
412.933	466.64
413.31	452.86
413.687	473.19
414.065	480.43
414.442	468.9
414.819	497.6
415.197	488.11
415.574	492.18
415.951	522.68
416.328	498.5
416.705	505.51
417.082	499.86
417.46	500.09
417.837	514.77
418.214	537.37
418.591	527.43
418.967	494.44
419.344	520.2
419.721	530.14
420.098	518.84
420.475	517.49
420.852	524.94
421.228	546.41
421.605	530.37
421.982	554.1
422.358	542.8
422.735	553.19
423.111	575.56
423.488	566.98
423.864	575.34
424.241	556.36
424.617	569.69
424.994	552.74
425.37	553.19
425.746	575.34
426.123	580.31
426.499	567.43
426.875	594.32
427.251	574.21
427.627	596.35
428.003	627.54
428.379	625.73
428.756	613.53
429.132	626.86
429.507	592.29
429.883	619.18
430.259	608.78
430.635	625.28
431.011	631.38
431.387	644.49
431.763	657.6
432.138	667.76
432.514	680.19
432.89	676.35
433.265	659.63
433.641	696.24
434.016	690.14
434.392	688.1
434.767	682.91
435.143	695.33
435.518	698.72
435.894	703.92
436.269	724.03
436.644	712.51
437.02	725.16
437.395	715
437.77	746.86
438.145	737.59
438.52	774.43
438.895	754.54
439.271	746.41
439.646	745.5
440.021	781.43
440.395	771.49
440.77	778.5
441.145	782.34
441.52	798.38
441.895	803.58
442.27	826.18
442.645	816.46
443.019	813.07
443.394	829.34
443.769	841.55
444.143	835.67
444.518	828.89
444.892	861.43
445.267	833.18
445.641	834.99
446.016	831.38
446.39	858.72
446.764	851.94
447.139	852.17
447.513	844.26
447.887	884.71
448.262	888.1
448.636	892.62
449.01	888.32
449.384	885.61
449.758	890.81
450.132	900.3
450.506	927.19
450.88	938.94
451.254	928.1
451.628	936.68
452.002	924.71
452.376	941.2
452.75	947.98
453.123	972.84
453.497	975.78
453.871	1012.84
454.244	998.38
454.618	994.76
454.992	1016.91
455.365	1002.67
455.739	1053.74
456.112	1038.6
456.486	1054.42
456.859	1077.25
457.232	1090.8
457.606	1092.84
457.979	1106.62
458.352	1124.93
458.725	1121.99
459.099	1153.4
459.472	1171.48
459.845	1157.7
460.218	1176.9
460.591	1180.29
460.964	1192.04
461.337	1211.71
461.71	1233.85
462.083	1260.07
462.456	1285.83
462.829	1256.22
463.201	1296.45
463.574	1279.95
463.947	1326.5
464.32	1347.52
464.692	1339.61
465.065	1380.06
465.438	1392.04
465.81	1419.84
466.183	1426.16
466.555	1422.77
466.928	1473.39
467.3	1472.94
467.672	1514.3
468.045	1535.54
468.417	1559.04
468.789	1576.44
469.161	1606.95
469.534	1656.67
469.906	1690.34
470.278	1717.91
470.65	1710
471.022	1739.6
471.394	1809.2
471.766	1799.49
472.138	1847.62
472.51	1888.98
472.882	1944.12
473.253	1938.92
473.625	1984.57
473.997	2045.13
474.369	2067.95
474.74	2133.49
475.112	2148.63
475.484	2214.16
475.855	2278.34
476.227	2335.74
476.598	2411.67
476.97	2418.91
477.341	2502.74
477.713	2558.34
478.084	2627.49
478.455	2669.75
478.827	2739.57
479.198	2831.78
479.569	2881.49
479.94	2986.35
480.311	3045.1
480.682	3138.43
481.053	3201.03
481.424	3339.33
481.795	3403.74
482.166	3496.39
482.537	3559.21
482.908	3702.49
483.279	3761.47
483.65	3848.02
484.021	4028.81
484.391	4071.97
484.762	4200.33
485.133	4256.82
485.503	4378.18
485.874	4535.91
486.244	4592.41
486.615	4767.77
486.985	4895.9
487.356	5017.03
487.726	5115.33
488.097	5270.58
488.467	5315.78
488.837	5527.52
489.207	5581.08
489.578	5778.59
489.948	5885.71
490.318	6039.15
490.688	6088.87
491.058	6277.11
491.428	6374.06
491.798	6562.75
492.168	6712.35
492.538	6837.09
492.908	6954.38
493.278	7066.47
493.648	7197.08
494.017	7358.44
494.387	7439.79
494.757	7618.09
495.126	7709.61
495.496	7882.72
495.866	7980.57
496.235	8109.83
496.605	8208.81
496.974	8395.92
497.344	8475.92
497.713	8585.3
498.082	8698.51
498.452	8826.42
498.821	8999.07
499.19	9050.82
499.559	9196.35
499.928	9313.19
500.298	9365.84
500.667	9495.33
501.036	9552.28
501.405	9736.68
501.774	9737.13
502.143	9868.43
502.512	9933.06
502.88	10068.42
503.249	10132.37
503.618	10181.19
503.987	10289.21
504.356	10386.61
504.724	10496.43
505.093	10522.87
505.462	10611.46
505.83	10685.58
506.199	10740.95
506.567	11028.85
506.936	11050.99
507.304	11116.53
507.672	11157.66
508.041	11237.88
508.409	11285.34
508.777	11453.7
509.145	11526.69
509.514	11505.67
509.882	11546.57
510.25	11664.31
510.618	11672.9
510.986	11687.59
511.354	11796.51
511.722	11894.14
512.09	12035.83
512.458	11968.48
512.826	12088.71
513.193	12127.35
513.561	12183.62
513.929	12232.43
514.297	12315.59
514.664	12329.61
515.032	12455.7
515.4	12460
515.767	12511.52
516.135	12569.15
516.502	12469.71
516.869	12729.82
517.237	12723.95
517.604	12790.61
517.972	12713.32
518.339	12879.2
518.706	12860.89
519.073	12895.24
519.44	12815.02
519.808	12969.14
520.175	12979.53
520.542	13104.73
520.909	13192.86
521.276	13156.25
521.643	13223.37
522.009	13240.54
522.376	13299.98
522.743	13358.5
523.11	13371.16
523.477	13492.51
523.843	13462.23
524.21	13568.67
524.577	13619.06
524.943	13630.14
525.31	13605.96
525.676	13723.69
526.043	13763.69
526.409	13689.12
526.776	13830.58
527.142	13877.59
527.508	13887.3
527.874	13888.89
528.241	13923.24
528.607	13904.03
528.973	13966.85
529.339	13916.23
529.705	13994.19
530.071	14034.42
530.437	14045.94
530.803	14004.36
531.169	14090.69
531.535	14023.35
531.901	14053.85
532.267	14116
532.632	14011.14
532.998	13970.24
533.364	14091.82
533.73	14003.69
534.095	14073.74
534.461	14105.6
534.826	14031.71
535.192	14076.68
535.557	14070.12
535.923	13987.19
536.288	14066.28
536.653	14035.1
537.019	13942.67
537.384	13945.38
537.749	13949.9
538.114	13990.58
538.479	13884.59
538.845	13885.27
539.21	13879.39
539.575	13845.72
539.94	13833.29
540.305	13845.27
540.67	13745.84
541.034	13758.04
541.399	13735.67
541.764	13735.67
542.129	13719.63
542.494	13697.25
542.858	13664.49
543.223	13666.07
543.587	13645.28
543.952	13642.11
544.316	13542
544.681	13509.24
545.045	13477.15
545.41	13551.72
545.774	13450.03
546.138	13504.49
546.503	13366.41
546.867	13432.63
547.231	13439.86
547.595	13379.3
547.959	13353.53
548.324	13229.47
548.688	13269.02
549.052	13238.51
549.416	13197.38
549.779	13196.02
550.143	13167.32
550.507	13226.53
550.871	13028.8
551.235	13045.52
551.599	13164.16
551.962	13096.14
552.326	13142.24
552.689	13075.57
553.053	13011.4
553.417	13028.8
553.78	13091.39
554.143	13005.75
554.507	12972.07
554.87	12972.75
555.234	12981.57
555.597	12924.84
555.96	12935.01
556.323	12940.21
556.686	12931.4
557.05	12942.02
557.413	12936.37
557.776	12888.23
558.139	12957.84
558.502	12904.51
558.865	12842.81
559.228	12949.7
559.59	12880.78
559.953	12955.35
560.316	13033.54
560.679	12921.91
561.041	12978.63
561.404	12986.09
561.767	12984.73
562.129	12932.98
562.492	13013.88
562.854	12942.92
563.217	12990.38
563.579	12939.31
563.941	13035.58
564.304	13046.42
564.666	13010.72
565.028	13060.89
565.39	13071.73
565.753	13095.23
566.115	13095.01
566.477	13110.6
566.839	13137.72
567.201	13107.66
567.563	13107.44
567.925	13191.73
568.287	13147.66
568.648	13118.96
569.01	13222.24
569.372	13265.4
569.734	13144.72
570.095	13163.26
570.457	13280.54
570.819	13242.12
571.18	13217.94
571.542	13377.94
571.903	13382.91
572.265	13325.06
572.626	13358.5
572.987	13334.1
573.349	13419.97
573.71	13379.75
574.071	13319.41
574.432	13463.36
574.794	13413.19
575.155	13416.36
575.516	13356.7
575.877	13416.13
576.238	13430.59
576.599	13509.24
576.96	13500.65
577.32	13455.9
577.681	13550.14
578.042	13472.63
578.403	13548.56
578.763	13504.72
579.124	13470.14
579.485	13539.97
579.845	13599.63
580.206	13496.35
580.566	13466.52
580.927	13489.12
581.287	13571.83
581.648	13464.26
582.008	13581.1
582.368	13462.91
582.728	13471.04
583.089	13459.07
583.449	13499.07
583.809	13457.26
584.169	13451.38
584.529	13404.38
584.889	13579.97
585.249	13475.56
585.609	13433.76
585.969	13452.51
586.329	13359.86
586.688	13392.18
587.048	13437.82
587.408	13396.02
587.768	13326.42
588.127	13285.74
588.487	13413.42
588.846	13502.46
589.206	13305.62
589.565	13344.49
589.925	13400.76
590.284	13299.75
590.643	13371.16
591.003	13299.75
591.362	13402.35
591.721	13283.25
592.08	13338.17
592.44	13365.51
592.799	13347.43
593.158	13254.78
593.517	13309.69
593.876	13349.92
594.235	13259.98
594.593	13371.16
594.952	13171.62
595.311	13175.46
595.67	13279.64
596.029	13330.71
596.387	13279.18
596.746	13280.99
597.104	13206.19
597.463	13196.02
597.822	13295.68
598.18	13155.57
598.538	13222.46
598.897	13333.42
599.255	13145.63
599.613	13301.78
599.972	13212.07
600.33	13225.85
600.688	13123.48
601.046	13249.36
601.404	13256.13
601.762	13260.2
602.12	13231.28
602.478	13198.96
602.836	13281.44
603.194	13143.37
603.552	13200.09
603.91	13195.35
604.268	13226.76
604.625	13255.91
604.983	13266.08
605.341	13160.54
605.698	13241.22
606.056	13255
606.413	13214.1
606.771	13307.21
607.128	13341.33
607.485	13190.15
607.843	13255.23
608.2	13340.2
608.557	13379.97
608.914	13309.01
609.272	13325.96
609.629	13400.31
609.986	13427.2
610.343	13304.95
610.7	13452.97
611.057	13365.06
611.414	13403.93
611.771	13418.84
612.127	13397.15
612.484	13416.58
612.841	13451.38
613.198	13348.34
613.554	13419.75
613.911	13443.25
614.267	13513.75
614.624	13414.55
614.98	13493.64
615.337	13570.02
615.693	13527.09
616.05	13452.74
616.406	13567.31
616.762	13503.59
617.118	13541.32
617.475	13567.76
617.831	13617.71
618.187	13609.57
618.543	13602.79
618.899	13711.72
619.255	13675.33
619.611	13629.46
619.967	13614.32
620.323	13644.15
620.678	13598.95
621.034	13591.72
621.39	13516.24
621.746	13547.88
622.101	13673.98
622.457	13589.23
622.812	13678.72
623.168	13695.9
623.523	13697.48
623.879	13694.99
624.234	13596.24
624.589	13671.26
624.945	13616.13
625.3	13644.15
625.655	13666.52
626.01	13645.5
626.365	13705.84
626.72	13614.77
627.075	13540.42
627.43	13661.77
627.785	13560.31
628.14	13667.2
628.495	13670.59
628.85	13579.06
629.205	13583.13
629.559	13598.05
629.914	13534.77
630.269	13588.33
630.623	13525.05
630.978	13421.55
631.332	13518.73
631.687	13510.37
632.041	13478.95
632.396	13494.55
632.75	13487.54
633.104	13456.13
633.459	13415.68
633.813	13481.89
634.167	13480.31
634.521	13440.54
634.875	13518.27
635.229	13477.15
635.583	13376.36
635.937	13454.1
636.291	13286.42
636.645	13337.94
636.999	13341.78
637.352	13384.04
637.706	13244.61
638.06	13278.28
638.413	13282.8
638.767	13284.61
639.121	13307.88
639.474	13183.82
639.828	13182.24
640.181	13241.22
640.534	13229.92
640.888	13192.41
641.241	13086.65
641.594	13109.7
641.947	13175.23
642.301	13264.04
642.654	13202.35
643.007	13162.35
643.36	13129.36
643.713	13099.98
644.066	13104.95
644.419	13061.11
644.771	12962.81
645.124	12886.65
645.477	12821.8
645.83	12728.24
646.182	12759.2
646.535	12618.86
646.888	12714.68
647.24	12615.93
647.593	12579.09
647.945	12623.83
648.298	12629.48
648.65	12538.87
649.002	12554.91
649.355	12592.88
649.707	12622.7
650.059	12709.71
650.411	12802.59
650.763	12848.01
651.115	12985.63
651.467	12916.26
651.819	12905.18
652.171	12900.66
652.523	12928.91
652.875	12948.57
653.227	12831.74
653.578	12907.9
653.93	12917.84
654.282	12887.56
654.633	12804.39
654.985	12979.31
655.337	12931.85
655.688	12894.79
656.039	13032.64
656.391	12883.49
656.742	12883.26
657.094	12881.23
657.445	12973.2
657.796	12876.94
658.147	12938.63
658.498	12867.44
658.849	12923.94
659.2	12959.65
659.551	12864.73
659.902	12932.75
660.253	12874.45
660.604	13008.68
660.955	12953.32
661.306	13000.32
661.656	12907.44
662.007	12947.44
662.358	12983.83
662.708	12904.73
663.059	12893.43
663.409	12898.4
663.76	13026.76
664.11	12960.78
664.461	13045.07
664.811	12869.48
665.161	12985.86
665.511	12901.12
665.862	12989.7
666.212	12944.5
666.562	13013.65
666.912	12956.48
667.262	12936.37
667.612	12936.59
667.962	12938.4
668.312	13021.11
668.662	12980.44
669.011	12958.74
669.361	12938.63
669.711	12944.05
670.06	12993.99
670.41	12935.01
670.76	12857.5
671.109	12932.75
671.459	12927.33
671.808	12905.18
672.157	12940.21
672.507	12850.5
672.856	12823.15
673.205	12869.25
673.554	12887.56
673.904	12854.34
674.253	12904.73
674.602	12833.09
674.951	12665.19
675.3	12535.25
675.649	12732.98
675.998	12738.63
676.346	12839.2
676.695	12770.5
677.044	12758.07
677.393	12765.3
677.741	12738.86
678.09	12790.84
678.438	12570.05
678.787	12702.93
679.135	12727.11
679.484	12645.98
679.832	12617.06
680.181	12525.53
680.529	12557.85
680.877	12558.98
681.225	12549.49
681.573	12636.72
681.922	12495.93
682.27	12436.72
682.618	12444.86
682.966	12435.37
683.314	12393.33
683.661	12287.12
684.009	12313.79
684.357	12266.56
684.705	12262.94
685.053	12308.36
685.4	12265.65
685.748	12176.39
686.095	12092.55
686.443	12098.65
686.79	12083.96
687.138	12111.98
687.485	12154.47
687.832	12116.96
688.18	12042.38
688.527	12009.16
688.874	12025.66
689.221	11967.13
689.568	11922.38
689.915	11883.97
690.262	11899.33
690.609	11907.24
690.956	11773.01
691.303	11839.45
691.65	11693.92
691.997	11702.73
692.344	11718.55
692.69	11642.84
693.037	11653.24
693.383	11452.79
693.73	11580.7
694.077	11424.77
694.423	11383.64
694.769	11357.65
695.116	11343.42
695.462	11327.37
695.808	11308.84
696.155	11301.38
696.501	11216.19
696.847	11123.76
697.193	11094.61
697.539	11153.59
697.885	11072.46
698.231	11041.96
698.577	10934.39
698.923	10941.17
699.269	10961.73
699.614	10909.98
699.96	10865.24
700.306	10785.46
700.651	10813.71
700.997	10740.27
701.342	10684.45
701.688	10672.25
702.033	10630.89
702.379	10627.96
702.724	10505.7
703.069	10553.83
703.415	10515.19
703.76	10408.53
704.105	10415.31
704.45	10429.99
704.795	10379.83
705.14	10326.04
705.485	10283.11
705.83	10246.5
706.175	10286.04
706.52	10200.4
706.865	10174.18
707.209	10140.51
707.554	10206.5
707.899	10118.36
708.243	10052.83
708.588	10057.12
708.932	9989.33
709.277	9953.4
709.621	9896.45
709.966	9842.66
710.31	9915.66
710.654	9827.07
710.998	9842.89
711.342	9861.65
711.687	9791.82
712.031	9730.8
712.375	9753.85
712.719	9749.79
713.063	9637.92
713.407	9702.1
713.75	9620.98
714.094	9694.42
714.438	9600.41
714.782	9656.46
715.125	9552.73
715.469	9572.62
715.812	9571.49
716.156	9442
716.499	9521.54
716.843	9517.7
717.186	9393.64
717.53	9516.57
717.873	9502.56
718.216	9488.1
718.559	9387.31
718.902	9392.73
719.246	9439.51
719.589	9333.3
719.932	9374.65
720.275	9342.34
720.617	9288.78
720.96	9365.16
721.303	9292.62
721.646	9305.28
721.989	9240.65
722.331	9296.01
722.674	9225.96
723.016	9276.58
723.359	9200.42
723.701	9333.75
724.044	9155.68
724.386	9198.16
724.729	9227.54
725.071	9234.77
725.413	9180.31
725.755	9146.64
726.097	9146.64
726.439	9101.44
726.782	9133.76
727.124	9235.9
727.465	9190.03
727.807	9096.02
728.149	9107.99
728.491	9028.68
728.833	9039.07
729.175	9008.11
729.516	9033.87
729.858	9119.75
730.199	9057.83
730.541	9010.82
730.882	9042.01
731.224	9127.88
731.565	9106.64
731.906	8985.74
732.248	9034.1
732.589	9008.79
732.93	9020.77
733.271	9074.78
733.612	9037.26
733.953	9096.7
734.294	9013.53
734.635	9024.38
734.976	9115.45
735.317	9035.23
735.658	9041.33
735.999	8977.15
736.339	9038.17
736.68	9082.46
737.021	9052.4
737.361	9001.33
737.702	9102.8
738.042	9077.94
738.383	9053.53
738.723	9105.96
739.063	9176.02
739.404	9115.68
739.744	9113.87
740.084	9122.46
740.424	9086.75
740.764	9082.91
741.104	9195.9
741.444	9100.54
741.784	9112.51
742.124	9166.75
742.464	9226.41
742.804	9152.51
743.143	9146.41
743.483	9198.61
743.823	9267.99
744.162	9195.9
744.502	9303.7
744.841	9314.54
745.181	9341.44
745.52	9282.45
745.86	9412.17
746.199	9402.9
746.538	9456.69
746.877	9544.14
747.216	9547.76
747.556	9559.96
747.895	9611.71
748.234	9678.38
748.573	9679.73
748.911	9723.12
749.25	9807.19
749.589	9933.28
749.928	9940.06
750.267	10144.8
750.605	10144.58
750.944	10129.89
751.283	10211.24
751.621	10263.22
751.96	10368.07
752.298	10467.73
752.636	10536.88
752.975	10620.05
753.313	10725.81
753.651	10853.26
753.989	10883.32
754.327	10988.85
754.666	11050.09
755.004	11320.82
755.342	11345.22
755.679	11475.62
756.017	11532.11
756.355	11740.69
756.693	11837.64
757.031	12002.61
757.368	12084.87
757.706	12230.85
758.044	12281.7
758.381	12519.66
758.719	12660.22
