Data from hue_310_FLMS001491_26.txt Node
Date: Mon Feb 06 15:49:19 GMT 2017
User: dcchb
Spectrometer: FLMS00149
Trigger mode: 0
Integration Time (sec): 2.000000E-2
Scans to average: 10
Electric dark correction enabled: true
Nonlinearity correction enabled: false
Boxcar width: 0
XAxis mode: Wavelengths
Number of Pixels in Spectrum: 2048
>>>>>Begin Spectral Data<<<<<
341.393	-0.37
341.776	-0.37
342.16	-0.37
342.543	-53.02
342.927	-65.9
343.31	-82.85
343.693	-63.19
344.077	-73.59
344.46	-81.27
344.843	-47.6
345.226	-38.33
345.61	-23.64
345.993	-6.69
346.376	-22.97
346.759	12.97
347.142	25.62
347.525	49.8
347.908	68.78
348.291	72.17
348.674	97.03
349.057	113.75
349.44	114.43
349.823	157.82
350.206	166.63
350.588	165.05
350.971	210.02
351.354	210.25
351.737	229.01
352.119	229.46
352.502	254.09
352.884	271.94
353.267	278.27
353.65	287.53
354.032	307.65
354.414	304.03
354.797	310.13
355.179	336.35
355.562	313.97
355.944	334.54
356.326	323.01
356.709	330.47
357.091	323.92
357.473	337.48
357.855	343.8
358.238	331.15
358.62	338.15
359.002	335.9
359.384	357.82
359.766	332.05
360.148	333.41
360.53	300.19
360.912	330.92
361.294	352.17
361.676	318.27
362.057	325.5
362.439	339.51
362.821	316.91
363.203	325.95
363.584	318.49
363.966	336.8
364.348	305.16
364.729	302.22
365.111	314.88
365.493	323.47
365.874	318.72
366.256	316.23
366.637	307.87
367.019	307.2
367.4	325.73
367.781	321.88
368.163	319.85
368.544	309.91
368.925	308.1
369.306	300.87
369.688	301.77
370.069	315.56
370.45	320.98
370.831	315.56
371.212	298.38
371.593	302.45
371.974	293.18
372.355	300.64
372.736	288.44
373.117	311.49
373.498	314.88
373.879	321.66
374.26	296.8
374.641	319.62
375.021	326.18
375.402	311.71
375.783	314.2
376.163	306.52
376.544	317.36
376.925	327.76
377.305	327.53
377.686	323.69
378.066	357.59
378.447	312.17
378.827	315.78
379.208	325.27
379.588	305.16
379.968	333.18
380.349	337.03
380.729	321.43
381.109	325.5
381.489	332.96
381.87	326.18
382.25	317.59
382.63	327.53
383.01	334.31
383.39	325.05
383.77	364.82
384.15	325.05
384.53	344.26
384.91	349.68
385.29	316.01
385.67	356.46
386.049	336.35
386.429	346.74
386.809	360.75
387.189	340.19
387.568	356.46
387.948	351.04
388.328	340.64
388.707	324.6
389.087	358.49
389.466	361.66
389.846	360.3
390.225	372.73
390.605	366.85
390.984	349
391.363	359.85
391.743	389.91
392.122	367.31
392.501	371.83
392.881	384.48
393.26	364.59
393.639	362.11
394.018	362.56
394.397	355.1
394.776	365.27
395.155	382.67
395.534	373.18
395.913	358.72
396.292	386.29
396.671	384.26
397.05	388.55
397.429	407.98
397.808	392.16
398.186	376.57
398.565	383.13
398.944	394.88
399.323	377.93
399.701	402.56
400.08	388.78
400.458	379.51
400.837	400.75
401.215	394.65
401.594	406.85
401.972	391.26
402.351	417.02
402.729	412.28
403.107	409.11
403.486	404.82
403.864	419.96
404.242	424.71
404.62	414.99
404.999	426.06
405.377	438.49
405.755	437.59
406.133	421.99
406.511	430.58
406.889	430.36
407.267	441.66
407.645	442.56
408.023	458.38
408.401	452.73
408.779	477.13
409.156	479.17
409.534	499.51
409.912	479.85
410.29	483.69
410.667	475.33
411.045	511.71
411.422	494.76
411.8	499.05
412.178	520.75
412.555	520.07
412.933	521.43
413.31	541.77
413.687	529.56
414.065	528.88
414.442	540.18
414.819	559.84
415.197	557.36
415.574	583.8
415.951	572.5
416.328	591.26
416.705	611.82
417.082	598.71
417.46	594.42
417.837	624.02
418.214	626.06
418.591	647.75
418.967	627.19
419.344	633.97
419.721	640.29
420.098	650.24
420.475	660.86
420.852	684.36
421.228	662.89
421.605	677.36
421.982	676.23
422.358	698.6
422.735	710.35
423.111	713.74
423.488	727.75
423.864	743.79
424.241	742.66
424.617	762.55
424.994	749.44
425.37	758.03
425.746	762.55
426.123	780.63
426.499	779.5
426.875	809.1
427.251	783.79
427.627	799.39
428.003	827.41
428.379	805.94
428.756	835.09
429.132	861.76
429.507	860.18
429.883	857.69
430.259	878.71
430.635	896.78
431.011	880.97
431.387	922.09
431.763	938.59
432.138	931.59
432.514	927.52
432.89	924.35
433.265	959.83
433.641	966.39
434.016	971.36
434.392	1007.06
434.767	1009.55
435.143	999.38
435.518	999.83
435.894	1038.25
436.269	1036.67
436.644	1050
437.02	1073.05
437.395	1055.88
437.77	1054.97
438.145	1108.3
438.52	1105.37
438.895	1112.37
439.271	1080.96
439.646	1117.8
440.021	1149.21
440.395	1150.34
440.77	1140.39
441.145	1123.9
441.52	1175.87
441.895	1148.53
442.27	1186.95
442.645	1172.71
443.019	1172.71
443.394	1185.59
443.769	1207.74
444.143	1194.4
444.518	1212.93
444.892	1192.37
445.267	1206.83
445.641	1238.7
446.016	1202.76
446.39	1205.48
446.764	1233.72
447.139	1221.75
447.513	1205.7
447.887	1241.41
448.262	1233.27
448.636	1237.34
449.01	1261.52
449.384	1276.44
449.758	1273.5
450.132	1283.21
450.506	1278.47
450.88	1256.1
451.254	1308.75
451.628	1329.77
452.002	1327.73
452.376	1330.22
452.75	1318.24
453.123	1369.99
453.497	1347.17
453.871	1355.08
454.244	1363.21
454.618	1386.26
454.992	1373.61
455.365	1373.16
455.739	1401.86
456.112	1419.71
456.486	1392.36
456.859	1426.04
457.232	1423.55
457.606	1424.45
457.979	1445.92
458.352	1457.22
458.725	1482.76
459.099	1478.24
459.472	1530.21
459.845	1522.08
460.218	1516.2
460.591	1532.02
460.964	1510.78
461.337	1560.5
461.71	1601.62
462.083	1581.29
462.456	1570.66
462.829	1616.54
463.201	1621.74
463.574	1622.19
463.947	1613.83
464.32	1648.4
464.692	1659.02
465.065	1673.04
465.438	1680.72
465.81	1685.92
466.183	1694.5
466.555	1743.09
466.928	1758.23
467.3	1744.45
467.672	1774.28
468.045	1806.14
468.417	1777.67
468.789	1796.65
469.161	1826.93
469.534	1838.68
469.906	1874.39
470.278	1873.48
470.65	1873.71
471.022	1903.31
471.394	1915.29
471.766	1951.22
472.138	1935.4
472.51	2014.04
472.882	2004.78
473.253	2012.24
473.625	2051.78
473.997	2055.4
474.369	2090.2
474.74	2078.22
475.112	2122.51
475.484	2152.12
475.855	2188.05
476.227	2165
476.598	2223.98
476.97	2247.48
477.341	2287.93
477.713	2259.01
478.084	2267.14
478.455	2365.67
478.827	2355.05
479.198	2403.64
479.569	2400.7
479.94	2421.49
480.311	2465.1
480.682	2524.54
481.053	2530.41
481.424	2567.25
481.795	2595.5
482.166	2600.69
482.537	2646.57
482.908	2653.35
483.279	2736.51
483.65	2751.2
484.021	2759.79
484.391	2788.71
484.762	2807.69
485.133	2826.9
485.503	2844.3
485.874	2879.78
486.244	2899.67
486.615	2903.51
486.985	2966.56
487.356	2976.73
487.726	3000.91
488.097	3048.14
488.467	3080.68
488.837	3168.36
489.207	3129.49
489.578	3176.05
489.948	3190.51
490.318	3240.9
490.688	3221.92
491.058	3256.04
491.428	3301.47
491.798	3361.13
492.168	3361.13
492.538	3389.6
492.908	3421.92
493.278	3470.05
493.648	3421.92
494.017	3472.31
494.387	3458.52
494.757	3538.52
495.126	3534
495.496	3515.25
495.866	3569.48
496.235	3592.98
496.605	3613.1
496.974	3649.93
497.344	3658.75
497.713	3659.2
498.082	3689.48
498.452	3706.88
498.821	3695.58
499.19	3755.47
499.559	3757.73
499.928	3770.38
500.298	3776.93
500.667	3819.19
501.036	3842.02
501.405	3881.11
501.774	3858.29
502.143	3908.46
502.512	3869.59
502.88	3901.45
503.249	3907.55
503.618	3922.92
503.987	3963.6
504.356	3978.06
504.724	3992.52
505.093	3961.56
505.462	3960.88
505.83	3992.75
506.199	4020.09
506.567	4073.42
506.936	4041.33
507.304	4085.85
507.672	4099.19
508.041	4079.75
508.409	4136.25
508.777	4129.69
509.145	4178.28
509.514	4149.81
509.882	4135.34
510.25	4206.08
510.618	4200.88
510.986	4251.95
511.354	4205.17
511.722	4234.1
512.09	4274.1
512.458	4266.19
512.826	4347.99
513.193	4278.16
513.561	4322.23
513.929	4311.16
514.297	4340.08
514.664	4398.16
515.032	4384.83
515.4	4383.92
515.767	4395.9
516.135	4397.26
516.502	4432.74
516.869	4442.68
517.237	4448.78
517.604	4449.23
517.972	4505.5
518.339	4516.8
518.706	4500.31
519.073	4487.2
519.44	4527.88
519.808	4531.27
520.175	4555.45
520.542	4576.24
520.909	4559.96
521.276	4559.96
521.643	4653.97
522.009	4656.91
522.376	4631.38
522.743	4646.74
523.11	4710.47
523.477	4679.28
523.843	4727.64
524.21	4795.66
524.577	4757.47
524.943	4750.02
525.31	4828.88
525.676	4841.77
526.043	4871.37
526.409	4837.7
526.776	4909.79
527.142	4915.89
527.508	4931.71
527.874	4965.15
528.241	5019.16
528.607	5010.12
528.973	5030.23
529.339	5083.34
529.705	5077.01
530.071	5143.23
530.437	5151.59
530.803	5151.14
531.169	5151.81
531.535	5185.94
531.901	5205.37
532.267	5188.87
532.632	5266.39
532.998	5261.64
533.364	5328.98
533.73	5338.02
534.095	5347.97
534.461	5389.1
534.826	5400.85
535.192	5387.29
535.557	5489.21
535.923	5450.56
536.288	5484.91
536.653	5484.91
537.019	5425.48
537.384	5527.17
537.749	5526.72
538.114	5534.4
538.479	5571.92
538.845	5575.98
539.21	5568.75
539.575	5646.04
539.94	5668.64
540.305	5704.34
540.67	5711.12
541.034	5760.61
541.399	5777.56
541.764	5821.17
542.129	5798.8
542.494	5846.26
542.858	5891
543.223	5879.7
543.587	5916.99
543.952	5959.25
544.316	5900.95
544.681	5982.53
545.045	6000.6
545.41	6043.99
545.774	6041.28
546.138	6064.11
546.503	6074.95
546.867	6164.89
547.231	6157.21
547.595	6203.76
547.959	6126.93
548.324	6210.99
548.688	6197.44
549.052	6251.9
549.416	6247.15
549.779	6305.68
550.143	6257.77
550.507	6344.78
550.871	6347.71
551.235	6355.17
551.599	6403.31
551.962	6412.57
552.326	6453.7
552.689	6462.29
553.053	6444.44
553.417	6459.35
553.78	6533.25
554.143	6480.14
554.507	6521.27
554.87	6604.43
555.234	6645.79
555.597	6550.42
555.96	6609.63
556.323	6634.94
556.686	6662.51
557.05	6656.41
557.413	6677.42
557.776	6690.3
558.139	6713.13
558.502	6743.41
558.865	6731.66
559.228	6817.31
559.59	6802.39
559.953	6786.57
560.316	6859.57
560.679	6895.95
561.041	6900.02
561.404	6992.22
561.767	6961.26
562.129	7006.45
562.492	7006.45
562.854	7026.11
563.217	6954.7
563.579	7080.8
563.941	7101.14
564.304	7086
564.666	7144.3
565.028	7154.92
565.39	7246
565.753	7198.31
566.115	7193.79
566.477	7253.23
566.839	7308.14
567.201	7317.63
567.563	7318.54
567.925	7351.98
568.287	7399.89
568.648	7389.72
569.01	7441.25
569.372	7494.8
569.734	7497.97
570.095	7559.89
570.457	7622.26
570.819	7566.21
571.18	7702.26
571.542	7651.63
571.903	7655.93
572.265	7687.79
572.626	7737.06
572.987	7704.29
573.349	7832.2
573.71	7850.95
574.071	7861.57
574.432	7974.56
574.794	8005.75
575.155	8130.94
575.516	8149.25
575.877	8190.15
576.238	8257.49
576.599	8390.15
576.96	8375.68
577.32	8455.91
577.681	8564.15
578.042	8641.89
578.403	8652.06
578.763	8742
579.124	8880.76
579.485	8943.58
579.845	9110.13
580.206	9144.25
580.566	9299.28
580.927	9405.94
581.287	9515.09
581.648	9667.18
582.008	9825.82
582.368	9959.14
582.728	10162.76
583.089	10204.11
583.449	10412.24
583.809	10621.27
584.169	10822.4
584.529	10916.86
584.889	11182.84
585.249	11342.61
585.609	11442.04
585.969	11686.11
586.329	11797.74
586.688	12135.58
587.048	12277.05
587.408	12503.71
587.768	12761.56
588.127	12934.89
588.487	13202.9
588.846	13495.1
589.206	13626.62
589.565	13966.27
589.925	14256.89
590.284	14429.31
590.643	14658
591.003	14972.8
591.362	15307.48
591.721	15471.09
592.08	15793.12
592.44	16100.23
592.799	16372.31
593.158	16641.46
593.517	16954.22
593.876	17261.33
594.235	17515.56
594.593	17786.06
594.952	18106.95
595.311	18329.55
595.67	18679.82
596.029	19067.38
596.387	19426.01
596.746	19609.96
597.104	19729.06
597.463	20066.9
597.822	20427.8
598.18	20720.44
598.538	20854.45
598.897	21344.16
599.255	21392.97
599.613	21976.46
599.972	22195.66
600.33	22474.97
600.688	22672.93
601.046	23056.2
601.404	23419.81
601.762	23666.81
602.12	24045.55
602.478	24257.75
602.836	24584.75
603.194	24598.31
603.552	24904.97
603.91	25183.6
604.268	25503.59
604.625	25651.84
604.983	26017.93
605.341	26205.5
605.698	26447.98
606.056	26878.25
606.413	26955.08
606.771	27189.2
607.128	27452.92
607.485	27701.73
607.843	27798.22
608.2	28206.35
608.557	28517.75
608.914	28584.64
609.272	28851.08
609.629	29133.33
609.986	29477.28
610.343	29409.93
610.7	29868.23
611.057	30011.05
611.414	30191.38
611.771	30379.85
612.127	30680.86
612.484	30782.78
612.841	31182.54
613.198	31123.79
613.554	31334.18
613.911	31606.71
614.267	31817.78
614.624	31910.66
614.98	32144.1
615.337	32368.5
615.693	32468.61
616.05	32561.49
616.406	32848.71
616.762	32864.76
617.118	32917.86
617.475	33168.93
617.831	33318.08
618.187	33579.99
618.543	33736.6
618.899	33880.78
619.255	33941.34
619.611	34062.92
619.967	34278.96
620.323	34517.82
620.678	34312.4
621.034	34475.11
621.39	34543.36
621.746	34588.78
622.101	35235.54
622.457	35010.92
622.812	35146.73
623.168	35264.02
623.523	35275.32
623.879	35578.13
624.234	35380.62
624.589	35570
624.945	35793.27
625.3	35712.82
625.655	35744.23
626.01	36105.8
626.365	36086.37
626.72	36000.04
627.075	36049.08
627.43	36147.83
627.785	36184.9
628.14	36339.24
628.495	36381.05
628.85	36477.32
629.205	36429.64
629.559	36531.33
629.914	36441.84
630.269	36660.59
630.623	36572.46
630.978	36473.7
631.332	36737.2
631.687	36846.35
632.041	36690.19
632.396	36780.59
632.75	36664.88
633.104	36842.51
633.459	36748.27
633.813	36792.11
634.167	36856.74
634.521	36845.22
634.875	36796.18
635.229	36931.54
635.583	36764.77
635.937	36952.79
636.291	36814.94
636.645	36821.72
636.999	36778.78
637.352	36865.33
637.706	36763.19
638.06	36934.71
638.413	37054.48
638.767	36837.31
639.121	36949.4
639.474	36653.58
639.828	36730.42
640.181	36872.34
640.534	36887.48
640.888	36819.91
641.241	36600.93
641.594	36705.79
641.947	36877.08
642.301	36764.54
642.654	36841.15
643.007	36764.99
643.36	36714.6
643.713	36616.75
644.066	36914.82
644.419	36602.51
644.771	36368.39
645.124	36168.85
645.477	36121.85
645.83	35889.31
646.182	35796.43
646.535	35578.81
646.888	35795.98
647.24	35523.22
647.593	35720.05
647.945	35804.12
648.298	35584.01
648.65	35455.88
649.002	35556.44
649.355	35645.7
649.707	35626.94
650.059	35764.12
650.411	36148.06
650.763	36199.36
651.115	36490.2
651.467	36467.15
651.819	36393.93
652.171	36478.22
652.523	36176.53
652.875	36298.11
653.227	36223.54
653.578	36391.9
653.93	36500.82
654.282	36183.77
654.633	36137.21
654.985	36266.02
655.337	36201.39
655.688	36208.85
656.039	36428.73
656.391	36066.26
656.742	36192.13
657.094	36129.08
657.445	36259.24
657.796	36243.43
658.147	36047.72
658.498	36108.29
658.849	36109.19
659.2	36168.63
659.551	36022.41
659.902	36242.52
660.253	36117.1
660.604	36233.71
660.955	36006.6
661.306	36079.81
661.656	36080.27
662.007	36154.16
662.358	36064.9
662.708	36047.27
663.059	36021.74
663.409	35854.74
663.76	36093.6
664.11	35962.08
664.461	36212.47
664.811	36003.21
665.161	35955.3
665.511	35918.01
665.862	36027.16
666.212	36136.54
666.562	35953.94
666.912	35954.17
667.262	35913.72
667.612	35925.92
667.962	35948.07
668.312	35850.67
668.662	36100.83
669.011	35928.86
669.361	35869.65
669.711	35954.17
670.06	35829.65
670.41	35724.8
670.76	35802.08
671.109	35997.78
671.459	35814.96
671.808	35764.57
672.157	35898.58
672.507	35676.43
672.856	35600.5
673.205	35699.71
673.554	35853.15
673.904	35713.04
674.253	35862.42
674.602	35745.36
674.951	35210.46
675.3	35086.62
675.649	35705.13
675.998	35588.98
676.346	35715.3
676.695	35769.31
677.044	35547.62
677.393	35744.46
677.741	35628.75
678.09	35637.34
678.438	35400.96
678.787	35654.29
679.135	35642.31
679.484	35351.47
679.832	35516.21
680.181	35186.28
680.529	35309.44
680.877	35340.62
681.225	35185.6
681.573	35466.27
681.922	35192.38
682.27	35112.61
682.618	35130.46
682.966	34985.61
683.314	35024.25
683.661	34955.32
684.009	34748.1
684.357	34746.29
684.705	34653.41
685.053	34864.03
685.4	34599.85
685.748	34472.17
686.095	34526.18
686.443	34305.4
686.79	34390.59
687.138	34359.63
687.485	34396.24
687.832	34220.65
688.18	34237.83
688.527	34121
688.874	34154.44
689.221	34064.27
689.568	34066.08
689.915	33959.19
690.262	33947.21
690.609	33796.03
690.956	33684.4
691.303	33593.55
691.65	33466.1
691.997	33594.23
692.344	33270.62
692.69	33294.8
693.037	33311.3
693.383	33089.38
693.73	33166.9
694.077	33054.81
694.423	33049.84
694.769	33031.76
695.116	32886
695.462	32776.62
695.808	32757.87
696.155	32773.91
696.501	32527.37
696.847	32581.83
697.193	32232.68
697.539	32494.15
697.885	32120.82
698.231	32093.48
698.577	32023.65
698.923	32112.01
699.269	31821.17
699.614	31654.62
699.96	31684.45
700.306	31704.11
700.651	31446.94
700.997	31486.71
701.342	31452.37
701.688	31385.7
702.033	31288.08
702.379	31330.79
702.724	31065.26
703.069	31156.55
703.415	30868.88
703.76	30920.85
704.105	30907.52
704.45	30775.09
704.795	30583.46
705.14	30602.44
705.485	30604.48
705.83	30449.91
706.175	30430.47
706.52	30360.64
706.865	30289.23
707.209	30283.36
707.554	30104.15
707.899	30284.49
708.243	30149.57
708.588	29828.68
708.932	29743.48
709.277	29807.89
709.621	29867.1
709.966	29685.18
710.31	29560.44
710.654	29415.36
710.998	29514.79
711.342	29518.18
711.687	29302.82
712.031	29350.5
712.375	29101.92
712.719	29160.9
713.063	29120.9
713.407	29156.61
713.75	28978.08
714.094	29007.91
714.438	28995.71
714.782	28958.19
715.125	28776.5
715.469	28887.69
715.812	28783.06
716.156	28459.68
716.499	28673.23
716.843	28696.73
717.186	28529.96
717.53	28591.42
717.873	28537.41
718.216	28412.67
718.559	28435.04
718.902	28163.19
719.246	28275.95
719.589	28227.37
719.932	28049.06
720.275	27980.82
720.617	27996.64
720.96	27843.87
721.303	28049.29
721.646	27893.14
721.989	27641.84
722.331	27948.28
722.674	27689.75
723.016	27684.33
723.359	27728.85
723.701	27673.93
724.044	27461.74
724.386	27353.94
724.729	27458.12
725.071	27353.04
725.413	27456.31
725.755	27337.45
726.097	27247.73
726.439	27158.24
726.782	27131.8
727.124	27292.25
727.465	27087.06
727.807	27033.05
728.149	26890
728.491	26901.07
728.833	27050.9
729.175	26855.88
729.516	26817.91
729.858	26748.99
730.199	26759.16
730.541	26758.7
730.882	26794.63
731.224	26808.42
731.565	26521.2
731.906	26693.85
732.248	26628.76
732.589	26491.82
732.93	26429.45
733.271	26380.41
733.612	26529.1
733.953	26458.82
734.294	26426.06
734.635	26262.22
734.976	26316.91
735.317	26147.42
735.658	26236.68
735.999	26264.03
736.339	26076.01
736.68	26209.79
737.021	25946.07
737.361	25906.3
737.702	26056.35
738.042	26012.96
738.383	25975.9
738.723	25896.35
739.063	25798.5
739.404	25800.99
739.744	25720.76
740.084	25654.55
740.424	25699.75
740.764	25583.82
741.104	25666.53
741.444	25544.27
741.784	25489.13
742.124	25503.37
742.464	25453.43
742.804	25437.83
743.143	25455.91
743.483	25343.6
743.823	25261.79
744.162	25318.52
744.502	25196.94
744.841	25220.89
745.181	25160.33
745.52	25067.45
745.86	25186.32
746.199	25067.9
746.538	25005.3
746.877	25081.46
747.216	25071.29
747.556	24899.09
747.895	25043.49
748.234	24836.49
748.573	24856.61
748.911	24831.07
749.25	24820.9
749.589	24638.98
749.928	24726.21
750.267	24648.7
750.605	24619.55
750.944	24575.71
751.283	24491.42
751.621	24439.67
751.96	24453.45
752.298	24349.05
752.636	24404.41
752.975	24208.04
753.313	24151.09
753.651	24294.81
753.989	24106.34
754.327	24131.43
754.666	23969.85
755.004	23989.06
755.342	23980.92
755.679	23959.91
756.017	23831.32
756.355	23842.17
756.693	23840.59
757.031	23749.29
757.368	23540.26
757.706	23664.1
758.044	23568.73
758.381	23552.01
758.719	23467.04
759.056	23524.44
759.394	23381.39
759.731	23135.75
760.068	23199.47
760.405	23041.74
