Data from hue_130_FLMS001491_00043.txt Node
Date: Tue Feb 07 16:57:39 GMT 2017
User: dcchb
Spectrometer: FLMS00149
Trigger mode: 0
Integration Time (sec): 2.000000E-2
Scans to average: 10
Electric dark correction enabled: true
Nonlinearity correction enabled: false
Boxcar width: 0
XAxis mode: Wavelengths
Number of Pixels in Spectrum: 2048
>>>>>Begin Spectral Data<<<<<
341.393	-9.38
341.776	-9.38
342.16	-9.38
342.543	-55.25
342.927	-78.98
343.31	-64.52
343.693	-91.41
344.077	-59.32
344.46	-63.84
344.843	-48.93
345.226	-57.06
345.61	-32.2
345.993	-29.26
346.376	-15.25
346.759	-0.11
347.142	29.94
347.525	64.29
347.908	55.7
348.291	82.37
348.674	98.87
349.057	130.73
349.44	146.32
349.823	156.04
350.206	156.95
350.588	198.53
350.971	200.33
351.354	219.54
351.737	227.9
352.119	252.99
352.502	251.41
352.884	285.76
353.267	288.69
353.65	275.13
354.032	290.05
354.414	313.33
354.797	309.26
355.179	316.71
355.562	338.86
355.944	327.56
356.326	346.77
356.709	355.13
357.091	332.76
357.473	351.52
357.855	325.98
358.238	344.96
358.62	334.79
359.002	349.03
359.384	356.04
359.766	348.58
360.148	342.48
360.53	347.22
360.912	344.96
361.294	345.64
361.676	326.66
362.057	350.84
362.439	316.49
362.821	329.6
363.203	330.05
363.584	328.47
363.966	327.34
364.348	338.64
364.729	330.5
365.111	323.49
365.493	329.6
365.874	311.07
366.256	328.24
366.637	319.88
367.019	323.95
367.4	323.95
367.781	316.04
368.163	311.97
368.544	310.16
368.925	319.65
369.306	322.14
369.688	304.51
370.069	315.58
370.45	326.66
370.831	328.24
371.212	328.24
371.593	333.89
371.974	323.27
372.355	303.16
372.736	322.14
373.117	295.25
373.498	309.71
373.879	310.39
374.26	312.65
374.641	325.98
375.021	339.99
375.402	325.08
375.783	318.75
376.163	335.92
376.544	328.24
376.925	315.13
377.305	332.99
377.686	329.6
378.066	337.28
378.447	335.7
378.827	341.57
379.208	355.81
379.588	338.41
379.968	309.03
380.349	360.1
380.729	329.6
381.109	336.15
381.489	324.4
381.87	353.1
382.25	318.97
382.63	322.36
383.01	337.51
383.39	346.77
383.77	331.4
384.15	328.92
384.53	352.87
384.91	369.14
385.29	359.2
385.67	350.39
386.049	362.36
386.429	370.5
386.809	363.72
387.189	364.4
387.568	383.15
387.948	353.32
388.328	362.82
388.707	375.24
389.087	389.26
389.466	364.17
389.846	372.76
390.225	356.04
390.605	372.31
390.984	358.52
391.363	365.3
391.743	373.44
392.122	358.75
392.501	371.4
392.881	378.86
393.26	389.71
393.639	391.74
394.018	370.27
394.397	397.62
394.776	379.54
395.155	395.13
395.534	377.05
395.913	374.57
396.292	408.46
396.671	387.9
397.05	390.16
397.429	398.75
397.808	403.49
398.186	401.01
398.565	400.55
398.944	378.18
399.323	405.07
399.701	397.84
400.08	410.5
400.458	421.8
400.837	416.37
401.215	403.94
401.594	429.03
401.972	409.82
402.351	420.21
402.729	432.19
403.107	394.9
403.486	407.56
403.864	417.73
404.242	420.21
404.62	428.58
404.999	420.21
405.377	440.78
405.755	450.72
406.133	415.92
406.511	444.17
406.889	446.88
407.267	430.16
407.645	435.58
408.023	461.8
408.401	445.3
408.779	456.82
409.156	474.9
409.534	437.16
409.912	445.07
410.29	472.87
410.667	457.73
411.045	473.09
411.422	483.49
411.8	494.79
412.178	477.61
412.555	474.9
412.933	475.13
413.31	481.46
413.687	483.26
414.065	493.89
414.442	492.76
414.819	483.72
415.197	507.22
415.574	503.6
415.951	494.79
416.328	503.83
416.705	502.7
417.082	509.25
417.46	505.18
417.837	514.22
418.214	529.14
418.591	520.33
418.967	537.05
419.344	543.15
419.721	530.72
420.098	533.66
420.475	543.15
420.852	541.34
421.228	555.13
421.605	559.65
421.982	556.48
422.358	546.54
422.735	550.38
423.111	564.39
423.488	550.61
423.864	589.7
424.241	576.37
424.617	600.32
424.994	587.89
425.37	581.11
425.746	588.35
426.123	602.58
426.499	586.99
426.875	592.64
427.251	590.83
427.627	626.76
428.003	610.94
428.379	602.13
428.756	629.02
429.132	621.11
429.507	652.3
429.883	634.22
430.259	647.78
430.635	670.15
431.011	665.86
431.387	671.28
431.763	670.15
432.138	680.55
432.514	683.48
432.89	695.91
433.265	691.85
433.641	715.57
434.016	711.05
434.392	713.77
434.767	733.43
435.143	697.95
435.518	720.77
435.894	717.16
436.269	757.61
436.644	749.7
437.02	775.01
437.395	761.67
437.77	736.14
438.145	771.62
438.52	778.62
438.895	777.49
439.271	812.97
439.646	807.1
440.021	789.92
440.395	801.45
440.77	803.93
441.145	802.13
441.52	810.26
441.895	836.93
442.27	824.5
442.645	826.31
443.019	841.67
443.394	836.48
443.769	848.9
444.143	831.05
444.518	869.02
444.892	854.55
445.267	881.22
445.641	875.34
446.016	863.14
446.39	859.3
446.764	877.83
447.139	891.39
447.513	882.8
447.887	902.46
448.262	902.24
448.636	939.3
449.01	927.77
449.384	905.63
449.758	942.01
450.132	950.82
450.506	954.66
450.88	940.65
451.254	952.4
451.628	963.25
452.002	961.22
452.376	961.9
452.75	993.76
453.123	978.62
453.497	1025.85
453.871	1036.24
454.244	1019.07
454.618	1046.41
454.992	1078.95
455.365	1072.18
455.739	1059.29
456.112	1093.42
456.486	1099.07
456.859	1123.93
457.232	1139.29
457.606	1120.54
457.979	1167.31
458.352	1174.09
458.725	1172.06
459.099	1160.99
459.472	1187.88
459.845	1216.58
460.218	1224.94
460.591	1236.01
460.964	1239.85
461.337	1258.84
461.71	1284.6
462.083	1285.28
462.456	1311.72
462.829	1302.68
463.201	1343.35
463.574	1359.63
463.947	1369.57
464.32	1368.89
464.692	1405.73
465.065	1417.25
465.438	1412.05
465.81	1488.44
466.183	1485.95
466.555	1510.36
466.928	1509.45
467.3	1547.42
467.672	1527.76
468.045	1590.13
468.417	1618.6
468.789	1625.83
469.161	1663.8
469.534	1692.05
469.906	1724.81
470.278	1754.19
470.65	1761.2
471.022	1817.69
471.394	1854.08
471.766	1875.09
472.138	1903.57
472.51	1927.29
472.882	1961.87
473.253	2015.88
473.625	2055.65
473.997	2129.55
474.369	2139.04
474.74	2197.12
475.112	2240.51
475.484	2287.28
475.855	2363.89
476.227	2367.06
476.598	2468.3
476.97	2509.2
477.341	2567.05
477.713	2641.85
478.084	2647.95
478.455	2769.08
478.827	2845.46
479.198	2934.27
479.569	2981.05
479.94	3080.48
480.311	3144.21
480.682	3254.49
481.053	3344.43
481.424	3453.58
481.795	3474.15
482.166	3608.83
482.537	3689.51
482.908	3801.37
483.279	3855.38
483.65	3967.69
484.021	4143.05
484.391	4219.89
484.762	4257.63
485.133	4364.74
485.503	4531.97
485.874	4631.63
486.244	4751.85
486.615	4935.8
486.985	4991.62
487.356	5125.85
487.726	5265.74
488.097	5427.99
488.467	5453.98
488.837	5707.31
489.207	5841.09
489.578	5950.24
489.948	6079.73
490.318	6191.36
490.688	6267.29
491.058	6468.87
491.428	6599.71
491.798	6750.22
492.168	6947.5
492.538	7030.89
492.908	7148.4
493.278	7360.37
493.648	7418.67
494.017	7559.24
494.387	7744.54
494.757	7848.04
495.126	7943.41
495.496	8084.42
495.866	8184.53
496.235	8384.07
496.605	8515.37
496.974	8560.11
497.344	8782.93
497.713	8796.94
498.082	8992.64
498.452	9039.2
498.821	9170.49
499.19	9239.87
499.559	9356.25
499.928	9496.36
500.298	9604.15
500.667	9757.37
501.036	9816.58
501.405	9968.21
501.774	10010.92
502.143	10139.28
502.512	10213.86
502.88	10307.86
503.249	10365.72
503.618	10530.68
503.987	10621.3
504.356	10629.21
504.724	10740.62
505.093	10849.77
505.462	10958.47
505.83	10991.69
506.199	11081.18
506.567	11230.78
506.936	11149.65
507.304	11486.59
507.672	11378.34
508.041	11501.05
508.409	11576.53
508.777	11770.2
509.145	11813.59
509.514	11804.55
509.882	11909.63
510.25	11912.79
510.618	11907.14
510.986	12019.46
511.354	12084.99
511.722	12219.68
512.09	12303.52
512.458	12236.85
512.826	12396.62
513.193	12447.24
513.561	12435.04
513.929	12564.75
514.297	12626
514.664	12663.73
515.032	12689.04
515.4	12805.43
515.767	12819.21
516.135	12756.39
516.502	12754.81
516.869	12917.97
517.237	12899.21
517.604	12830.96
517.972	13075.93
518.339	13061.01
518.706	13094.68
519.073	13125.42
519.44	13108.69
519.808	13238.18
520.175	13169.03
520.542	13346.88
520.909	13383.72
521.276	13346.43
521.643	13462.36
522.009	13507.78
522.376	13579.87
522.743	13538.06
523.11	13714.78
523.477	13668.68
523.843	13706.19
524.21	13797.94
524.577	13825.51
524.943	13862.35
525.31	13853.08
525.676	13926.98
526.043	14038.61
526.409	13982.8
526.776	14141.21
527.142	14044.04
527.508	14108.67
527.874	14115
528.241	14169.23
528.607	14164.94
528.973	14194.32
529.339	14168.33
529.705	14178.72
530.071	14373.97
530.437	14252.85
530.803	14278.61
531.169	14300.98
531.535	14204.94
531.901	14309.57
532.267	14323.58
532.632	14284.71
532.998	14298.49
533.364	14282
533.73	14222.11
534.095	14364.71
534.461	14190.7
534.826	14344.37
535.192	14286.52
535.557	14260.98
535.923	14221.89
536.288	14273.41
536.653	14278.16
537.019	14133.07
537.384	14150.02
537.749	14247.87
538.114	14295.78
538.479	14083.13
538.845	14098.05
539.21	14035
539.575	13997.71
539.94	13989.8
540.305	14009.91
540.67	13975.34
541.034	13990.25
541.399	13932.63
541.764	13872.29
542.129	13965.85
542.494	13921.78
542.858	13833.87
543.223	13781.67
543.587	13890.37
543.952	13746.87
544.316	13711.16
544.681	13669.58
545.045	13663.48
545.41	13660.09
545.774	13698.51
546.138	13644.73
546.503	13603.15
546.867	13588.46
547.231	13578.74
547.595	13543.03
547.959	13462.36
548.324	13395.02
548.688	13424.84
549.052	13410.16
549.416	13352.3
549.779	13377.61
550.143	13375.35
550.507	13310.27
550.871	13321.12
551.235	13287.9
551.599	13307.33
551.962	13324.96
552.326	13299.88
552.689	13302.81
553.053	13094.46
553.417	13110.5
553.78	13245.19
554.143	13007.68
554.507	13043.16
554.87	13178.52
555.234	13130.39
555.597	13110.5
555.96	13052.2
556.323	13075.93
556.686	13067.79
557.05	13116.15
557.413	13032.09
557.776	13001.35
558.139	13115.93
558.502	12985.31
558.865	13015.59
559.228	13131.97
559.59	13120.67
559.953	13045.65
560.316	13170.39
560.679	13040.45
561.041	13114.57
561.404	13138.52
561.767	13177.62
562.129	12971.75
562.492	13145.3
562.854	13075.48
563.217	13094.91
563.579	13120.9
563.941	13137.39
564.304	13076.83
564.666	13211.07
565.028	13133.78
565.39	13141.69
565.753	13227.56
566.115	13168.58
566.477	13244.06
566.839	13259.88
567.201	13278.41
567.563	13296.03
567.925	13333.55
568.287	13242.93
568.648	13258.07
569.01	13319.08
569.372	13416.26
569.734	13303.72
570.095	13453.54
570.457	13386.2
570.819	13345.07
571.18	13429.82
571.542	13515.01
571.903	13426.43
572.265	13511.4
572.626	13474.11
572.987	13424.17
573.349	13503.94
573.71	13523.83
574.071	13563.37
574.432	13539.64
574.794	13654.44
575.155	13608.57
575.516	13466.65
575.877	13649.7
576.238	13653.99
576.599	13649.7
576.96	13598.17
577.32	13599.76
577.681	13680.43
578.042	13654.44
578.403	13597.04
578.763	13592.07
579.124	13639.98
579.485	13708.91
579.845	13688.57
580.206	13607.44
580.566	13656.25
580.927	13703.48
581.287	13730.37
581.648	13687.66
582.008	13664.61
582.368	13659.19
582.728	13665.97
583.089	13696.25
583.449	13672.97
583.809	13700.54
584.169	13714.55
584.529	13586.42
584.889	13626.2
585.249	13617.61
585.609	13513.2
585.969	13644.5
586.329	13481.11
586.688	13632.75
587.048	13573.77
587.408	13494.45
587.768	13565.41
588.127	13514.56
588.487	13485.86
588.846	13626.2
589.206	13445.41
589.565	13588.91
589.925	13534.9
590.284	13483.6
590.643	13524.5
591.003	13618.51
591.362	13478.18
591.721	13496.26
592.08	13505.75
592.44	13508.46
592.799	13475.92
593.158	13373.32
593.517	13476.14
593.876	13407.22
594.235	13458.06
594.593	13453.32
594.952	13474.56
595.311	13358.41
595.67	13467.56
596.029	13555.24
596.387	13454.9
596.746	13428.91
597.104	13427.33
597.463	13433.66
597.822	13483.37
598.18	13360.21
598.538	13358.41
598.897	13422.36
599.255	13332.87
599.613	13502.58
599.972	13390.04
600.33	13369.03
600.688	13371.74
601.046	13420.1
601.404	13443.83
601.762	13378.52
602.12	13446.09
602.478	13412.19
602.836	13432.75
603.194	13343.49
603.552	13435.69
603.91	13412.64
604.268	13410.83
604.625	13387.33
604.983	13369.03
605.341	13340.55
605.698	13397.27
606.056	13428.46
606.413	13495.35
606.771	13402.02
607.128	13454.22
607.485	13411.06
607.843	13427.56
608.2	13517.27
608.557	13512.07
608.914	13477.27
609.272	13531.06
609.629	13595.01
609.986	13567.67
610.343	13575.12
610.7	13614.44
611.057	13584.61
611.414	13564.28
611.771	13592.98
612.127	13647.44
612.484	13651.96
612.841	13651.28
613.198	13621.9
613.554	13578.74
613.911	13695.57
614.267	13649.92
614.624	13590.26
614.98	13625.74
615.337	13781.45
615.693	13606.08
616.05	13637.27
616.406	13748
616.762	13715.68
617.118	13760.2
617.475	13766.98
617.831	13785.74
618.187	13704.16
618.543	13784.38
618.899	13798.17
619.255	13772.18
619.611	13740.32
619.967	13924.04
620.323	13824.61
620.678	13782.58
621.034	13896.24
621.39	13815.12
621.746	13805.63
622.101	13890.6
622.457	13773.31
622.812	13757.94
623.168	13891.95
623.523	13846.3
623.879	13785.97
624.234	13763.59
624.589	13772.86
624.945	13813.31
625.3	13871.16
625.655	13786.64
626.01	13858.96
626.365	13846.08
626.72	13882.23
627.075	13791.39
627.43	13817.6
627.785	13839.75
628.14	13773.54
628.495	13729.92
628.85	13794.55
629.205	13733.31
629.559	13831.39
629.914	13693.76
630.269	13769.24
630.623	13688.79
630.978	13732.86
631.332	13739.86
631.687	13759.98
632.041	13710.71
632.396	13711.39
632.75	13714.55
633.104	13698.51
633.459	13604.73
633.813	13626.2
634.167	13632.75
634.521	13528.8
634.875	13646.76
635.229	13534.9
635.583	13544.84
635.937	13538.74
636.291	13555.69
636.645	13512.75
636.999	13452.19
637.352	13498.52
637.706	13472.08
638.06	13480.89
638.413	13462.81
638.767	13432.98
639.121	13463.49
639.474	13357.95
639.828	13378.07
640.181	13429.14
640.534	13354.79
640.888	13366.77
641.241	13280.44
641.594	13362.93
641.947	13358.86
642.301	13352.76
642.654	13334.9
643.007	13328.12
643.36	13268.92
643.713	13252.42
644.066	13180.11
644.419	13180.56
644.771	13114.8
645.124	13031.63
645.477	13039.09
645.83	12915.93
646.182	12864.18
646.535	12818.31
646.888	12873.45
647.24	12788.7
647.593	12814.24
647.945	12840.23
648.298	12786.44
648.65	12776.95
649.002	12713.68
649.355	12764.75
649.707	12838.19
650.059	12869.61
650.411	13011.07
650.763	12921.58
651.115	13202.03
651.467	13137.85
651.819	13094.01
652.171	13052.88
652.523	13078.19
652.875	13018.53
653.227	13063.95
653.578	13118.64
653.93	13065.98
654.282	13101.24
654.633	13049.94
654.985	13005.19
655.337	13014.69
655.688	12994.12
656.039	13162.93
656.391	12999.55
656.742	12966.33
657.094	13058.98
657.445	13066.89
657.796	13100.56
658.147	12969.94
658.498	13044.74
658.849	13082.71
659.2	13045.19
659.551	13015.36
659.902	13064.85
660.253	13059.43
660.604	13184.17
660.955	13051.07
661.306	13121.12
661.656	13091.52
662.007	13176.72
662.358	13155.25
662.708	13147.79
663.059	13070.96
663.409	12988.25
663.76	13122.71
664.11	13127.45
664.461	13138.3
664.811	13129.49
665.161	13218.52
665.511	13084.74
665.862	13164.29
666.212	13134.91
666.562	13139.65
666.912	13107.56
667.262	13107.34
667.612	13072.76
667.962	13084.97
668.312	13176.26
668.662	13185.75
669.011	13136.49
669.361	13040.45
669.711	13112.31
670.06	13129.26
670.41	13097.17
670.76	13062.59
671.109	13057.4
671.459	12973.78
671.808	13014.69
672.157	13154.34
672.507	12995.25
672.856	12939.43
673.205	13016.72
673.554	12976.27
673.904	13012.88
674.253	13068.7
674.602	13010.39
674.951	12834.8
675.3	12731.3
675.649	12965.87
675.998	12948.93
676.346	12843.84
676.695	12900.34
677.044	12853.11
677.393	12897.4
677.741	12903.95
678.09	12778.99
678.438	12818.53
678.787	12885.88
679.135	12772.43
679.484	12796.84
679.832	12826.89
680.181	12689.5
680.529	12705.77
680.877	12676.84
681.225	12662.15
681.573	12734.69
681.922	12631.87
682.27	12652.89
682.618	12641.36
682.966	12578.77
683.314	12619.89
683.661	12585.09
684.009	12572.21
684.357	12503.97
684.705	12403.18
685.053	12487.92
685.4	12525.21
685.748	12323.18
686.095	12351.43
686.443	12277.53
686.79	12334.7
687.138	12368.38
687.485	12357.75
687.832	12298.55
688.18	12269.17
688.527	12200.7
688.874	12088.38
689.221	12141.04
689.568	12091.55
689.915	12024.2
690.262	12066.69
690.609	11925.22
690.956	12003.19
691.303	11974.49
691.65	11880.48
691.997	11894.49
692.344	11757.09
692.69	11743.08
693.037	11657.89
693.383	11588.73
693.73	11696.3
694.077	11666.47
694.423	11607.49
694.769	11524.78
695.116	11488.62
695.462	11488.85
695.808	11426.25
696.155	11464.22
696.501	11344.22
696.847	11327.72
697.193	11282.98
697.539	11272.36
697.885	11226.48
698.231	11135.41
698.577	11195.3
698.923	11128.63
699.269	11106.49
699.614	11014.51
699.96	10987.62
700.306	10945.59
700.651	10853.16
700.997	10814.74
701.342	10861.3
701.688	10843.9
702.033	10758.7
702.379	10738.81
702.724	10812.94
703.069	10662.43
703.415	10603.45
703.76	10587.63
704.105	10622.43
704.45	10525.26
704.795	10541.53
705.14	10516.22
705.485	10442.1
705.83	10418.82
706.175	10468.09
706.52	10429.22
706.865	10343.57
707.209	10333.17
707.554	10234.19
707.899	10253.63
708.243	10170.47
708.588	10201.88
708.932	10059.06
709.277	10048.66
709.621	10096.8
709.966	10013.18
710.31	9997.14
710.654	9975.22
710.998	9929.8
711.342	9917.14
711.687	9985.39
712.031	9921.89
712.375	9792.62
712.719	9864.49
713.063	9850.93
713.407	9872.4
713.75	9783.36
714.094	9782.45
714.438	9813.64
714.782	9850.25
715.125	9710.59
715.469	9733.42
715.812	9714.43
716.156	9712.4
716.499	9651.38
716.843	9697.94
717.186	9568.67
717.53	9713.3
717.873	9672.4
718.216	9639.86
718.559	9604.83
718.902	9520.09
719.246	9597.15
719.589	9532.52
719.932	9472.86
720.275	9458.4
720.617	9534.55
720.96	9480.99
721.303	9460.66
721.646	9474.21
721.989	9366.42
722.331	9404.84
722.674	9378.17
723.016	9417.27
723.359	9444.84
723.701	9349.25
724.044	9315.12
724.386	9292.07
724.729	9299.53
725.071	9301.34
725.413	9322.81
725.755	9357.61
726.097	9302.69
726.439	9249.81
726.782	9251.4
727.124	9311.28
727.465	9275.35
727.807	9287.78
728.149	9210.27
728.491	9184.28
728.833	9227.67
729.175	9167.33
729.516	9177.27
729.858	9115.81
730.199	9226.99
730.541	9247.33
730.882	9171.4
731.224	9221.79
731.565	9106.09
731.906	9130.95
732.248	9149.48
732.589	9133.43
732.93	9083.04
733.271	9147.9
733.612	9151.28
733.953	9170.04
734.294	9103.83
734.635	9120.1
734.976	9179.08
735.317	9093.21
735.658	9183.6
735.999	9153.32
736.339	9122.36
736.68	9168.46
737.021	9160.1
737.361	9151.06
737.702	9221.34
738.042	9156.26
738.383	9140.89
738.723	9261.34
739.063	9163.26
739.404	9180.89
739.744	9175.69
740.084	9137.5
740.424	9177.95
740.764	9208.91
741.104	9186.31
741.444	9270.83
741.784	9237.38
742.124	9261.56
742.464	9296.37
742.804	9286.2
743.143	9333.2
743.483	9362.8
743.823	9317.38
744.162	9355.35
744.502	9408.45
744.841	9393.76
745.181	9439.64
745.52	9435.35
745.86	9494.55
746.199	9492.74
746.538	9594.89
746.877	9690.25
747.216	9692.97
747.556	9742.91
747.895	9756.24
748.234	9796.01
748.573	9897.48
748.911	9841.21
749.25	9996.01
749.589	9981.77
749.928	10089.34
750.267	10118.49
750.605	10194.65
750.944	10270.8
751.283	10232.84
751.621	10402.78
751.96	10476.9
752.298	10507.63
752.636	10640.29
752.975	10742.43
753.313	10821.3
753.651	10967.96
753.989	11011.57
754.327	11151.68
754.666	11216.32
755.004	11421.28
755.342	11399.81
755.679	11583.76
756.017	11684.1
756.355	11858.56
756.693	11938.78
757.031	12087.03
757.368	12233.24
757.706	12342.16
758.044	12476.85
758.381	12677.75
758.719	12752.09
