Data from hue_270_FLMS001491_00097.txt Node
Date: Tue Feb 07 15:57:57 GMT 2017
User: dcchb
Spectrometer: FLMS00149
Trigger mode: 0
Integration Time (sec): 2.000000E-2
Scans to average: 10
Electric dark correction enabled: true
Nonlinearity correction enabled: false
Boxcar width: 0
XAxis mode: Wavelengths
Number of Pixels in Spectrum: 2048
>>>>>Begin Spectral Data<<<<<
341.393	-7.32
341.776	-7.32
342.16	-7.32
342.543	-48.67
342.927	-52.96
343.31	-46.86
343.693	-57.03
344.077	-52.74
344.46	-66.3
344.843	-55.22
345.226	-58.61
345.61	-21.55
345.993	-12.97
346.376	-20.88
346.759	3.76
347.142	19.35
347.525	41.04
347.908	59.12
348.291	75.17
348.674	92.79
349.057	100.93
349.44	128.27
349.823	142.51
350.206	174.37
350.588	181.61
350.971	187.25
351.354	210.31
351.737	236.97
352.119	250.98
352.502	238.78
352.884	259.34
353.267	272
353.65	286.01
354.032	298.66
354.414	282.17
354.797	298.44
355.179	316.29
355.562	318.78
355.944	310.42
356.326	311.09
356.709	330.08
357.091	335.95
357.473	324.2
357.855	319.23
358.238	328.49
358.62	349.51
359.002	341.6
359.384	345.67
359.766	327.82
360.148	362.62
360.53	332.11
360.912	336.63
361.294	310.64
361.676	328.27
362.057	336.86
362.439	304.09
362.821	319.68
363.203	325.1
363.584	316.29
363.966	304.99
364.348	322.84
364.729	337.76
365.111	309.51
365.493	312.45
365.874	318.55
366.256	321.71
366.637	310.64
367.019	295.05
367.4	306.57
367.781	306.35
368.163	318.1
368.544	302.51
368.925	313.58
369.306	316.07
369.688	306.35
370.069	282.62
370.45	324.65
370.831	299.79
371.212	293.24
371.593	310.42
371.974	323.07
372.355	303.86
372.736	298.66
373.117	305.67
373.498	320.81
373.879	315.39
374.26	329.62
374.641	326.69
375.021	319.45
375.402	335.73
375.783	323.75
376.163	335.95
376.544	324.88
376.925	331.66
377.305	323.97
377.686	305.67
378.066	332.34
378.447	311.09
378.827	322.17
379.208	339.57
379.588	328.27
379.968	321.04
380.349	317.87
380.729	329.17
381.109	342.05
381.489	322.39
381.87	344.09
382.25	335.27
382.63	326.23
383.01	329.85
383.39	343.41
383.77	349.51
384.15	334.6
384.53	348.15
384.91	337.08
385.29	328.72
385.67	342.73
386.049	335.95
386.429	341.83
386.809	344.99
387.189	347.7
387.568	356.97
387.948	342.96
388.328	374.82
388.707	342.05
389.087	346.57
389.466	355.39
389.846	367.36
390.225	356.06
390.605	367.82
390.984	407.36
391.363	353.58
391.743	396.74
392.122	387.48
392.501	386.12
392.881	401.49
393.26	389.28
393.639	382.28
394.018	383.63
394.397	372.56
394.776	403.07
395.155	381.37
395.534	404.42
395.913	392.9
396.292	395.16
396.671	379.11
397.05	400.36
397.429	416.18
397.808	404.88
398.186	413.46
398.565	390.87
398.944	389.28
399.323	413.69
399.701	410.53
400.08	418.44
400.458	428.38
400.837	417.53
401.215	430.86
401.594	433.35
401.972	434.03
402.351	433.12
402.729	412.56
403.107	410.3
403.486	431.09
403.864	427.25
404.242	420.47
404.62	430.86
404.999	453.69
405.377	443.07
405.755	471.09
406.133	487.13
406.511	460.92
406.889	444.65
407.267	462.5
407.645	469.28
408.023	490.52
408.401	475.61
408.779	509.96
409.156	482.84
409.534	495.5
409.912	499.79
410.29	499.11
410.667	505.66
411.045	513.35
411.422	513.57
411.8	542.95
412.178	525.33
412.555	566.91
412.933	551.09
413.31	565.1
413.687	579.79
414.065	583.85
414.442	570.75
414.819	591.76
415.197	606.23
415.574	613.91
415.951	605.32
416.328	618.43
416.705	623.18
417.082	635.83
417.46	647.13
417.837	634.47
418.214	650.97
418.591	653.46
418.967	670.86
419.344	666.11
419.721	654.36
420.098	683.51
420.475	681.25
420.852	688.71
421.228	709.95
421.605	729.39
421.982	725.09
422.358	736.39
422.735	735.94
423.111	759.44
423.488	769.84
423.864	773.45
424.241	799.44
424.617	790.85
424.994	802.38
425.37	803.74
425.746	811.87
426.123	826.56
426.499	818.65
426.875	846.45
427.251	875.15
427.627	890.97
428.003	890.74
428.379	897.97
428.756	914.92
429.132	914.69
429.507	920.34
429.883	937.52
430.259	961.47
430.635	971.87
431.011	963.28
431.387	998.76
431.763	1000.57
432.138	1008.25
432.514	1018.87
432.89	1026.1
433.265	1034.92
433.641	1068.59
434.016	1070.85
434.392	1121.02
434.767	1092.32
435.143	1134.12
435.518	1136.83
435.894	1165.53
436.269	1150.17
436.644	1197.85
437.02	1205.76
437.395	1213.89
437.77	1233.1
438.145	1261.35
438.52	1252.99
438.895	1293.89
439.271	1302.03
439.646	1320.33
440.021	1346.09
440.395	1346.09
440.77	1343.38
441.145	1386.77
441.52	1394.68
441.895	1393.32
442.27	1420.89
442.645	1384.51
443.019	1445.53
443.394	1434.91
443.769	1452.98
444.143	1440.33
444.518	1488.01
444.892	1499.54
445.267	1463.38
445.641	1505.41
446.016	1494.11
446.39	1523.94
446.764	1540.89
447.139	1538.63
447.513	1537.05
447.887	1553.32
448.262	1557.16
448.636	1577.05
449.01	1579.53
449.384	1591.29
449.758	1625.41
450.132	1641.68
450.506	1624.51
450.88	1645.75
451.254	1665.63
451.628	1655.46
452.002	1678.29
452.376	1681.45
452.75	1718.06
453.123	1702.92
453.497	1739.08
453.871	1750.6
454.244	1765.74
454.618	1786.99
454.992	1802.58
455.365	1809.36
455.739	1843.48
456.112	1828.34
456.486	1911.73
456.859	1880.32
457.232	1920.32
457.606	1887.1
457.979	1894.1
458.352	1985.63
458.725	1985.63
459.099	2005.74
459.472	2042.8
459.845	2060.2
460.218	2059.97
460.591	2073.08
460.964	2089.58
461.337	2125.74
461.71	2149.69
462.083	2212.74
462.456	2152.63
462.829	2180.2
463.201	2204.15
463.574	2168.67
463.947	2233.98
464.32	2269.23
464.692	2314.2
465.065	2308.78
465.438	2355.33
465.81	2368.89
466.183	2369.8
466.555	2413.19
466.928	2445.05
467.3	2463.58
467.672	2490.92
468.045	2517.36
468.417	2516.91
468.789	2542.67
469.161	2550.81
469.534	2612.5
469.906	2647.3
470.278	2641.88
470.65	2692.05
471.022	2749.45
471.394	2759.62
471.766	2810.46
472.138	2784.93
472.51	2834.19
472.882	2893.85
473.253	2936.56
473.625	2943.34
473.997	3009.55
474.369	3014.07
474.74	3039.84
475.112	3083.45
475.484	3115.54
475.855	3173.62
476.227	3218.36
476.598	3246.84
476.97	3246.16
477.341	3326.38
477.713	3369.54
478.084	3405.7
478.455	3477.56
478.827	3512.14
479.198	3569.54
479.569	3589.65
479.94	3667.16
480.311	3703.09
480.682	3704.22
481.053	3845.92
481.424	3833.71
481.795	3906.03
482.166	3951.9
482.537	3969.75
482.908	4001.39
483.279	4037.55
483.65	4120.26
484.021	4192.35
484.391	4217.88
484.762	4212.46
485.133	4277.09
485.503	4350.54
485.874	4393.25
486.244	4409.74
486.615	4509.85
486.985	4493.58
487.356	4606.12
487.726	4628.04
488.097	4704.88
488.467	4699.68
488.837	4833.01
489.207	4845.66
489.578	4896.06
489.948	4879.56
490.318	4956.85
490.688	4960.69
491.058	5043.4
491.428	5066.67
491.798	5107.13
492.168	5183.28
492.538	5188.93
492.908	5271.19
493.278	5360
493.648	5246.56
494.017	5386.44
494.387	5380.79
494.757	5432.31
495.126	5482.26
495.496	5500.56
495.866	5552.99
496.235	5560.22
496.605	5621.01
496.974	5650.61
497.344	5680.44
497.713	5722.93
498.082	5706.43
498.452	5804.96
498.821	5730.84
499.19	5800.21
499.559	5840.21
499.928	5835.69
500.298	5890.61
500.667	5968.35
501.036	5916.14
501.405	5931.96
501.774	5951.62
502.143	6018.74
502.512	5990.72
502.88	6069.81
503.249	6076.14
503.618	6107.33
503.987	6075.69
504.356	6116.59
504.724	6192.97
505.093	6202.69
505.462	6175.57
505.83	6190.71
506.199	6277.94
506.567	6325.4
506.936	6267.55
507.304	6348.9
507.672	6307.55
508.041	6359.52
508.409	6414.66
508.777	6444.72
509.145	6437.71
509.514	6425.28
509.882	6459.86
510.25	6463.02
510.618	6507.31
510.986	6466.86
511.354	6543.47
511.722	6679.06
512.09	6616.24
512.458	6612.4
512.826	6602.91
513.193	6626.18
513.561	6642.23
513.929	6679.97
514.297	6730.36
514.664	6762.9
515.032	6749.57
515.4	6759.51
515.767	6776.91
516.135	6791.83
516.502	6720.87
516.869	6835.67
517.237	6878.38
517.604	6832.5
517.972	6827.53
518.339	6880.64
518.706	6862.79
519.073	6882.67
519.44	6958.83
519.808	7005.83
520.175	6941.88
520.542	6975.33
520.909	7030.46
521.276	6974.2
521.643	7002.67
522.009	7116.34
522.376	7130.8
522.743	7103.46
523.11	7118.82
523.477	7224.36
523.843	7190.23
524.21	7237.92
524.577	7271.81
524.943	7256.22
525.31	7258.26
525.676	7336.22
526.043	7319.5
526.409	7372.83
526.776	7398.14
527.142	7356.11
527.508	7422.09
527.874	7500.96
528.241	7451.92
528.607	7464.8
528.973	7527.17
529.339	7498.25
529.705	7569.66
530.071	7562.65
530.437	7597.68
530.803	7621.86
531.169	7619.83
531.535	7615.99
531.901	7694.63
532.267	7631.58
532.632	7727.62
532.998	7672.48
533.364	7761.52
533.73	7693.95
534.095	7800.39
534.461	7714.74
534.826	7776.89
535.192	7775.08
535.557	7782.76
535.923	7837.68
536.288	7811.69
536.653	7824.57
537.019	7788.19
537.384	7841.29
537.749	7842.42
538.114	7851.23
538.479	7847.84
538.845	7896.88
539.21	7839.94
539.575	7952.02
539.94	7872.25
540.305	7924.68
540.67	7880.84
541.034	7905.24
541.399	7919.03
541.764	7946.6
542.129	7956.77
542.494	7960.61
542.858	7975.98
543.223	7978.91
543.587	8004.9
543.952	8000.83
544.316	7987.5
544.681	7989.54
545.045	8018.01
545.41	8052.36
545.774	8049.2
546.138	8017.56
546.503	8048.29
546.867	8000.38
547.231	8050.78
547.595	8069.53
547.959	8086.71
548.324	8063.66
548.688	8122.87
549.052	8114.05
549.416	8056.43
549.779	8084
550.143	8094.17
550.507	8052.58
550.871	8104.11
551.235	8113.6
551.599	8169.64
551.962	8185.46
552.326	8184.56
552.689	8190.43
553.053	8107.27
553.417	8163.99
553.78	8238.34
554.143	8221.62
554.507	8194.5
554.87	8221.17
555.234	8314.05
555.597	8283.09
555.96	8283.54
556.323	8282.41
556.686	8263.65
557.05	8311.79
557.413	8307.95
557.776	8378
558.139	8453.48
558.502	8352.92
558.865	8389.98
559.228	8452.12
559.59	8428.17
559.953	8443.54
560.316	8552.01
560.679	8490.54
561.041	8477.88
561.404	8586.58
561.767	8601.72
562.129	8603.53
562.492	8682.4
562.854	8706.58
563.217	8722.17
563.579	8711.1
563.941	8751.78
564.304	8760.36
564.666	8822.28
565.028	8793.13
565.39	8847.37
565.753	8804.66
566.115	8890.3
566.477	8948.61
566.839	8925.56
567.201	9011.66
567.563	9016.4
567.925	9051.65
568.287	9045.55
568.648	9084.87
569.01	9178.88
569.372	9194.48
569.734	9141.82
570.095	9238.09
570.457	9243.51
570.819	9337.07
571.18	9280.8
571.542	9331.87
571.903	9346.56
572.265	9341.36
572.626	9455.94
572.987	9456.62
573.349	9420.91
573.71	9544.07
574.071	9498.42
574.432	9530.96
574.794	9601.24
575.155	9619.32
575.516	9526.44
575.877	9716.27
576.238	9685.99
576.599	9718.76
576.96	9689.38
577.32	9727.34
577.681	9761.92
578.042	9812.09
578.403	9832.65
578.763	9887.11
579.124	9854.8
579.485	9903.61
579.845	9950.84
580.206	9982.03
580.566	9975.92
580.927	10002.14
581.287	10101.8
581.648	9999.2
582.008	10152.19
582.368	10111.97
582.728	10236.26
583.089	10165.75
583.449	10316.03
583.809	10236.71
584.169	10333.43
584.529	10275.13
584.889	10336.59
585.249	10310.83
585.609	10323.03
585.969	10332.98
586.329	10405.52
586.688	10421.34
587.048	10451.39
587.408	10475.57
587.768	10473.76
588.127	10549.02
588.487	10567.77
588.846	10590.6
589.206	10603.03
589.565	10689.13
589.925	10699.29
590.284	10654.32
590.643	10698.17
591.003	10753.98
591.362	10800.76
591.721	10767.09
592.08	10866.52
592.44	10808.9
592.799	10838.05
593.158	10814.55
593.517	10880.99
593.876	10850.7
594.235	10903.36
594.593	10910.59
594.952	10964.6
595.311	10994.43
595.67	10953.75
596.029	11113.75
596.387	11087.53
596.746	11127.53
597.104	11025.39
597.463	11090.92
597.822	11132.96
598.18	11079.17
598.538	11108.32
598.897	11125.5
599.255	11051.83
599.613	11223.8
599.972	11155.78
600.33	11206.4
600.688	11138.61
601.046	11249.79
601.404	11275.78
601.762	11285.95
602.12	11275.78
602.478	11272.16
602.836	11384.02
603.194	11292.5
603.552	11339.5
603.91	11261.09
604.268	11336.11
604.625	11352.16
604.983	11304.7
605.341	11326.4
605.698	11356.9
606.056	11421.08
606.413	11396.9
606.771	11460.18
607.128	11452.95
607.485	11366.17
607.843	11394.42
608.2	11493.85
608.557	11552.83
608.914	11459.95
609.272	11525.71
609.629	11520.52
609.986	11527.52
610.343	11486.17
610.7	11567.97
611.057	11583.79
611.414	11541.76
611.771	11581.53
612.127	11655.88
612.484	11603.23
612.841	11598.03
613.198	11633.28
613.554	11602.55
613.911	11704.24
614.267	11737.91
614.624	11597.12
614.98	11734.07
615.337	11730.68
615.693	11796.44
616.05	11702.88
616.406	11811.58
616.762	11744.69
617.118	11760.74
617.475	11740.85
617.831	11814.52
618.187	11835.31
618.543	11852.26
618.899	11848.87
619.255	11910.11
619.611	11861.3
619.967	11911.69
620.323	11915.08
620.678	11814.07
621.034	11884.8
621.39	11887.74
621.746	11732.49
622.101	11932.93
622.457	11897
622.812	11872.6
623.168	11945.82
623.523	11940.84
623.879	11928.19
624.234	11823.79
624.589	11897.23
624.945	11909.21
625.3	11948.75
625.655	11946.95
626.01	11904.24
626.365	11981.3
626.72	11841.41
627.075	11862.43
627.43	11894.29
627.785	11882.99
628.14	11845.03
628.495	11894.97
628.85	11864.24
629.205	11772.04
629.559	11906.27
629.914	11918.92
630.269	11861.07
630.623	11830.11
630.978	11771.13
631.332	11817.01
631.687	11803.45
632.041	11781.3
632.396	11813.16
632.75	11745.6
633.104	11762.54
633.459	11703.11
633.813	11692.72
634.167	11693.17
634.521	11678.93
634.875	11704.24
635.229	11645.48
635.583	11628.54
635.937	11608.88
636.291	11639.61
636.645	11625.15
636.999	11605.71
637.352	11658.37
637.706	11617.24
638.06	11591.47
638.413	11539.27
638.767	11547.63
639.121	11531.59
639.474	11466.28
639.828	11568.65
640.181	11519.84
640.534	11514.64
640.888	11437.13
641.241	11399.16
641.594	11536.34
641.947	11526.17
642.301	11461.08
642.654	11435.32
643.007	11530.69
643.36	11432.16
643.713	11386.28
644.066	11462.21
644.419	11362.55
644.771	11315.32
645.124	11198.04
645.477	11180.86
645.83	11135.67
646.182	11083.69
646.535	11003.47
646.888	11082.79
647.24	11027.2
647.593	11081.43
647.945	10979.06
648.298	10959.63
648.65	11003.47
649.002	10931.15
649.355	11043.24
649.707	10997.14
650.059	11050.02
650.411	11277.13
650.763	11145.84
651.115	11257.47
651.467	11241.43
651.819	11239.17
652.171	11222.67
652.523	11196.91
652.875	11240.52
653.227	11171.15
653.578	11204.82
653.93	11209.11
654.282	11212.5
654.633	11140.87
654.985	11208.66
655.337	11148.77
655.688	11204.82
656.039	11236
656.391	11127.98
656.742	11179.73
657.094	11199.17
657.445	11177.02
657.796	11215.44
658.147	11146.97
658.498	11165.27
658.849	11176.57
659.2	11246.63
659.551	11159.17
659.902	11200.98
660.253	11218.38
660.604	11207.76
660.955	11126.4
661.306	11200.75
661.656	11205.72
662.007	11207.53
662.358	11189
662.708	11185.16
663.059	11242.11
663.409	11170.47
663.76	11228.32
664.11	11199.17
664.461	11219.28
664.811	11240.98
665.161	11168.21
665.511	11149.45
665.862	11187.64
666.212	11201.88
666.562	11221.32
666.912	11210.69
667.262	11195.78
667.612	11184.71
667.962	11237.36
668.312	11237.81
668.662	11259.28
669.011	11214.08
669.361	11172.28
669.711	11113.52
670.06	11136.8
670.41	11172.28
670.76	11127.53
671.109	11176.57
671.459	11089.12
671.808	11151.71
672.157	11106.06
672.507	11107.42
672.856	11094.99
673.205	11100.41
673.554	11152.62
673.904	11124.37
674.253	11225.38
674.602	11042.34
674.951	11015.44
675.3	10863.81
675.649	11078.04
675.998	11023.35
676.346	11097.93
676.695	11096.35
677.044	11028.78
677.393	11008.67
677.741	11038.27
678.09	11014.77
678.438	10962.34
678.787	10985.84
679.135	10956.01
679.484	10936.35
679.832	10946.52
680.181	10905.17
680.529	10989.23
680.877	10837.82
681.225	10848.9
681.573	10855.22
681.922	10839.63
682.27	10781.55
682.618	10844.83
682.966	10780.65
683.314	10802.34
683.661	10708.56
684.009	10630.14
684.357	10660.2
684.705	10633.76
685.053	10664.72
685.4	10608.68
685.748	10595.34
686.095	10529.13
686.443	10562.35
686.79	10372.52
687.138	10476.25
687.485	10518.96
687.832	10492.52
688.18	10446.19
688.527	10450.04
688.874	10383.6
689.221	10350.6
689.568	10366.2
689.915	10234.67
690.262	10242.36
690.609	10281.45
690.956	10158.29
691.303	10159.87
691.65	10158.29
691.997	10143.6
692.344	10105.64
692.69	10026.54
693.037	10094.11
693.383	10029.93
693.73	10055.24
694.077	9951.07
694.423	9897.51
694.769	9864.51
695.116	9924.63
695.462	9783.39
695.808	9779.77
696.155	9779.32
696.501	9657.97
696.847	9722.82
697.193	9559.21
697.539	9689.38
697.885	9583.17
698.231	9515.37
698.577	9552.21
698.923	9568.7
699.269	9493.22
699.614	9466.56
699.96	9432.89
700.306	9460.68
700.651	9389.72
700.997	9333.23
701.342	9257.3
701.688	9223.85
702.033	9295.49
702.379	9190.63
702.724	9255.94
703.069	9254.59
703.415	9133.46
703.76	9131.65
704.105	9176.4
704.45	9132.78
704.795	9022.05
705.14	9009.62
705.485	9003.97
705.83	8942.05
706.175	8961.26
706.52	8935.73
706.865	8852.11
707.209	8850.53
707.554	8753.36
707.899	8826.8
708.243	8811.89
708.588	8789.06
708.932	8667.71
709.277	8683.08
709.621	8676.98
709.966	8654.83
710.31	8653.25
710.654	8592.46
710.998	8609.63
711.342	8576.86
711.687	8574.15
712.031	8522.4
712.375	8497.09
712.719	8537.54
713.063	8441.28
713.407	8483.76
713.75	8479.69
714.094	8369.86
714.438	8380.26
714.782	8396.98
715.125	8360.6
715.469	8403.31
715.812	8348.85
716.156	8330.09
716.499	8312.47
716.843	8302.52
717.186	8236.53
717.53	8360.6
717.873	8314.27
718.216	8280.38
718.559	8221.17
718.902	8212.13
719.246	8213.71
719.589	8213.94
719.932	8210.55
720.275	8158.8
720.617	8158.12
720.96	8222.3
721.303	8149.31
721.646	8130.32
721.989	8076.54
722.331	8105.01
722.674	8069.08
723.016	8097.78
723.359	8108.85
723.701	8110.66
724.044	8044.45
724.386	7986.82
724.729	8048.97
725.071	8046.03
725.413	8026.82
725.755	7995.64
726.097	7966.94
726.439	7952.7
726.782	7989.08
727.124	8014.62
727.465	7993.6
727.807	7962.87
728.149	7913.61
728.491	7945.92
728.833	7940.05
729.175	7868.86
729.516	7893.72
729.858	7929.2
730.199	7952.47
730.541	7939.59
730.882	7838.58
731.224	7909.76
731.565	7853.72
731.906	7831.57
732.248	7884.23
732.589	7858.47
732.93	7820.05
733.271	7870.89
733.612	7861.4
733.953	7888.97
734.294	7851.69
734.635	7829.54
734.976	7892.36
735.317	7878.13
735.658	7831.35
735.999	7832.7
736.339	7823.21
736.68	7893.94
737.021	7854.85
737.361	7837
737.702	7889.43
738.042	7871.57
738.383	7852.14
738.723	7910.44
739.063	7874.06
739.404	7850.33
739.744	7876.09
740.084	7882.87
740.424	7862.53
740.764	7905.02
741.104	7945.24
741.444	7884.68
741.784	7921.29
742.124	7950.67
742.464	7976.43
742.804	7971.46
743.143	7926.94
743.483	8028.18
743.823	8024.79
744.162	8019.37
744.502	8094.62
744.841	8001.29
745.181	8130.32
745.52	8132.13
745.86	8197.44
746.199	8210.55
746.538	8228.17
746.877	8207.16
747.216	8326.48
747.556	8295.97
747.895	8350.43
748.234	8381.16
748.573	8418.68
748.911	8417.77
749.25	8550.65
749.589	8541.61
749.928	8627.03
750.267	8690.31
750.605	8684.21
750.944	8760.14
751.283	8837.65
751.621	8953.58
751.96	8909.51
752.298	9060.92
752.636	9094.59
752.975	9185.21
753.313	9289.16
753.651	9388.82
753.989	9391.08
754.327	9551.98
754.666	9574.58
755.004	9707.23
755.342	9852.76
755.679	9905.64
756.017	10069.48
756.355	10200.33
756.693	10224.73
757.031	10484.61
757.368	10534.78
757.706	10649.58
758.044	10737.03
758.381	10917.37
758.719	11038.27
759.056	11181.54
759.394	11345.38
759.731	11399.84
760.068	11593.28
760.405	11823.33
760.743	11876.21
761.08	12021.75
761.417	12090.22
761.754	12412.92
762.091	12419.93
762.428	12559.36
