Data from hue_230_FLMS001491_00091.txt Node
Date: Tue Feb 07 16:38:00 GMT 2017
User: dcchb
Spectrometer: FLMS00149
Trigger mode: 0
Integration Time (sec): 2.000000E-2
Scans to average: 10
Electric dark correction enabled: true
Nonlinearity correction enabled: false
Boxcar width: 0
XAxis mode: Wavelengths
Number of Pixels in Spectrum: 2048
>>>>>Begin Spectral Data<<<<<
341.393	-2.44
341.776	-2.44
342.16	-2.44
342.543	-54.19
342.927	-58.71
343.31	-68.88
343.693	-58.71
344.077	-69.56
344.46	-64.59
344.843	-61.2
345.226	-52.61
345.61	-32.05
345.993	-27.3
346.376	-9
346.759	15.86
347.142	31.23
347.525	42.75
347.908	66.48
348.291	71.68
348.674	87.72
349.057	128.17
349.44	108.97
349.823	153.03
350.206	150.32
350.588	171.11
350.971	195.97
351.354	226.25
351.737	226.48
352.119	249.98
352.502	263.99
352.884	266.93
353.267	296.76
353.65	280.94
354.032	287.49
354.414	300.15
354.797	315.29
355.179	313.71
355.562	309.41
355.944	320.26
356.326	310.54
356.709	314.84
357.091	316.64
357.473	326.59
357.855	327.49
358.238	346.02
358.62	327.27
359.002	331.56
359.384	335.85
359.766	347.6
360.148	336.98
360.53	323.42
360.912	333.82
361.294	319.81
361.676	324.78
362.057	331.11
362.439	318
362.821	318.45
363.203	318.23
363.584	306.02
363.966	287.72
364.348	316.87
364.729	303.31
365.111	309.64
365.493	306.93
365.874	324.78
366.256	310.99
366.637	295.18
367.019	332.46
367.4	323.2
367.781	296.76
368.163	296.98
368.544	283.42
368.925	301.28
369.306	296.76
369.688	307.83
370.069	294.27
370.45	311.9
370.831	298.34
371.212	310.54
371.593	319.36
371.974	311.22
372.355	304.22
372.736	320.03
373.117	315.51
373.498	311.22
373.879	286.14
374.26	335.63
374.641	305.12
375.021	300.6
375.402	315.06
375.783	292.01
376.163	346.02
376.544	306.25
376.925	309.19
377.305	304.67
377.686	291.79
378.066	312.8
378.447	307.15
378.827	303.54
379.208	326.81
379.588	335.85
379.968	317.55
380.349	341.05
380.729	325.91
381.109	331.56
381.489	327.04
381.87	335.63
382.25	318.23
382.63	358.68
383.01	315.29
383.39	344.44
383.77	341.05
384.15	351.67
384.53	336.53
384.91	338.79
385.29	337.66
385.67	330.66
386.049	347.6
386.429	355.74
386.809	358.23
387.189	343.99
387.568	358.45
387.948	353.71
388.328	354.38
388.707	337.89
389.087	344.44
389.466	335.85
389.846	338.11
390.225	358.68
390.605	356.42
390.984	358.9
391.363	348.06
391.743	354.38
392.122	357.55
392.501	343.31
392.881	366.81
393.26	369.75
393.639	369.75
394.018	358
394.397	366.81
394.776	362.52
395.155	399.58
395.534	354.38
395.913	373.37
396.292	399.13
396.671	371.56
397.05	394.38
397.429	383.54
397.808	392.8
398.186	389.41
398.565	390.31
398.944	394.38
399.323	388.73
399.701	396.64
400.08	393.93
400.458	402.29
400.837	386.7
401.215	398.9
401.594	377.43
401.972	405.23
402.351	409.3
402.729	410.2
403.107	419.01
403.486	399.13
403.864	419.24
404.242	425.34
404.62	405.91
404.999	420.82
405.377	401.61
405.755	414.27
406.133	431.67
406.511	450.2
406.889	448.39
407.267	451.33
407.645	439.13
408.023	453.82
408.401	461.5
408.779	456.08
409.156	460.6
409.534	486.81
409.912	460.6
410.29	466.92
410.667	467.37
411.045	504.66
411.422	491.1
411.8	503.31
412.178	498.11
412.555	522.97
412.933	528.84
413.31	507.37
413.687	516.41
414.065	542.18
414.442	540.14
414.819	538.11
415.197	535.85
415.574	561.61
415.951	570.2
416.328	562.29
416.705	580.14
417.082	597.31
417.46	591.21
417.837	596.64
418.214	613.81
418.591	626.01
418.967	621.95
419.344	631.66
419.721	632.12
420.098	623.53
420.475	647.93
420.852	668.27
421.228	642.51
421.605	652.91
421.982	666.01
422.358	671.44
422.735	699.91
423.111	704.2
423.488	729.51
423.864	731.55
424.241	732.23
424.617	733.36
424.994	754.37
425.37	747.59
425.746	767.48
426.123	762.28
426.499	786.69
426.875	785.56
427.251	800.47
427.627	801.6
428.003	824.65
428.379	818.78
428.756	849.74
429.132	833.47
429.507	849.29
429.883	859.68
430.259	903.07
430.635	877.76
431.011	877.31
431.387	882.05
431.763	920.92
432.138	911.2
432.514	947.81
432.89	947.59
433.265	952.56
433.641	989.85
434.016	976.97
434.392	1023.07
434.767	1036.17
435.143	1058.09
435.518	1057.42
435.894	1077.08
436.269	1058.77
436.644	1106.23
437.02	1093.57
437.395	1135.15
437.77	1125.21
438.145	1179.22
438.52	1187.81
438.895	1214.02
439.271	1181.93
439.646	1224.64
440.021	1226.9
440.395	1237.07
440.77	1245.89
441.145	1265.09
441.52	1289.27
441.895	1279.56
442.27	1315.26
442.645	1309.39
443.019	1348.03
443.394	1344.87
443.769	1371.31
444.143	1357.52
444.518	1366.11
444.892	1361.81
445.267	1384.64
445.641	1393.9
446.016	1435.94
446.39	1438.87
446.764	1426.22
447.139	1428.48
447.513	1463.51
447.887	1430.29
448.262	1444.3
448.636	1477.52
449.01	1492.88
449.384	1526.56
449.758	1530.17
450.132	1516.61
450.506	1532.66
450.88	1537.4
451.254	1572.2
451.628	1568.14
452.002	1588.7
452.376	1617.63
452.75	1607.68
453.123	1657.85
453.497	1623.05
453.871	1673.44
454.244	1667.34
454.618	1725.65
454.992	1721.81
455.365	1704.63
455.739	1762.93
456.112	1750.05
456.486	1802.93
456.859	1780.33
457.232	1838.86
457.606	1831.86
457.979	1858.75
458.352	1904.85
458.725	1914.34
459.099	1905.98
459.472	1924.96
459.845	1938.3
460.218	1983.49
460.591	1998.86
460.964	1992.53
461.337	2057.39
461.71	2079.99
462.083	2077.05
462.456	2077.73
462.829	2097.61
463.201	2155.47
463.574	2154.34
463.947	2174.22
464.32	2201.79
464.692	2204.5
465.065	2223.94
465.438	2238.4
465.81	2299.64
466.183	2318.85
466.555	2361.56
466.928	2390.26
467.3	2378.96
467.672	2422.8
468.045	2431.62
468.417	2463.03
468.789	2485.17
469.161	2540.09
469.534	2553.42
469.906	2593.19
470.278	2566.3
470.65	2596.13
471.022	2669.35
471.394	2733.3
471.766	2741.44
472.138	2741.44
472.51	2802.91
472.882	2827.09
473.253	2864.6
473.625	2902.56
473.997	2945.28
474.369	2966.74
474.74	2984.6
475.112	3015.78
475.484	3108.21
475.855	3107.98
476.227	3120.64
476.598	3222.1
476.97	3218.94
477.341	3324.7
477.713	3344.59
478.084	3332.38
478.455	3458.03
478.827	3474.53
479.198	3559.04
479.569	3581.64
479.94	3634.98
480.311	3708.65
480.682	3754.07
481.053	3811.69
481.424	3884.01
481.795	3885.82
482.166	3957.68
482.537	3961.97
482.908	4020.95
483.279	4083.55
483.65	4142.31
484.021	4157.22
484.391	4273.83
484.762	4266.6
485.133	4246.94
485.503	4354.5
485.874	4433.37
486.244	4428.85
486.615	4509.75
486.985	4536.19
487.356	4650.09
487.726	4673.14
488.097	4773.7
488.467	4738.45
488.837	4883.76
489.207	4898.44
489.578	4965.34
489.948	4972.79
490.318	5029.97
490.688	5064.09
491.058	5138.44
491.428	5158.55
491.798	5238.32
492.168	5303.63
492.538	5351.31
492.908	5337.76
493.278	5406.68
493.648	5399.45
494.017	5495.04
494.387	5574.36
494.757	5575.71
495.126	5633.57
495.496	5617.3
495.866	5634.92
496.235	5722.6
496.605	5738.42
496.974	5704.3
497.344	5798.76
497.713	5834.47
498.082	5833.11
498.452	5949.26
498.821	5945.42
499.19	5905.2
499.559	6004.63
499.928	5989.72
500.298	6030.84
500.667	6054.8
501.036	6038.3
501.405	6102.48
501.774	6066.1
502.143	6114.68
502.512	6149.94
502.88	6228.58
503.249	6214.79
503.618	6190.16
503.987	6275.58
504.356	6245.75
504.724	6276.94
505.093	6295.24
505.462	6317.39
505.83	6265.87
506.199	6364.17
506.567	6455.47
506.936	6395.13
507.304	6455.69
507.672	6455.69
508.041	6483.04
508.409	6516.48
508.777	6549.47
509.145	6561.9
509.514	6547.89
509.882	6585.63
510.25	6602.35
510.618	6618.63
510.986	6628.34
511.354	6651.39
511.722	6654.78
512.09	6690.04
512.458	6736.81
512.826	6713.99
513.193	6715.12
513.561	6771.16
513.929	6749.02
514.297	6803.25
514.664	6803.71
515.032	6814.78
515.4	6822.69
515.767	6849.81
516.135	6845.29
516.502	6795.12
516.869	6874.21
517.237	6851.61
517.604	6839.86
517.972	6955.79
518.339	6923.93
518.706	6895.45
519.073	6884.16
519.44	6847.09
519.808	6966.64
520.175	6916.24
520.542	7009.12
520.909	7002.8
521.276	6965.06
521.643	6937.71
522.009	7028.33
522.376	7040.31
522.743	6978.84
523.11	7041.89
523.477	7128.89
523.843	7101.78
524.21	7165.73
524.577	7151.94
524.943	7134.77
525.31	7118.05
525.676	7148.33
526.043	7205.5
526.409	7217.03
526.776	7239.63
527.142	7233.52
527.508	7233.3
527.874	7303.13
528.241	7258.61
528.607	7261.55
528.973	7310.13
529.339	7247.76
529.705	7273.98
530.071	7350.13
530.437	7268.33
530.803	7335.44
531.169	7252.73
531.535	7283.47
531.901	7245.5
532.267	7287.99
532.632	7311.49
532.998	7306.06
533.364	7296.8
533.73	7324.6
534.095	7315.78
534.461	7280.75
534.826	7252.28
535.192	7354.88
535.557	7359.4
535.923	7259.29
536.288	7269.68
536.653	7277.82
537.019	7270.59
537.384	7228.78
537.749	7264.71
538.114	7253.86
538.479	7208.21
538.845	7208.44
539.21	7167.54
539.575	7172.06
539.94	7189.46
540.305	7180.87
540.67	7190.81
541.034	7168.22
541.399	7182
541.764	7151.49
542.129	7135.45
542.494	7112.4
542.858	7081.89
543.223	7077.6
543.587	7106.3
543.952	7036.92
544.316	7108.33
544.681	7069.46
545.045	7056.13
545.41	7051.38
545.774	6988.79
546.138	7022.68
546.503	6957.83
546.867	6938.84
547.231	7022.23
547.595	7024.04
547.959	6994.21
548.324	6995.34
548.688	7006.64
549.052	6959.86
549.416	6939.29
549.779	6918.73
550.143	6913.08
550.507	6930.48
550.871	6922.35
551.235	6923.25
551.599	6892.29
551.962	6910.37
552.326	6870.37
552.689	6881.44
553.053	6790.15
553.417	6812.97
553.78	6937.04
554.143	6817.04
554.507	6794.89
554.87	6879.18
555.234	6864.04
555.597	6814.1
555.96	6841.22
556.323	6801.45
556.686	6782.46
557.05	6768.23
557.413	6804.38
557.776	6798.28
558.139	6805.51
558.502	6815.46
558.865	6778.17
559.228	6844.38
559.59	6765.74
559.953	6734.1
560.316	6885.29
560.679	6835.12
561.041	6891.61
561.404	6903.82
561.767	6830.15
562.129	6845.74
562.492	6864.49
562.854	6905.62
563.217	6859.97
563.579	6839.86
563.941	6888.9
564.304	6872.4
564.666	6949.46
565.028	6933.42
565.39	6931.61
565.753	6940.88
566.115	6972.74
566.477	6996.69
566.839	6942.91
567.201	7024.49
567.563	6985.62
567.925	7031.5
568.287	7035.56
568.648	7056.81
569.01	7116.47
569.372	7080.99
569.734	7111.27
570.095	7131.38
570.457	7141.55
570.819	7137.93
571.18	7134.54
571.542	7152.62
571.903	7176.35
572.265	7224.49
572.626	7268.33
572.987	7238.5
573.349	7231.49
573.71	7342.22
574.071	7228.78
574.432	7275.78
574.794	7364.14
575.155	7326.63
575.516	7290.47
575.877	7346.74
576.238	7321.21
576.599	7380.87
576.96	7424.93
577.32	7366.85
577.681	7428.77
578.042	7435.78
578.403	7423.12
578.763	7429.9
579.124	7545.61
579.485	7526.85
579.845	7493.18
580.206	7464.7
580.566	7484.59
580.927	7564.36
581.287	7629.45
581.648	7530.47
582.008	7628.09
582.368	7568.66
582.728	7637.13
583.089	7609.11
583.449	7608.2
583.809	7586.06
584.169	7620.63
584.529	7697.92
584.889	7698.82
585.249	7653.17
585.609	7652.27
585.969	7766.17
586.329	7710.8
586.688	7708.99
587.048	7736.34
587.408	7720.74
587.768	7767.97
588.127	7764.81
588.487	7688.65
588.846	7800.74
589.206	7774.98
589.565	7799.84
589.925	7903.11
590.284	7853.17
590.643	7859.72
591.003	7817.69
591.362	7868.54
591.721	7904.47
592.08	7859.95
592.44	7882.1
592.799	7939.49
593.158	7966.84
593.517	7869.21
593.876	7954.18
594.235	7922.32
594.593	7884.35
594.952	7917.57
595.311	7880.51
595.67	7884.35
596.029	7933.85
596.387	8001.19
596.746	8009.55
597.104	7963.45
597.463	8019.27
597.822	8008.65
598.18	7984.47
598.538	7968.87
598.897	8055.42
599.255	7976.33
599.613	8031.47
599.972	8029.44
600.33	8057.23
600.688	8080.06
601.046	8061.53
601.404	8090
601.762	8033.05
602.12	8077.34
602.478	8136.55
602.836	8090.23
603.194	8099.94
603.552	8105.59
603.91	8046.38
604.268	8109.66
604.625	8060.4
604.983	8135.2
605.341	8059.04
605.698	8077.12
606.056	8096.33
606.413	8136.1
606.771	8142.43
607.128	8127.29
607.485	8139.72
607.843	8119.38
608.2	8191.01
608.557	8140.17
608.914	8129.09
609.272	8146.49
609.629	8224.91
609.986	8255.64
610.343	8234.4
610.7	8233.27
611.057	8196.89
611.414	8216.55
611.771	8250.22
612.127	8298.36
612.484	8205.93
612.841	8253.16
613.198	8322.99
613.554	8334.29
613.911	8261.07
614.267	8346.72
614.624	8374.29
614.98	8299.71
615.337	8324.8
615.693	8332.03
616.05	8364.57
616.406	8375.87
616.762	8357.56
617.118	8351.24
617.475	8349.43
617.831	8357.79
618.187	8399.14
618.543	8458.35
618.899	8461.74
619.255	8406.38
619.611	8440.72
619.967	8466.03
620.323	8471.46
620.678	8423.1
621.034	8429.43
621.39	8414.28
621.746	8382.42
622.101	8507.62
622.457	8413.61
622.812	8419.03
623.168	8388.3
623.523	8426.26
623.879	8477.33
624.234	8415.64
624.589	8426.26
624.945	8465.13
625.3	8444.79
625.655	8394.62
626.01	8405.7
626.365	8477.56
626.72	8449.09
627.075	8416.09
627.43	8434.62
627.785	8430.78
628.14	8434.62
628.495	8506.03
628.85	8372.7
629.205	8373.38
629.559	8462.19
629.914	8323.89
630.269	8385.58
630.623	8343.33
630.978	8340.61
631.332	8412.93
631.687	8379.03
632.041	8370.22
632.396	8383.55
632.75	8299.49
633.104	8341.74
633.459	8305.81
633.813	8339.03
634.167	8306.04
634.521	8328.18
634.875	8334.29
635.229	8286.83
635.583	8279.37
635.937	8240.73
636.291	8239.83
636.645	8236.44
636.999	8146.04
637.352	8196.44
637.706	8248.41
638.06	8274.63
638.413	8165.7
638.767	8121.41
639.121	8193.95
639.474	8148.53
639.828	8172.26
640.181	8133.16
640.534	8178.81
640.888	8191.01
641.241	8074.86
641.594	8105.37
641.947	8131.35
642.301	8098.13
642.654	8054.29
643.007	8091.81
643.36	8049.1
643.713	8075.76
644.066	8124.57
644.419	8035.99
644.771	8045.25
645.124	7964.58
645.477	7940.85
645.83	7912.38
646.182	7824.92
646.535	7839.84
646.888	7875.32
647.24	7783.79
647.593	7800.74
647.945	7785.37
648.298	7746.28
648.65	7847.29
649.002	7690.24
649.355	7818.37
649.707	7749.9
650.059	7786.73
650.411	7906.28
650.763	7894.3
651.115	7984.69
651.467	7914.64
651.819	7925.48
652.171	7913.51
652.523	7906.5
652.875	7940.62
653.227	7949.44
653.578	7977.23
653.93	7947.4
654.282	7958.03
654.633	7915.31
654.985	7923
655.337	7947.18
655.688	7902.66
656.039	7949.21
656.391	7946.05
656.742	7883.9
657.094	7899.27
657.445	7998.7
657.796	7877.12
658.147	7871.25
658.498	7888.87
658.849	7904.92
659.2	7917.35
659.551	7873.73
659.902	7956.67
660.253	7933.39
660.604	7959.38
660.955	7899.72
661.306	7901.53
661.656	7926.16
662.007	7900.85
662.358	7916.67
662.708	7890
663.059	7922.55
663.409	7943.79
663.76	7927.97
664.11	7920.51
664.461	7984.24
664.811	7920.51
665.161	7943.11
665.511	7889.1
665.862	7970.91
666.212	7922.55
666.562	7935.88
666.912	7952.83
667.262	7912.83
667.612	7891.59
667.962	7949.44
668.312	7951.7
668.662	7968.65
669.011	7904.69
669.361	7937.69
669.711	7965.71
670.06	7938.14
670.41	7907.18
670.76	7900.4
671.109	7939.27
671.459	7929.33
671.808	7934.52
672.157	7892.49
672.507	7803.9
672.856	7917.57
673.205	7839.16
673.554	7907.41
673.904	7870.8
674.253	7891.13
674.602	7883.22
674.951	7774.98
675.3	7694.76
675.649	7809.78
675.998	7815.88
676.346	7881.64
676.695	7863.79
677.044	7831.7
677.393	7855.88
677.741	7847.52
678.09	7777.69
678.438	7853.17
678.787	7784.47
679.135	7851.14
679.484	7755.09
679.832	7799.84
680.181	7711.25
680.529	7765.49
680.877	7702.89
681.225	7666.28
681.573	7734.3
681.922	7662.21
682.27	7667.86
682.618	7624.7
682.966	7647.52
683.314	7628.54
683.661	7605.04
684.009	7553.52
684.357	7559.84
684.705	7505.38
685.053	7603.46
685.4	7551.03
685.748	7497.02
686.095	7456.57
686.443	7445.5
686.79	7443.24
687.138	7385.61
687.485	7475.55
687.832	7401.2
688.18	7463.35
688.527	7395.33
688.874	7364.14
689.221	7326.86
689.568	7306.52
689.915	7302.68
690.262	7263.35
690.609	7255.22
690.956	7261.77
691.303	7261.09
691.65	7195.33
691.997	7203.92
692.344	7122.79
692.69	7175.67
693.037	7157.59
693.383	7124.15
693.73	7118.95
694.077	7026.98
694.423	7126.18
694.769	6982.46
695.116	7028.33
695.462	6985.62
695.808	6944.04
696.155	6999.41
696.501	6937.71
696.847	6920.99
697.193	6852.97
697.539	6852.29
697.885	6802.8
698.231	6781.56
698.577	6829.02
698.923	6759.19
699.269	6755.34
699.614	6684.61
699.96	6676.03
700.306	6666.31
700.651	6599.42
700.997	6623.15
701.342	6604.84
701.688	6564.39
702.033	6541.57
702.379	6563.03
702.724	6489.36
703.069	6534.56
703.415	6471.74
703.76	6472.64
704.105	6474.45
704.45	6457.73
704.795	6425.64
705.14	6308.58
705.485	6382.47
705.83	6303.61
706.175	6328.69
706.52	6336.82
706.865	6243.04
707.209	6239.2
707.554	6189.71
707.899	6297.28
708.243	6253.21
708.588	6213.66
708.932	6170.73
709.277	6168.69
709.621	6182.7
709.966	6147.45
710.31	6172.08
710.654	6090.96
710.998	6102.03
711.342	6089.83
711.687	6067.68
712.031	6037.85
712.375	6011.64
712.719	5999.88
713.063	6020.9
713.407	6022.03
713.75	6011.86
714.094	6022.48
714.438	5973.67
714.782	5951.98
715.125	5949.04
715.469	5910.4
715.812	5910.4
716.156	5889.61
716.499	5926.67
716.843	5848.93
717.186	5783.17
717.53	5878.53
717.873	5853.67
718.216	5867.91
718.559	5813.9
718.902	5782.04
719.246	5835.6
719.589	5882.83
719.932	5788.82
720.275	5859.32
720.617	5783.62
720.96	5785.65
721.303	5816.61
721.646	5800.34
721.989	5670.4
722.331	5759.21
722.674	5728.48
723.016	5767.57
723.359	5731.42
723.701	5747.01
724.044	5733.22
724.386	5712.43
724.729	5734.35
725.071	5733
725.413	5726.22
725.755	5701.81
726.097	5684.86
726.439	5702.27
726.782	5677.86
727.124	5685.99
727.465	5658.2
727.807	5634.02
728.149	5686.45
728.491	5632.89
728.833	5685.54
729.175	5616.62
729.516	5668.59
729.858	5674.92
730.199	5691.19
730.541	5648.71
730.882	5683.28
731.224	5648.71
731.565	5618.88
731.906	5642.83
732.248	5601.7
732.589	5651.65
732.93	5596.96
733.271	5602.15
733.612	5618.65
733.953	5635.15
734.294	5626.56
734.635	5633.11
734.976	5647.58
735.317	5637.86
735.658	5642.38
735.999	5662.72
736.339	5642.38
736.68	5660.68
737.021	5624.75
737.361	5601.93
737.702	5705.66
738.042	5629.27
738.383	5634.02
738.723	5681.7
739.063	5672.66
739.404	5723.51
739.744	5712.89
740.084	5652.1
740.424	5684.19
740.764	5692.55
741.104	5762.15
741.444	5724.41
741.784	5712.43
742.124	5748.14
742.464	5782.26
742.804	5778.87
743.143	5771.42
743.483	5816.61
743.823	5761.25
744.162	5776.39
744.502	5846.22
744.841	5794.47
745.181	5892.54
745.52	5885.09
745.86	5905.42
746.199	5911.3
746.538	5969.15
746.877	6040.11
747.216	6044.18
747.556	5993.33
747.895	6042.37
748.234	6118.3
748.573	6118.53
748.911	6189.71
749.25	6169.82
749.589	6256.15
749.928	6277.84
750.267	6359.65
750.605	6441.68
750.944	6460.44
751.283	6442.36
751.621	6561.68
751.96	6590.38
752.298	6665.86
752.636	6794.89
752.975	6744.27
753.313	6768
753.651	6919.41
753.989	7020.87
754.327	7036.69
754.666	7068.78
755.004	7212.73
755.342	7247.31
755.679	7448.43
756.017	7432.62
756.355	7541.09
756.693	7666.73
757.031	7798.03
757.368	7816.33
757.706	7944.69
758.044	8044.35
758.381	8179.71
758.719	8203.22
759.056	8383.32
759.394	8475.53
759.731	8545.58
760.068	8670.1
760.405	8840.71
760.743	8845.46
761.08	8987.6
761.417	9077.77
761.754	9270.53
762.091	9410.19
762.428	9435.5
762.765	9549.62
763.102	9664.87
763.438	9779.9
763.775	9865.09
764.112	10033.22
764.449	10185.76
764.785	10237.97
765.122	10345.53
765.458	10409.71
765.795	10495.59
766.131	10674.11
766.467	10726.99
766.804	10823.94
767.14	10853.77
767.476	11030.94
767.812	11037.04
768.148	11156.13
768.485	11260.99
768.821	11326.98
769.157	11421.89
769.492	11499.4
