Data from hue_280_FLMS001491_00046.txt Node
Date: Tue Feb 07 15:55:20 GMT 2017
User: dcchb
Spectrometer: FLMS00149
Trigger mode: 0
Integration Time (sec): 2.000000E-2
Scans to average: 10
Electric dark correction enabled: true
Nonlinearity correction enabled: false
Boxcar width: 0
XAxis mode: Wavelengths
Number of Pixels in Spectrum: 2048
>>>>>Begin Spectral Data<<<<<
341.393	-13.73
341.776	-13.73
342.16	-13.73
342.543	-55.54
342.927	-75.42
343.31	-76.55
343.693	-73.61
344.077	-50.79
344.46	-75.65
344.843	-33.16
345.226	-24.12
345.61	-26.84
345.993	-22.77
346.376	-14.18
346.759	-2.88
347.142	20.17
347.525	35.08
347.908	75.76
348.291	49.32
348.674	92.71
349.057	127.51
349.44	116.66
349.823	130.45
350.206	150.79
350.588	192.37
350.971	209.77
351.354	211.35
351.737	219.26
352.119	237.11
352.502	256.32
352.884	277.79
353.267	268.98
353.65	296.32
354.032	285.02
354.414	274.17
354.797	305.81
355.179	302.65
355.562	302.65
355.944	310.33
356.326	314.4
356.709	339.48
357.091	328.64
357.473	346.26
357.855	322.99
358.238	350.33
358.62	345.36
359.002	325.47
359.384	347.17
359.766	337.45
360.148	315.53
360.53	331.35
360.912	321.86
361.294	343.1
361.676	338.13
362.057	331.8
362.439	338.35
362.821	329.54
363.203	322.99
363.584	315.75
363.966	310.33
364.348	305.36
364.729	321.63
365.111	312.36
365.493	296.55
365.874	299.71
366.256	301.52
366.637	308.07
367.019	310.78
367.4	315.53
367.781	287.28
368.163	294.29
368.544	313.04
368.925	315.75
369.306	300.61
369.688	316.21
370.069	318.47
370.45	322.99
370.831	314.17
371.212	292.7
371.593	298.81
371.974	304.46
372.355	312.36
372.736	282.31
373.117	318.47
373.498	301.07
373.879	309.2
374.26	306.04
374.641	292.7
375.021	303.33
375.402	312.36
375.783	300.84
376.163	342.42
376.544	333.16
376.925	331.8
377.305	312.59
377.686	341.52
378.066	301.29
378.447	319.82
378.827	321.4
379.208	302.87
379.588	304.46
379.968	320.05
380.349	301.97
380.729	337.67
381.109	325.02
381.489	316.21
381.87	327.05
382.25	306.04
382.63	335.41
383.01	341.74
383.39	335.64
383.77	321.63
384.15	321.18
384.53	330.44
384.91	341.97
385.29	330.44
385.67	336.54
386.049	350.33
386.429	368.86
386.809	350.56
387.189	341.74
387.568	367.5
387.948	345.13
388.328	341.06
388.707	339.71
389.087	367.5
389.466	349.65
389.846	333.61
390.225	348.97
390.605	359.6
390.984	359.37
391.363	363.89
391.743	377
392.122	378.35
392.501	371.57
392.881	346.71
393.26	359.14
393.639	388.29
394.018	366.15
394.397	386.94
394.776	378.58
395.155	389.42
395.534	389.88
395.913	389.88
396.292	388.97
396.671	392.81
397.05	391.91
397.429	383.32
397.808	368.18
398.186	379.71
398.565	396.66
398.944	379.93
399.323	376.77
399.701	407.5
400.08	402.31
400.458	387.62
400.837	421.51
401.215	416.09
401.594	403.21
401.972	411.12
402.351	424.23
402.729	410.44
403.107	414.06
403.486	441.63
403.864	414.96
404.242	437.79
404.62	427.84
404.999	428.97
405.377	440.72
405.755	427.16
406.133	436.66
406.511	451.34
406.889	443.43
407.267	441.4
407.645	466.03
408.023	461.74
408.401	469.2
408.779	475.75
409.156	497.44
409.534	508.97
409.912	456.09
410.29	484.79
410.667	506.94
411.045	483.89
411.422	489.54
411.8	490.44
412.178	510.1
412.555	519.82
412.933	536.54
413.31	559.36
413.687	543.32
414.065	541.06
414.442	542.19
414.819	556.43
415.197	581.96
415.574	575.86
415.951	572.7
416.328	577.22
416.705	607.05
417.082	602.98
417.46	591.91
417.837	620.38
418.214	607.95
418.591	621.74
418.967	629.19
419.344	642.75
419.721	633.26
420.098	644.11
420.475	658.34
420.852	667.38
421.228	671.9
421.605	677.78
421.982	686.82
422.358	696.31
422.735	720.26
423.111	710.32
423.488	743.99
423.864	725.91
424.241	736.08
424.617	740.38
424.994	769.08
425.37	771.79
425.746	770.66
426.123	795.52
426.499	788.06
426.875	816.98
427.251	810.43
427.627	837.77
428.003	830.32
428.379	835.06
428.756	844.78
429.132	870.99
429.507	903.08
429.883	879.81
430.259	871.22
430.635	906.93
431.011	902.86
431.387	915.06
431.763	944.66
432.138	939.69
432.514	953.48
432.89	994.15
433.265	964.1
433.641	988.73
434.016	1015.4
434.392	1034.15
434.767	1033.48
435.143	1031.89
435.518	1028.96
435.894	1066.02
436.269	1090.2
436.644	1117.32
437.02	1096.52
437.395	1123.87
437.77	1137.65
438.145	1162.06
438.52	1161.61
438.895	1185.11
439.271	1179.46
439.646	1203.41
440.021	1211.78
440.395	1235.28
440.77	1204.32
441.145	1250.19
441.52	1268.05
441.895	1251.32
442.27	1286.12
442.645	1269.4
443.019	1272.11
443.394	1304.88
443.769	1319.8
444.143	1291.55
444.518	1317.31
444.892	1310.3
445.267	1311.21
445.641	1352.34
446.016	1375.16
446.39	1343.98
446.764	1381.72
447.139	1324.09
447.513	1364.99
447.887	1355.95
448.262	1393.69
448.636	1380.36
449.01	1383.75
449.384	1428.04
449.758	1421.49
450.132	1435.72
450.506	1437.76
450.88	1441.6
451.254	1464.2
451.628	1482.05
452.002	1487.93
452.376	1483.18
452.75	1472.11
453.123	1503.07
453.497	1514.59
453.871	1534.93
454.244	1552.11
454.618	1567.92
454.992	1564.54
455.365	1578.09
455.739	1602.27
456.112	1616.06
456.486	1609.73
456.859	1635.04
457.232	1661.03
457.606	1633.69
457.979	1697.86
458.352	1691.09
458.725	1720.24
459.099	1685.44
459.472	1722.27
459.845	1746.23
460.218	1763.17
460.591	1753.46
460.964	1746.68
461.337	1837.3
461.71	1840.91
462.083	1816.73
462.456	1851.31
462.829	1834.81
463.201	1883.85
463.574	1882.49
463.947	1917.52
464.32	1934.69
464.692	1929.27
465.065	1943.96
465.438	2004.98
465.81	1986.67
466.183	2044.07
466.555	2035.26
466.928	2045.65
467.3	2045.65
467.672	2082.49
468.045	2107.12
468.417	2129.49
468.789	2136.27
469.161	2174.69
469.534	2189.6
469.906	2229.15
470.278	2204.52
470.65	2257.85
471.022	2278.87
471.394	2303.27
471.766	2305.31
472.138	2323.84
472.51	2373.78
472.882	2396.38
473.253	2377.85
473.625	2427.56
473.997	2430.95
474.369	2485.41
474.74	2496.04
475.112	2541.46
475.484	2573.55
475.855	2592.53
476.227	2608.58
476.598	2671.17
476.97	2665.98
477.341	2744.39
477.713	2767.67
478.084	2760.21
478.455	2832.75
478.827	2842.69
479.198	2916.36
479.569	2898.06
479.94	2986.87
480.311	2954.56
480.682	3040.65
481.053	3077.49
481.424	3093.76
481.795	3161.78
482.166	3119.97
482.537	3200.65
482.908	3193.19
483.279	3258.28
483.65	3296.02
484.021	3345.96
484.391	3406.07
484.762	3360.19
485.133	3421.44
485.503	3468.89
485.874	3542.56
486.244	3515.44
486.615	3589.57
486.985	3620.07
487.356	3678.15
487.726	3680.41
488.097	3734.42
488.467	3736
488.837	3784.82
489.207	3829.11
489.578	3856.45
489.948	3876.34
490.318	3906.17
490.688	3943.91
491.058	3982.32
491.428	4014.64
491.798	4049.89
492.168	4103.23
492.538	4152.04
492.908	4199.95
493.278	4187.74
493.648	4176.9
494.017	4292.37
494.387	4262.77
494.757	4237.91
495.126	4349.77
495.496	4319.26
495.866	4359.49
496.235	4381.64
496.605	4439.49
496.974	4442.65
497.344	4484.46
497.713	4487.17
498.082	4502.99
498.452	4546.38
498.821	4564.46
499.19	4550.9
499.559	4589.54
499.928	4631.35
500.298	4622.31
500.667	4699.37
501.036	4648.75
501.405	4720.16
501.774	4711.57
502.143	4729.42
502.512	4744.56
502.88	4741.85
503.249	4725.58
503.618	4805.13
503.987	4801.51
504.356	4845.58
504.724	4865.24
505.093	4837.22
505.462	4872.7
505.83	4861.4
506.199	4916.99
506.567	4919.48
506.936	4905.92
507.304	4961.06
507.672	5040.38
508.041	5008.96
508.409	5033.82
508.777	5046.93
509.145	5068.4
509.514	5098.23
509.882	5110.66
510.25	5103.65
510.618	5114.72
510.986	5121.05
511.354	5130.32
511.722	5154.05
512.09	5166.25
512.458	5199.92
512.826	5222.29
513.193	5202.41
513.561	5241.73
513.929	5273.59
514.297	5301.61
514.664	5289.86
515.032	5277.66
515.4	5284.89
515.767	5338.22
516.135	5339.35
516.502	5319.92
516.869	5414.6
517.237	5390.65
517.604	5415.51
517.972	5418.45
518.339	5382.29
518.706	5396.07
519.073	5417.54
519.44	5415.73
519.808	5480.36
520.175	5462.74
520.542	5534.15
520.909	5496.64
521.276	5517.43
521.643	5598.1
522.009	5619.34
522.376	5583.19
522.743	5634.71
523.11	5649.85
523.477	5652.56
523.843	5658.44
524.21	5707.03
524.577	5701.15
524.943	5698.66
525.31	5735.95
525.676	5813.69
526.043	5835.84
526.409	5793.35
526.776	5879
527.142	5859.11
527.508	5904.76
527.874	5979.11
528.241	5948.6
528.607	5921.93
528.973	5977.98
529.339	5980.69
529.705	6018.88
530.071	6074.47
530.437	6088.94
530.803	6086.9
531.169	6094.36
531.535	6103.85
531.901	6083.06
532.267	6168.48
532.632	6154.02
532.998	6119.44
533.364	6223.85
533.73	6205.77
534.095	6230.85
534.461	6257.29
534.826	6294.13
535.192	6249.84
535.557	6282.38
535.923	6299.1
536.288	6236.05
536.653	6348.14
537.019	6339.78
537.384	6359.44
537.749	6340.68
538.114	6379.1
538.479	6379.55
538.845	6416.16
539.21	6335.94
539.575	6364.41
539.94	6418.42
540.305	6447.12
540.67	6497.29
541.034	6418.42
541.399	6480.34
541.764	6479.43
542.129	6519.66
542.494	6514.46
542.858	6589.71
543.223	6549.71
543.587	6517.85
543.952	6585.42
544.316	6574.8
544.681	6535.48
545.045	6631.52
545.41	6619.32
545.774	6655.25
546.138	6637.4
546.503	6629.03
546.867	6594.91
547.231	6707.68
547.595	6701.35
547.959	6669.94
548.324	6686.66
548.688	6687.56
549.052	6701.58
549.416	6786.32
549.779	6763.72
550.143	6740.9
550.507	6767.79
550.871	6816.83
551.235	6759.2
551.599	6809.82
551.962	6809.82
552.326	6824.28
552.689	6848.01
553.053	6829.48
553.417	6826.54
553.78	6932.08
554.143	6918.97
554.507	6979.76
554.87	6931.85
555.234	6962.59
555.597	6921.23
555.96	6980.44
556.323	6960.78
556.686	6962.59
557.05	7045.52
557.413	7051.17
557.776	7045.29
558.139	7032.87
558.502	7063.15
558.865	7053.43
559.228	7160.55
559.59	7059.98
559.953	7180.88
560.316	7239.41
560.679	7146.54
561.041	7241.45
561.404	7263.82
561.767	7269.7
562.129	7288.23
562.492	7248
562.854	7307.43
563.217	7318.73
563.579	7364.38
563.941	7428.11
564.304	7415.68
564.666	7393.31
565.028	7422.46
565.39	7462.69
565.753	7517.37
566.115	7533.19
566.477	7517.15
566.839	7525.51
567.201	7596.24
567.563	7668.78
567.925	7673.3
568.287	7678.05
568.648	7687.99
569.01	7697.26
569.372	7739.74
569.734	7758.5
570.095	7805.05
570.457	7805.73
570.819	7891.83
571.18	7820.87
571.542	7892.28
571.903	7925.5
572.265	7932.96
572.626	7940.41
572.987	7962.33
573.349	7981.99
573.71	8026.96
574.071	8071.48
574.432	8141.31
574.794	8185.83
575.155	8241.65
575.516	8158.94
575.877	8208.88
576.238	8221.08
576.599	8292.72
576.96	8309.22
577.32	8354.64
577.681	8438.48
578.042	8429.67
578.403	8412.26
578.763	8501.75
579.124	8488.19
579.485	8565.71
579.845	8631.24
580.206	8625.59
580.566	8614.52
580.927	8735.65
581.287	8790.79
581.648	8806.6
582.008	8840.95
582.368	8934.96
582.728	8888.86
583.089	8938.58
583.449	8998.46
583.809	9090.21
584.169	9123.43
584.529	9162.08
584.889	9251.56
585.249	9243.2
585.609	9289.76
585.969	9424.89
586.329	9323.2
586.688	9502.86
587.048	9558.22
587.408	9508.06
587.768	9624.21
588.127	9714.83
588.487	9756.86
588.846	9802.96
589.206	9866.46
589.565	9779.91
589.925	9936.29
590.284	10083.18
590.643	10123.41
591.003	10198.43
591.362	10266
591.721	10233.91
592.08	10329.95
592.44	10514.36
592.799	10430.74
593.158	10458.31
593.517	10496.05
593.876	10664.18
594.235	10676.16
594.593	10702.15
594.952	10758.87
595.311	10751.64
595.67	10903.72
596.029	10983.27
596.387	11073.66
596.746	11187.56
597.104	11092.19
597.463	11150.72
597.822	11242.47
598.18	11289.25
598.538	11298.06
598.897	11459.42
599.255	11316.82
599.613	11634.55
599.972	11472.07
600.33	11580.32
600.688	11651.73
601.046	11707.09
601.404	11771.05
601.762	11752.52
602.12	11809.69
602.478	11883.36
602.836	11961.78
603.194	11978.27
603.552	12005.39
603.91	11899.4
604.268	12116.35
604.625	12031.6
604.983	12079.51
605.341	12081.55
605.698	12118.16
606.056	12257.59
606.413	12192.5
606.771	12339.39
607.128	12279.28
607.485	12270.47
607.843	12351.14
608.2	12414.87
608.557	12484.93
608.914	12505.26
609.272	12614.19
609.629	12657.58
609.986	12665.71
610.343	12602.21
610.7	12712.72
611.057	12711.36
611.414	12752.49
611.771	12764.24
612.127	12847.18
612.484	12832.49
612.841	12902.77
613.198	12837.91
613.554	12848.08
613.911	12917.46
614.267	12947.06
614.624	12966.04
614.98	12985.7
615.337	13095.76
615.693	13042.2
616.05	13020.05
616.406	13184.34
616.762	13117.23
617.118	13101.41
617.475	13194.06
617.831	13236.54
618.187	13270.22
618.543	13224.34
618.899	13320.16
619.255	13264.79
619.611	13259.14
619.967	13331.68
620.323	13359.48
620.678	13282.87
621.034	13281.52
621.39	13366.94
621.746	13286.49
622.101	13529.19
622.457	13341.4
622.812	13399.25
623.168	13499.14
623.523	13501.62
623.879	13458.01
624.234	13446.26
624.589	13473.37
624.945	13467.05
625.3	13469.08
625.655	13417.78
626.01	13453.26
626.365	13477.44
626.72	13518.57
627.075	13519.93
627.43	13513.6
627.785	13427.95
628.14	13508.85
628.495	13451.45
628.85	13521.28
629.205	13422.98
629.559	13580.49
629.914	13424.11
630.269	13413.94
630.623	13395.86
630.978	13366.03
631.332	13445.13
631.687	13444.45
632.041	13407.84
632.396	13450.55
632.75	13380.72
633.104	13404
633.459	13341.85
633.813	13344.34
634.167	13410.33
634.521	13321.97
634.875	13411.68
635.229	13340.95
635.583	13302.31
635.937	13309.09
636.291	13262.98
636.645	13259.37
636.999	13161.97
637.352	13292.81
637.706	13204.91
638.06	13229.77
638.413	13238.13
638.767	13244.91
639.121	13192.25
639.474	13238.13
639.828	13216.43
640.181	13152.48
640.534	13219.37
640.888	13222.31
641.241	13139.15
641.594	13114.29
641.947	13129.43
642.301	13169.65
642.654	13235.64
643.007	13127.85
643.36	13210.56
643.713	13141.18
644.066	13110.22
644.419	13063.44
644.771	13102.08
645.124	12853.28
645.477	12882.88
645.83	12829.78
646.182	12741.19
646.535	12745.03
646.888	12788.19
647.24	12644.47
647.593	12769.66
647.945	12727.63
648.298	12646.96
648.65	12649.44
649.002	12636.56
649.355	12648.31
649.707	12727.86
650.059	12798.82
650.411	12925.82
650.763	12941.19
651.115	13090.79
651.467	13030.9
651.819	13009.21
652.171	13008.98
652.523	12956.1
652.875	12957.91
653.227	12892.37
653.578	13059.6
653.93	12979.83
654.282	13045.36
654.633	12968.08
654.985	12959.49
655.337	13015.31
655.688	12932.82
656.039	13017.57
656.391	12933.73
656.742	12963.33
657.094	12968.98
657.445	12994.97
657.796	13004.69
658.147	13039.49
658.498	12985.7
658.849	13053.05
659.2	12979.15
659.551	13026.61
659.902	13100.5
660.253	13044.69
660.604	13034.74
660.955	12956.33
661.306	13083.33
661.656	13113.38
662.007	13062.76
662.358	13035.65
662.708	13077.9
663.059	13142.76
663.409	12899.83
663.76	13082.65
664.11	13048.3
664.461	13155.87
664.811	13099.83
665.161	13094.85
665.511	13068.19
665.862	13119.03
666.212	13120.62
666.562	13055.76
666.912	13085.81
667.262	13099.83
667.612	13173.72
667.962	13073.39
668.312	13079.26
668.662	13162.42
669.011	13162.65
669.361	13123.1
669.711	13126.49
670.06	13050.11
670.41	13090.33
670.76	13013.27
671.109	13168.98
671.459	13099.83
671.808	13061.63
672.157	13123.33
672.507	12997.45
672.856	12993.84
673.205	13092.82
673.554	13024.35
673.904	13016.44
674.253	13054.18
674.602	13018.92
674.951	12791.36
675.3	12750.68
675.649	12936.21
675.998	12984.57
676.346	12967.63
676.695	12919.94
677.044	12837.01
677.393	12896.89
677.741	12950.9
678.09	12808.31
678.438	12861.64
678.787	12802.66
679.135	12864.58
679.484	12722.66
679.832	12838.36
680.181	12692.6
680.529	12775.09
680.877	12694.41
681.225	12739.16
681.573	12772.38
681.922	12576.9
682.27	12627.3
682.618	12678.82
682.966	12612.61
683.314	12677.01
683.661	12585.94
684.009	12507.98
684.357	12581.65
684.705	12444.02
685.053	12435.44
685.4	12495.55
685.748	12369.45
686.095	12409.9
686.443	12352.95
686.79	12329.68
687.138	12291.71
687.485	12283.8
687.832	12291.26
688.18	12375.1
688.527	12199.96
688.874	12161.32
689.221	12089.91
689.568	12027.99
689.915	12121.32
690.262	12062.34
690.609	11931.27
690.956	11968.33
691.303	11970.82
691.65	11831.61
691.997	11867.09
692.344	11764.94
692.69	11795.45
693.037	11724.04
693.383	11636.59
693.73	11741.22
694.077	11615.12
694.423	11693.08
694.769	11573.99
695.116	11500.09
695.462	11509.58
695.808	11419.87
696.155	11494.9
696.501	11368.35
696.847	11390.72
697.193	11243.15
697.539	11230.95
697.885	11119.54
698.231	11144.85
698.577	11183.04
698.923	11096.71
699.269	11028.92
699.614	10918.87
699.96	10971.97
700.306	10927.9
700.651	10923.61
700.997	10956.83
701.342	10892.65
701.688	10788.25
702.033	10775.59
702.379	10743.05
702.724	10648.36
703.069	10754.8
703.415	10560
703.76	10571.08
704.105	10590.06
704.45	10539.89
704.795	10450.63
705.14	10412.66
705.485	10437.97
705.83	10327.02
706.175	10367.92
706.52	10306.68
706.865	10300.35
707.209	10284.98
707.554	10229.62
707.899	10228.49
708.243	10167.02
708.588	10059.9
708.932	10096.74
709.277	10081.15
709.621	10110.3
709.966	10040.7
710.31	10012.9
710.654	9963.86
710.998	9920.47
711.342	9972.45
711.687	9882.28
712.031	9828.95
712.375	9839.8
712.719	9823.98
713.063	9827.59
713.407	9871.89
713.75	9791.66
714.094	9815.39
714.438	9712.12
714.782	9725.45
715.125	9700.14
715.469	9698.56
715.812	9635.74
716.156	9571.33
716.499	9572.69
716.843	9547.15
717.186	9581.73
717.53	9536.75
717.873	9605
718.216	9508.28
718.559	9520.03
718.902	9443.42
719.246	9479.13
719.589	9467.83
719.932	9438.45
720.275	9423.31
720.617	9439.13
720.96	9345.57
721.303	9381.05
721.646	9420.15
721.989	9392.35
722.331	9365.69
722.674	9380.37
723.016	9355.06
723.359	9291.56
723.701	9361.39
724.044	9306.03
724.386	9293.15
724.729	9299.02
725.071	9309.64
725.413	9270.1
725.755	9295.18
726.097	9288.63
726.439	9215.63
726.782	9272.58
727.124	9257.21
727.465	9225.35
727.807	9268.51
728.149	9245.01
728.491	9225.12
728.833	9248.63
729.175	9141.29
729.516	9240.94
729.858	9213.6
730.199	9186.03
730.541	9183.09
730.882	9158.01
731.224	9258.34
731.565	9196.2
731.906	9118.01
732.248	9171.57
732.589	9113.72
732.93	9219.02
733.271	9141.51
733.612	9097.22
733.953	9186.26
734.294	9199.14
734.635	9109.87
734.976	9165.01
735.317	9227.16
735.658	9191.91
735.999	9227.38
736.339	9144
736.68	9190.78
737.021	9152.13
737.361	9163.66
737.702	9181.96
738.042	9186.03
738.383	9224.45
738.723	9239.81
739.063	9202.3
739.404	9245.01
739.744	9265.58
740.084	9207.05
740.424	9270.32
740.764	9247.72
741.104	9296.08
741.444	9307.38
741.784	9244.11
742.124	9305.8
742.464	9316.65
742.804	9349.64
743.143	9364.78
743.483	9358.23
743.823	9392.58
744.162	9395.06
744.502	9473.25
744.841	9429.41
745.181	9581.27
745.52	9532.24
745.86	9604.32
746.199	9588.28
746.538	9668.73
746.877	9682.51
747.216	9790.76
747.556	9916.18
747.895	9901.49
748.234	9908.04
748.573	9876.63
748.911	9954.82
749.25	10068.72
749.589	10087.47
749.928	10145.78
750.267	10232.1
750.605	10330.63
750.944	10366.11
751.283	10486.33
751.621	10551.42
751.96	10628.03
752.298	10666.44
752.636	10800.9
752.975	10877.96
753.313	10910.28
753.651	11103.95
753.989	11157.5
754.327	11242.02
754.666	11280.44
755.004	11504.39
755.342	11685.62
755.679	11751.16
756.017	11795.45
756.355	11974.66
756.693	11994.77
757.031	12285.84
757.368	12340.52
757.706	12491.03
758.044	12547.75
758.381	12723.79
758.719	12815.54
759.056	12970.11
759.394	13148.19
759.731	13262.08
760.068	13472.92
760.405	13491.45
760.743	13611.45
761.08	13800.37
761.417	13974.38
761.754	14083.08
