Data from hue_190_FLMS001491_00010.txt Node
Date: Tue Feb 07 16:44:43 GMT 2017
User: dcchb
Spectrometer: FLMS00149
Trigger mode: 0
Integration Time (sec): 2.000000E-2
Scans to average: 10
Electric dark correction enabled: true
Nonlinearity correction enabled: false
Boxcar width: 0
XAxis mode: Wavelengths
Number of Pixels in Spectrum: 2048
>>>>>Begin Spectral Data<<<<<
341.393	-1.71
341.776	-1.71
342.16	-1.71
342.543	-72.44
342.927	-58.88
343.31	-52.1
343.693	-61.14
344.077	-73.8
344.46	-50.52
344.843	-57.3
345.226	-41.03
345.61	-19.11
345.993	-10.52
346.376	-3.52
346.759	3.26
347.142	15.69
347.525	26.31
347.908	47.1
348.291	71.28
348.674	80.55
349.057	124.84
349.44	141.56
349.823	139.98
350.206	161.9
350.588	219.3
350.971	216.82
351.354	230.38
351.737	217.95
352.119	244.61
352.502	247.78
352.884	289.13
353.267	276.02
353.65	309.92
354.032	292.75
354.414	315.8
354.797	297.94
355.179	313.08
355.562	316.02
355.944	349.92
356.326	321.9
356.709	323.25
357.091	337.72
357.473	355.8
357.855	329.36
358.238	342.46
358.62	326.87
359.002	345.85
359.384	331.84
359.766	338.85
360.148	323.71
360.53	326.64
360.912	333.42
361.294	344.72
361.676	338.85
362.057	326.64
362.439	338.62
362.821	330.03
363.203	307.66
363.584	324.16
363.966	341.11
364.348	312.41
364.729	334.33
365.111	303.82
365.493	306.08
365.874	309.7
366.256	312.18
366.637	316.25
367.019	316.47
367.4	313.08
367.781	307.21
368.163	320.77
368.544	295.23
368.925	325.74
369.306	329.58
369.688	287.77
370.069	305.63
370.45	318.28
370.831	305.4
371.212	314.44
371.593	307.89
371.974	320.09
372.355	312.63
372.736	326.64
373.117	317.6
373.498	323.93
373.879	317.83
374.26	315.34
374.641	322.12
375.021	319.41
375.402	353.99
375.783	326.42
376.163	320.09
376.544	344.27
376.925	319.41
377.305	325.97
377.686	332.97
378.066	345.63
378.447	321.22
378.827	335.46
379.208	343.59
379.588	328.9
379.968	330.03
380.349	337.04
380.729	341.33
381.109	319.41
381.489	347.43
381.87	336.36
382.25	306.76
382.63	329.58
383.01	306.53
383.39	341.11
383.77	337.94
384.15	343.82
384.53	346.98
384.91	343.82
385.29	365.06
385.67	346.3
386.049	361.67
386.429	328.68
386.809	370.03
387.189	350.15
387.568	339.3
387.948	341.33
388.328	337.72
388.707	342.46
389.087	350.6
389.466	351.05
389.846	339.52
390.225	381.11
390.605	360.32
390.984	359.19
391.363	347.66
391.743	358.96
392.122	355.57
392.501	381.78
392.881	398.73
393.26	369.35
393.639	358.51
394.018	382.24
394.397	360.54
394.776	394.89
395.155	362.8
395.534	368.68
395.913	383.59
396.292	391.73
396.671	379.07
397.05	399.18
397.429	374.55
397.808	371.39
398.186	409.35
398.565	396.7
398.944	410.71
399.323	404.83
399.701	392.86
400.08	403.25
400.458	387.43
400.837	403.93
401.215	400.09
401.594	393.53
401.972	417.04
402.351	393.99
402.729	414.33
403.107	418.84
403.486	431.73
403.864	420.43
404.242	433.99
404.62	456.58
404.999	448.45
405.377	440.09
405.755	437.6
406.133	462.46
406.511	443.7
406.889	436.7
407.267	446.64
407.645	459.3
408.023	461.78
408.401	481.22
408.779	479.86
409.156	489.8
409.534	500.42
409.912	486.64
410.29	503.59
410.667	520.54
411.045	529.8
411.422	530.71
411.8	532.74
412.178	536.81
412.555	559.86
412.933	570.03
413.31	571.38
413.687	566.64
414.065	574.1
414.442	588.11
414.819	622.46
415.197	606.64
415.574	617.94
415.951	623.13
416.328	609.57
416.705	629.01
417.082	649.8
417.46	665.39
417.837	666.52
418.214	669.46
418.591	692.74
418.967	677.82
419.344	689.57
419.721	681.66
420.098	730.02
420.475	699.52
420.852	724.83
421.228	742
421.605	739.29
421.982	779.29
422.358	768.89
422.735	773.41
423.111	793.98
423.488	826.74
423.864	821.77
424.241	841.43
424.617	848.21
424.994	879.4
425.37	886.86
425.746	894.31
426.123	902.67
426.499	902.9
426.875	930.02
427.251	979.06
427.627	963.01
428.003	971.6
428.379	981.09
428.756	980.41
429.132	996.46
429.507	1024.03
429.883	1020.19
430.259	1030.35
430.635	1048.43
431.011	1083.69
431.387	1076.91
431.763	1104.7
432.138	1116.45
432.514	1114.19
432.89	1135.66
433.265	1173.18
433.641	1200.75
434.016	1196.45
434.392	1188.99
434.767	1248.65
435.143	1255.66
435.518	1280.52
435.894	1289.56
436.269	1298.14
436.644	1348.54
437.02	1391.47
437.395	1376.79
437.77	1397.58
438.145	1453.62
438.52	1451.36
438.895	1482.55
439.271	1471.47
439.646	1538.14
440.021	1524.8
440.395	1557.8
440.77	1560.96
441.145	1608.87
441.52	1631.02
441.895	1641.41
442.27	1668.53
442.645	1664.69
443.019	1671.47
443.394	1715.76
443.769	1715.08
444.143	1719.15
444.518	1716.21
444.892	1757.57
445.267	1772.93
445.641	1802.54
446.016	1861.97
446.39	1840.28
446.764	1873.95
447.139	1864.46
447.513	1868.75
447.887	1898.81
448.262	1922.99
448.636	1913.27
449.01	1951.91
449.384	1953.04
449.758	1966.15
450.132	2009.99
450.506	2027.16
450.88	2018.35
451.254	2040.95
451.628	2088.86
452.002	2088.41
452.376	2091.57
452.75	2117.11
453.123	2151
453.497	2159.59
453.871	2191.23
454.244	2242.75
454.618	2223.77
454.992	2282.52
455.365	2280.04
455.739	2334.95
456.112	2374.73
456.486	2387.15
456.859	2400.71
457.232	2433.26
457.606	2424.22
457.979	2459.7
458.352	2559.35
458.725	2539.24
459.099	2565.23
459.472	2614.04
459.845	2640.26
460.218	2670.76
460.591	2670.31
460.964	2698.11
461.337	2786.24
461.71	2823.75
462.083	2840.7
462.456	2860.14
462.829	2868.27
463.201	2927.48
463.574	2935.39
463.947	3015.16
464.32	3020.58
464.692	3091.54
465.065	3068.27
465.438	3149.62
465.81	3248.38
466.183	3201.14
466.555	3298.09
466.928	3328.6
467.3	3337.64
467.672	3339.22
468.045	3508.03
468.417	3496.28
468.789	3485.88
469.161	3566.56
469.534	3634.58
469.906	3694.69
470.278	3731.3
470.65	3794.12
471.022	3808.59
471.394	3929.94
471.766	3963.16
472.138	3964.29
472.51	4044.29
472.882	4108.24
473.253	4190.05
473.625	4228.91
473.997	4354.79
474.369	4349.36
474.74	4452.64
475.112	4478.4
475.484	4547.78
475.855	4637.72
476.227	4711.84
476.598	4802.68
476.97	4890.14
477.341	4981.44
477.713	5052.62
478.084	5065.28
478.455	5186.18
478.827	5270.47
479.198	5427.75
479.569	5474.53
479.94	5594.08
480.311	5620.06
480.682	5757.69
481.053	5904.12
481.424	6002.43
481.795	6114.51
482.166	6124.46
482.537	6225.7
482.908	6358.35
483.279	6350.89
483.65	6508.4
484.021	6670.88
484.391	6730.09
484.762	6800.82
485.133	6899.58
485.503	6932.12
485.874	7079.23
486.244	7170.31
486.615	7262.73
486.985	7357.19
487.356	7532.56
487.726	7641.48
488.097	7732.78
488.467	7809.39
488.837	7910.63
489.207	8032.43
489.578	8108.81
489.948	8208.02
490.318	8330.95
490.688	8391.29
491.058	8511.29
491.428	8566.65
491.798	8655.46
492.168	8768
492.538	8825.63
492.908	8932.75
493.278	9047.54
493.648	9087.77
494.017	9064.72
494.387	9223.81
494.757	9281.44
495.126	9334.99
495.496	9376.35
495.866	9481.43
496.235	9577.7
496.605	9619.96
496.974	9651.14
497.344	9721.88
497.713	9755.55
498.082	9844.36
498.452	9942.21
498.821	9945.6
499.19	9958.71
499.559	9986.05
499.928	10039.38
500.298	10143.11
500.667	10212.71
501.036	10127.52
501.405	10249.09
501.774	10211.81
502.143	10337
502.512	10304.91
502.88	10475.98
503.249	10453.61
503.618	10428.98
503.987	10489.99
504.356	10469.88
504.724	10557.56
505.093	10527.51
505.462	10585.58
505.83	10666.49
506.199	10673.04
506.567	10789.65
506.936	10706.48
507.304	10850.89
507.672	10829.64
508.041	10808.18
508.409	10912.35
508.777	11003.43
509.145	10939.92
509.514	10896.76
509.882	11015.4
510.25	10992.58
510.618	11023.76
510.986	11022.86
511.354	11000.04
511.722	11133.59
512.09	11179.92
512.458	11091.78
512.826	11135.85
513.193	11193.02
513.561	11152.35
513.929	11237.32
514.297	11254.04
514.664	11266.92
515.032	11279.12
515.4	11308.95
515.767	11233.93
516.135	11343.98
516.502	11204.78
516.869	11345.11
517.237	11314.38
517.604	11249.29
517.972	11303.08
518.339	11373.59
518.706	11284.77
519.073	11280.48
519.44	11325.68
519.808	11404.54
520.175	11403.87
520.542	11439.35
520.909	11430.31
521.276	11340.82
521.643	11408.16
522.009	11429.18
522.376	11456.97
522.743	11411.1
523.11	11490.19
523.477	11513.69
523.843	11469.63
524.21	11533.58
524.577	11459.46
524.943	11583.98
525.31	11464.43
525.676	11548.04
526.043	11518.89
526.409	11490.42
526.776	11572.9
527.142	11488.61
527.508	11522.06
527.874	11547.37
528.241	11493.58
528.607	11424.66
528.973	11475.96
529.339	11378.1
529.705	11459.68
530.071	11425.56
530.437	11384.21
530.803	11346.92
531.169	11388.73
531.535	11310.76
531.901	11299.91
532.267	11251.78
532.632	11268.05
532.998	11233.7
533.364	11177.66
533.73	11103.99
534.095	11193.48
534.461	11066.25
534.826	11132.46
535.192	11066.02
535.557	11033.48
535.923	10999.81
536.288	10889.3
536.653	10864.22
537.019	10848.63
537.384	10822.64
537.749	10744
538.114	10724.11
538.479	10673.04
538.845	10693.83
539.21	10552.36
539.575	10535.19
539.94	10494.74
540.305	10424.23
540.67	10413.16
541.034	10316.89
541.399	10285.48
541.764	10330.22
542.129	10234.86
542.494	10219.72
542.858	10153.05
543.223	10054.07
543.587	10059.72
543.952	9965.71
544.316	9881.42
544.681	9851.37
545.045	9784.02
545.41	9883.45
545.774	9822.67
546.138	9670.58
546.503	9608.43
546.867	9557.36
547.231	9592.16
547.595	9535.22
547.959	9451.38
548.324	9387.2
548.688	9298.39
549.052	9358.27
549.416	9250.48
549.779	9186.07
550.143	9170.71
550.507	9097.03
550.871	9137.49
551.235	9037.6
551.599	9019.07
551.962	9021.56
552.326	8938.17
552.689	8953.99
553.053	8875.8
553.417	8825.86
553.78	8805.52
554.143	8722.58
554.507	8721
554.87	8701.34
555.234	8660.44
555.597	8567.11
555.96	8576.82
556.323	8591.29
556.686	8584.73
557.05	8499.76
557.413	8467.9
557.776	8450.27
558.139	8475.81
558.502	8427.22
558.865	8414.11
559.228	8389.71
559.59	8322.37
559.953	8330.95
560.316	8343.83
560.679	8313.55
561.041	8341.8
561.404	8271.29
561.767	8299.77
562.129	8226.32
562.492	8282.82
562.854	8190.84
563.217	8228.36
563.579	8204.4
563.941	8208.02
564.304	8205.53
564.666	8151.75
565.028	8183.61
565.39	8177.51
565.753	8186.78
566.115	8139.09
566.477	8154.46
566.839	8168.02
567.201	8170.51
567.563	8150.85
567.925	8106.55
568.287	8172.31
568.648	8100.9
569.01	8127.79
569.372	8142.48
569.734	8078.76
570.095	8130.28
570.457	8151.52
570.819	8061.81
571.18	8090.51
571.542	8184.06
571.903	8110.17
572.265	8072.88
572.626	8156.04
572.987	8097.97
573.349	8097.97
573.71	8090.06
574.071	8071.07
574.432	8077.17
574.794	8121.69
575.155	8097.74
575.516	8044.18
575.877	8110.62
576.238	8116.04
576.599	8107.23
576.96	8020.68
577.32	8125.99
577.681	8074.91
578.042	8102.26
578.403	8105.2
578.763	8118.53
579.124	8025.65
579.485	8043.73
579.845	8088.93
580.206	8064.52
580.566	8042.83
580.927	8115.14
581.287	8086.89
581.648	8064.52
582.008	8071.98
582.368	8020.68
582.728	7978.19
583.089	7995.82
583.449	7938.87
583.809	7994.24
584.169	8022.26
584.529	7931.87
584.889	7955.14
585.249	7958.31
585.609	7949.95
585.969	7956.73
586.329	7923.96
586.688	7908.37
587.048	7907.01
587.408	7862.94
587.768	7848.71
588.127	7801.48
588.487	7847.12
588.846	7891.87
589.206	7804.87
589.565	7846.67
589.925	7890.29
590.284	7859.55
590.643	7847.58
591.003	7739.33
591.362	7873.34
591.721	7863.62
592.08	7807.13
592.44	7808.48
592.799	7801.7
593.158	7786.33
593.517	7748.6
593.876	7727.13
594.235	7703.4
594.593	7727.35
594.952	7754.92
595.311	7723.74
595.67	7671.31
596.029	7747.47
596.387	7761.7
596.746	7701.37
597.104	7654.36
597.463	7646.45
597.822	7675.6
598.18	7614.36
598.538	7606.68
598.897	7728.26
599.255	7613.68
599.613	7705.88
599.972	7606.23
600.33	7619.56
600.688	7631.99
601.046	7619.33
601.404	7645.77
601.762	7636.06
602.12	7674.25
602.478	7620.69
602.836	7638.54
603.194	7599
603.552	7672.67
603.91	7567.58
604.268	7603.06
604.625	7558.09
604.983	7606.23
605.341	7585.89
605.698	7585.89
606.056	7588.37
606.413	7655.94
606.771	7651.65
607.128	7564.42
607.485	7549.96
607.843	7541.14
608.2	7529.39
608.557	7604.64
608.914	7620.69
609.272	7600.8
609.629	7594.93
609.986	7638.09
610.343	7549.5
610.7	7676.06
611.057	7686.9
611.414	7646.9
611.771	7552.89
612.127	7682.16
612.484	7697.3
612.841	7674.25
613.198	7641.03
613.554	7674.7
613.911	7686.45
614.267	7697.07
614.624	7650.75
614.98	7674.02
615.337	7717.64
615.693	7678.32
616.05	7691.87
616.406	7736.39
616.762	7660.46
617.118	7660.01
617.475	7664.76
617.831	7701.37
618.187	7737.07
618.543	7732.55
618.899	7735.49
619.255	7719.9
619.611	7720.35
619.967	7725.77
620.323	7695.49
620.678	7657.98
621.034	7678.99
621.39	7752.21
621.746	7730.52
622.101	7799.22
622.457	7681.7
622.812	7794.92
623.168	7769.61
623.523	7738.2
623.879	7794.47
624.234	7660.24
624.589	7740.23
624.945	7821.14
625.3	7734.81
625.655	7718.99
626.01	7767.35
626.365	7752.21
626.72	7656.17
627.075	7752.21
627.43	7723.29
627.785	7678.32
628.14	7697.07
628.495	7703.4
628.85	7671.54
629.205	7662.04
629.559	7690.07
629.914	7694.36
630.269	7717.86
630.623	7635.38
630.978	7564.42
631.332	7595.38
631.687	7624.31
632.041	7634.7
632.396	7585.21
632.75	7608.94
633.104	7580.92
633.459	7538.43
633.813	7623.85
634.167	7535.95
634.521	7609.84
634.875	7583.4
635.229	7571.43
635.583	7475.16
635.937	7458.43
636.291	7530.3
636.645	7495.04
636.999	7507.47
637.352	7464.54
637.706	7456.4
638.06	7461.37
638.413	7460.24
638.767	7458.66
639.121	7454.37
639.474	7438.77
639.828	7368.27
640.181	7371.88
640.534	7420.92
640.888	7349.96
641.241	7365.55
641.594	7369.85
641.947	7434.25
642.301	7338.66
642.654	7375.5
643.007	7348.38
643.36	7363.97
643.713	7338.44
644.066	7416.85
644.419	7364.43
644.771	7227.71
645.124	7227.71
645.477	7163.07
645.83	7140.25
646.182	7107.48
646.535	7106.8
646.888	7127.82
647.24	7068.61
647.593	7111.78
647.945	7126.92
648.298	7154.49
648.65	7093.92
649.002	7087.37
649.355	7105.45
649.707	7095.73
650.059	7125.11
650.411	7210.53
650.763	7246.46
651.115	7311.09
651.467	7271.32
651.819	7287.36
652.171	7260.47
652.523	7319.23
652.875	7285.11
653.227	7298.21
653.578	7298.66
653.93	7260.47
654.282	7215.5
654.633	7265.67
654.985	7322.39
655.337	7277.65
655.688	7317.42
656.039	7326.01
656.391	7230.42
656.742	7283.3
657.094	7318.1
657.445	7346.8
657.796	7256.18
658.147	7262.96
658.498	7274.71
658.849	7334.37
659.2	7353.8
659.551	7329.85
659.902	7361.71
660.253	7318.32
660.604	7317.87
660.955	7284.2
661.306	7359.68
661.656	7335.73
662.007	7345.44
662.358	7334.14
662.708	7317.87
663.059	7348.38
663.409	7301.38
663.76	7396.97
664.11	7333.92
664.461	7372.33
664.811	7400.36
665.161	7395.38
665.511	7389.28
665.862	7396.06
666.212	7426.12
666.562	7406.01
666.912	7338.66
667.262	7382.05
667.612	7420.69
667.962	7333.92
668.312	7395.84
668.662	7352.9
669.011	7440.13
669.361	7370.98
669.711	7348.38
670.06	7352.9
670.41	7358.78
670.76	7341.15
671.109	7350.64
671.459	7362.17
671.808	7336.4
672.157	7371.2
672.507	7349.28
672.856	7279
673.205	7337.99
673.554	7365.55
673.904	7313.8
674.253	7340.02
674.602	7346.8
674.951	7174.83
675.3	7187.48
675.649	7309.06
675.998	7298.66
676.346	7310.64
676.695	7310.19
677.044	7200.36
677.393	7319.23
677.741	7227.03
678.09	7181.83
678.438	7203.53
678.787	7259.57
679.135	7192.9
679.484	7180.25
679.832	7145.9
680.181	7130.98
680.529	7168.72
680.877	7187.93
681.225	7106.8
681.573	7190.42
681.922	7071.33
682.27	7052.79
682.618	7058.67
682.966	7047.37
683.314	7135.96
683.661	7068.84
684.009	7019.35
684.357	7007.15
684.705	7008.95
685.053	6994.27
685.4	6941.84
685.748	6886.25
686.095	6883.53
686.443	6921.5
686.79	6857.09
687.138	6889.64
687.485	6855.74
687.832	6857.32
688.18	6815.06
688.527	6821.61
688.874	6822.29
689.221	6741.16
689.568	6790.43
689.915	6780.71
690.262	6795.17
690.609	6754.27
690.956	6737.1
691.303	6699.81
691.65	6690.54
691.997	6679.7
692.344	6629.76
692.69	6597.21
693.037	6540.27
693.383	6521.74
693.73	6498.91
694.077	6486.26
694.423	6514.96
694.769	6431.79
695.116	6473.37
695.462	6444.45
695.808	6372.81
696.155	6372.13
696.501	6305.7
696.847	6311.57
697.193	6295.07
697.539	6341.18
697.885	6291.23
698.231	6234.96
698.577	6183.21
698.923	6191.12
699.269	6161.74
699.614	6090.33
699.96	6084.91
700.306	6083.33
700.651	6033.16
700.997	6009.88
701.342	6019.6
701.688	5990.22
702.033	5972.37
702.379	5940.96
702.724	5933.73
703.069	5955.2
703.415	5898.47
703.76	5849.89
704.105	5842.21
704.45	5842.43
704.795	5783.22
705.14	5858.7
705.485	5827.74
705.83	5755.43
706.175	5743.9
706.52	5749.78
706.865	5692.6
707.209	5706.84
707.554	5676.79
707.899	5658.48
708.243	5698.71
708.588	5660.52
708.932	5567.86
709.277	5523.57
709.621	5566.51
709.966	5539.39
710.31	5560.18
710.654	5520.86
710.998	5496
711.342	5526.51
711.687	5480.18
712.031	5488.32
712.375	5479.5
712.719	5501.2
713.063	5445.15
713.407	5438.83
713.75	5400.63
714.094	5443.35
714.438	5422.33
714.782	5430.46
715.125	5376.91
715.469	5404.48
715.812	5378.94
716.156	5349.11
716.499	5316.8
716.843	5342.11
717.186	5282.67
717.53	5339.62
717.873	5345.95
718.216	5298.94
718.559	5293.07
718.902	5208.78
719.246	5284.93
719.589	5269.11
719.932	5250.58
720.275	5263.46
720.617	5251.71
720.96	5256.01
721.303	5276.12
721.646	5230.7
721.989	5206.06
722.331	5222.56
722.674	5219.4
723.016	5211.49
723.359	5212.17
723.701	5178.95
724.044	5152.51
724.386	5160.42
724.729	5209
725.071	5224.59
725.413	5177.14
725.755	5180.53
726.097	5175.1
726.439	5162.67
726.782	5155.22
727.124	5195.44
727.465	5180.75
727.807	5140.08
728.149	5184.37
728.491	5212.17
728.833	5186.4
729.175	5163.13
729.516	5152.73
729.858	5136.91
730.199	5165.61
730.541	5147.99
730.882	5197.7
731.224	5206.06
731.565	5166.74
731.906	5192.96
732.248	5161.77
732.589	5129.23
732.93	5114.09
733.271	5175.56
733.612	5158.16
733.953	5151.6
734.294	5179.62
734.635	5166.97
734.976	5145.27
735.317	5159.96
735.658	5162.22
735.999	5192.05
736.339	5151.83
736.68	5201.77
737.021	5253.52
737.361	5202.9
737.702	5207.87
738.042	5192.5
738.383	5243.12
738.723	5183.92
739.063	5206.97
739.404	5310.47
739.744	5238.83
740.084	5232.05
740.424	5263.92
740.764	5275.67
741.104	5323.8
741.444	5324.25
741.784	5307.98
742.124	5306.4
742.464	5369
742.804	5309.11
743.143	5469.56
743.483	5446.06
743.823	5461.65
744.162	5459.16
744.502	5523.12
744.841	5500.07
745.181	5559.95
745.52	5565.6
745.86	5571.03
746.199	5658.71
746.538	5686.28
746.877	5721.08
747.216	5738.03
747.556	5796.78
747.895	5799.27
748.234	5879.49
748.573	5899.15
748.911	5950
749.25	5992.48
749.589	6049.43
749.928	6126.94
750.267	6227.05
750.605	6311.8
750.944	6373.94
751.283	6429.53
751.621	6485.35
751.96	6547.5
752.298	6657.1
752.636	6725.35
752.975	6790.43
753.313	6892.57
753.651	7029.74
753.989	7113.13
754.327	7175.96
754.666	7294.14
755.004	7421.6
755.342	7601.25
755.679	7693.91
756.017	7817.07
756.355	8000.11
756.693	8108.81
757.031	8236.49
757.368	8359.43
757.706	8463.61
758.044	8622.47
758.381	8844.39
758.719	8980.2
759.056	9134.77
759.394	9267.2
759.731	9407.99
760.068	9630.13
760.405	9719.84
760.743	9922.55
761.08	10139.72
761.417	10237.12
761.754	10490.67
762.091	10630.33
762.428	10787.84
762.765	10907.83
763.102	11129.98
763.438	11277.99
763.775	11487.93
764.112	11620.13
764.449	11865.55
764.785	12021.03
765.122	12116.84
765.458	12281.81
765.795	12513.67
766.131	12606.32
766.467	12816.26
766.804	12917.5
767.14	13140.77
