Data from hue_140_FLMS001491_00075.txt Node
Date: Tue Feb 07 16:56:23 GMT 2017
User: dcchb
Spectrometer: FLMS00149
Trigger mode: 0
Integration Time (sec): 2.000000E-2
Scans to average: 10
Electric dark correction enabled: true
Nonlinearity correction enabled: false
Boxcar width: 0
XAxis mode: Wavelengths
Number of Pixels in Spectrum: 2048
>>>>>Begin Spectral Data<<<<<
341.393	-9.15
341.776	-9.15
342.16	-9.15
342.543	-64.52
342.927	-60.68
343.31	-66.1
343.693	-62.26
344.077	-53.22
344.46	-59.77
344.843	-55.48
345.226	-40.11
345.61	-28.36
345.993	-19.1
346.376	-18.42
346.759	19.77
347.142	36.27
347.525	41.92
347.908	59.09
348.291	69.26
348.674	83.27
349.057	93.22
349.44	127.34
349.823	152.43
350.206	173.67
350.588	194.01
350.971	224.74
351.354	225.87
351.737	238.52
352.119	263.83
352.502	277.62
352.884	273.33
353.267	286.43
353.65	295.47
354.032	293.44
354.414	297.96
354.797	306.77
355.179	322.82
355.562	330.5
355.944	308.35
356.326	334.79
356.709	338.41
357.091	324.17
357.473	321.91
357.855	317.39
358.238	330.73
358.62	325.75
359.002	317.84
359.384	322.14
359.766	353.1
360.148	345.87
360.53	355.36
360.912	345.41
361.294	346.54
361.676	323.95
362.057	339.09
362.439	326.43
362.821	322.82
363.203	319.88
363.584	322.14
363.966	323.49
364.348	301.12
364.729	321.01
365.111	330.95
365.493	331.63
365.874	337.28
366.256	324.62
366.637	312.42
367.019	311.52
367.4	312.2
367.781	298.64
368.163	306.09
368.544	309.94
368.925	305.64
369.306	316.71
369.688	321.91
370.069	334.12
370.45	313.1
370.831	316.04
371.212	309.26
371.593	322.36
371.974	320.1
372.355	299.31
372.736	326.43
373.117	323.27
373.498	307.9
373.879	310.61
374.26	317.62
374.641	303.61
375.021	297.96
375.402	315.81
375.783	322.36
376.163	339.99
376.544	334.79
376.925	339.31
377.305	320.56
377.686	331.4
378.066	345.41
378.447	332.08
378.827	318.52
379.208	344.74
379.588	339.77
379.968	324.17
380.349	316.71
380.729	337.05
381.109	342.93
381.489	332.99
381.87	337.96
382.25	351.52
382.63	349.03
383.01	347.67
383.39	336.6
383.77	349.71
384.15	357.62
384.53	351.97
384.91	360.1
385.29	367.11
385.67	353.32
386.049	367.56
386.429	366.21
386.809	352.19
387.189	359.43
387.568	344.96
387.948	370.05
388.328	353.1
388.707	373.21
389.087	339.31
389.466	351.29
389.846	373.66
390.225	359.65
390.605	356.94
390.984	371.63
391.363	378.86
391.743	399.88
392.122	373.44
392.501	392.19
392.881	377.28
393.26	379.54
393.639	381.35
394.018	381.8
394.397	401.01
394.776	399.42
395.155	388.35
395.534	389.48
395.913	380.44
396.292	401.46
396.671	369.59
397.05	400.1
397.429	366.43
397.808	379.09
398.186	397.16
398.565	410.27
398.944	410.05
399.323	410.5
399.701	401.46
400.08	401.68
400.458	404.85
400.837	403.27
401.215	410.72
401.594	428.12
401.972	400.33
402.351	439.2
402.729	419.99
403.107	435.13
403.486	402.36
403.864	439.42
404.242	427.45
404.62	443.27
404.999	432.42
405.377	411.85
405.755	416.37
406.133	441.01
406.511	445.75
406.889	432.87
407.267	444.85
407.645	444.4
408.023	449.37
408.401	471.96
408.779	466.54
409.156	470.84
409.534	453.21
409.912	458.86
410.29	458.41
410.667	450.5
411.045	453.21
411.422	452.3
411.8	477.84
412.178	482.13
412.555	492.53
412.933	483.26
413.31	484.17
413.687	491.85
414.065	509.48
414.442	501.12
414.819	514.68
415.197	500.89
415.574	488.24
415.951	500.66
416.328	536.6
416.705	524.17
417.082	531.4
417.46	509.93
417.837	518.07
418.214	511.06
418.591	550.16
418.967	538.63
419.344	532.98
419.721	547.44
420.098	556.03
420.475	534.11
420.852	535.47
421.228	573.43
421.605	549.25
421.982	553.32
422.358	545.41
422.735	545.18
423.111	570.95
423.488	584.73
423.864	587.22
424.241	601.45
424.617	591.06
424.994	595.35
425.37	615.92
425.746	589.25
426.123	615.69
426.499	611.4
426.875	606.42
427.251	620.66
427.627	635.12
428.003	609.59
428.379	633.32
428.756	648.23
429.132	645.97
429.507	636.03
429.883	650.94
430.259	659.98
430.635	653.88
431.011	678.74
431.387	649.81
431.763	656.14
432.138	702.24
432.514	663.15
432.89	676.93
433.265	700.43
433.641	704.95
434.016	707.67
434.392	722.13
434.767	723.03
435.143	713.09
435.518	766.87
435.894	760.77
436.269	749.25
436.644	737.95
437.02	770.04
437.395	748.12
437.77	773.2
438.145	793.99
438.52	757.38
438.895	781.56
439.271	791.5
439.646	780.66
440.021	812.52
440.395	810.26
440.77	821.33
441.145	802.13
441.52	844.61
441.895	839.86
442.27	844.16
442.645	847.77
443.019	856.81
443.394	846.87
443.769	861.33
444.143	874.21
444.518	869.92
444.892	858.62
445.267	900.88
445.641	898.62
446.016	892.07
446.39	895.23
446.764	883.25
447.139	919.86
447.513	898.17
447.887	927.09
448.262	927.55
448.636	916.7
449.01	924.61
449.384	958.05
449.758	930.94
450.132	952.18
450.506	975.23
450.88	953.08
451.254	960.54
451.628	983.36
452.002	971.61
452.376	1033.31
452.75	1011.39
453.123	999.18
453.497	1052.51
453.871	1060.88
454.244	1056.58
454.618	1063.59
454.992	1070.14
455.365	1090.71
455.739	1090.25
456.112	1082.8
456.486	1098.16
456.859	1142
457.232	1123.25
457.606	1146.75
457.979	1160.31
458.352	1194.88
458.725	1187.2
459.099	1207.09
459.472	1225.39
459.845	1240.08
460.218	1242.34
460.591	1256.35
460.964	1270.81
461.337	1293.41
461.71	1324.37
462.083	1339.74
462.456	1320.53
462.829	1342.9
463.201	1374.99
463.574	1360.98
463.947	1410.47
464.32	1407.76
464.692	1437.36
465.065	1425.61
465.438	1490.7
465.81	1506.51
466.183	1525.95
466.555	1560.75
466.928	1572.05
467.3	1581.99
467.672	1596.46
468.045	1618.83
468.417	1655.44
468.789	1659.28
469.161	1678.03
469.534	1729.56
469.906	1759.61
470.278	1772.27
470.65	1855.21
471.022	1868.31
471.394	1908.54
471.766	1925.03
472.138	1969.78
472.51	2015.43
472.882	2005.26
473.253	2090
473.625	2123
473.997	2181.98
474.369	2188.3
474.74	2234.4
475.112	2287.28
475.484	2362.31
475.855	2388.07
476.227	2432.59
476.598	2510.78
476.97	2565.24
477.341	2647.95
477.713	2694.96
478.084	2716.2
478.455	2809.08
478.827	2928.62
479.198	3001.62
479.569	3025.57
479.94	3165.23
480.311	3223.53
480.682	3339.69
481.053	3367.71
481.424	3535.16
481.795	3555.95
482.166	3708.26
482.537	3729.73
482.908	3870.29
483.279	3915.72
483.65	4064.41
484.021	4193.22
484.391	4308.7
484.762	4366.1
485.133	4422.37
485.503	4530.62
485.874	4750.27
486.244	4808.8
486.615	4982.58
486.985	5090.83
487.356	5222.57
487.726	5324.04
488.097	5496.01
488.467	5537.37
488.837	5713.64
489.207	5912.5
489.578	5999.5
489.948	6150.01
490.318	6275.2
490.688	6386.84
491.058	6544.12
491.428	6656.89
491.798	6836.54
492.168	7011.45
492.538	7031.79
492.908	7227.49
493.278	7401.73
493.648	7452.8
494.017	7622.74
494.387	7751.1
494.757	7862.73
495.126	8027.02
495.496	8135.04
495.866	8240.35
496.235	8407.12
496.605	8464.07
496.974	8650.06
497.344	8756.49
497.713	8879.43
498.082	9021.34
498.452	9155.13
498.821	9233.54
499.19	9239.42
499.559	9487.32
499.928	9542.23
500.298	9672.4
500.667	9738.16
501.036	9794.43
501.405	9987.65
501.774	10014.31
502.143	10171.6
502.512	10266.74
502.88	10370.69
503.249	10409.78
503.618	10541.76
503.987	10605.94
504.356	10656.33
504.724	10721.86
505.093	10827.85
505.462	10901.75
505.83	10955.53
506.199	11051.12
506.567	11174.73
506.936	11159.59
507.304	11316.88
507.672	11440.49
508.041	11470.32
508.409	11543.09
508.777	11650.65
509.145	11715.74
509.514	11780.59
509.882	11807.94
510.25	11856.52
510.618	11938.78
510.986	11956.86
511.354	12128.38
511.722	12115.05
512.09	12279.56
512.458	12271.43
512.826	12388.94
513.193	12459.67
513.561	12424.42
513.929	12548.26
514.297	12588.93
514.664	12645.88
515.032	12637.97
515.4	12797.29
515.767	12728.14
516.135	12889.27
516.502	12809.27
516.869	12959.55
517.237	12989.38
517.604	12901.02
517.972	13013.33
518.339	13033.44
518.706	13058.07
519.073	13042.93
519.44	13080.9
519.808	13181.91
520.175	13196.83
520.542	13282.48
520.909	13318.86
521.276	13298.75
521.643	13472.3
522.009	13474.11
522.376	13508.23
522.743	13572.86
523.11	13552.75
523.477	13628
523.843	13639.75
524.21	13771.73
524.577	13852.86
524.943	13841.33
525.31	13849.24
525.676	13875.23
526.043	13949.35
526.409	13943.25
526.776	14079.29
527.142	13974.89
527.508	14035.68
527.874	14005.85
528.241	14080.65
528.607	14137.82
528.973	14114.32
529.339	14059.4
529.705	14081.32
530.071	14125.39
530.437	14145.73
530.803	14168.33
531.169	14239.96
531.535	14186.63
531.901	14167.65
532.267	14154.32
532.632	14142.57
532.998	14126.52
533.364	14194.54
533.73	14160.19
534.095	14161.32
534.461	14192.96
534.826	14191.83
535.192	14245.16
535.557	14219.85
535.923	14099.63
536.288	14085.84
536.653	14162.23
537.019	14077.26
537.384	14006.75
537.749	14073.64
538.114	13994.77
538.479	13966.98
538.845	13918.39
539.21	14013.76
539.575	13940.54
539.94	13928.79
540.305	13931.5
540.67	13823.48
541.034	13824.61
541.399	13786.64
541.764	13781.67
542.129	13790.71
542.494	13818.51
542.858	13723.82
543.223	13759.3
543.587	13724.95
543.952	13668.23
544.316	13638.62
544.681	13573.09
545.045	13634.1
545.41	13575.58
545.774	13506.42
546.138	13484.96
546.503	13396.6
546.867	13470.04
547.231	13443.15
547.595	13468.23
547.959	13366.32
548.324	13373.09
548.688	13305.75
549.052	13314.57
549.416	13239.99
549.779	13209.71
550.143	13304.85
550.507	13211.97
550.871	13200.9
551.235	13136.04
551.599	13151.63
551.962	13200.44
552.326	13139.43
552.689	13100.56
553.053	12950.73
553.417	13061.46
553.78	13070.96
554.143	12988.47
554.507	13017.4
554.87	12966.1
555.234	13065.98
555.597	12971.52
555.96	12868.48
556.323	12913.9
556.686	12929.04
557.05	12926.78
557.413	12895.59
557.776	12840.45
558.139	12971.98
558.502	12908.93
558.865	12919.1
559.228	12974.24
559.59	12927.68
559.953	12959.55
560.316	12976.04
560.679	12936.5
561.041	12988.25
561.404	12983.73
561.767	13024.4
562.129	12962.48
562.492	13037.06
562.854	13017.4
563.217	12952.54
563.579	12938.53
563.941	13022.82
564.304	13082.71
564.666	13043.16
565.028	13062.14
565.39	13069.6
565.753	13087.9
566.115	13173.78
566.477	13132.88
566.839	13121.8
567.201	13138.07
567.563	13176.72
567.925	13202.93
568.287	13201.35
568.648	13161.35
569.01	13138.75
569.372	13320.21
569.734	13188.92
570.095	13302.59
570.457	13262.36
570.819	13342.14
571.18	13302.14
571.542	13370.38
571.903	13334.68
572.265	13398.4
572.626	13347.56
572.987	13435.01
573.349	13368.12
573.71	13458.97
574.071	13440.89
574.432	13449.48
574.794	13486.99
575.155	13502.36
575.516	13402.02
575.877	13499.87
576.238	13442.7
576.599	13486.09
576.96	13458.97
577.32	13460.78
577.681	13564.73
578.042	13453.77
578.403	13554.78
578.763	13598.63
579.124	13544.39
579.485	13511.85
579.845	13548.68
580.206	13572.86
580.566	13560.43
580.927	13534.45
581.287	13605.4
581.648	13564.05
582.008	13558.85
582.368	13523.15
582.728	13508.23
583.089	13561.11
583.449	13518.18
583.809	13528.34
584.169	13515.46
584.529	13510.94
584.889	13535.12
585.249	13558.85
585.609	13431.85
585.969	13505.75
586.329	13505.07
586.688	13540.32
587.048	13420.33
587.408	13455.8
587.768	13425.3
588.127	13380.33
588.487	13422.13
588.846	13561.79
589.206	13358.18
589.565	13325.64
589.925	13486.54
590.284	13352.3
590.643	13418.07
591.003	13434.11
591.362	13393.43
591.721	13433.88
592.08	13399.76
592.44	13417.84
592.799	13383.04
593.158	13312.53
593.517	13326.09
593.876	13330.61
594.235	13295.81
594.593	13341.91
594.952	13219.88
595.311	13222.14
595.67	13249.93
596.029	13315.92
596.387	13287.45
596.746	13372.64
597.104	13345.98
597.463	13298.29
597.822	13303.72
598.18	13215.81
598.538	13323.15
598.897	13385.75
599.255	13184.17
599.613	13370.38
599.972	13323.38
600.33	13345.52
600.688	13334.45
601.046	13298.97
601.404	13399.31
601.762	13322.93
602.12	13361.8
602.478	13418.74
602.836	13352.76
603.194	13315.7
603.552	13340.78
603.91	13274.34
604.268	13301.91
604.625	13257.17
604.983	13361.57
605.341	13158.41
605.698	13323.6
606.056	13375.81
606.413	13345.52
606.771	13416.26
607.128	13375.81
607.485	13270.72
607.843	13298.07
608.2	13402.02
608.557	13376.03
608.914	13365.41
609.272	13430.95
609.629	13423.49
609.986	13483.37
610.343	13432.3
610.7	13510.94
611.057	13479.31
611.414	13467.33
611.771	13496.26
612.127	13489.48
612.484	13470.72
612.841	13515.46
613.198	13464.17
613.554	13505.07
613.911	13541.9
614.267	13578.29
614.624	13567.89
614.98	13562.02
615.337	13591.62
615.693	13604.28
616.05	13540.32
616.406	13763.59
616.762	13634.78
617.118	13654.22
617.475	13651.51
617.831	13637.95
618.187	13596.37
618.543	13655.35
618.899	13721.56
619.255	13745.74
619.611	13691.05
619.967	13630.49
620.323	13781.45
620.678	13732.63
621.034	13593.65
621.39	13683.6
621.746	13691.05
622.101	13751.62
622.457	13693.99
622.812	13750.71
623.168	13723.14
623.523	13780.99
623.879	13785.29
624.234	13708.23
624.589	13786.87
624.945	13741.45
625.3	13768.11
625.655	13698.51
626.01	13632.52
626.365	13644.5
626.72	13724.27
627.075	13713.2
627.43	13665.52
627.785	13752.07
628.14	13600.43
628.495	13704.84
628.85	13720.88
629.205	13646.31
629.559	13769.47
629.914	13663.93
630.269	13694.89
630.623	13636.14
630.978	13576.03
631.332	13659.41
631.687	13691.5
632.041	13544.39
632.396	13661
632.75	13540.77
633.104	13566.76
633.459	13494
633.813	13512.3
634.167	13436.6
634.521	13443.15
634.875	13482.24
635.229	13478.18
635.583	13336.71
635.937	13367.9
636.291	13372.19
636.645	13361.8
636.999	13349.37
637.352	13289.03
637.706	13257.84
638.06	13232.31
638.413	13278.18
638.767	13287.9
639.121	13296.94
639.474	13236.83
639.828	13214.91
640.181	13213.32
640.534	13240.44
640.888	13235.92
641.241	13104.4
641.594	13198.64
641.947	13196.83
642.301	13226.43
642.654	13159.99
643.007	13206.77
643.36	13135.13
643.713	13073.89
644.066	13139.65
644.419	13090.39
644.771	13033.67
645.124	12903.95
645.477	12895.82
645.83	12806.33
646.182	12753
646.535	12711.64
646.888	12732.21
647.24	12708.03
647.593	12723.39
647.945	12707.8
648.298	12767.46
648.65	12686.79
649.002	12630.06
649.355	12727.91
649.707	12663.28
650.059	12748.48
650.411	12868.93
650.763	12854.69
651.115	13050.84
651.467	12985.08
651.819	12976.95
652.171	12965.42
652.523	12912.09
652.875	12930.39
653.227	12939.89
653.578	12928.81
653.93	13012.43
654.282	12873.9
654.633	12907.57
654.985	12926.78
655.337	12932.43
655.688	12933.78
656.039	12979.21
656.391	12823.96
656.742	12869.61
657.094	12862.6
657.445	13029.6
657.796	12931.07
658.147	12936.5
658.498	12926.78
658.849	12925.2
659.2	12936.5
659.551	12903.73
659.902	12952.31
660.253	12931.75
660.604	12922.94
660.955	12899.66
661.306	12975.82
661.656	12927.68
662.007	12994.8
662.358	12951.41
662.708	13023.5
663.059	12905.08
663.409	12887.23
663.76	12986.66
664.11	13009.71
664.461	12992.54
664.811	12961.81
665.161	12965.87
665.511	12933.78
665.862	13003.61
666.212	13061.92
666.562	12995.25
666.912	12961.35
667.262	12979.88
667.612	12907.57
667.962	12995.03
668.312	12959.77
668.662	12952.09
669.011	12903.73
669.361	12807.91
669.711	12952.09
670.06	12912.09
670.41	12915.25
670.76	12851.75
671.109	12884.97
671.459	12937.17
671.808	12919.55
672.157	12912.99
672.507	12783.73
672.856	12820.79
673.205	12795.03
673.554	12890.17
673.904	12807.91
674.253	12923.39
674.602	12783.51
674.951	12629.39
675.3	12678.42
675.649	12727.91
675.998	12822.83
676.346	12709.38
676.695	12727.24
677.044	12806.33
677.393	12748.48
677.741	12794.35
678.09	12750.96
678.438	12674.36
678.787	12708.71
679.135	12692.21
679.484	12686.56
679.832	12619.22
680.181	12663.28
680.529	12628.48
680.877	12564.53
681.225	12557.52
681.573	12661.93
681.922	12504.42
682.27	12364.31
682.618	12494.47
682.966	12428.94
683.314	12497.19
683.661	12425.77
684.009	12369.51
684.357	12365.89
684.705	12264.2
685.053	12270.07
685.4	12249.28
685.748	12181.04
686.095	12202.5
686.443	12134.94
686.79	12170.41
687.138	12114.82
687.485	12190.3
687.832	12048.84
688.18	12112.34
688.527	12004.54
688.874	12045.67
689.221	11930.42
689.568	11971.1
689.915	11903.08
690.262	11966.8
690.609	11826.47
690.956	11811.55
691.303	11815.62
691.65	11768.84
691.997	11756.64
692.344	11673.03
692.69	11704.89
693.037	11671.9
693.383	11563.42
693.73	11555.97
694.077	11511
694.423	11514.39
694.769	11466.25
695.116	11379.7
695.462	11374.96
695.808	11362.98
696.155	11313.49
696.501	11317.56
696.847	11267.16
697.193	11148.52
697.539	11172.7
697.885	11065.13
698.231	11059.94
698.577	11048.41
698.923	11021.29
699.269	10982.42
699.614	10878.02
699.96	10892.93
700.306	10840.05
700.651	10813.39
700.997	10756.44
701.342	10766.38
701.688	10650.45
702.033	10638.48
702.379	10607.29
702.724	10621.3
703.069	10666.5
703.415	10465.83
703.76	10453.17
704.105	10474.64
704.45	10479.61
704.795	10357.58
705.14	10371.82
705.485	10344.93
705.83	10297.02
706.175	10262.22
706.52	10264.93
706.865	10246.62
707.209	10131.6
707.554	10170.47
707.899	10083.69
708.243	10073.29
708.588	10064.71
708.932	9968.44
709.277	9983.13
709.621	9979.29
709.966	9881.66
710.31	9984.48
710.654	9955.78
710.998	9901.1
711.342	9917.82
711.687	9839.85
712.031	9787.43
712.375	9832.62
712.719	9760.31
713.063	9766.41
713.407	9817.03
713.75	9746.75
714.094	9729.8
714.438	9686.19
714.782	9685.06
715.125	9644.38
715.469	9606.64
715.812	9624.49
716.156	9487.1
716.499	9483.03
716.843	9532.52
717.186	9452.75
717.53	9506.98
717.873	9532.29
718.216	9492.07
718.559	9493.42
718.902	9397.83
719.246	9405.97
719.589	9408.68
719.932	9362.13
720.275	9393.99
720.617	9363.03
720.96	9332.3
721.303	9300.43
721.646	9389.02
721.989	9318.74
722.331	9317.38
722.674	9264.73
723.016	9227.67
723.359	9267.44
723.701	9270.6
724.044	9255.46
724.386	9217.5
724.729	9204.16
725.071	9208.68
725.413	9151.06
725.755	9205.52
726.097	9231.28
726.439	9140.21
726.782	9146.54
727.124	9208.01
727.465	9132.75
727.807	9132.98
728.149	9125.07
728.491	9182.92
728.833	9109.7
729.175	9066.09
729.516	9123.26
729.858	9058.86
730.199	9143.15
730.541	9086.88
730.882	9061.57
731.224	9081.23
731.565	9010.95
731.906	9090.5
732.248	9037.84
732.589	9104.05
732.93	9011.63
733.271	9023.38
733.612	9093.89
733.953	9076.26
734.294	8979.31
734.635	9033.55
734.976	9099.53
735.317	8950.61
735.658	9035.81
735.999	9081.68
736.339	9069.71
736.68	9093.21
737.021	9080.33
737.361	9007.33
737.702	9083.26
738.042	9038.07
738.383	9084.85
738.723	9055.02
739.063	9062.25
739.404	9119.65
739.744	9066.32
740.084	9092.53
740.424	9166.43
740.764	9121
741.104	9165.97
741.444	9146.31
741.784	9162.36
742.124	9215.69
742.464	9160.55
742.804	9125.3
743.143	9209.14
743.483	9258.63
743.823	9188.12
744.162	9300.89
744.502	9324.84
744.841	9325.29
745.181	9353.31
745.52	9428.11
745.86	9369.81
746.199	9379.3
746.538	9475.57
746.877	9488.9
747.216	9508.79
747.556	9587.43
747.895	9652.74
748.234	9611.39
748.573	9647.77
748.911	9756.24
749.25	9867.88
749.589	9848.67
749.928	9916.24
750.267	9997.82
750.605	10050.02
750.944	10134.31
751.283	10202.56
751.621	10360.29
751.96	10348.32
752.298	10421.53
752.636	10532.04
752.975	10554.41
753.313	10642.55
753.651	10855.87
753.989	10922.54
754.327	11000.95
754.666	11060.16
755.004	11196.2
755.342	11387.84
755.679	11510.09
756.017	11555.06
756.355	11675.06
756.693	11780.14
757.031	12003.87
757.368	12104.43
757.706	12343.29
758.044	12399.33
758.381	12510.52
758.719	12574.92
