Data from hue_120_FLMS001491_00038.txt Node
Date: Tue Feb 07 16:59:17 GMT 2017
User: dcchb
Spectrometer: FLMS00149
Trigger mode: 0
Integration Time (sec): 2.000000E-2
Scans to average: 10
Electric dark correction enabled: true
Nonlinearity correction enabled: false
Boxcar width: 0
XAxis mode: Wavelengths
Number of Pixels in Spectrum: 2048
>>>>>Begin Spectral Data<<<<<
341.393	-4.49
341.776	-4.49
342.16	-4.49
342.543	-63.47
342.927	-51.95
343.31	-82.23
343.693	-69.57
344.077	-75
344.46	-52.63
344.843	-53.98
345.226	-42
345.61	-26.64
345.993	-19.41
346.376	-20.99
346.759	2.74
347.142	9.52
347.525	55.39
347.908	54.26
348.291	84.32
348.674	110.53
349.057	125.67
349.44	121.61
349.823	142.62
350.206	170.65
350.588	199.57
350.971	212.68
351.354	222.62
351.737	229.85
352.119	266.01
352.502	249.97
352.884	275.05
353.267	294.48
353.65	312.34
354.032	314.82
354.414	305.78
354.797	307.59
355.179	357.08
355.562	314.6
355.944	330.42
356.326	337.19
356.709	320.25
357.091	342.17
357.473	324.99
357.855	342.39
358.238	351.21
358.62	342.39
359.002	344.2
359.384	317.31
359.766	354.82
360.148	351.21
360.53	362.96
360.912	354.14
361.294	355.27
361.676	343.97
362.057	330.87
362.439	341.71
362.821	338.55
363.203	347.36
363.584	325.67
363.966	322.05
364.348	352.34
364.729	320.92
365.111	301.26
365.493	324.99
365.874	324.99
366.256	326.35
366.637	329.96
367.019	334.26
367.4	296.52
367.781	338.1
368.163	327.93
368.544	354.6
368.925	328.61
369.306	321.15
369.688	301.94
370.069	308.72
370.45	320.7
370.831	317.76
371.212	303.3
371.593	317.08
371.974	339.23
372.355	307.59
372.736	324.54
373.117	323.41
373.498	353.92
373.879	299
374.26	315.05
374.641	311.21
375.021	306.91
375.402	338.32
375.783	325.9
376.163	308.27
376.544	320.02
376.925	321.15
377.305	341.26
377.686	344.88
378.066	339.68
378.447	362.5
378.827	357.53
379.208	338.55
379.588	358.44
379.968	331.77
380.349	359.11
380.729	342.39
381.109	369.06
381.489	355.27
381.87	355.5
382.25	364.99
382.63	338.78
383.01	352.79
383.39	360.02
383.77	350.08
384.15	362.73
384.53	392.33
384.91	352.34
385.29	374.48
385.67	362.96
386.049	373.8
386.429	357.53
386.809	364.76
387.189	371.54
387.568	384.42
387.948	368.38
388.328	374.71
388.707	369.96
389.087	381.71
389.466	369.06
389.846	371.77
390.225	389.17
390.605	365.67
390.984	396.18
391.363	382.84
391.743	379.68
392.122	414.48
392.501	397.31
392.881	395.27
393.26	395.05
393.639	397.76
394.018	390.98
394.397	414.71
394.776	397.53
395.155	384.65
395.534	389.62
395.913	398.89
396.292	389.17
396.671	418.55
397.05	419.45
397.429	380.36
397.808	393.92
398.186	404.09
398.565	413.8
398.944	431.88
399.323	414.93
399.701	410.41
400.08	413.58
400.458	431.43
400.837	422.62
401.215	429.62
401.594	415.84
401.972	403.63
402.351	434.59
402.729	444.08
403.107	424.65
403.486	437.08
403.864	430.98
404.242	452.9
404.62	417.64
404.999	457.87
405.377	437.3
405.755	462.16
406.133	445.89
406.511	438.43
406.889	456.06
407.267	463.74
407.645	459.68
408.023	460.81
408.401	461.26
408.779	482.05
409.156	468.72
409.534	479.34
409.912	480.24
410.29	489.05
410.667	500.81
411.045	484.31
411.422	501.48
411.8	495.16
412.178	519.79
412.555	487.93
412.933	502.61
413.31	516.85
413.687	497.87
414.065	492.44
414.442	524.08
414.819	530.86
415.197	527.25
415.574	527.7
415.951	530.64
416.328	520.01
416.705	533.57
417.082	553.91
417.46	548.94
417.837	541.48
418.214	565.89
418.591	562.27
418.967	552.1
419.344	570.41
419.721	553.91
420.098	554.82
420.475	576.51
420.852	572.22
421.228	577.41
421.605	571.99
421.982	564.08
422.358	576.51
422.735	579
423.111	611.09
423.488	605.66
423.864	600.69
424.241	619.9
424.617	621.93
424.994	627.36
425.37	640.24
425.746	597.07
426.123	622.16
426.499	642.05
426.875	630.75
427.251	642.05
427.627	657.19
428.003	662.84
428.379	648.15
428.756	684.53
429.132	664.19
429.507	681.14
429.883	666.68
430.259	701.03
430.635	696.51
431.011	698.99
431.387	719.56
431.763	710.29
432.138	706.9
432.514	739.67
432.89	756.17
433.265	754.81
433.641	767.01
434.016	742.16
434.392	760.91
434.767	779.22
435.143	775.38
435.518	775.6
435.894	783.96
436.269	804.98
436.644	781.7
437.02	807.01
437.395	822.15
437.77	813.57
438.145	830.97
438.52	828.71
438.895	850.18
439.271	818.76
439.646	873.68
440.021	858.54
440.395	841.81
440.77	870.29
441.145	861.25
441.52	895.82
441.895	884.75
442.27	892.21
442.645	890.17
443.019	907.12
443.394	879.78
443.769	913.68
444.143	885.2
444.518	914.13
444.892	937.63
445.267	928.82
445.641	934.24
446.016	942.15
446.39	948.25
446.764	951.19
447.139	955.48
447.513	984.41
447.887	962.49
448.262	997.29
448.636	983.51
449.01	1014.01
449.384	979.44
449.758	1014.92
450.132	999.78
450.506	1032.09
450.88	1028.93
451.254	1032.09
451.628	1041.13
452.002	1037.74
452.376	1072.77
452.75	1075.25
453.123	1070.28
453.497	1095.37
453.871	1125.65
454.244	1117.74
454.618	1115.48
454.992	1169.94
455.365	1130.17
455.739	1155.25
456.112	1182.82
456.486	1186.66
456.859	1181.01
457.232	1218.98
457.606	1221.92
457.979	1235.93
458.352	1272.99
458.725	1301.46
459.099	1267.34
459.472	1305.53
459.845	1305.3
460.218	1345.3
460.591	1356.38
460.964	1354.79
461.337	1396.15
461.71	1419.65
462.083	1434.79
462.456	1432.76
462.829	1430.73
463.201	1462.14
463.574	1477.28
463.947	1468.92
464.32	1522.93
464.692	1540.33
465.065	1531.29
465.438	1595.92
465.81	1581.91
466.183	1621.91
466.555	1643.15
466.928	1684.96
467.3	1682.92
467.672	1700.32
468.045	1755.24
468.417	1763.82
468.789	1771.96
469.161	1811.28
469.534	1837.95
469.906	1893.76
470.278	1914.55
470.65	1940.77
471.022	1967.66
471.394	2040.88
471.766	2074.32
472.138	2088.33
472.51	2163.36
472.882	2197.26
473.253	2232.29
473.625	2218.95
473.997	2319.52
474.369	2335.11
474.74	2412.85
475.112	2451.04
475.484	2514.31
475.855	2566.06
476.227	2609.9
476.598	2711.37
476.97	2739.62
477.341	2806.28
477.713	2874.08
478.084	2918.14
478.455	3050.12
478.827	3044.24
479.198	3227.29
479.569	3206.95
479.94	3379.15
480.311	3394.74
480.682	3499.15
481.053	3592.25
481.424	3733.94
481.795	3803.77
482.166	3906.14
482.537	3996.53
482.908	4130.54
483.279	4185.68
483.65	4338.22
484.021	4463.19
484.391	4556.07
484.762	4649.85
485.133	4753.35
485.503	4916.28
485.874	5002.83
486.244	5107.24
486.615	5329.38
486.985	5402.15
487.356	5525.31
487.726	5615.7
488.097	5803.27
488.467	5883.04
488.837	6099.98
489.207	6210.26
489.578	6423.14
489.948	6522.34
490.318	6603.92
490.688	6720.3
491.058	6886.17
491.428	7031.93
491.798	7197.58
492.168	7431.7
492.538	7482.09
492.908	7665.14
493.278	7780.16
493.648	7880.95
494.017	8082.53
494.387	8193.26
494.757	8271
495.126	8480.48
495.496	8605.45
495.866	8752.57
496.235	8876.86
496.605	8964.54
496.974	9105.55
497.344	9324.3
497.713	9361.14
498.082	9526.78
498.452	9622.83
498.821	9741.47
499.19	9781.92
499.559	9974
499.928	10059.42
500.298	10122.25
500.667	10374.44
501.036	10351.17
501.405	10514.55
501.774	10620.99
502.143	10673.87
502.512	10673.65
502.88	10826.41
503.249	10964.94
503.618	10997.71
503.987	11129
504.356	11247.64
504.724	11289.9
505.093	11361.99
505.462	11407.19
505.83	11558.82
506.199	11597.46
506.567	11816.44
506.936	11865.25
507.304	11975.53
507.672	12071.58
508.041	12106.15
508.409	12162.42
508.777	12286.26
509.145	12374.62
509.514	12354.51
509.882	12426.59
510.25	12509.53
510.618	12616.19
510.986	12591.56
511.354	12701.16
511.722	12863.87
512.09	12879.46
512.458	13030.42
512.826	13109.06
513.193	13121.72
513.561	13105.67
513.929	13225.9
514.297	13316.74
514.664	13378.89
515.032	13388.15
515.4	13470.63
515.767	13542.5
516.135	13525.1
516.502	13423.63
516.869	13635.83
517.237	13702.72
517.604	13503.4
517.972	13714.7
518.339	13767.12
518.706	13866.33
519.073	13780.46
519.44	13940.9
519.808	13969.83
520.175	13952.2
520.542	14054.12
520.909	14237.62
521.276	14076.95
521.643	14215.02
522.009	14280.56
522.376	14315.81
522.743	14311.74
523.11	14407.33
523.477	14451.85
523.843	14484.62
524.21	14574.56
524.577	14668.57
524.943	14621.79
525.31	14676.25
525.676	14756.48
526.043	14736.14
526.409	14809.81
526.776	14891.39
527.142	14871.28
527.508	14906.08
527.874	15034.21
528.241	15038.73
528.607	14928.22
528.973	15058.39
529.339	14986.3
529.705	15026.07
530.071	15054.1
530.437	15173.19
530.803	15124.6
531.169	15232.85
531.535	15088.45
531.901	15078.73
532.267	15130.48
532.632	15185.84
532.998	15104.49
533.364	15184.26
533.73	15156.92
534.095	15146.75
534.461	15153.3
534.826	15144.26
535.192	15100.2
535.557	15148.56
535.923	15063.14
536.288	15086.41
536.653	15025.62
537.019	15031.72
537.384	15051.38
537.749	15022.68
538.114	14984.72
538.479	14873.08
538.845	15025.62
539.21	14829.69
539.575	14865.85
539.94	14887.09
540.305	14850.49
540.67	14747.89
541.034	14823.14
541.399	14773.43
541.764	14821.33
542.129	14810.71
542.494	14729.81
542.858	14711.96
543.223	14702.47
543.587	14745.18
543.952	14639.87
544.316	14615.46
544.681	14561
545.045	14660.21
545.41	14658.4
545.774	14561.23
546.138	14517.16
546.503	14462.25
546.867	14413.89
547.231	14514.45
547.595	14385.19
547.959	14409.82
548.324	14333.66
548.688	14381.12
549.052	14371.85
549.416	14337.05
549.779	14304.06
550.143	14182.48
550.507	14243.04
550.871	14185.42
551.235	14176.6
551.599	14227.9
551.962	14200.56
552.326	14113.33
552.689	14128.7
553.053	14036.27
553.417	14043.5
553.78	14062.26
554.143	14012.54
554.507	14028.59
554.87	13973.9
555.234	14153.33
555.597	13921.24
555.96	13973.45
556.323	13991.98
556.686	13952.2
557.05	13943.16
557.413	13933.45
557.776	13893.67
558.139	13992.88
558.502	13930.96
558.865	13878.31
559.228	13954.92
559.59	13934.8
559.953	13907.69
560.316	14003.28
560.679	13918.08
561.041	14063.61
561.404	13954.69
561.767	13966.67
562.129	13994.91
562.492	13949.04
562.854	14017.06
563.217	14006.21
563.579	13962.82
563.941	14034.01
564.304	14076.95
564.666	14157.62
565.028	14195.36
565.39	14060
565.753	14191.52
566.115	14182.71
566.477	14221.8
566.839	14218.86
567.201	14259.99
567.563	14175.25
567.925	14339.09
568.287	14297.96
568.648	14240.56
569.01	14287.11
569.372	14384.06
569.734	14243.04
570.095	14370.72
570.457	14242.14
570.819	14314
571.18	14371.63
571.542	14506.54
571.903	14426.54
572.265	14384.51
572.626	14471.06
572.987	14490.95
573.349	14422.93
573.71	14550.15
574.071	14530.27
574.432	14593.09
574.794	14631.73
575.155	14587.67
575.516	14519.42
575.877	14532.08
576.238	14576.37
576.599	14682.81
576.96	14603.94
577.32	14572.07
577.681	14583.37
578.042	14603.49
578.403	14620.66
578.763	14657.27
579.124	14551.06
579.485	14722.8
579.845	14684.39
580.206	14676.93
580.566	14605.97
580.927	14708.57
581.287	14688.91
581.648	14647.78
582.008	14663.6
582.368	14590.61
582.728	14699.08
583.089	14655.01
583.449	14626.08
583.809	14649.36
584.169	14641.9
584.529	14578.85
584.889	14752.18
585.249	14674.22
585.609	14566.42
585.969	14645.97
586.329	14621.79
586.688	14542.7
587.048	14505.41
587.408	14602.58
587.768	14474.68
588.127	14563.49
588.487	14492.98
588.846	14643.49
589.206	14514.22
589.565	14469.03
589.925	14557.16
590.284	14443.26
590.643	14585.63
591.003	14566.88
591.362	14544.96
591.721	14518.06
592.08	14365.3
592.44	14484.85
592.799	14464.51
593.158	14532.3
593.517	14441.46
593.876	14497.27
594.235	14443.94
594.593	14342.48
594.952	14497.27
595.311	14355.13
595.67	14359.2
596.029	14430.16
596.387	14422.47
596.746	14444.62
597.104	14374.79
597.463	14354.91
597.822	14369.37
598.18	14393.32
598.538	14311.06
598.897	14340.22
599.255	14349.93
599.613	14443.26
599.972	14406.43
600.33	14454.79
600.688	14361.91
601.046	14423.83
601.404	14517.61
601.762	14393.1
602.12	14419.76
602.478	14431.29
602.836	14384.28
603.194	14410.72
603.552	14422.7
603.91	14280.56
604.268	14475.58
604.625	14384.73
604.983	14429.71
605.341	14370.95
605.698	14369.59
606.056	14375.24
606.413	14457.95
606.771	14409.82
607.128	14474.68
607.485	14280.56
607.843	14364.62
608.2	14403.27
608.557	14473.32
608.914	14410.27
609.272	14518.97
609.629	14522.13
609.986	14514
610.343	14551.51
610.7	14546.76
611.057	14577.27
611.414	14528.91
611.771	14622.24
612.127	14682.35
612.484	14541.11
612.841	14682.13
613.198	14545.41
613.554	14652.52
613.911	14654.33
614.267	14710.83
614.624	14711.51
614.98	14734.1
615.337	14804.84
615.693	14714.67
616.05	14702.47
616.406	14883.03
616.762	14785.18
617.118	14731.84
617.475	14780.66
617.831	14825.63
618.187	14757.61
618.543	14727.1
618.899	14843.48
619.255	14829.02
619.611	14756.25
619.967	14869.92
620.323	14935.23
620.678	14809.36
621.034	14923.03
621.39	14883.48
621.746	14840.09
622.101	14974.1
622.457	14833.76
622.812	14842.8
623.168	14914.44
623.523	14840.77
623.879	14929.81
624.234	14835.34
624.589	14893.2
624.945	14852.52
625.3	14924.61
625.655	14870.37
626.01	14843.03
626.365	14868.11
626.72	14834.67
627.075	14774.33
627.43	14852.29
627.785	14845.06
628.14	14822.24
628.495	14836.02
628.85	14802.58
629.205	14754.67
629.559	14894.1
629.914	14794.67
630.269	14753.54
630.623	14752.63
630.978	14750.37
631.332	14754.22
631.687	14867.21
632.041	14676.7
632.396	14717.38
632.75	14685.29
633.104	14773.2
633.459	14643.03
633.813	14680.77
634.167	14649.13
634.521	14608.01
634.875	14649.59
635.229	14583.6
635.583	14499.99
635.937	14557.84
636.291	14492.75
636.645	14542.47
636.999	14414.79
637.352	14421.12
637.706	14464.96
638.06	14551.74
638.413	14390.16
638.767	14415.02
639.121	14386.77
639.474	14336.15
639.828	14356.26
640.181	14383.15
640.534	14357.39
640.888	14365.07
641.241	14227.22
641.594	14316.04
641.947	14327.56
642.301	14261.57
642.654	14329.59
643.007	14264.96
643.36	14244.63
643.713	14231.52
644.066	14283.04
644.419	14191.29
644.771	14157.62
645.124	14050.05
645.477	13990.39
645.83	13911.07
646.182	13753.56
646.535	13818.2
646.888	13854.13
647.24	13744.53
647.593	13827.01
647.945	13775.94
648.298	13659.33
648.65	13720.57
649.002	13629.05
649.355	13808.7
649.707	13668.82
650.059	13837.4
650.411	13938.64
650.763	13895.48
651.115	14116.49
651.467	14039.43
651.819	14024.07
652.171	14047.57
652.523	13975.93
652.875	13967.8
653.227	13981.36
653.578	14057.74
653.93	14022.71
654.282	13973.45
654.633	13878.99
654.985	13989.72
655.337	13989.94
655.688	14066.55
656.039	14063.61
656.391	13921.24
656.742	13982.94
657.094	14026.55
657.445	14116.04
657.796	13993.78
658.147	13980.45
658.498	13984.07
658.849	14010.28
659.2	13939.55
659.551	13951.98
659.902	13988.59
660.253	13931.19
660.604	13982.26
660.955	13874.24
661.306	13970.28
661.656	13939.77
662.007	14031.07
662.358	13939.77
662.708	14006.89
663.059	14072.2
663.409	13916.05
663.76	14047.34
664.11	14053.44
664.461	14056.61
664.811	14023.61
665.161	14014.58
665.511	13977.06
665.862	13961.24
666.212	14040.79
666.562	14021.13
666.912	14034.24
667.262	13952.2
667.612	14064.74
667.962	14098.41
668.312	14023.61
668.662	14123.95
669.011	14081.69
669.361	14064.74
669.711	13992.88
670.06	13926.67
670.41	13960.57
670.76	13968.47
671.109	14050.96
671.459	13968.7
671.808	13993.56
672.157	14027.68
672.507	13883.73
672.856	13898.87
673.205	13982.49
673.554	13996.04
673.904	13964.41
674.253	13977.74
674.602	13928.48
674.951	13750.63
675.3	13632.89
675.649	13879.89
675.998	13776.39
676.346	13832.43
676.695	13861.36
677.044	13782.26
677.393	13756.05
677.741	13776.39
678.09	13747.24
678.438	13689.16
678.787	13700.46
679.135	13737.52
679.484	13575.94
679.832	13722.38
680.181	13554.93
680.529	13630.63
680.877	13514.7
681.225	13527.58
681.573	13582.95
681.922	13552.44
682.27	13490.97
682.618	13471.31
682.966	13436.96
683.314	13521.25
683.661	13482.61
684.009	13334.14
684.357	13320.81
684.705	13326.23
685.053	13282.39
685.4	13292.33
685.748	13252.79
686.095	13233.13
686.443	13154.03
686.79	13134.37
687.138	13146.58
687.485	13137.08
687.832	13157.65
688.18	13115.16
688.527	12953.13
688.874	12948.16
689.221	12973.47
689.568	12874.94
689.915	12851.22
690.262	12898.22
690.609	12772.35
690.956	12743.2
691.303	12698.45
691.65	12726.25
691.997	12655.74
692.344	12630.66
692.69	12614.16
693.037	12552.01
693.383	12424.79
693.73	12526.7
694.077	12404.67
694.423	12375.75
694.769	12358.35
695.116	12329.42
695.462	12240.38
695.808	12178.47
696.155	12250.55
696.501	12160.84
696.847	12149.09
697.193	12039.94
697.539	12078.13
697.885	11958.36
698.231	11975.76
698.577	11884.01
698.923	11809.44
699.269	11858.7
699.614	11788.42
699.96	11789.1
700.306	11709.55
700.651	11593.62
700.997	11567.86
701.342	11591.36
701.688	11554.07
702.033	11518.14
702.379	11508.65
702.724	11432.27
703.069	11380.29
703.415	11357.02
703.76	11381.65
704.105	11329.45
704.45	11321.31
704.795	11224.59
705.14	11126.97
705.485	11237.7
705.83	11103.01
706.175	11107.76
706.52	11077.93
706.865	11059.17
707.209	10995.67
707.554	10898.27
707.899	10958.38
708.243	10885.17
708.588	10870.02
708.932	10793.64
709.277	10806.75
709.621	10826.41
709.966	10820.99
710.31	10742.57
710.654	10700.31
710.998	10689.69
711.342	10653.31
711.687	10612.4
712.031	10545.29
712.375	10527.89
712.719	10527.21
713.063	10590.03
713.407	10583.25
713.75	10549.13
714.094	10500.77
714.438	10387.55
714.782	10478.85
715.125	10364.73
715.469	10468
715.812	10342.58
716.156	10321.79
716.499	10367.89
716.843	10321.34
717.186	10280.21
717.53	10349.36
717.873	10311.17
718.216	10305.75
718.559	10237.73
718.902	10159.08
719.246	10177.61
719.589	10170.38
719.932	10134.68
720.275	10151.85
720.617	10204.96
720.96	10142.36
721.303	10082.25
721.646	10126.99
721.989	10027.79
722.331	10110.27
722.674	9998.41
723.016	10057.62
723.359	10037.05
723.701	10012.87
724.044	9993.21
724.386	9965.42
724.729	9892.2
725.071	9957.28
725.413	9917.73
725.755	9948.92
726.097	9881.8
726.439	9886.1
726.782	9819.21
727.124	9963.16
727.465	9860.56
727.807	9837.51
728.149	9843.16
728.491	9838.41
728.833	9873.21
729.175	9818.3
729.516	9829.6
729.858	9805.87
730.199	9781.24
730.541	9778.75
730.882	9838.41
731.224	9754.35
731.565	9773.1
731.906	9822.37
732.248	9787.79
732.589	9828.7
732.93	9702.15
733.271	9732.43
733.612	9727.68
733.953	9783.27
734.294	9756.16
734.635	9750.28
734.976	9771.3
735.317	9699.89
735.658	9784.86
735.999	9719.55
736.339	9689.72
736.68	9766.55
737.021	9787.12
737.361	9716.38
737.702	9769.71
738.042	9782.6
738.383	9749.83
738.723	9792.09
739.063	9719.32
739.404	9778.98
739.744	9763.84
740.084	9767.91
740.424	9832.09
740.764	9905.08
741.104	9802.48
741.444	9844.52
741.784	9806.55
742.124	9825.31
742.464	9895.14
742.804	9836.83
743.143	9871.63
743.483	9937.62
743.823	9907.34
744.162	9941.69
744.502	10003.16
744.841	10010.61
745.181	10045.87
745.52	10019.65
745.86	10115.02
746.199	10103.49
746.538	10183.26
746.877	10206.99
747.216	10300.55
747.556	10338.51
747.895	10370.6
748.234	10448.79
748.573	10365.18
748.911	10461.9
749.25	10575.57
749.589	10598.85
749.928	10623.03
750.267	10759.07
750.605	10733.08
750.944	10844.94
751.283	10912.74
751.621	11029.79
751.96	11051.94
752.298	11240.18
752.636	11233.86
752.975	11365.83
753.313	11486.73
753.651	11504.13
753.989	11592.94
754.327	11647.86
754.666	11738.48
755.004	11954.74
755.342	12048.07
755.679	12167.84
756.017	12273.15
756.355	12386.6
756.693	12514.73
757.031	12724.21
