Data from hue_290_FLMS001491_00095.txt Node
Date: Tue Feb 07 15:53:45 GMT 2017
User: dcchb
Spectrometer: FLMS00149
Trigger mode: 0
Integration Time (sec): 2.000000E-2
Scans to average: 10
Electric dark correction enabled: true
Nonlinearity correction enabled: false
Boxcar width: 0
XAxis mode: Wavelengths
Number of Pixels in Spectrum: 2048
>>>>>Begin Spectral Data<<<<<
341.393	-19.72
341.776	-19.72
342.16	-19.72
342.543	-62.2
342.927	-80.96
343.31	-59.49
343.693	-69.21
344.077	-80.73
344.46	-77.12
344.843	-43.22
345.226	-40.51
345.61	-38.02
345.993	-19.27
346.376	6.5
346.759	12.6
347.142	17.8
347.525	48.53
347.908	64.57
348.291	89.21
348.674	71.81
349.057	116.55
349.44	108.42
349.823	133.95
350.206	153.16
350.588	189.54
350.971	191.58
351.354	197.9
351.737	218.47
352.119	241.97
352.502	236.1
352.884	243.55
353.267	278.58
353.65	297.34
354.032	280.39
354.414	275.64
354.797	299.14
355.179	313.16
355.562	319.94
355.944	327.17
356.326	329.43
356.709	312.7
357.091	318.35
357.473	351.12
357.855	344.57
358.238	354.06
358.62	341.63
359.002	335.53
359.384	345.02
359.766	339.82
360.148	316.77
360.53	321.97
360.912	329.65
361.294	332.82
361.676	330.78
362.057	324.23
362.439	315.64
362.821	329.65
363.203	313.16
363.584	320.16
363.966	324.91
364.348	324.91
364.729	301.86
365.111	300.95
365.493	319.71
365.874	314.96
366.256	304.34
366.637	299.6
367.019	317.68
367.4	318.13
367.781	307.28
368.163	307.28
368.544	313.38
368.925	308.64
369.306	308.86
369.688	304.34
370.069	299.82
370.45	283.78
370.831	306.38
371.212	301.18
371.593	299.37
371.974	314.06
372.355	309.31
372.736	297.34
373.117	296.66
373.498	302.76
373.879	289.88
374.26	304.57
374.641	293.95
375.021	326.49
375.402	324.91
375.783	303.89
376.163	307.28
376.544	317.22
376.925	319.71
377.305	299.6
377.686	331.46
378.066	303.66
378.447	330.1
378.827	334.17
379.208	319.71
379.588	323.55
379.968	330.1
380.349	329.43
380.729	323.55
381.109	332.82
381.489	343.66
381.87	313.83
382.25	343.21
382.63	330.1
383.01	332.36
383.39	340.73
383.77	347.96
384.15	340.73
384.53	327.84
384.91	361.97
385.29	355.64
385.67	344.34
386.049	349.99
386.429	341.86
386.809	366.26
387.189	336.66
387.568	369.43
387.948	350.89
388.328	351.57
388.707	349.54
389.087	356.09
389.466	350.22
389.846	374.85
390.225	380.27
390.605	362.87
390.984	359.71
391.363	365.13
391.743	376.66
392.122	383.44
392.501	370.78
392.881	390.67
393.26	387.73
393.639	381.85
394.018	354.06
394.397	386.6
394.776	379.82
395.155	375.75
395.534	385.24
395.913	385.47
396.292	388.63
396.671	392.25
397.05	391.35
397.429	391.57
397.808	388.18
398.186	393.15
398.565	401.06
398.944	431.57
399.323	390.22
399.701	407.84
400.08	423.21
400.458	423.66
400.837	443.55
401.215	432.47
401.594	403.77
401.972	418.24
402.351	419.82
402.729	438.12
403.107	440.38
403.486	425.7
403.864	433.83
404.242	428.63
404.62	445.36
404.999	464.79
405.377	446.94
405.755	457.11
406.133	459.59
406.511	466.82
406.889	488.07
407.267	484.45
407.645	476.99
408.023	481.29
408.401	494.17
408.779	501.17
409.156	494.85
409.534	486.03
409.912	511.12
410.29	534.62
410.667	515.64
411.045	534.62
411.422	515.18
411.8	528.29
412.178	556.09
412.555	557.67
412.933	562.41
413.31	569.65
413.687	572.36
414.065	596.54
414.442	601.74
414.819	596.54
415.197	605.35
415.574	615.97
415.951	623.43
416.328	634.05
416.705	626.59
417.082	662.75
417.46	648.97
417.837	684.22
418.214	662.07
418.591	688.74
418.967	680.83
419.344	690.09
419.721	699.13
420.098	708.17
420.475	731
420.852	714.5
421.228	731.9
421.605	747.95
421.982	729.19
422.358	744.1
422.735	785.46
423.111	791.56
423.488	795.63
423.864	791.56
424.241	820.49
424.617	787.95
424.994	824.55
425.37	830.66
425.746	833.37
426.123	836.76
426.499	839.47
426.875	889.41
427.251	878.79
427.627	892.12
428.003	886.7
428.379	928.96
428.756	924.89
429.132	928.28
429.507	935.29
429.883	956.08
430.259	988.62
430.635	961.27
431.011	972.57
431.387	1002.4
431.763	1034.94
432.138	1025.23
432.514	1058.9
432.89	1039.01
433.265	1057.54
433.641	1078.11
434.016	1096.19
434.392	1118.56
434.767	1155.85
435.143	1139.35
435.518	1152.91
435.894	1188.39
436.269	1192.23
436.644	1199.91
437.02	1204.66
437.395	1187.71
437.77	1186.8
438.145	1229.29
438.52	1259.35
438.895	1278.33
439.271	1276.07
439.646	1309.51
440.021	1318.78
440.395	1313.58
440.77	1308.38
441.145	1309.29
441.52	1351.09
441.895	1357.87
442.27	1373.24
442.645	1344.99
443.019	1356.29
443.394	1365.11
443.769	1386.57
444.143	1388.83
444.518	1398.78
444.892	1388.38
445.267	1416.4
445.641	1424.09
446.016	1450.75
446.39	1433.35
446.764	1427.48
447.139	1437.42
447.513	1445.1
447.887	1441.71
448.262	1458.21
448.636	1478.32
449.01	1504.76
449.384	1481.49
449.758	1500.47
450.132	1540.02
450.506	1516.51
450.88	1516.97
451.254	1523.75
451.628	1525.78
452.002	1552.45
452.376	1558.77
452.75	1554.48
453.123	1568.26
453.497	1588.15
453.871	1612.1
454.244	1635.15
454.618	1615.49
454.992	1660.24
455.365	1658.88
455.739	1679
456.112	1713.57
456.486	1712.44
456.859	1707.7
457.232	1753.34
457.606	1744.3
457.979	1730.52
458.352	1806
458.725	1773.68
459.099	1827.92
459.472	1826.79
459.845	1859.56
460.218	1850.52
460.591	1850.06
460.964	1860.91
461.337	1910.4
461.71	1929.84
462.083	1957.18
462.456	1929.38
462.829	1972.55
463.201	1953.11
463.574	1961.25
463.947	1982.94
464.32	2021.59
464.692	2038.99
465.065	2080.57
465.438	2088.93
465.81	2088.25
466.183	2114.46
466.555	2143.39
466.928	2181.58
467.3	2147.01
467.672	2172.09
468.045	2199.66
468.417	2229.49
468.789	2225.2
469.161	2248.92
469.534	2260.9
469.906	2307.45
470.278	2365.53
470.65	2330.73
471.022	2383.38
471.394	2426.09
471.766	2439.88
472.138	2431.52
472.51	2496.38
472.882	2506.54
473.253	2520.1
473.625	2558.97
473.997	2590.61
474.369	2611.85
474.74	2647.78
475.112	2660.89
475.484	2726.2
475.855	2722.81
476.227	2704.96
476.598	2806.42
476.97	2807.78
477.341	2890.71
477.713	2857.95
478.084	2891.17
478.455	2955.35
478.827	3008.9
479.198	3056.13
479.569	3034.89
479.94	3106.53
480.311	3128.67
480.682	3196.92
481.053	3238.95
481.424	3272.63
481.795	3323.02
482.166	3319.18
482.537	3370.7
482.908	3378.61
483.279	3405.73
483.65	3492.28
484.021	3516.69
484.391	3519.17
484.762	3539.96
485.133	3624.25
485.503	3642.79
485.874	3724.59
486.244	3753.74
486.615	3790.58
486.985	3791.93
487.356	3847.07
487.726	3884.14
488.097	3933.85
488.467	3930.01
488.837	4005.94
489.207	4028.76
489.578	4091.36
489.948	4115.99
490.318	4161.42
490.688	4162.55
491.058	4186.95
491.428	4276.67
491.798	4285.48
492.168	4330.45
492.538	4407.96
492.908	4424.01
493.278	4448.19
493.648	4478.7
494.017	4503.1
494.387	4484.12
494.757	4521.41
495.126	4600.05
495.496	4592.59
495.866	4593.72
496.235	4658.35
496.605	4612.48
496.974	4707.39
497.344	4764.56
497.713	4716.2
498.082	4797.78
498.452	4820.83
498.821	4784.22
499.19	4823.77
499.559	4879.36
499.928	4858.12
500.298	4911.68
500.667	4888.63
501.036	4968.63
501.405	5045.46
501.774	4970.89
502.143	5009.53
502.512	5026.48
502.88	5041.39
503.249	5064.9
503.618	5080.49
503.987	5093.14
504.356	5061.05
504.724	5141.96
505.093	5180.6
505.462	5160.03
505.83	5243.87
506.199	5280.26
506.567	5308.5
506.936	5289.07
507.304	5319.35
507.672	5352.35
508.041	5366.81
508.409	5426.02
508.777	5408.39
509.145	5436.41
509.514	5408.16
509.882	5387.37
510.25	5454.49
510.618	5464.21
510.986	5495.84
511.354	5509.63
511.722	5521.83
512.09	5571.55
512.458	5529.97
512.826	5647.25
513.193	5628.95
513.561	5635.5
513.929	5655.61
514.297	5684.99
514.664	5705.78
515.032	5750.75
515.4	5793.46
515.767	5755.72
516.135	5783.75
516.502	5767.48
516.869	5791.43
517.237	5833.91
517.604	5818.77
517.972	5830.52
518.339	5891.77
518.706	5870.98
519.073	5900.35
519.44	5950.07
519.808	5918.21
520.175	5949.39
520.542	6020.58
520.909	6024.87
521.276	6014.7
521.643	6051.99
522.009	6098.99
522.376	6112.33
522.743	6138.31
523.11	6168.14
523.477	6223.51
523.843	6259.44
524.21	6313
524.577	6282.04
524.943	6313.9
525.31	6329.72
525.676	6359.32
526.043	6367.46
526.409	6422.83
526.776	6517.06
527.142	6511.18
527.508	6505.54
527.874	6555.93
528.241	6535.14
528.607	6583.27
528.973	6643.84
529.339	6627.34
529.705	6697.85
530.071	6751.4
530.437	6755.02
530.803	6796.15
531.169	6853.1
531.535	6831.85
531.901	6833.21
532.267	6808.13
532.632	6897.16
532.998	6915.24
533.364	6978.74
533.73	6948.46
534.095	7034.56
534.461	7010.83
534.826	7037.05
535.192	7066.88
535.557	7102.13
535.923	7065.52
536.288	7118.85
536.653	7108.46
537.019	7119.53
537.384	7205.18
537.749	7201.79
538.114	7239.08
538.479	7235.23
538.845	7242.01
539.21	7218.74
539.575	7263.93
539.94	7303.25
540.305	7341.45
540.67	7387.09
541.034	7398.39
541.399	7427.77
541.764	7426.41
542.129	7464.15
542.494	7517.49
542.858	7501.22
543.223	7517.26
543.587	7547.32
543.952	7553.64
544.316	7493.53
544.681	7579.41
545.045	7602.23
545.41	7707.76
545.774	7660.53
546.138	7676.8
546.503	7680.42
546.867	7699.18
547.231	7695.56
547.595	7725.62
547.959	7785.73
548.324	7787.54
548.688	7820.98
549.052	7818.72
549.416	7897.59
549.779	7816.69
550.143	7881.54
550.507	7897.81
550.871	7957.93
551.235	7904.59
551.599	7946.4
551.962	7966.74
552.326	7999.51
552.689	8011.48
553.053	8018.04
553.417	8017.36
553.78	8094.42
554.143	8039.51
554.507	8116.57
554.87	8071.37
555.234	8197.47
555.597	8139.84
555.96	8189.33
556.323	8188.88
556.686	8247.86
557.05	8218.03
557.413	8211.93
557.776	8295.09
558.139	8309.78
558.502	8315.43
558.865	8296.45
559.228	8351.81
559.59	8390.01
559.953	8340.74
560.316	8429.1
560.679	8497.35
561.041	8478.14
561.404	8526.5
561.767	8550
562.129	8510.68
562.492	8667.06
562.854	8574.63
563.217	8582.99
563.579	8585.25
563.941	8680.39
564.304	8733.27
564.666	8852.59
565.028	8809.88
565.39	8787.06
565.753	8827.06
566.115	8909.09
566.477	8883.78
566.839	8851.69
567.201	8970.1
567.563	8958.35
567.925	9013.04
568.287	9017.11
568.648	9088.74
569.01	9115.64
569.372	9161.06
569.734	9133.94
570.095	9203.32
570.457	9242.64
570.819	9254.16
571.18	9301.85
571.542	9323.09
571.903	9372.8
572.265	9414.16
572.626	9475.17
572.987	9434.05
573.349	9464.1
573.71	9550.65
574.071	9501.39
574.432	9567.6
574.794	9669.07
575.155	9775.96
575.516	9717.2
575.877	9790.87
576.238	9841.49
576.599	9895.5
576.96	9954.03
577.32	10002.17
577.681	10033.58
578.042	10147.47
578.403	10033.8
578.763	10191.77
579.124	10313.34
579.485	10335.04
579.845	10401.25
580.206	10459.56
580.566	10514.7
580.927	10559.44
581.287	10703.16
581.648	10713.33
582.008	10775.71
582.368	10979.99
582.728	11026.55
583.089	11078.3
583.449	11140.44
583.809	11289.82
584.169	11388.12
584.529	11499.08
584.889	11682.35
585.249	11698.84
585.609	11836.69
585.969	11926.86
586.329	11999.18
586.688	12107.2
587.048	12271.71
587.408	12271.03
587.768	12439.16
588.127	12619.95
588.487	12685.49
588.846	12907.17
589.206	12940.62
589.565	13121.18
589.925	13219.71
590.284	13288.86
590.643	13482.07
591.003	13699.7
591.362	13744.21
591.721	13929.29
592.08	14037.77
592.44	14264.65
592.799	14385.78
593.158	14443.63
593.517	14542.39
593.876	14740.8
594.235	14853.56
594.593	14975.14
594.952	15184.63
595.311	15192.54
595.67	15428.01
596.029	15658.51
596.387	15708.91
596.746	15880.43
597.104	15976.7
597.463	16049.69
597.822	16336.92
598.18	16251.04
598.538	16510.92
598.897	16643.12
599.255	16597.25
599.613	17016.67
599.972	16970.8
600.33	17125.14
600.688	17285.82
601.046	17416.89
601.404	17544.11
601.762	17461.86
602.12	17798.35
602.478	17822.07
602.836	18007.15
603.194	18013.93
603.552	18166.25
603.91	18144.33
604.268	18361.72
604.625	18378.67
604.983	18528.72
605.341	18486.69
605.698	18733.91
606.056	18799.45
606.413	18946.56
606.771	19028.82
607.128	19093.68
607.485	19068.82
607.843	19185.43
608.2	19396.04
608.557	19471.3
608.914	19434.01
609.272	19731.85
609.629	19628.58
609.986	19886.43
610.343	19719.65
610.7	20057.04
611.057	19985.41
611.414	20030.38
611.771	20161.9
612.127	20228.34
612.484	20291.39
612.841	20364.38
613.198	20443.93
613.554	20418.39
613.911	20605.96
614.267	20598.05
614.624	20574.54
614.98	20724.82
615.337	20945.16
615.693	20961.88
616.05	20868.55
616.406	21157.58
616.762	21145.6
617.118	21118.48
617.475	21161.87
617.831	21253.17
618.187	21296.56
618.543	21334.52
618.899	21476.89
619.255	21513.73
619.611	21407.74
619.967	21719.82
620.323	21646.61
620.678	21599.38
621.034	21565.93
621.39	21650.45
621.746	21663.33
622.101	21955.07
622.457	21711.24
622.812	21916.2
623.168	21911.23
623.523	21977.67
623.879	21967.73
624.234	21901.74
624.589	22029.42
624.945	21970.89
625.3	22014.05
625.655	22086.59
626.01	22091.11
626.365	22088.85
626.72	22162.07
627.075	22143.32
627.43	22092.02
627.785	22052.02
628.14	22198.23
628.495	22173.82
628.85	22183.99
629.205	22167.27
629.559	22271.22
629.914	22274.61
630.269	22088.18
630.623	22248.62
630.978	22080.72
631.332	22170.89
631.687	22232.58
632.041	22163.88
632.396	22155.52
632.75	22172.47
633.104	22165.46
633.459	22045.24
633.813	22018.8
634.167	22061.96
634.521	22118.68
634.875	22033.94
635.229	22120.49
635.583	21882.08
635.937	21990.1
636.291	21925.24
636.645	22110.55
636.999	22066.48
637.352	22043.43
637.706	21955.3
638.06	22074.39
638.413	21989.87
638.767	22074.84
639.121	22017.9
639.474	21844.11
639.828	21866.04
640.181	21936.99
640.534	21863.32
640.888	21814.29
641.241	21729.09
641.594	21882.31
641.947	21933.38
642.301	21873.49
642.654	21911.01
643.007	21887.5
643.36	21770.44
643.713	21885.47
644.066	21875.98
644.419	21677.34
644.771	21671.69
645.124	21354.64
645.477	21309.44
645.83	21183.34
646.182	21132.27
646.535	21144.02
646.888	21052.95
647.24	21077.13
647.593	21181.76
647.945	21137.47
648.298	21023.8
648.65	21043.23
649.002	20994.19
649.355	21195.77
649.707	21133.63
650.059	21187.41
650.411	21520.96
650.763	21541.75
651.115	21785.59
651.467	21653.39
651.819	21624.01
652.171	21665.36
652.523	21588.98
652.875	21575.2
653.227	21535.2
653.578	21771.35
653.93	21624.69
654.282	21556.44
654.633	21593.73
654.985	21680.73
655.337	21720.73
655.688	21606.61
656.039	21760.73
656.391	21554.86
656.742	21658.58
657.094	21577.46
657.445	21573.16
657.796	21656.55
658.147	21560.28
658.498	21625.14
658.849	21568.87
659.2	21650.9
659.551	21555.08
659.902	21602.54
660.253	21603.22
660.604	21754.85
660.955	21589.43
661.306	21741.52
661.656	21717.11
662.007	21752.14
662.358	21785.59
662.708	21686.15
663.059	21732.03
663.409	21619.49
663.76	21765.7
664.11	21654.97
664.461	21729.09
664.811	21759.15
665.161	21578.81
665.511	21753.72
665.862	21714.17
666.212	21780.61
666.562	21737.68
666.912	21825.13
667.262	21708.3
667.612	21657.45
667.962	21733.84
668.312	21685.7
668.662	21805.02
669.011	21720.95
669.361	21660.62
669.711	21671.69
670.06	21668.3
670.41	21623.1
670.76	21649.77
671.109	21681.86
671.459	21602.54
671.808	21653.39
672.157	21667.85
672.507	21546.72
672.856	21455.42
673.205	21544.01
673.554	21576.1
673.904	21551.24
674.253	21639.37
674.602	21496.55
674.951	21220.18
675.3	21059.5
675.649	21352.15
675.998	21472.37
676.346	21445.48
676.695	21494.29
677.044	21291.36
677.393	21457.01
677.741	21407.52
678.09	21276.22
678.438	21295.88
678.787	21334.52
679.135	21300.85
679.484	21178.6
679.832	21198.03
680.181	21076.68
680.529	21212.04
680.877	21011.37
681.225	21017.24
681.573	21094.08
681.922	21029
682.27	20918.26
682.618	21008.88
682.966	20906.51
683.314	20928.88
683.661	20778.61
684.009	20729.79
684.357	20717.36
684.705	20685.28
685.053	20678.5
685.4	20709.46
685.748	20536.58
686.095	20622
686.443	20494.55
686.79	20489.12
687.138	20466.98
687.485	20445.06
687.832	20377.71
688.18	20355.57
688.527	20328
688.874	20288
689.221	20231.73
689.568	20117.83
689.915	20065.4
690.262	20022.69
690.609	19911.28
690.956	19853.21
691.303	19899.76
691.65	19829.03
691.997	19762.59
692.344	19567.11
692.69	19648.01
693.037	19652.99
693.383	19485.08
693.73	19438.08
694.077	19421.13
694.423	19298.87
694.769	19297.52
695.116	19232.21
695.462	19263.39
695.808	19098.42
696.155	19222.49
696.501	18966.9
696.847	18933.68
697.193	18816.62
697.539	18964.64
697.885	18751.77
698.231	18742.5
698.577	18676.29
698.923	18568.49
699.269	18600.13
699.614	18436.75
699.96	18430.19
700.306	18453.92
700.651	18345.45
700.997	18189.52
701.342	18321.95
701.688	18218.67
702.033	18002.63
702.379	18134.61
702.724	17969.64
703.069	18055.74
703.415	17819.81
703.76	17747.05
704.105	17853.49
704.45	17752.47
704.795	17670.44
705.14	17614.85
705.485	17584.34
705.83	17503.66
706.175	17455.3
706.52	17432.03
706.865	17293.5
707.209	17260.05
707.554	17377.11
707.899	17305.93
708.243	17158.36
708.588	17074.07
708.932	17000.63
709.277	16999.5
709.621	17040.63
709.966	16882.89
710.31	16831.14
710.654	16680.86
710.998	16822.33
711.342	16755.44
711.687	16745.94
712.031	16579.85
712.375	16602.22
712.719	16740.29
713.063	16512.96
713.407	16649.9
713.75	16558.6
714.094	16522.9
714.438	16484.48
714.782	16516.12
715.125	16189.12
715.469	16348.21
715.812	16310.02
716.156	16203.13
716.499	16256.92
716.843	16224.38
717.186	16151.84
717.53	16239.29
717.873	16166.07
718.216	16190.25
718.559	15997.71
718.902	15995.23
719.246	16093.08
719.589	16018.28
719.932	15909.58
720.275	15913.42
720.617	15910.03
720.96	15878.62
721.303	15863.03
721.646	15894.67
721.989	15710.72
722.331	15746.42
722.674	15733.09
723.016	15788.68
723.359	15732.86
723.701	15758.63
724.044	15725.63
724.386	15642.7
724.729	15693.32
725.071	15653.32
725.413	15625.75
725.755	15633.88
726.097	15592.53
726.439	15486.09
726.782	15570.61
727.124	15509.37
727.465	15503.94
727.807	15358.86
728.149	15398.63
728.491	15425.75
728.833	15528.35
729.175	15400.22
729.516	15341.24
729.858	15374.91
730.199	15362.48
730.541	15327.68
730.882	15413.78
731.224	15419.88
731.565	15299.65
731.906	15332.65
732.248	15370.16
732.589	15336.04
732.93	15226.44
733.271	15239.54
733.612	15261.69
733.953	15375.36
734.294	15245.64
734.635	15165.19
734.976	15344.4
735.317	15271.63
735.658	15235.7
735.999	15293.1
736.339	15210.84
736.68	15372.42
737.021	15245.64
737.361	15279.32
737.702	15294.23
738.042	15358.18
738.383	15185.08
738.723	15261.92
739.063	15285.87
739.404	15379.2
739.744	15312.54
740.084	15295.13
740.424	15361.35
740.764	15333.33
741.104	15383.27
741.444	15305.08
741.784	15228.7
742.124	15287.9
742.464	15413.1
742.804	15355.25
743.143	15335.59
743.483	15429.37
743.823	15339.88
744.162	15443.83
744.502	15423.27
744.841	15418.52
745.181	15479.76
745.52	15505.07
745.86	15602.92
746.199	15530.61
746.538	15643.83
746.877	15756.59
747.216	15763.14
747.556	15771.96
747.895	15867.77
748.234	15764.05
748.573	15782.13
748.911	15889.92
749.25	16034.55
749.589	16081.33
749.928	16085.4
750.267	16171.27
750.605	16285.39
750.944	16332.62
751.283	16364.26
751.621	16526.29
751.96	16526.29
752.298	16514.76
752.636	16775.32
752.975	16688.32
753.313	16724.48
753.651	17007.63
753.989	16941.87
754.327	17068.87
754.666	17055.09
755.004	17291.47
755.342	17336.44
755.679	17415.53
756.017	17538.69
756.355	17664.11
756.693	17676.09
757.031	17900.04
757.368	17776.43
757.706	18019.58
758.044	18116.3
758.381	18231.78
758.719	18248.96
759.056	18364.66
