Data from hue_00_FLMS001491_81.txt Node
Date: Mon Feb 06 15:30:21 GMT 2017
User: dcchb
Spectrometer: FLMS00149
Trigger mode: 0
Integration Time (sec): 2.000000E-2
Scans to average: 10
Electric dark correction enabled: true
Nonlinearity correction enabled: false
Boxcar width: 0
XAxis mode: Wavelengths
Number of Pixels in Spectrum: 2048
>>>>>Begin Spectral Data<<<<<
341.393	-13.47
341.776	-13.47
342.16	-13.47
342.543	-45.11
342.927	-47.15
343.31	-80.14
343.693	-71.55
344.077	-65.22
344.46	-75.62
344.843	-43.08
345.226	-41.27
345.61	-20.93
345.993	-13.93
346.376	-14.15
346.759	6.86
347.142	40.08
347.525	42.12
347.908	59.07
348.291	75.34
348.674	100.42
349.057	102
349.44	111.72
349.823	165.28
350.206	163.92
350.588	203.02
350.971	220.87
351.354	228.55
351.737	238.95
352.119	240.98
352.502	278.27
352.884	270.13
353.267	285.5
353.65	283.69
354.032	312.62
354.414	309.68
354.797	295.44
355.179	322.34
355.562	341.77
355.944	324.6
356.326	332.28
356.709	335.22
357.091	338.38
357.473	344.26
357.855	342.22
358.238	349
358.62	346.97
359.002	348.78
359.384	350.58
359.766	320.75
360.148	353.52
360.53	331.38
360.912	332.05
361.294	318.95
361.676	333.18
362.057	347.87
362.439	338.38
362.821	339.06
363.203	321.66
363.584	345.39
363.966	309.91
364.348	323.69
364.729	330.7
365.111	300.19
365.493	330.92
365.874	315.56
366.256	334.09
366.637	318.27
367.019	336.57
367.4	318.72
367.781	308.33
368.163	339.74
368.544	297.48
368.925	316.46
369.306	314.88
369.688	300.64
370.069	312.17
370.45	325.27
370.831	326.63
371.212	312.17
371.593	334.31
371.974	318.27
372.355	312.39
372.736	313.75
373.117	313.3
373.498	308.33
373.879	313.52
374.26	334.09
374.641	330.7
375.021	334.31
375.402	295.67
375.783	346.06
376.163	327.99
376.544	334.31
376.925	321.66
377.305	339.74
377.686	349.23
378.066	308.55
378.447	322.34
378.827	338.83
379.208	360.3
379.588	334.77
379.968	336.57
380.349	350.81
380.729	332.73
381.109	341.77
381.489	343.35
381.87	314.88
382.25	330.47
382.63	322.56
383.01	360.3
383.39	346.06
383.77	355.1
384.15	356.91
384.53	331.6
384.91	334.99
385.29	365.95
385.67	332.05
386.049	341.09
386.429	358.27
386.809	357.14
387.189	352.39
387.568	342.22
387.948	359.85
388.328	369.11
388.707	362.34
389.087	356.23
389.466	360.75
389.846	368.44
390.225	347.65
390.605	376.35
390.984	342.45
391.363	365.27
391.743	382
392.122	376.35
392.501	356.23
392.881	379.06
393.26	383.8
393.639	373.63
394.018	364.59
394.397	380.19
394.776	371.37
395.155	384.26
395.534	351.49
395.913	378.83
396.292	395.78
396.671	387.65
397.05	377.02
397.429	380.87
397.808	392.84
398.186	398.72
398.565	379.06
398.944	389.23
399.323	377.93
399.701	374.99
400.08	390.13
400.458	390.36
400.837	390.81
401.215	410.47
401.594	409.11
401.972	407.31
402.351	398.94
402.729	411.15
403.107	410.7
403.486	394.65
403.864	405.95
404.242	411.37
404.62	416.8
404.999	409.34
405.377	420.19
405.755	421.99
406.133	436.68
406.511	413.41
406.889	407.53
407.267	428.32
407.645	434.2
408.023	440.07
408.401	437.81
408.779	431.26
409.156	445.95
409.534	445.04
409.912	449.79
410.29	437.14
410.667	445.27
411.045	433.97
411.422	452.5
411.8	449.34
412.178	455.67
412.555	464.71
412.933	471.71
413.31	460.64
413.687	450.24
414.065	487.76
414.442	480.07
414.819	502.44
415.197	487.08
415.574	490.47
415.951	480.75
416.328	481.2
416.705	476.23
417.082	480.52
417.46	487.98
417.837	502.44
418.214	494.31
418.591	513.07
418.967	504.93
419.344	480.3
419.721	530.92
420.098	525.04
420.475	526.4
420.852	546.74
421.228	539.28
421.605	524.14
421.982	534.99
422.358	532.05
422.735	529.56
423.111	548.32
423.488	546.06
423.864	550.35
424.241	563.01
424.617	548.09
424.994	574.98
425.37	545.61
425.746	566.62
426.123	549.9
426.499	561.43
426.875	564.59
427.251	580.41
427.627	574.31
428.003	581.31
428.379	563.23
428.756	599.62
429.132	591.93
429.507	616.57
429.883	602.33
430.259	598.71
430.635	610.01
431.011	600.97
431.387	645.04
431.763	635.77
432.138	647.53
432.514	650.01
432.89	653.17
433.265	667.64
433.641	641.42
434.016	663.34
434.392	646.4
434.767	661.08
435.143	671.71
435.518	678.03
435.894	664.02
436.269	687.3
436.644	690.46
437.02	682.33
437.395	673.06
437.77	696.79
438.145	695.89
438.52	706.28
438.895	717.35
439.271	712.61
439.646	737.24
440.021	766.84
440.395	741.08
440.77	733.4
441.145	744.47
441.52	763.91
441.895	741.08
442.27	773.4
442.645	761.87
443.019	766.62
443.394	734.98
443.769	774.08
444.143	764.81
444.518	772.95
444.892	774.75
445.267	759.39
445.641	795.09
446.016	790.8
446.39	783.12
446.764	802.78
447.139	805.94
447.513	791.25
447.887	826.73
448.262	822.66
448.636	829.22
449.01	836.67
449.384	820.85
449.758	827.63
450.132	864.92
450.506	860.85
450.88	847.52
451.254	855.66
451.628	859.05
452.002	873.06
452.376	878.03
452.75	859.05
453.123	885.03
453.497	909.67
453.871	890.68
454.244	920.29
454.618	917.12
454.992	920.06
455.365	930.23
455.739	923.68
456.112	962.09
456.486	952.6
456.859	964.81
457.232	984.24
457.606	972.49
457.979	986.27
458.352	1017.91
458.725	1000.28
459.099	1033.05
459.472	1031.92
459.845	1009.55
460.218	1049.55
460.591	1078.93
460.964	1044.8
461.337	1066.27
461.71	1075.99
462.083	1108.98
462.456	1077.8
462.829	1097.01
463.201	1122.99
463.574	1118.47
463.947	1096.55
464.32	1153.73
464.692	1159.38
465.065	1171.81
465.438	1182.65
465.81	1218.81
466.183	1215.42
466.555	1237.57
466.928	1242.99
467.3	1252.03
467.672	1300.16
468.045	1284.12
468.417	1294.97
468.789	1310.56
469.161	1318.24
469.534	1362.99
469.906	1350.11
470.278	1357.11
470.65	1412.03
471.022	1400.73
471.394	1427.17
471.766	1466.03
472.138	1461.06
472.51	1473.72
472.882	1486.15
473.253	1550.78
473.625	1551.91
473.997	1595.52
474.369	1581.96
474.74	1600.49
475.112	1628.52
475.484	1648.18
475.855	1694.5
476.227	1711
476.598	1726.82
476.97	1759.36
477.341	1833.71
477.713	1816.99
478.084	1853.14
478.455	1882.3
478.827	1909.19
479.198	1962.75
479.569	1950.09
479.94	2052.91
480.311	2034.38
480.682	2074.38
481.053	2136.53
481.424	2188.5
481.795	2211.78
482.166	2208.16
482.537	2254.71
482.908	2308.72
483.279	2311.21
483.65	2390.98
484.021	2435.95
484.391	2463.3
484.762	2487.03
485.133	2505.78
485.503	2564.99
485.874	2563.63
486.244	2626.46
486.615	2643.63
486.985	2699
487.356	2708.71
487.726	2782.16
488.097	2826
488.467	2856.05
488.837	2929.95
489.207	2953
489.578	3015.37
489.948	3024.41
490.318	3078.42
490.688	3048.14
491.058	3129.04
491.428	3185.76
491.798	3228.93
492.168	3284.97
492.538	3324.74
492.908	3333.33
493.278	3369.94
493.648	3439.32
494.017	3419.2
494.387	3477.28
494.757	3473.21
495.126	3527.68
495.496	3541.91
495.866	3594.11
496.235	3656.71
496.605	3646.77
496.974	3658.52
497.344	3693.77
497.713	3754.11
498.082	3755.69
498.452	3793.88
498.821	3803.83
499.19	3797.5
499.559	3881.56
499.928	3900.32
500.298	3912.07
500.667	3967.44
501.036	3952.75
501.405	3996.59
501.774	4004.5
502.143	4044.05
502.512	4014.44
502.88	4070.26
503.249	4089.69
503.618	4132.18
503.987	4140.54
504.356	4153.2
504.724	4204.04
505.093	4220.54
505.462	4191.84
505.83	4194.78
506.199	4246.98
506.567	4324.49
506.936	4279.97
507.304	4334.43
507.672	4369.46
508.041	4396.35
508.409	4341.67
508.777	4433.19
509.145	4487.42
509.514	4437.71
509.882	4502.79
510.25	4538.04
510.618	4510.7
510.986	4559.96
511.354	4580.08
511.722	4616.46
512.09	4631.83
512.458	4654.88
512.826	4679.06
513.193	4635.22
513.561	4656.69
513.929	4699.17
514.297	4765.61
514.664	4746.17
515.032	4770.58
515.4	4784.14
515.767	4830.24
516.135	4863.69
516.502	4774.87
516.869	4869.79
517.237	4937.81
517.604	4850.13
517.972	4882.89
518.339	4968.32
518.706	5000.63
519.073	4971.71
519.44	5013.51
519.808	5024.81
520.175	4983.23
520.542	5051.25
520.909	5072.04
521.276	5065.71
521.643	5103.91
522.009	5157.01
522.376	5182.32
522.743	5179.84
523.11	5244.01
523.477	5286.5
523.843	5289.66
524.21	5327.63
524.577	5363.11
524.943	5366.72
525.31	5408.08
525.676	5450.34
526.043	5435.65
526.409	5486.95
526.776	5533.72
527.142	5552.03
527.508	5545.93
527.874	5632.48
528.241	5651.01
528.607	5654.63
528.973	5694.85
529.339	5695.75
529.705	5801.06
530.071	5794.06
530.437	5801.74
530.803	5863.66
531.169	5882.42
531.535	5862.98
531.901	5874.51
532.267	5911.12
532.632	5955.63
532.998	5988.63
533.364	5977.55
533.73	6051.68
534.095	6078.12
534.461	6112.47
534.826	6099.36
535.192	6089.87
535.557	6169.87
535.923	6178.91
536.288	6199.92
536.653	6283.76
537.019	6213.03
537.384	6257.77
537.749	6284.89
538.114	6244.44
538.479	6279.69
538.845	6341.16
539.21	6393.59
539.575	6415.28
539.94	6415.51
540.305	6497.54
540.67	6420.03
541.034	6496.19
541.399	6552
541.764	6544.09
542.129	6587.26
542.494	6577.99
542.858	6610.53
543.223	6684.43
543.587	6677.2
543.952	6711.55
544.316	6744.31
544.681	6786.12
545.045	6787.7
545.41	6825.89
545.774	6855.95
546.138	6803.52
546.503	6904.31
546.867	6897.53
547.231	6999.9
547.595	6989.96
547.959	7005.1
548.324	7028.37
548.688	7010.97
549.052	7062.5
549.416	7081.48
549.779	7050.29
550.143	7125.32
550.507	7217.52
550.871	7203.74
551.235	7197.86
551.599	7181.36
551.962	7218.88
552.326	7320.12
552.689	7290.97
553.053	7307.46
553.417	7274.02
553.78	7403.73
554.143	7368.25
554.507	7413.68
554.87	7413.9
555.234	7449.38
555.597	7426.33
555.96	7488.93
556.323	7501.58
556.686	7513.11
557.05	7602.82
557.413	7542.03
557.776	7651.63
558.139	7669.71
558.502	7675.14
558.865	7689.83
559.228	7778.41
559.59	7740.22
559.953	7760.33
560.316	7881.91
560.679	7864.28
561.041	7946.32
561.404	7846.43
561.767	7991.74
562.129	7919.88
562.492	8001.91
562.854	8041.46
563.217	8050.04
563.579	8139.31
563.941	8130.27
564.304	8175.24
564.666	8188.57
565.028	8192.64
565.39	8261.56
565.753	8299.53
566.115	8274.9
566.477	8328.91
566.839	8364.16
567.201	8283.71
567.563	8415.46
567.925	8446.64
568.287	8460.2
568.648	8471.27
569.01	8520.54
569.372	8560.31
569.734	8517.6
570.095	8627.65
570.457	8637.37
570.819	8719.18
571.18	8714.21
571.542	8727.31
571.903	8815.22
572.265	8808.21
572.626	8859.74
572.987	8969.11
573.349	8940.64
573.71	9007.31
574.071	9058.15
574.432	9092.05
574.794	9218.15
575.155	9202.55
575.516	9230.58
575.877	9323.68
576.238	9345.83
576.599	9419.95
576.96	9500.85
577.32	9519.83
577.681	9736.78
578.042	9723.44
578.403	9795.99
578.763	9816.1
579.124	9933.83
579.485	9998.69
579.845	10170.66
580.206	10233.26
580.566	10350.77
580.927	10414.73
581.287	10580.82
581.648	10630.31
582.008	10837.54
582.368	10849.74
582.728	11127.93
583.089	11256.74
583.449	11304.65
583.809	11441.59
584.169	11600.01
584.529	11750.06
584.889	11957.06
585.249	12111.63
585.609	12236.37
585.969	12416.48
586.329	12600.21
586.688	12835.91
587.048	12960.2
587.408	13140.08
587.768	13350.69
588.127	13561.76
588.487	13699.84
588.846	14050.11
589.206	14081.3
589.565	14322.87
589.925	14613.94
590.284	14754.27
590.643	15147.48
591.003	15319.46
591.362	15618.66
591.721	15789.27
592.08	16088.7
592.44	16311.52
592.799	16593.55
593.158	16879.41
593.517	17109.47
593.876	17391.27
594.235	17492.73
594.593	17850.01
594.952	18095.65
595.311	18340.39
595.67	18614.06
596.029	19009.98
596.387	19246.58
596.746	19505.56
597.104	19657.87
597.463	19899.22
597.822	20298.31
598.18	20453.56
598.538	20746.66
598.897	21116.14
599.255	21206.76
599.613	21841.09
599.972	21880.87
600.33	22118.15
600.688	22346.62
601.046	22665.25
601.404	23016.88
601.762	23137.78
602.12	23498.45
602.478	23632.01
602.836	23933.47
603.194	24075.84
603.552	24369.61
603.91	24438.09
604.268	24887.34
604.625	24954
604.983	25358.97
605.341	25439.19
605.698	25722.12
606.056	26029.23
606.413	26230.58
606.771	26503.34
607.128	26755.54
607.485	26825.14
607.843	27023.33
608.2	27366.6
608.557	27634.61
608.914	27648.17
609.272	28036.41
609.629	28270.08
609.986	28570.63
610.343	28541.48
610.7	28990.51
611.057	29078.64
611.414	29221.69
611.771	29466.88
612.127	29642.7
612.484	29679.98
612.841	29991.61
613.198	30109.35
613.554	30291.27
613.911	30599.73
614.267	30751.59
614.624	30769.9
614.98	30851.48
615.337	31159.94
615.693	31276.1
616.05	31487.84
616.406	31728.29
616.762	31724.9
617.118	31759.02
617.475	31973.71
617.831	32021.62
618.187	32271.78
618.543	32469.51
618.899	32699.11
619.255	32717.19
619.611	32777.75
619.967	32926
620.323	33095.03
620.678	33216.16
621.034	33164.41
621.39	33314.46
621.746	33325.31
622.101	33717.84
622.457	33530.28
622.812	33829.48
623.168	33953.99
623.523	33964.16
623.879	34144.95
624.234	34027.21
624.589	34229.47
624.945	34237.6
625.3	34503.36
625.655	34413.64
626.01	34546.97
626.365	34553.98
626.72	34569.8
627.075	34574.54
627.43	34741.09
627.785	34762.79
628.14	34864.48
628.495	34977.92
628.85	34873.74
629.205	34728.21
629.559	35131.36
629.914	35014.76
630.269	35130.01
630.623	34986.28
630.978	35070.35
631.332	35185.83
631.687	35259.95
632.041	35210.23
632.396	35156.45
632.75	35154.64
633.104	35360.06
633.459	35192.38
633.813	35239.38
634.167	35255.88
634.521	35209.1
634.875	35330.91
635.229	35255.43
635.583	35147.41
635.937	35133.17
636.291	35222.89
636.645	35195.09
636.999	35212.72
637.352	35312.6
637.706	35022.21
638.06	35249.1
638.413	35344.01
638.767	35160.52
639.121	35463.11
639.474	35022.89
639.828	35141.76
640.181	35260.4
640.534	35432.6
640.888	35083.46
641.241	35085.26
641.594	35133.17
641.947	35271.47
642.301	35152.38
642.654	35176.56
643.007	35290.23
643.36	35106.05
643.713	35047.3
644.066	35168.65
644.419	34931.6
644.771	34784.93
645.124	34692.05
645.477	34401.44
645.83	34341.78
646.182	34202.58
646.535	34095.69
646.888	34160.54
647.24	34080.54
647.593	34224.27
647.945	34083.26
648.298	34010.04
648.65	33952.41
649.002	33755.58
649.355	33957.61
649.707	33963.71
650.059	34082.8
650.411	34430.59
650.763	34535.22
651.115	34847.98
651.467	34735.67
651.819	34821.54
652.171	34597.37
652.523	34713.75
652.875	34667.2
653.227	34540.87
653.578	34806.4
653.93	34638.95
654.282	34681.21
654.633	34484.83
654.985	34530.02
655.337	34455.22
655.688	34592.4
656.039	34608.67
656.391	34427.2
656.742	34348.79
657.094	34317.15
657.445	34607.31
657.796	34416.13
658.147	34401.89
658.498	34510.82
658.849	34576.12
659.2	34464.49
659.551	34311.5
659.902	34573.64
660.253	34492.74
660.604	34530.7
660.955	34396.69
661.306	34375
661.656	34442.12
662.007	34366.64
662.358	34324.15
662.708	34466.75
663.059	34375.9
663.409	34088
663.76	34431.95
664.11	34298.17
664.461	34382.23
664.811	34434.21
665.161	34447.99
665.511	34287.32
665.862	34371.61
666.212	34371.61
666.562	34452.74
666.912	34336.36
667.262	34226.76
667.612	34176.81
667.962	34333.65
668.312	34294.55
668.662	34351.27
669.011	34372.97
669.361	34250.71
669.711	34205.29
670.06	34208.9
670.41	34066.53
670.76	34023.14
671.109	34360.31
671.459	34132.29
671.808	34182.01
672.157	34285.51
672.507	33975.01
672.856	34028.12
673.205	34114.67
673.554	34104.5
673.904	33883.26
674.253	34184.72
674.602	34007.1
674.951	33612.31
675.3	33417.06
675.649	33991.28
675.998	33975.46
676.346	33914
676.695	34042.35
677.044	33897.72
677.393	33838.52
677.741	33818.63
678.09	33962.13
678.438	33787.9
678.787	33833.09
679.135	33884.84
679.484	33672.87
679.832	33784.96
680.181	33636.04
680.529	33695.92
680.877	33636.04
681.225	33558.52
681.573	33807.11
681.922	33542.03
682.27	33470.39
682.618	33468.58
682.966	33365.08
683.314	33389.72
683.661	33329.38
684.009	33294.12
684.357	33084.64
684.705	33151.98
685.053	33037.63
685.4	33125.32
685.748	32917.19
686.095	32950.4
686.443	32871.31
686.79	32767.36
687.138	32831.76
687.485	32814.14
687.832	32717.87
688.18	32645.33
688.527	32678.1
688.874	32622.96
689.221	32542.28
689.568	32410.31
689.915	32339.8
690.262	32493.92
690.609	32279.91
690.956	32176.87
691.303	32010.77
691.65	31853.94
691.997	31928.51
692.344	31742.53
692.69	31730.32
693.037	31714.73
693.383	31588.41
693.73	31597.67
694.077	31380.28
694.423	31324.91
694.769	31339.37
695.116	31251.24
695.462	31300.5
695.808	31029.78
696.155	31166.95
696.501	30974.41
696.847	30884.92
697.193	30765.38
697.539	30842.21
697.885	30601.99
698.231	30444.03
698.577	30520.86
698.923	30409.91
699.269	30298.5
699.614	30191.38
699.96	30039.52
700.306	30117.71
700.651	29935.79
700.997	29868
701.342	29834.78
701.688	29681.79
702.033	29702.13
702.379	29672.07
702.724	29608.8
703.069	29718.4
703.415	29405.19
703.76	29406.77
704.105	29246.32
704.45	29291.07
704.795	29210.16
705.14	29057.85
705.485	29089.26
705.83	28940.11
706.175	28983.96
706.52	28767.46
706.865	28779.22
707.209	28768.37
707.554	28634.36
707.899	28606.11
708.243	28551.65
708.588	28454.48
708.932	28316.4
709.277	28220.13
709.621	28317.31
709.966	28147.37
710.31	28242.96
710.654	27959.35
710.998	27931.1
711.342	27932.68
711.687	27865.11
712.031	27911.22
712.375	27777.21
712.719	27760.94
713.063	27649.53
713.407	27800.03
713.75	27645.01
714.094	27543.99
714.438	27502.41
714.782	27609.53
715.125	27375.64
715.469	27416.99
715.812	27252.25
716.156	27153.95
716.499	27141.29
716.843	27249.09
717.186	26974.74
717.53	27148.98
717.873	27068.3
718.216	27068.07
718.559	26918.25
718.902	26704.92
719.246	26749.66
719.589	26760.29
719.932	26654.53
720.275	26679.16
720.617	26591.7
720.96	26572.95
721.303	26456.79
721.646	26511.03
721.989	26311.71
722.331	26389.45
722.674	26394.42
723.016	26362.1
723.359	26226.74
723.701	26208.66
724.044	26173.63
724.386	26009.12
724.729	26094.31
725.071	25929.57
725.413	25916.47
725.755	26048.67
726.097	25904.49
726.439	25724.38
726.782	25817.71
727.124	25713.76
727.465	25703.36
727.807	25661.56
728.149	25689.58
728.491	25560.09
728.833	25657.49
729.175	25596.25
729.516	25559.41
729.858	25508.34
730.199	25471.28
730.541	25399.64
730.882	25422.02
731.224	25389.47
731.565	25217.73
731.906	25356.71
732.248	25244.39
732.589	25152.19
732.93	25164.39
733.271	25117.84
733.612	25165.98
733.953	25105.64
734.294	25017.96
734.635	25005.3
734.976	24969.37
735.317	24817.51
735.658	24923.27
735.999	24875.59
736.339	24741.81
736.68	24767.8
737.021	24785.42
737.361	24666.78
737.702	24752.88
738.042	24664.75
738.383	24628.82
738.723	24581.81
739.063	24539.1
739.404	24558.08
739.744	24509.95
740.084	24404.64
740.424	24481.7
740.764	24330.52
741.104	24456.39
741.444	24296.17
741.784	24243.29
742.124	24292.78
742.464	24300.91
742.804	24131.43
743.143	24159.45
743.483	24201.93
743.823	24013.46
744.162	24100.02
744.502	24016.63
744.841	23955.84
745.181	23935.5
745.52	23901.6
745.86	23996.52
746.199	23868.84
746.538	23689.63
746.877	23829.97
747.216	23713.13
747.556	23728.73
747.895	23695.05
748.234	23515.17
748.573	23657.77
748.911	23505.91
749.25	23534.16
749.589	23510.65
749.928	23557.43
750.267	23458.45
750.605	23427.49
750.944	23309.53
751.283	23312.24
751.621	23345.91
751.96	23187.05
752.298	23085.13
752.636	23123.32
752.975	23095.07
753.313	23005.81
753.651	23045.35
753.989	22926.71
754.327	22829.31
754.666	22904.79
755.004	22877.68
755.342	22882.19
755.679	22815.53
756.017	22691.24
756.355	22833.83
756.693	22629.77
757.031	22663.9
757.368	22552.94
757.706	22425.26
758.044	22426.39
758.381	22464.13
758.719	22412.15
759.056	22382.77
759.394	22255.54
759.731	22152.27
760.068	22170.8
760.405	21998.6
760.743	21946.17
