Data from hue_250_FLMS001491_00093.txt Node
Date: Tue Feb 07 16:01:45 GMT 2017
User: dcchb
Spectrometer: FLMS00149
Trigger mode: 0
Integration Time (sec): 2.000000E-2
Scans to average: 10
Electric dark correction enabled: true
Nonlinearity correction enabled: false
Boxcar width: 0
XAxis mode: Wavelengths
Number of Pixels in Spectrum: 2048
>>>>>Begin Spectral Data<<<<<
341.393	-0.08
341.776	-0.08
342.16	-0.08
342.543	-41.89
342.927	-81.66
343.31	-55.9
343.693	-59.52
344.077	-66.3
344.46	-59.29
344.843	-59.07
345.226	-39.41
345.61	-34.89
345.993	-10.25
346.376	-5.06
346.759	9.86
347.142	-1.21
347.525	58.9
347.908	43.76
348.291	67.26
348.674	97.99
349.057	113.13
349.44	131.66
349.823	144.77
350.206	156.97
350.588	170.08
350.971	185.45
351.354	223.64
351.737	243.98
352.119	255.73
352.502	257.08
352.884	260.02
353.267	260.7
353.65	265.44
354.032	301.38
354.414	270.64
354.797	295.95
355.179	318.55
355.562	303.18
355.944	314.26
356.326	322.62
356.709	317.87
357.091	331.88
357.473	310.19
357.855	334.14
358.238	326.91
358.62	331.66
359.002	323.52
359.384	308.61
359.766	325.1
360.148	321.04
360.53	329.17
360.912	324.88
361.294	322.84
361.676	310.87
362.057	324.2
362.439	332.34
362.821	323.07
363.203	322.39
363.584	308.61
363.966	306.35
364.348	303.41
364.729	314.03
365.111	302.51
365.493	335.27
365.874	311.55
366.256	312.68
366.637	294.14
367.019	284.88
367.4	292.56
367.781	296.63
368.163	309.74
368.544	318.32
368.925	299.34
369.306	293.92
369.688	328.49
370.069	274.94
370.45	291.66
370.831	281.94
371.212	308.61
371.593	317.65
371.974	307.03
372.355	308.16
372.736	316.74
373.117	305.9
373.498	310.64
373.879	317.87
374.26	296.18
374.641	298.89
375.021	295.5
375.402	317.65
375.783	303.86
376.163	302.96
376.544	305.9
376.925	330.75
377.305	319
377.686	330.75
378.066	318.32
378.447	314.03
378.827	308.61
379.208	322.17
379.588	313.81
379.968	309.74
380.349	335.95
380.729	327.59
381.109	317.2
381.489	328.72
381.87	337.31
382.25	304.77
382.63	316.07
383.01	312.22
383.39	331.43
383.77	322.39
384.15	326.23
384.53	327.82
384.91	325.78
385.29	333.24
385.67	331.88
386.049	337.08
386.429	345.89
386.809	331.66
387.189	345.22
387.568	367.59
387.948	344.09
388.328	363.97
388.707	346.35
389.087	350.41
389.466	344.54
389.846	352.45
390.225	375.72
390.605	369.85
390.984	355.16
391.363	358.55
391.743	361.04
392.122	365.56
392.501	358.78
392.881	358.78
393.26	361.71
393.639	358.1
394.018	359.23
394.397	356.06
394.776	359.23
395.155	368.95
395.534	366.46
395.913	370.08
396.292	378.44
396.671	382.05
397.05	377.76
397.429	390.41
397.808	383.63
398.186	392
398.565	373.69
398.944	384.09
399.323	389.06
399.701	399.45
400.08	395.16
400.458	385.89
400.837	385.67
401.215	416.63
401.594	407.36
401.972	410.53
402.351	417.98
402.729	406.91
403.107	420.47
403.486	426.34
403.864	389.51
404.242	408.49
404.62	428.83
404.999	422.73
405.377	422.05
405.755	425.89
406.133	434.03
406.511	426.34
406.889	428.38
407.267	453.69
407.645	428.15
408.023	441.94
408.401	475.16
408.779	464.99
409.156	477.87
409.534	463.86
409.912	465.21
410.29	478.09
410.667	484.42
411.045	512.9
411.422	506.12
411.8	490.52
412.178	500.02
412.555	509.96
412.933	511.31
413.31	506.34
413.687	539.11
414.065	535.27
414.442	549.96
414.819	566
415.197	551.09
415.574	556.06
415.951	566.68
416.328	550.41
416.705	578.21
417.082	583.18
417.46	613.91
417.837	615.49
418.214	604.42
418.591	620.69
418.967	599
419.344	627.47
419.721	622.27
420.098	632.89
420.475	639.67
420.852	649.62
421.228	648.94
421.605	661.14
421.982	677.64
422.358	685.09
422.735	687.13
423.111	689.39
423.488	711.31
423.864	736.39
424.241	737.3
424.617	768.48
424.994	747.47
425.37	754.02
425.746	765.77
426.123	793.34
426.499	780.01
426.875	791.76
427.251	820.01
427.627	810.29
428.003	796.5
428.379	847.35
428.756	853.23
429.132	852.1
429.507	851.19
429.883	822.27
430.259	889.38
430.635	860.46
431.011	876.5
431.387	907.91
431.763	936.84
432.138	938.2
432.514	943.17
432.89	958.76
433.265	985.43
433.641	975.71
434.016	997.4
434.392	1017.06
434.767	1039.21
435.143	1032.43
435.518	1035.37
435.894	1059.32
436.269	1084.86
436.644	1101.13
437.02	1136.61
437.395	1127.57
437.77	1156.72
438.145	1169.83
438.52	1208.7
438.895	1175.7
439.271	1217.06
439.646	1216.61
440.021	1245.53
440.395	1256.15
440.77	1250.05
441.145	1265.19
441.52	1270.16
441.895	1297.51
442.27	1304.51
442.645	1331.86
443.019	1323.5
443.394	1353.78
443.769	1365.53
444.143	1342.03
444.518	1397.84
444.892	1387.22
445.267	1380.22
445.641	1389.03
446.016	1384.29
446.39	1429.71
446.764	1425.19
447.139	1419.09
447.513	1467.22
447.887	1457.73
448.262	1452.31
448.636	1469.03
449.01	1509.48
449.384	1512.42
449.758	1509.48
450.132	1542.02
450.506	1531.63
450.88	1556.26
451.254	1580.66
451.628	1561.91
452.002	1591.96
452.376	1613.88
452.75	1619.08
453.123	1641
453.497	1673.77
453.871	1656.14
454.244	1666.09
454.618	1708.12
454.992	1712.86
455.365	1703.83
455.739	1753.99
456.112	1771.62
456.486	1793.09
456.859	1798.74
457.232	1824.27
457.606	1832.64
457.979	1816.14
458.352	1851.62
458.725	1913.76
459.099	1911.5
459.472	1946.76
459.845	1946.98
460.218	1948.79
460.591	1961.22
460.964	2010.03
461.337	2027.21
461.71	2061.1
462.083	2069.47
462.456	2091.39
462.829	2069.92
463.201	2149.69
463.574	2120.76
463.947	2179.07
464.32	2224.49
464.692	2202.12
465.065	2228.56
465.438	2236.92
465.81	2283.47
466.183	2308.33
466.555	2367.08
466.928	2342.68
467.3	2389.46
467.672	2409.57
468.045	2471.04
468.417	2482.79
468.789	2488.89
469.161	2523.01
469.534	2515.33
469.906	2566.63
470.278	2631.48
470.65	2633.97
471.022	2671.71
471.394	2680.75
471.766	2724.36
472.138	2761.65
472.51	2811.82
472.882	2871.25
473.253	2841.2
473.625	2937.92
473.997	2958.93
474.369	2981.31
474.74	3019.5
475.112	3058.37
475.484	3067.63
475.855	3127.97
476.227	3169.1
476.598	3252.49
476.97	3255.2
477.341	3280.73
477.713	3361.18
478.084	3356.21
478.455	3478.24
478.827	3514.17
479.198	3540.39
479.569	3587.17
479.94	3641.85
480.311	3691.57
480.682	3762.08
481.053	3856.54
481.424	3844.33
481.795	3899.47
482.166	3948.29
482.537	3977.21
482.908	4059.7
483.279	4084.33
483.65	4166.13
484.021	4246.13
484.391	4220.37
484.762	4278.22
485.133	4319.58
485.503	4338.33
485.874	4488.61
486.244	4493.13
486.615	4553.92
486.985	4608.38
487.356	4691.09
487.726	4687.25
488.097	4766.57
488.467	4783.29
488.837	4919.56
489.207	4899.67
489.578	5003.17
489.948	5003.63
490.318	5091.76
490.688	5103.06
491.058	5140.8
491.428	5208.37
491.798	5247.23
492.168	5374.92
492.538	5348.93
492.908	5416.27
493.278	5517.28
493.648	5464.63
494.017	5509.6
494.387	5581.24
494.757	5609.26
495.126	5660.33
495.496	5656.72
495.866	5719.99
496.235	5709.6
496.605	5786.43
496.974	5831.63
497.344	5876.6
497.713	5939.87
498.082	5895.81
498.452	5963.15
498.821	5961.34
499.19	5981.9
499.559	6036.82
499.928	6053.09
500.298	6103.71
500.667	6099.64
501.036	6106.87
501.405	6109.59
501.774	6162.92
502.143	6192.07
502.512	6227.77
502.88	6287.21
503.249	6315.46
503.618	6284.5
503.987	6314.78
504.356	6333.76
504.724	6363.59
505.093	6387.09
505.462	6380.09
505.83	6432.51
506.199	6435.9
506.567	6539.18
506.936	6479.07
507.304	6554.09
507.672	6566.52
508.041	6613.98
508.409	6632.74
508.777	6645.16
509.145	6665.5
509.514	6683.58
509.882	6740.08
510.25	6698.72
510.618	6716.8
510.986	6754.09
511.354	6778.49
511.722	6865.95
512.09	6864.82
512.458	6836.57
512.826	6877.02
513.193	6858.49
513.561	6931.03
513.929	6960.86
514.297	6972.84
514.664	6944.37
515.032	6993.63
515.4	7005.15
515.767	7039.05
516.135	7034.08
516.502	6973.74
516.869	7061.88
517.237	7075.89
517.604	7039.96
517.972	7162.66
518.339	7114.98
518.706	7149.33
519.073	7136
519.44	7189.56
519.808	7172.16
520.175	7174.42
520.542	7247.86
520.909	7250.12
521.276	7255.32
521.643	7278.37
522.009	7314.3
522.376	7254.41
522.743	7386.61
523.11	7351.36
523.477	7359.04
523.843	7419.16
524.21	7436.33
524.577	7468.87
524.943	7486.05
525.31	7514.52
525.676	7486.5
526.043	7504.8
526.409	7568.76
526.776	7583.9
527.142	7565.37
527.508	7599.72
527.874	7586.38
528.241	7714.51
528.607	7680.62
528.973	7696.66
529.339	7665.25
529.705	7691.24
530.071	7785.02
530.437	7779.15
530.803	7694.4
531.169	7719.94
531.535	7653.73
531.901	7680.62
532.267	7681.07
532.632	7665.25
532.998	7680.62
533.364	7766.94
533.73	7780.05
534.095	7722.42
534.461	7719.03
534.826	7735.53
535.192	7720.84
535.557	7817.79
535.923	7851.23
536.288	7792.7
536.653	7797.68
537.019	7731.24
537.384	7735.31
537.749	7742.76
538.114	7692.14
538.479	7705.48
538.845	7734.4
539.21	7679.26
539.575	7661.41
539.94	7721.07
540.305	7701.41
540.67	7682.2
541.034	7660.28
541.399	7646.72
541.764	7611.47
542.129	7666.38
542.494	7733.95
542.858	7710.67
543.223	7688.53
543.587	7733.72
543.952	7662.54
544.316	7696.44
544.681	7643.78
545.045	7618.02
545.41	7614.63
545.774	7668.19
546.138	7616.66
546.503	7632.71
546.867	7520.4
547.231	7578.25
547.595	7667.74
547.959	7632.48
548.324	7586.16
548.688	7591.13
549.052	7576.89
549.416	7563.11
549.779	7573.28
550.143	7478.81
550.507	7565.82
550.871	7505.93
551.235	7486.72
551.599	7531.24
551.962	7569.21
552.326	7453.5
552.689	7513.84
553.053	7511.36
553.417	7492.15
553.78	7565.82
554.143	7530.11
554.507	7505.25
554.87	7518.36
555.234	7582.09
555.597	7497.35
555.96	7542.32
556.323	7524.01
556.686	7507.29
557.05	7552.71
557.413	7526.5
557.776	7549.77
558.139	7587.96
558.502	7585.25
558.865	7498.02
559.228	7605.82
559.59	7544.8
559.953	7542.77
560.316	7611.24
560.679	7622.99
561.041	7667.51
561.404	7629.32
561.767	7602.43
562.129	7581.41
562.492	7704.57
562.854	7656.21
563.217	7690.11
563.579	7666.83
563.941	7719.49
564.304	7770.78
564.666	7769.65
565.028	7747.96
565.39	7784.8
565.753	7804.46
566.115	7825.25
566.477	7815.75
566.839	7866.6
567.201	7931.23
567.563	7878.35
567.925	7937.79
568.287	7894.85
568.648	7910.22
569.01	7917.45
569.372	7975.75
569.734	7985.02
570.095	7973.26
570.457	7994.96
570.819	8004.68
571.18	8046.03
571.542	8043.77
571.903	8058.46
572.265	8100.72
572.626	8101.62
572.987	8091
573.349	8166.48
573.71	8184.11
574.071	8217.1
574.432	8200.6
574.794	8221.85
575.155	8271.11
575.516	8217.33
575.877	8269.75
576.238	8234.95
576.599	8299.58
576.96	8340.49
577.32	8415.06
577.681	8357.44
578.042	8412.58
578.403	8371.9
578.763	8377.77
579.124	8388.4
579.485	8388.4
579.845	8428.62
580.206	8477.43
580.566	8474.72
580.927	8468.39
581.287	8494.83
581.648	8427.94
582.008	8470.65
582.368	8488.51
582.728	8563.53
583.089	8529.63
583.449	8594.49
583.809	8507.71
584.169	8607.6
584.529	8579.12
584.889	8685.56
585.249	8604.66
585.609	8624.77
585.969	8660.25
586.329	8642.17
586.688	8669.07
587.048	8699.57
587.408	8682.4
587.768	8651.21
588.127	8687.14
588.487	8617.54
588.846	8763.98
589.206	8727.14
589.565	8734.83
589.925	8819.57
590.284	8728.73
590.643	8802.85
591.003	8813.92
591.362	8852.79
591.721	8786.35
592.08	8817.54
592.44	8862.51
592.799	8902.51
593.158	8791.77
593.517	8792.9
593.876	8890.08
594.235	8877.42
594.593	8859.34
594.952	8925.33
595.311	8815.95
595.67	8850.53
596.029	8911.09
596.387	8906.12
596.746	8900.25
597.104	8917.87
597.463	8878.55
597.822	8980.02
598.18	8930.53
598.538	8963.97
598.897	8948.15
599.255	8896.18
599.613	8965.78
599.972	8913.13
600.33	9004.65
600.688	8914.03
601.046	8931.21
601.404	9001.26
601.762	8997.87
602.12	9022.73
602.478	9050.98
602.836	9093.01
603.194	9033.35
603.552	9009.17
603.91	8973.01
604.268	9037.64
604.625	8985.44
604.983	9034.71
605.341	8982.28
605.698	9062.95
606.056	9069.51
606.413	9025.67
606.771	9115.38
607.128	9064.99
607.485	9026.57
607.843	9069.73
608.2	9105.66
608.557	9167.81
608.914	9057.76
609.272	9222.05
609.629	9155.61
609.986	9128.49
610.343	9183.4
610.7	9234.7
611.057	9243.29
611.414	9193.57
611.771	9209.84
612.127	9233.34
612.484	9219.33
612.841	9269.95
613.198	9196.74
613.554	9208.03
613.911	9207.36
614.267	9282.84
614.624	9236.73
614.98	9257.07
615.337	9300.46
615.693	9313.57
616.05	9225.89
616.406	9369.84
616.762	9236.96
617.118	9281.25
617.475	9262.5
617.831	9360.35
618.187	9392.44
618.543	9340.69
618.899	9439.22
619.255	9370.74
619.611	9336.17
619.967	9414.36
620.323	9430.18
620.678	9375.94
621.034	9307.69
621.39	9378.2
621.746	9336.84
622.101	9462.04
622.457	9395.6
622.812	9431.08
623.168	9407.58
623.523	9392.21
623.879	9426.11
624.234	9370.29
624.589	9395.6
624.945	9452.55
625.3	9440.34
625.655	9349.73
626.01	9428.37
626.365	9348.82
626.72	9377.97
627.075	9267.92
627.43	9317.64
627.785	9346.11
628.14	9302.5
628.495	9364.64
628.85	9327.58
629.205	9380.01
629.559	9385.21
629.914	9306.56
630.269	9302.95
630.623	9261.82
630.978	9276.28
631.332	9335.04
631.687	9289.61
632.041	9273.12
632.396	9286.22
632.75	9221.14
633.104	9225.44
633.459	9264.98
633.813	9226.11
634.167	9205.32
634.521	9244.64
634.875	9175.27
635.229	9182.05
635.583	9106.34
635.937	9179.11
636.291	9130.52
636.645	9109.73
636.999	9115.38
637.352	9135.72
637.706	9037.64
638.06	9044.42
638.413	9122.39
638.767	9094.82
639.121	9065.44
639.474	9076.96
639.828	9086.23
640.181	9022.95
640.534	9035.38
640.888	8903.86
641.241	8966.01
641.594	9010.3
641.947	8945.89
642.301	8977.76
642.654	8974.82
643.007	8955.39
643.36	8872.45
643.713	8902.05
644.066	9005.78
644.419	8940.02
644.771	8920.36
645.124	8800.81
645.477	8770.53
645.83	8652.8
646.182	8715.39
646.535	8681.49
646.888	8661.16
647.24	8589.29
647.593	8611.67
647.945	8626.58
648.298	8611.67
648.65	8652.12
649.002	8602.63
649.355	8610.99
649.707	8627.03
650.059	8630.2
650.411	8766.01
650.763	8752.68
651.115	8849.85
651.467	8798.33
651.819	8821.6
652.171	8779.12
652.523	8757.88
652.875	8714.49
653.227	8740.02
653.578	8766.69
653.93	8792
654.282	8706.58
654.633	8763.75
654.985	8760.81
655.337	8780.02
655.688	8820.7
656.039	8814.82
656.391	8726.69
656.742	8738.22
657.094	8705.9
657.445	8787.71
657.796	8802.4
658.147	8733.7
658.498	8729.63
658.849	8801.94
659.2	8748.84
659.551	8736.63
659.902	8802.62
660.253	8815.28
660.604	8786.58
660.955	8751.55
661.306	8811.66
661.656	8780.48
662.007	8812.79
662.358	8781.83
662.708	8760.81
663.059	8758.33
663.409	8708.84
663.76	8803.98
664.11	8790.19
664.461	8834.71
664.811	8749.97
665.161	8777.99
665.511	8742.28
665.862	8811.66
666.212	8763.75
666.562	8823.19
666.912	8796.29
667.262	8725.34
667.612	8783.64
667.962	8796.52
668.312	8721.72
668.662	8807.37
669.011	8825.9
669.361	8745.67
669.711	8715.84
670.06	8718.78
670.41	8773.24
670.76	8768.72
671.109	8760.59
671.459	8691.44
671.808	8686.47
672.157	8764.66
672.507	8620.48
672.856	8683.98
673.205	8699.57
673.554	8723.08
673.904	8692.34
674.253	8688.05
674.602	8636.98
674.951	8573.25
675.3	8488.51
675.649	8640.82
675.998	8655.51
676.346	8662.96
676.695	8640.14
677.044	8592.68
677.393	8604.21
677.741	8572.35
678.09	8608.95
678.438	8578.67
678.787	8565.79
679.135	8586.36
679.484	8490.99
679.832	8542.97
680.181	8507.26
680.529	8493.93
680.877	8514.04
681.225	8480.6
681.573	8547.26
681.922	8412.12
682.27	8410.77
682.618	8388.17
682.966	8441.95
683.314	8393.59
683.661	8368.51
684.009	8349.98
684.357	8315.85
684.705	8314.27
685.053	8312.92
685.4	8287.61
685.748	8280.38
686.095	8296.42
686.443	8173.49
686.79	8206.25
687.138	8188.63
687.485	8218.23
687.832	8189.53
688.18	8199.25
688.527	8085.58
688.874	8155.18
689.221	8147.95
689.568	8059.14
689.915	8062.75
690.262	8073.38
690.609	8027.27
690.956	8003.77
691.303	7993.6
691.65	7914.51
691.997	7958.12
692.344	7889.88
692.69	7870.89
693.037	7829.99
693.383	7836.55
693.73	7814.63
694.077	7748.19
694.423	7710.45
694.769	7714.74
695.116	7630.9
695.462	7710.45
695.808	7634.29
696.155	7646.95
696.501	7554.97
696.847	7570.11
697.193	7515.42
697.539	7534.41
697.885	7540.06
698.231	7462.54
698.577	7493.28
698.923	7361.3
699.269	7349.1
699.614	7310.46
699.96	7399.27
700.306	7303.9
700.651	7320.17
700.997	7262.1
701.342	7283.11
701.688	7217.8
702.033	7168.09
702.379	7244.47
702.724	7138.94
703.069	7175.77
703.415	7073.63
703.76	7110.91
704.105	7134.64
704.45	7071.37
704.795	7051.93
705.14	6999.73
705.485	6966.74
705.83	6946.63
706.175	6965.61
706.52	6955.89
706.865	6867.98
707.209	6867.31
707.554	6858.94
707.899	6872.95
708.243	6843.35
708.588	6796.35
708.932	6787.53
709.277	6786.86
709.621	6736.46
709.966	6719.51
710.31	6745.27
710.654	6667.31
710.998	6645.62
711.342	6667.31
711.687	6634.77
712.031	6610.36
712.375	6623.24
712.719	6625.5
713.063	6586.18
713.407	6598.16
713.75	6624.6
714.094	6538.05
714.438	6515
714.782	6533.75
715.125	6531.49
715.469	6528.11
715.812	6519.52
716.156	6474.1
716.499	6451.27
716.843	6471.16
717.186	6450.14
717.53	6420.31
717.873	6451.27
718.216	6448.11
718.559	6400.42
718.902	6390.48
719.246	6360.88
719.589	6341.44
719.932	6351.61
720.275	6320.88
720.617	6352.52
720.96	6308.68
721.303	6349.13
721.646	6312.29
721.989	6327.43
722.331	6283.59
722.674	6286.53
723.016	6295.34
723.359	6312.74
723.701	6248.79
724.044	6213.54
724.386	6239.3
724.729	6265.51
725.071	6256.25
725.413	6242.91
725.755	6216.47
726.097	6204.95
726.439	6158.17
726.782	6159.75
727.124	6221.45
727.465	6227.55
727.807	6214.67
728.149	6133.77
728.491	6183.26
728.833	6165.85
729.175	6127.66
729.516	6183.48
729.858	6203.59
730.199	6155.69
730.541	6154.78
730.882	6170.83
731.224	6189.81
731.565	6106.87
731.906	6138.74
732.248	6133.54
732.589	6153.65
732.93	6132.64
733.271	6102.13
733.612	6159.98
733.953	6154.56
734.294	6080.89
734.635	6117.95
734.976	6113.88
735.317	6131.05
735.658	6141.67
735.999	6085.18
736.339	6058.06
736.68	6150.94
737.021	6107.1
737.361	6095.35
737.702	6105.52
738.042	6163.59
738.383	6144.61
738.723	6105.29
739.063	6066.2
739.404	6157.04
739.744	6133.77
740.084	6132.86
740.424	6135.12
740.764	6155.01
741.104	6175.12
741.444	6171.28
741.784	6152.97
742.124	6145.29
742.464	6175.12
742.804	6167.89
743.143	6225.06
743.483	6249.02
743.823	6207.89
744.162	6220.99
744.502	6220.09
744.841	6223.71
745.181	6281.56
745.52	6270.94
745.86	6350.93
746.199	6335.79
746.538	6304.61
746.877	6381.89
747.216	6472.97
747.556	6432.51
747.895	6517.03
748.234	6511.83
748.573	6553.64
748.911	6535.34
749.25	6633.19
749.589	6605.39
749.928	6650.81
750.267	6760.42
750.605	6792.28
750.944	6825.27
751.283	6835.22
751.621	6958.83
751.96	6978.71
752.298	6979.62
752.636	7084.93
752.975	7086.51
753.313	7143
753.651	7192.49
753.989	7294.41
754.327	7390.23
754.666	7403.34
755.004	7519.27
755.342	7608.75
755.679	7715.87
756.017	7769.2
756.355	7868.86
756.693	7898.24
757.031	8012.59
757.368	8101.62
757.706	8261.17
758.044	8268.4
758.381	8372.12
758.719	8447.83
759.056	8622.29
759.394	8679.24
759.731	8804.88
760.068	8819.57
760.405	8895.27
760.743	8998.77
761.08	9173.01
761.417	9222.27
761.754	9300.46
762.091	9423.62
762.428	9473.34
762.765	9600.79
763.102	9726.89
763.438	9828.81
763.775	9897.73
764.112	10066.77
764.449	10118.75
764.785	10162.81
765.122	10200.78
765.458	10356.25
765.795	10497.94
766.131	10521.22
766.467	10665.4
766.804	10682.8
767.14	10735
767.476	10822.46
767.812	10895.9
768.148	10991.26
768.485	11067.19
768.821	11126.63
769.157	11238.26
