Data from hue_70_FLMS001491_6.txt Node
Date: Mon Feb 06 15:19:59 GMT 2017
User: dcchb
Spectrometer: FLMS00149
Trigger mode: 0
Integration Time (sec): 2.000000E-2
Scans to average: 10
Electric dark correction enabled: true
Nonlinearity correction enabled: false
Boxcar width: 0
XAxis mode: Wavelengths
Number of Pixels in Spectrum: 2048
>>>>>Begin Spectral Data<<<<<
341.393	0.01
341.776	0.01
342.16	0.01
342.543	-72.07
342.927	-73.43
343.31	-54.22
343.693	-67.1
344.077	-70.72
344.46	-62.13
344.843	-51.06
345.226	-39.31
345.61	-34.56
345.993	8.38
346.376	-17.61
346.759	-21
347.142	25.32
347.525	41.37
347.908	62.16
348.291	90.63
348.674	94.02
349.057	95.83
349.44	119.11
349.823	121.37
350.206	169.73
350.588	192.55
350.971	209.73
351.354	216.51
351.737	219.9
352.119	260.57
352.502	251.98
352.884	289.72
353.267	272.55
353.65	289.72
354.032	303.96
354.414	305.09
354.797	320.23
355.179	320.23
355.562	320.46
355.944	334.92
356.326	337.86
356.709	350.74
357.091	348.03
357.473	336.28
357.855	353.23
358.238	338.08
358.62	343.51
359.002	346.22
359.384	339.89
359.766	362.49
360.148	355.71
360.53	334.47
360.912	330.4
361.294	338.54
361.676	334.47
362.057	320.46
362.439	348.03
362.821	330.63
363.203	343.96
363.584	334.69
363.966	315.26
364.348	313.23
364.729	314.36
365.111	293.57
365.493	310.29
365.874	308.71
366.256	307.35
366.637	313.9
367.019	310.74
367.4	318.2
367.781	306.67
368.163	318.88
368.544	331.53
368.925	325.2
369.306	299.89
369.688	324.75
370.069	312.55
370.45	315.71
370.831	319.33
371.212	300.12
371.593	285.43
371.974	307.8
372.355	324.3
372.736	302.15
373.117	296.73
373.498	314.36
373.879	294.7
374.26	314.58
374.641	313.68
375.021	303.06
375.402	314.13
375.783	332.89
376.163	297.18
376.544	334.69
376.925	343.96
377.305	315.26
377.686	328.37
378.066	320.23
378.447	333.79
378.827	321.14
379.208	323.4
379.588	315.03
379.968	301.7
380.349	340.8
380.729	343.51
381.109	336.05
381.489	343.06
381.87	373.11
382.25	336.28
382.63	326.33
383.01	327.24
383.39	324.07
383.77	353.23
384.15	344.86
384.53	345.54
384.91	337.18
385.29	341.7
385.67	347.8
386.049	331.98
386.429	355.26
386.809	356.39
387.189	350.97
387.568	333.79
387.948	356.61
388.328	356.84
388.707	325.43
389.087	365.88
389.466	343.73
389.846	376.73
390.225	362.04
390.605	357.07
390.984	360.91
391.363	371.08
391.743	364.52
392.122	344.86
392.501	364.98
392.881	353
393.26	359.33
393.639	382.15
394.018	381.25
394.397	363.85
394.776	381.25
395.155	374.92
395.534	381.7
395.913	370.63
396.292	376.05
396.671	357.74
397.05	381.02
397.429	382.83
397.808	383.51
398.186	381.47
398.565	352.1
398.944	388.25
399.323	381.25
399.701	363.17
400.08	395.03
400.458	379.67
400.837	390.06
401.215	386.44
401.594	380.8
401.972	408.36
402.351	403.62
402.729	416.05
403.107	412.43
403.486	420.12
403.864	405.43
404.242	409.95
404.62	407.24
404.999	391.19
405.377	420.57
405.755	430.51
406.133	407.01
406.511	412.88
406.889	404.75
407.267	421.7
407.645	425.77
408.023	409.95
408.401	409.27
408.779	434.35
409.156	399.55
409.534	421.92
409.912	443.39
410.29	446.56
410.667	439.55
411.045	431.42
411.422	463.96
411.8	450.62
412.178	447.91
412.555	434.8
412.933	468.25
413.31	467.35
413.687	480.45
414.065	460.12
414.442	472.54
414.819	469.83
415.197	467.57
415.574	460.57
415.951	482.71
416.328	503.96
416.705	473.67
417.082	498.31
417.46	492.88
417.837	500.57
418.214	497.85
418.591	492.43
418.967	504.18
419.344	493.56
419.721	476.39
420.098	510.28
420.475	502.6
420.852	516.61
421.228	516.38
421.605	502.83
421.982	540.34
422.358	521.81
422.735	539.66
423.111	531.07
423.488	516.61
423.864	544.63
424.241	542.37
424.617	555.48
424.994	537.63
425.37	532.43
425.746	542.37
426.123	566.33
426.499	551.19
426.875	567.91
427.251	562.49
427.627	570.39
428.003	572.65
428.379	562.71
428.756	570.62
429.132	578.76
429.507	589.38
429.883	603.39
430.259	590.28
430.635	598.64
431.011	618.3
431.387	612.43
431.763	622.37
432.138	619.88
432.514	605.87
432.89	616.72
433.265	624.18
433.641	645.19
434.016	625.76
434.392	663.5
434.767	646.78
435.143	663.95
435.518	656.72
435.894	640.9
436.269	663.5
436.644	672.09
437.02	673.89
437.395	669.83
437.77	684.52
438.145	706.44
438.52	720
438.895	696.04
439.271	720.67
439.646	701.69
440.021	712.31
440.395	724.51
440.77	706.44
441.145	717.28
441.52	738.53
441.895	740.11
442.27	746.44
442.645	746.89
443.019	759.32
443.394	726.32
443.769	747.79
444.143	744.18
444.518	757.28
444.892	776.72
445.267	765.87
445.641	756.83
446.016	793.67
446.39	787.11
446.764	800.67
447.139	794.57
447.513	804.51
447.887	801.8
448.262	804.74
448.636	809.48
449.01	828.01
449.384	839.99
449.758	830.05
450.132	845.19
450.506	815.36
450.88	838.41
451.254	813.1
451.628	865.08
452.002	871.18
452.376	888.13
452.75	896.71
453.123	879.31
453.497	907.33
453.871	910.05
454.244	904.4
454.618	889.26
454.992	931.74
455.365	904.62
455.739	972.64
456.112	955.47
456.486	984.4
456.859	980.1
457.232	992.3
457.606	985.98
457.979	986.65
458.352	994.56
458.725	1015.58
459.099	1029.59
459.472	1041.12
459.845	1055.13
460.218	1069.36
460.591	1070.04
460.964	1080.44
461.337	1114.34
461.71	1123.15
462.083	1132.64
462.456	1155.24
462.829	1136.48
463.201	1180.32
463.574	1147.55
463.947	1199.53
464.32	1212.64
464.692	1223.03
465.065	1225.29
465.438	1237.5
465.81	1286.31
466.183	1263.26
466.555	1296.48
466.928	1311.62
467.3	1341.22
467.672	1378.73
468.045	1396.59
468.417	1403.59
468.789	1426.64
469.161	1454.21
469.534	1458.96
469.906	1468.45
470.278	1518.62
470.65	1542.12
471.022	1574.66
471.394	1597.71
471.766	1626.41
472.138	1671.38
472.51	1669.12
472.882	1728.1
473.253	1771.04
473.625	1785.05
473.997	1848.78
474.369	1859.63
474.74	1895.56
475.112	1935.56
475.484	1994.54
475.855	2041.32
476.227	2047.64
476.598	2127.64
476.97	2189.11
477.341	2285.15
477.713	2280.63
478.084	2339.39
478.455	2417.13
478.827	2443.11
479.198	2553.85
479.569	2599.95
479.94	2662.99
480.311	2724.24
480.682	2827.28
481.053	2902.76
481.424	3001.07
481.795	3066.6
482.166	3138.69
482.537	3237.22
482.908	3331.9
483.279	3419.81
483.65	3509.53
484.021	3593.59
484.391	3705.45
484.762	3791.55
485.133	3872.68
485.503	3950.64
485.874	4075.84
486.244	4227.7
486.615	4291.65
486.985	4450.07
487.356	4546.79
487.726	4666.56
488.097	4775.03
488.467	4905.42
488.837	5032.42
489.207	5163.72
489.578	5321.91
489.948	5408.69
490.318	5567.1
490.688	5599.87
491.058	5827.88
491.428	5950.82
491.798	6084.83
492.168	6269.91
492.538	6420.41
492.908	6500.86
493.278	6665.6
493.648	6775.88
494.017	6899.49
494.387	7040.28
494.757	7189.43
495.126	7329.31
495.496	7456.77
495.866	7569.08
496.235	7743.31
496.605	7941.05
496.974	8080.25
497.344	8160.48
497.713	8313.47
498.082	8449.96
498.452	8595.49
498.821	8726.34
499.19	8819.22
499.559	8962.26
499.928	9053.11
500.298	9206.33
500.667	9339.2
501.036	9406.77
501.405	9560.44
501.774	9666.2
502.143	9891.96
502.512	9931.28
502.88	10090.82
503.249	10112.06
503.618	10310.7
503.987	10377.37
504.356	10554.09
504.724	10588.66
505.093	10809
505.462	10819.84
505.83	10993.85
506.199	11151.59
506.567	11331.24
506.936	11402.65
507.304	11501.41
507.672	11600.16
508.041	11736.43
508.409	11890.32
508.777	11920.38
509.145	12067.95
509.514	12158.34
509.882	12192.69
510.25	12330.54
510.618	12520.36
510.986	12574.15
511.354	12682.84
511.722	12826.8
512.09	13003.74
512.458	13017.75
512.826	13100.91
513.193	13308.36
513.561	13311.98
513.929	13411.19
514.297	13560.11
514.664	13741.57
515.032	13770.05
515.4	13829.03
515.767	13932.98
516.135	14120.32
516.502	14049.36
516.869	14245.06
517.237	14293.88
517.604	14342.01
517.972	14493.19
518.339	14610.93
518.706	14670.14
519.073	14751.04
519.44	14819.51
519.808	15021.31
520.175	15011.6
520.542	15169.11
520.909	15227.64
521.276	15288.88
521.643	15461.53
522.009	15612.71
522.376	15663.11
522.743	15754.18
523.11	15857.45
523.477	16005.24
523.843	16088.18
524.21	16281.39
524.577	16271.68
524.943	16416.31
525.31	16440.03
525.676	16487.26
526.043	16699.46
526.409	16756.64
526.776	16948.5
527.142	16826.69
527.508	17027.36
527.874	17252.67
528.241	17282.72
528.607	17282.27
528.973	17348.71
529.339	17393.46
529.705	17556.39
530.071	17617.4
530.437	17775.59
530.803	17709.38
531.169	17929.94
531.535	17795.03
531.901	17883.61
532.267	18010.16
532.632	18055.13
532.998	18135.81
533.364	18245.18
533.73	18189.59
534.095	18372.41
534.461	18395.01
534.826	18428
535.192	18493.54
535.557	18558.85
535.923	18469.36
536.288	18580.99
536.653	18623.03
537.019	18530.15
537.384	18655.12
537.749	18697.38
538.114	18727.66
538.479	18730.82
538.845	18828.45
539.21	18766.98
539.575	18881.1
539.94	18796.36
540.305	18964.94
540.67	19003.81
541.034	18966.97
541.399	19040.64
541.764	19079.29
542.129	19071.15
542.494	19110.02
542.858	19081.55
543.223	19101.21
543.587	19271.37
543.952	19203.58
544.316	19192.28
544.681	19272.95
545.045	19308.43
545.41	19352.05
545.774	19336.91
546.138	19325.83
546.503	19320.64
546.867	19331.26
547.231	19527.86
547.595	19331.03
547.959	19520.63
548.324	19454.19
548.688	19460.29
549.052	19544.81
549.416	19536.22
549.779	19597.92
550.143	19690.34
550.507	19647.41
550.871	19757.91
551.235	19571.48
551.599	19766.05
551.962	19697.35
552.326	19793.39
552.689	19916.33
553.053	19788.65
553.417	19784.35
553.78	20025.7
554.143	19938.47
554.507	19957
554.87	19980.51
555.234	20142.08
555.597	20000.17
555.96	20111.35
556.323	20113.61
556.686	20073.38
557.05	20181.63
557.413	20215.53
557.776	20299.59
558.139	20444.9
558.502	20503.2
558.865	20405.58
559.228	20514.5
559.59	20541.39
559.953	20734.61
560.316	20670.43
560.679	20814.83
561.041	20749.98
561.404	20880.6
561.767	20933.93
562.129	20946.81
562.492	21058.22
562.854	21115.17
563.217	21085.56
563.579	21169.63
563.941	21287.59
564.304	21446
564.666	21389.51
565.028	21362.16
565.39	21642.83
565.753	21583.63
566.115	21591.31
566.477	21649.61
566.839	21664.53
567.201	21874.92
567.563	21852.09
567.925	21962.6
568.287	21949.95
568.648	21893.45
569.01	22092.31
569.372	22114.91
569.734	22123.27
570.095	22248.02
570.457	22245.98
570.819	22422.25
571.18	22302.93
571.542	22453.66
571.903	22466.77
572.265	22578.4
572.626	22520.55
572.987	22678.06
573.349	22592.41
573.71	22808.45
574.071	22775.69
574.432	22896.36
574.794	22990.37
575.155	23000.54
575.516	22900.88
575.877	23011.39
576.238	22960.54
576.599	23093.64
576.96	22995.34
577.32	23036.92
577.681	23195.34
578.042	23208.9
578.403	23232.62
578.763	23250.93
579.124	23270.81
579.485	23375.67
579.845	23363.92
580.206	23433.07
580.566	23368.21
580.927	23436.23
581.287	23424.26
581.648	23352.85
582.008	23456.8
582.368	23428.55
582.728	23552.84
583.089	23408.66
583.449	23322.11
583.809	23451.15
584.169	23514.88
584.529	23361.21
584.889	23558.72
585.249	23418.83
585.609	23492.96
585.969	23486.85
586.329	23504.25
586.688	23520.07
587.048	23462.67
587.408	23322.79
587.768	23346.52
588.127	23383.58
588.487	23388.78
588.846	23562.56
589.206	23414.99
589.565	23294.99
589.925	23504.03
590.284	23482.79
590.643	23548.77
591.003	23511.71
591.362	23593.97
591.721	23496.12
592.08	23434.65
592.44	23656.79
592.799	23516.46
593.158	23566.4
593.517	23547.87
593.876	23521.43
594.235	23459.96
594.593	23547.19
594.952	23495.89
595.311	23540.64
595.67	23548.55
596.029	23620.41
596.387	23695.89
596.746	23658.83
597.104	23544.25
597.463	23560.98
597.822	23707.87
598.18	23708.54
598.538	23575.89
598.897	23807.52
599.255	23545.84
599.613	23905.37
599.972	23720.97
600.33	23715.32
600.688	23699.96
601.046	23750.8
601.404	23847.3
601.762	23798.03
602.12	23871.02
602.478	23852.49
602.836	23928.42
603.194	23772.04
603.552	23787.64
603.91	23659.05
604.268	23896.33
604.625	23882.55
604.983	23866.96
605.341	23702.44
605.698	24004.81
606.056	23988.99
606.413	23887.07
606.771	23977.24
607.128	24079.16
607.485	23938.59
607.843	23993.51
608.2	24103.56
608.557	24245.7
608.914	24088.19
609.272	24181.3
609.629	24237.79
609.986	24270.34
610.343	24252.03
610.7	24483.44
611.057	24393.72
611.414	24437.79
611.771	24416.77
612.127	24457.45
612.484	24478.69
612.841	24614.73
613.198	24482.76
613.554	24600.05
613.911	24803.2
614.267	24670.55
614.624	24697.44
614.98	24666.94
615.337	24830.32
615.693	24701.51
616.05	24771.57
616.406	24949.87
616.762	24686.82
617.118	24820.83
617.475	24864.45
617.831	24921.17
618.187	24930.43
618.543	24997.77
618.899	25187.83
619.255	24931.11
619.611	25062.86
619.967	25113.25
620.323	25165.91
620.678	25178.79
621.034	25129.52
621.39	25028.06
621.746	25109.18
622.101	25353.02
622.457	25060.15
622.812	25170.88
623.168	25316.41
623.523	25200.48
623.879	25273.93
624.234	25207.94
624.589	25282.06
624.945	25273.25
625.3	25362.29
625.655	25318.22
626.01	25329.52
626.365	25456.75
626.72	25321.16
627.075	25311.44
627.43	25319.8
627.785	25193.7
628.14	25270.31
628.495	25350.76
628.85	25297.2
629.205	25279.58
629.559	25440.02
629.914	25304.21
630.269	25251.1
630.623	25233.25
630.978	25214.49
631.332	25335.85
631.687	25328.84
632.041	25170.2
632.396	25255.85
632.75	25259.91
633.104	25200.71
633.459	25067.15
633.813	25128.39
634.167	25108.28
634.521	25054.27
634.875	25061.73
635.229	25058.11
635.583	24961.39
635.937	24999.36
636.291	24875.29
636.645	24912.13
636.999	24854.05
637.352	24986.48
637.706	24892.01
638.06	24992.13
638.413	24780.38
638.767	24760.94
639.121	24894.73
639.474	24655.19
639.828	24759.82
640.181	24722.75
640.534	24827.84
640.888	24665.13
641.241	24595.53
641.594	24721.4
641.947	24633.04
642.301	24624.45
642.654	24612.7
643.007	24630.1
643.36	24602.31
643.713	24518.47
644.066	24595.07
644.419	24454.74
644.771	24395.76
645.124	24147.4
645.477	24134.97
645.83	23908.54
646.182	23873.51
646.535	23813.4
646.888	23784.7
647.24	23770.91
647.593	23896.79
647.945	23770.69
648.298	23636.23
648.65	23668.09
649.002	23673.06
649.355	23781.99
649.707	23655.21
650.059	23743.34
650.411	24069.44
650.763	24098.36
651.115	24360.28
651.467	24170.68
651.819	24188.3
652.171	24170.68
652.523	24199.15
652.875	24080.74
653.227	24061.3
653.578	24348.07
653.93	24126.16
654.282	24032.83
654.633	24013.17
654.985	24161.41
655.337	24179.72
655.688	24136.55
656.039	24184.01
656.391	24079.61
656.742	24074.64
657.094	24017.01
657.445	24146.72
657.796	24123.67
658.147	24075.54
658.498	24026.5
658.849	24101.75
659.2	24085.93
659.551	23952.6
659.902	24164.35
660.253	24092.26
660.604	24060.62
660.955	23986.5
661.306	24108.31
661.656	24038.7
662.007	24042.55
662.358	23985.6
662.708	24039.83
663.059	24090.45
663.409	24008.65
663.76	24130.23
664.11	23989.89
664.461	24116.22
664.811	24101.98
665.161	24145.37
665.511	24130.45
665.862	24101.53
666.212	24164.12
666.562	24125.93
666.912	23940.4
667.262	24064.92
667.612	23992.15
667.962	24083.22
668.312	24036.67
668.662	24078.03
669.011	24024.24
669.361	23962.32
669.711	24022.66
670.06	23937.46
670.41	23893.62
670.76	23904.24
671.109	24006.84
671.459	23981.98
671.808	23876.45
672.157	23960.74
672.507	23784.7
672.856	23774.08
673.205	23827.18
673.554	23849.56
673.904	23825.83
674.253	23949.89
674.602	23878.71
674.951	23519.85
675.3	23408.44
675.649	23730.24
675.998	23801.42
676.346	23649.79
676.695	23880.97
677.044	23621.99
677.393	23717.81
677.741	23699.5
678.09	23561.2
678.438	23505.61
678.787	23609.34
679.135	23587.64
679.484	23399.62
679.832	23523.69
680.181	23419.51
680.529	23465.16
680.877	23452.96
681.225	23306.97
681.573	23423.13
681.922	23311.04
682.27	23209.35
682.618	23270.59
682.966	23045.51
683.314	23251.83
683.661	23174.77
684.009	23087.99
684.357	23032.18
684.705	22871.96
685.053	23080.54
685.4	22955.79
685.748	22848.68
686.095	22869.02
686.443	22702.69
686.79	22698.17
687.138	22727.1
687.485	22712.19
687.832	22666.76
688.18	22637.39
688.527	22459.54
688.874	22485.52
689.221	22386.09
689.568	22427.67
689.915	22257.73
690.262	22282.82
690.609	22195.59
690.956	22088.25
691.303	22161.01
691.65	22034.01
691.997	21964.86
692.344	21869.04
692.69	21870.17
693.037	21817.97
693.383	21685.77
693.73	21748.82
694.077	21559.45
694.423	21542.27
694.769	21523.74
695.116	21467.7
695.462	21451.65
695.808	21367.59
696.155	21386.34
696.501	21271.09
696.847	21197.87
697.193	21051.66
697.539	21090.76
697.885	20963.98
698.231	20858.67
698.577	20838.56
698.923	20795.4
699.269	20712.24
699.614	20631.56
699.96	20497.78
700.306	20555.41
700.651	20458.46
700.997	20508.85
701.342	20410.32
701.688	20303.89
702.033	20286.94
702.379	20250.56
702.724	20060.28
703.069	20227.73
703.415	19981.41
703.76	20056.21
704.105	19986.83
704.45	19892.82
704.795	19768.53
705.14	19897.57
705.485	19700.29
705.83	19556.79
706.175	19613.74
706.52	19620.52
706.865	19439.28
707.209	19428.88
707.554	19416
707.899	19389.56
708.243	19266.17
708.588	19204.93
708.932	19117.93
709.277	18972.85
709.621	19078.61
709.966	18947.31
710.31	18966.07
710.654	18739.63
710.998	18818.95
711.342	18745.51
711.687	18750.48
712.031	18784.83
712.375	18558.17
712.719	18758.39
713.063	18601.33
713.407	18614.67
713.75	18642.91
714.094	18627.77
714.438	18425.97
714.782	18523.14
715.125	18449.25
715.469	18469.36
715.812	18286.31
716.156	18251.96
716.499	18138.97
716.843	18322.92
717.186	18141.01
717.53	18211.51
717.873	18138.97
718.216	18112.76
718.559	18105.98
718.902	17968.58
719.246	17989.37
719.589	17904.18
719.932	17894.68
720.275	17957.06
720.617	17891.3
720.96	17836.61
721.303	17904.63
721.646	17832.77
721.989	17656.5
722.331	17863.27
722.674	17731.3
723.016	17711.86
723.359	17665.76
723.701	17701.24
724.044	17589.38
724.386	17496.73
724.729	17622.6
725.071	17581.92
725.413	17509.84
725.755	17486.11
726.097	17432.78
726.439	17328.6
726.782	17393.68
727.124	17483.4
727.465	17365.89
727.807	17369.05
728.149	17340.12
728.491	17354.13
728.833	17404.53
729.175	17216.28
729.516	17193.69
729.858	17228.49
730.199	17259.67
730.541	17176.51
730.882	17176.74
731.224	17189.17
731.565	17103.52
731.906	17172.67
732.248	17174.93
732.589	17065.78
732.93	17001.83
733.271	17042.05
733.612	17086.34
733.953	17072.33
734.294	16952.34
734.635	16994.6
734.976	17038.21
735.317	16920.7
735.658	16972
735.999	16946.69
736.339	16870.98
736.68	17014.93
737.021	16994.14
737.361	16908.04
737.702	17056.51
738.042	16932.68
738.383	16899.46
738.723	16988.27
739.063	16948.27
739.404	16947.59
739.744	16864.2
740.084	16788.73
740.424	16929.51
740.764	16924.99
741.104	16953.69
741.444	16873.02
741.784	16865.11
742.124	16856.75
742.464	16920.7
742.804	16845.45
743.143	16768.16
743.483	16843.87
743.823	16816.52
744.162	16919.57
744.502	16910.98
744.841	16857.2
745.181	17089.06
745.52	16939.46
745.86	16864.88
746.199	16961.15
746.538	16965.44
746.877	17042.28
747.216	17160.69
747.556	17097.64
747.895	17054.71
748.234	17083.86
748.573	17151.88
748.911	17133.8
749.25	17236.17
749.589	17152.11
749.928	17292.21
750.267	17366.79
750.605	17329.05
750.944	17328.15
751.283	17439.33
751.621	17475.94
751.96	17338.77
752.298	17536.5
752.636	17602.04
752.975	17572.66
753.313	17611.98
753.651	17738.08
753.989	17666.89
754.327	17698.98
754.666	17774.46
755.004	17926.32
755.342	17984.17
755.679	17977.62
756.017	18014.68
756.355	18148.46
756.693	18115.02
