Data from hue_70_FLMS001491_76.txt Node
Date: Mon Feb 06 15:21:25 GMT 2017
User: dcchb
Spectrometer: FLMS00149
Trigger mode: 0
Integration Time (sec): 2.000000E-2
Scans to average: 10
Electric dark correction enabled: true
Nonlinearity correction enabled: false
Boxcar width: 0
XAxis mode: Wavelengths
Number of Pixels in Spectrum: 2048
>>>>>Begin Spectral Data<<<<<
341.393	-3.74
341.776	-3.74
342.16	-3.74
342.543	-57.75
342.927	-70.18
343.31	-62.27
343.693	-70.41
344.077	-60.24
344.46	-58.43
344.843	-53.01
345.226	-44.19
345.61	-39.9
345.993	-31.76
346.376	-1.03
346.759	19.76
347.142	31.51
347.525	27.89
347.908	47.56
348.291	80.77
348.674	100.21
349.057	113.54
349.44	132.75
349.823	141.34
350.206	167.1
350.588	198.51
350.971	214.33
351.354	209.36
351.737	229.25
352.119	248.91
352.502	254.33
352.884	267.21
353.267	277.15
353.65	289.81
354.032	293.65
354.414	309.02
354.797	300.2
355.179	317.15
355.562	310.83
355.944	333.88
356.326	333.65
356.709	329.81
357.091	332.97
357.473	350.15
357.855	329.81
358.238	340.65
358.62	348.11
359.002	341.78
359.384	330.03
359.766	339.07
360.148	338.4
360.53	359.86
360.912	350.82
361.294	330.71
361.676	325.06
362.057	318.73
362.439	323.25
362.821	306.53
363.203	346.08
363.584	317.6
363.966	316.7
364.348	297.94
364.729	316.93
365.111	321.67
365.493	333.88
365.874	311.5
366.256	309.02
366.637	305.4
367.019	316.47
367.4	308.34
367.781	318.73
368.163	333.42
368.544	302.01
368.925	307.21
369.306	339.3
369.688	312.63
370.069	309.02
370.45	309.02
370.831	319.64
371.212	317.15
371.593	303.82
371.974	307.89
372.355	324.61
372.736	333.65
373.117	311.5
373.498	322.58
373.879	308.34
374.26	314.44
374.641	322.12
375.021	311.28
375.402	337.49
375.783	298.85
376.163	324.61
376.544	329.13
376.925	311.28
377.305	315.12
377.686	336.59
378.066	317.83
378.447	305.85
378.827	315.8
379.208	333.2
379.588	317.6
379.968	352.63
380.349	334.78
380.729	333.2
381.109	332.52
381.489	347.89
381.87	338.62
382.25	328
382.63	325.06
383.01	343.37
383.39	346.76
383.77	345.63
384.15	330.03
384.53	332.75
384.91	319.64
385.29	344.04
385.67	341.56
386.049	363.93
386.429	339.07
386.809	335.91
387.189	346.98
387.568	340.2
387.948	353.31
388.328	329.13
388.707	344.5
389.087	351.28
389.466	363.48
389.846	360.09
390.225	353.31
390.605	342.01
390.984	368.9
391.363	347.21
391.743	364.84
392.122	326.42
392.501	353.08
392.881	360.99
393.26	341.78
393.639	366.87
394.018	362.12
394.397	358.28
394.776	360.54
395.155	376.59
395.534	355.8
395.913	368
396.292	377.49
396.671	372.52
397.05	363.48
397.429	367.09
397.808	393.08
398.186	351.28
398.565	356.7
398.944	381.11
399.323	385.17
399.701	386.98
400.08	384.72
400.458	380.43
400.837	399.86
401.215	382.46
401.594	379.98
401.972	405.96
402.351	381.11
402.729	393.31
403.107	385.85
403.486	390.82
403.864	394.66
404.242	394.66
404.62	385.4
404.999	392.63
405.377	421.1
405.755	414.33
406.133	407.32
406.511	419.3
406.889	417.94
407.267	411.39
407.645	391.73
408.023	431.05
408.401	453.19
408.779	436.25
409.156	428.11
409.534	433.31
409.912	431.95
410.29	442.12
410.667	425.62
411.045	429.92
411.422	436.7
411.8	436.7
412.178	437.83
412.555	443.48
412.933	466.75
413.31	445.28
413.687	467.43
414.065	430.14
414.442	463.82
414.819	445.51
415.197	479.41
415.574	485.28
415.951	473.98
416.328	471.72
416.705	447.54
417.082	481.44
417.46	464.27
417.837	474.89
418.214	479.18
418.591	501.55
418.967	469.47
419.344	476.47
419.721	486.19
420.098	480.54
420.475	495.45
420.852	488
421.228	501.78
421.605	503.59
421.982	546.3
422.358	497.49
422.735	503.81
423.111	501.78
423.488	507.88
423.864	531.16
424.241	539.52
424.617	532.74
424.994	533.87
425.37	536.13
425.746	544.72
426.123	550.14
426.499	515.11
426.875	517.6
427.251	535.9
427.627	549.01
428.003	529.12
428.379	573.64
428.756	556.24
429.132	572.97
429.507	561.67
429.883	573.87
430.259	564.38
430.635	576.35
431.011	560.54
431.387	589.91
431.763	602.34
432.138	579.07
432.514	615.68
432.89	591.95
433.265	586.52
433.641	631.49
434.016	606.18
434.392	612.74
434.767	638.27
435.143	628.1
435.518	663.13
435.894	633.08
436.269	624.26
436.644	661.78
437.02	661.55
437.395	653.42
437.77	646.41
438.145	668.33
438.52	678.73
438.895	681.21
439.271	657.71
439.646	712.4
440.021	692.06
440.395	682.34
440.77	705.39
441.145	719.4
441.52	720.98
441.895	743.36
442.27	715.11
442.645	717.59
443.019	719.85
443.394	730.48
443.769	730.48
444.143	728.67
444.518	760.3
444.892	750.14
445.267	760.53
445.641	772.51
446.016	759.17
446.39	772.73
446.764	757.82
447.139	765.05
447.513	767.99
447.887	752.17
448.262	788.1
448.636	766.63
449.01	773.41
449.384	802.34
449.758	795.11
450.132	786.74
450.506	795.56
450.88	802.79
451.254	826.97
451.628	826.07
452.002	834.88
452.376	847.53
452.75	833.3
453.123	844.82
453.497	861.09
453.871	859.96
454.244	867.19
454.618	888.44
454.992	879.17
455.365	912.39
455.739	899.96
456.112	928.44
456.486	934.09
456.859	919.62
457.232	939.51
457.606	937.02
457.979	945.84
458.352	998.49
458.725	979.73
459.099	973.86
459.472	1012.73
459.845	1035.55
460.218	1019.06
460.591	1060.86
460.964	1054.76
461.337	1077.36
461.71	1051.14
462.083	1066.51
462.456	1094.76
462.829	1098.83
463.201	1122.33
463.574	1097.25
463.947	1115.55
464.32	1171.37
464.692	1178.15
465.065	1169.79
465.438	1183.8
465.81	1205.94
466.183	1220.18
466.555	1276
466.928	1248.43
467.3	1287.07
467.672	1282.33
468.045	1322.55
468.417	1354.87
468.789	1339.72
469.161	1358.71
469.534	1403.68
469.906	1399.38
470.278	1423.11
470.65	1478.93
471.022	1495.2
471.394	1529.55
471.766	1535.88
472.138	1574.97
472.51	1621.3
472.882	1621.07
473.253	1657.23
473.625	1704.46
473.997	1752.37
474.369	1770
474.74	1795.98
475.112	1868.3
475.484	1898.13
475.855	1962.76
476.227	1983.55
476.598	2013.38
476.97	2092.93
477.341	2148.52
477.713	2162.53
478.084	2230.32
478.455	2312.35
478.827	2307.83
479.198	2409.3
479.569	2488.62
479.94	2573.36
480.311	2630.99
480.682	2714.83
481.053	2797.31
481.424	2861.27
481.795	2900.14
482.166	3046.8
482.537	3094.25
482.908	3204.53
483.279	3327.47
483.65	3361.82
484.021	3496.73
484.391	3565.43
484.762	3656.27
485.133	3703.28
485.503	3845.65
485.874	3963.61
486.244	4072.08
486.615	4193.89
486.985	4261.68
487.356	4405.18
487.726	4551.62
488.097	4633.65
488.467	4758.39
488.837	4927.88
489.207	5022.34
489.578	5158.38
489.948	5316.8
490.318	5424.36
490.688	5445.83
491.058	5634.3
491.428	5855.54
491.798	5954.52
492.168	6131.92
492.538	6225.02
492.908	6361.51
493.278	6564.22
493.648	6568.29
494.017	6725.57
494.387	6961.5
494.757	7037.2
495.126	7182.73
495.496	7339.34
495.866	7415.05
496.235	7531.88
496.605	7663.17
496.974	7894.13
497.344	8027.68
497.713	8101.81
498.082	8241.24
498.452	8412.08
498.821	8505.86
499.19	8573.88
499.559	8750.38
499.928	8941.78
500.298	8989.92
500.667	9198.05
501.036	9278.95
501.405	9402.34
501.774	9500.41
502.143	9642.33
502.512	9738.83
502.88	9843
503.249	10006.16
503.618	10061.08
503.987	10166.39
504.356	10347.4
504.724	10465.36
505.093	10509.88
505.462	10682.08
505.83	10792.58
506.199	10909.87
506.567	11099.47
506.936	11115.51
507.304	11261.5
507.672	11338.56
508.041	11473.7
508.409	11637.31
508.777	11652.67
509.145	11887.47
509.514	11871.43
509.882	12016.28
510.25	12051.08
510.618	12188.25
510.986	12282.94
511.354	12439.77
511.722	12581.69
512.09	12750.05
512.458	12693.78
512.826	12837.73
513.193	12957.72
513.561	13020.32
513.929	13082.92
514.297	13229.81
514.664	13319.97
515.032	13406.75
515.4	13535.34
515.767	13601.32
516.135	13670.7
516.502	13604.71
516.869	13847.19
517.237	14042.22
517.604	13987.75
517.972	14090.58
518.339	14197.47
518.706	14248.99
519.073	14314.52
519.44	14493.05
519.808	14618.02
520.175	14642.88
520.542	14758.35
520.909	14962.42
521.276	14881.52
521.643	15044.22
522.009	15150.43
522.376	15273.6
522.743	15255.52
523.11	15451.9
523.477	15572.8
523.843	15690.08
524.21	15807.37
524.577	15801.27
524.943	16008.04
525.31	15942.5
525.676	16147.92
526.043	16241.03
526.409	16246.45
526.776	16497.97
527.142	16504.07
527.508	16586.56
527.874	16662.26
528.241	16765.31
528.607	16746.1
528.973	16923.27
529.339	16842.82
529.705	17114.68
530.071	17137.5
530.437	17190.16
530.803	17239.42
531.169	17316.03
531.535	17352.64
531.901	17436.93
532.267	17351.51
532.632	17472.18
532.998	17492.97
533.364	17585.4
533.73	17667.66
534.095	17715.79
534.461	17815.68
534.826	17906.07
535.192	17927.09
535.557	18033.52
535.923	17928.67
536.288	17959.17
536.653	18063.58
537.019	17973.41
537.384	18071.04
537.749	18178.15
538.114	18195.55
538.479	18160.98
538.845	18191.48
539.21	18152.16
539.575	18267.64
539.94	18272.39
540.305	18283.91
540.67	18297.92
541.034	18370.46
541.399	18385.6
541.764	18448.88
542.129	18528.2
542.494	18394.19
542.858	18490.01
543.223	18436.68
543.587	18600.97
543.952	18544.02
544.316	18575.2
544.681	18524.36
545.045	18579.72
545.41	18664.92
545.774	18711.02
546.138	18685.71
546.503	18664.24
546.867	18725.03
547.231	18817.01
547.595	18812.03
547.959	18836.44
548.324	18760.28
548.688	18809.77
549.052	18790.34
549.416	18882.99
549.779	18741.98
550.143	18853.16
550.507	19018.13
550.871	18958.47
551.235	18911.69
551.599	19086.6
551.962	18989.88
552.326	19153.49
552.689	19170.22
553.053	19088.64
553.417	19128.64
553.78	19316.43
554.143	19182.42
554.507	19237.56
554.87	19368.4
555.234	19422.87
555.597	19330.44
555.96	19355.52
556.323	19407.05
556.686	19449.76
557.05	19520.26
557.413	19531.34
557.776	19623.76
558.139	19629.64
558.502	19677.55
558.865	19667.6
559.228	19788.51
559.59	19836.87
559.953	19817.43
560.316	19980.82
560.679	19959.12
561.041	20044.77
561.404	20144.43
561.767	20186.69
562.129	20031.21
562.492	20361.82
562.854	20269.17
563.217	20233.01
563.579	20390.07
563.941	20519.33
564.304	20476.17
564.666	20643.4
565.028	20614.25
565.39	20673.68
565.753	20754.58
566.115	20903.28
566.477	20840.68
566.839	20967.46
567.201	20923.39
567.563	20902.15
567.925	21174.23
568.287	21120
568.648	21230.28
569.01	21206.55
569.372	21317.73
569.734	21227.56
570.095	21378.75
570.457	21479.99
570.819	21523.6
571.18	21472.08
571.542	21673.2
571.903	21692.64
572.265	21714.1
572.626	21815.57
572.987	21826.64
573.349	21828.45
573.71	21856.02
574.071	21806.08
574.432	21984.61
574.794	22131.27
575.155	21990.48
575.516	22001.1
575.877	22155.9
576.238	22172.4
576.599	22095.11
576.96	22234.09
577.32	22143.7
577.681	22267.76
578.042	22387.08
578.403	22288.1
578.763	22346.4
579.124	22354.77
579.485	22474.54
579.845	22470.24
580.206	22417.59
580.566	22444.03
580.927	22370.13
581.287	22608.09
581.648	22477.25
582.008	22589.79
582.368	22501.2
582.728	22557.47
583.089	22495.1
583.449	22460.07
583.809	22419.4
584.169	22606.96
584.529	22551.6
584.889	22660.07
585.249	22498.94
585.609	22484.25
585.969	22591.14
586.329	22427.98
586.688	22523.57
587.048	22587.98
587.408	22491.71
587.768	22559.28
588.127	22521.31
588.487	22576.23
588.846	22627.3
589.206	22390.92
589.565	22497.59
589.925	22555.66
590.284	22620.97
590.643	22570.8
591.003	22628.66
591.362	22633.4
591.721	22513.86
592.08	22517.47
592.44	22668.88
592.799	22650.8
593.158	22584.59
593.517	22648.32
593.876	22470.02
594.235	22581.43
594.593	22598.6
594.952	22639.73
595.311	22499.62
595.67	22756.34
596.029	22672.95
596.387	22719.73
596.746	22684.25
597.104	22599.28
597.463	22585.49
597.822	22668.43
598.18	22680.86
598.538	22656.45
598.897	22788.65
599.255	22504.82
599.613	22937.57
599.972	22722.44
600.33	22759.73
600.688	22655.55
601.046	22855.54
601.404	22872.72
601.762	22737.35
602.12	22877.01
602.478	22908.65
602.836	22926.5
603.194	22728.31
603.552	22851.7
603.91	22744.36
604.268	22887.86
604.625	22854.64
604.983	23007.18
605.341	22887.41
605.698	22975.99
606.056	23055.31
606.413	22914.07
606.771	23080.4
607.128	23013.28
607.485	22930.34
607.843	22911.13
608.2	23058.7
608.557	23207.4
608.914	23138.02
609.272	23176.21
609.629	23295.98
609.986	23286.27
610.343	23293.05
610.7	23353.61
611.057	23348.41
611.414	23387.73
611.771	23371.46
612.127	23465.92
612.484	23393.83
612.841	23432.7
613.198	23536.88
613.554	23410.1
613.911	23583.21
614.267	23620.95
614.624	23636.77
614.98	23671.57
615.337	23758.34
615.693	23776.2
616.05	23671.79
616.406	23899.36
616.762	23769.19
617.118	23695.07
617.475	23729.42
617.831	23885.35
618.187	23819.13
618.543	23877.44
618.899	24103.87
619.255	23925.8
619.611	23899.58
619.967	24021.39
620.323	23942.52
620.678	24042.86
621.034	24004.21
621.39	24044.89
621.746	23984.33
622.101	24303.41
622.457	23955.18
622.812	24047.83
623.168	24166.02
623.523	24126.92
623.879	24234.49
624.234	24141.16
624.589	24323.08
624.945	24309.06
625.3	24180.03
625.655	24223.87
626.01	24220.93
626.365	24248.05
626.72	24232.68
627.075	24152.46
627.43	24128.96
627.785	24223.19
628.14	24234.26
628.495	24251.89
628.85	24203.08
629.205	23998.56
629.559	24343.87
629.914	24096.87
630.269	24167.6
630.623	24119.69
630.978	24075.62
631.332	24176.41
631.687	24230.2
632.041	23992.01
632.396	24056.64
632.75	24015.06
633.104	24010.99
633.459	23958.79
633.813	23996.08
634.167	23967.38
634.521	23940.26
634.875	23985
635.229	23938.9
635.583	23872.24
635.937	23839.7
636.291	23812.58
636.645	23814.61
636.999	23706.14
637.352	23768.51
637.706	23665.24
638.06	23818.46
638.413	23708.18
638.767	23644.9
639.121	23729.64
639.474	23521.29
639.828	23661.17
640.181	23690.55
640.534	23548.63
640.888	23595.64
641.241	23440.84
641.594	23484
641.947	23591.34
642.301	23490.78
642.654	23479.71
643.007	23508.41
643.36	23486.04
643.713	23411.46
644.066	23508.63
644.419	23433.61
644.771	23185.93
645.124	22964.47
645.477	22923.34
645.83	22968.53
646.182	22875.43
646.535	22753.62
646.888	22816.22
647.24	22692.84
647.593	22698.49
647.945	22777.35
648.298	22579.39
648.65	22528.09
649.002	22450.58
649.355	22632.5
649.707	22594.31
650.059	22696.45
650.411	22926.5
650.763	23017.8
651.115	23190.9
651.467	23059.61
651.819	23097.34
652.171	23093.5
652.523	22942.09
652.875	23027.52
653.227	22986.84
653.578	23128.3
653.93	23163.56
654.282	23105.03
654.633	23008.99
654.985	23049.21
655.337	23040.62
655.688	23022.54
656.039	23059.15
656.391	22890.12
656.742	23032.94
657.094	22991.13
657.445	23055.31
657.796	22942.55
658.147	23020.51
658.498	23016.67
658.849	22886.5
659.2	23084.24
659.551	22891.02
659.902	23075.65
660.253	22906.84
660.604	23068.87
660.955	22928.99
661.306	23051.92
661.656	23032.04
662.007	22962.21
662.358	22879.27
662.708	23009.89
663.059	22951.81
663.409	22759.05
663.76	23001.75
664.11	23109.77
664.461	23045.59
664.811	22959.95
665.161	23107.29
665.511	22864.36
665.862	23033.84
666.212	23113.62
666.562	23016.67
666.912	22926.28
667.262	23003.56
667.612	22982.55
667.962	23092.83
668.312	22958.14
668.662	23002.43
669.011	23004.01
669.361	22848.31
669.711	22898.93
670.06	22966.05
670.41	22721.99
670.76	22836.33
671.109	22897.35
671.459	22828.65
671.808	22793.62
672.157	22888.76
672.507	22672.05
672.856	22800.86
673.205	22741.42
673.554	22874.53
673.904	22758.14
674.253	22851.25
674.602	22913.17
674.951	22411.71
675.3	22373.3
675.649	22681.54
675.998	22683.8
676.346	22670.01
676.695	22832.04
677.044	22613.52
677.393	22615.78
677.741	22786.62
678.09	22582.1
678.438	22539.17
678.787	22551.14
679.135	22615.32
679.484	22459.62
679.832	22542.56
680.181	22452.39
680.529	22544.36
680.877	22403.35
681.225	22311.6
681.573	22440.19
681.922	22267.31
682.27	22182.57
682.618	22250.81
682.966	22160.42
683.314	22216.01
683.661	22076.13
684.009	22057.37
684.357	21906.64
684.705	22003.59
685.053	21908.9
685.4	21853.08
685.748	21776.25
686.095	21753.65
686.443	21738.51
686.79	21739.64
687.138	21761.11
687.485	21689.25
687.832	21621.68
688.18	21673.2
688.527	21486.31
688.874	21412.42
689.221	21422.81
689.568	21277.51
689.915	21235.7
690.262	21314.11
690.609	21160.22
690.956	21192.99
691.303	21056.27
691.65	21029.83
691.997	20992.09
692.344	20946.44
692.69	20791.42
693.037	20827.12
693.383	20666.9
693.73	20849.72
694.077	20632.78
694.423	20626.22
694.769	20511.2
695.116	20460.35
695.462	20496.96
695.808	20382.39
696.155	20414.7
696.501	20223.07
696.847	20325.67
697.193	20058.1
697.539	20193.69
697.885	19970.2
698.231	19884.32
698.577	19938.56
698.923	19868.5
699.269	19723.42
699.614	19656.53
699.96	19683.88
700.306	19565.69
700.651	19471.9
700.997	19509.19
701.342	19507.61
701.688	19456.08
702.033	19312.81
702.379	19216.09
702.724	19275.52
703.069	19254.51
703.415	19024.01
703.76	18958.47
704.105	18922.77
704.45	18922.54
704.795	18902.88
705.14	18775.88
705.485	18668.99
705.83	18599.84
706.175	18707.86
706.52	18606.84
706.865	18624.02
707.209	18572.49
707.554	18391.03
707.899	18355.1
708.243	18384.25
708.588	18306.06
708.932	18177.25
709.277	18208.66
709.621	18208.43
709.966	18058.61
710.31	18210.69
710.654	17954.2
710.998	17917.59
711.342	17906.07
711.687	17898.16
712.031	17801.21
712.375	17804.15
712.719	17849.35
713.063	17632.86
713.407	17848.22
713.75	17699.97
714.094	17721.21
714.438	17618.17
714.782	17563.48
715.125	17511.5
715.469	17559.64
715.812	17374.56
716.156	17397.38
716.499	17404.84
716.843	17396.25
717.186	17344.95
717.53	17383.14
717.873	17356.93
718.216	17260.21
718.559	17136.15
718.902	17077.39
719.246	17204.39
719.589	16966.43
719.932	17038.75
720.275	17014.57
720.617	17041.01
720.96	16999.88
721.303	16946.55
721.646	17034.23
721.989	16923.27
722.331	16888.92
722.674	16940.9
723.016	16889.6
723.359	16823.84
723.701	16894.57
724.044	16752.2
724.386	16765.08
724.729	16799.88
725.071	16764.18
725.413	16776.38
725.755	16653.22
726.097	16688.47
726.439	16522.15
726.782	16558.31
727.124	16599.44
727.465	16528.03
727.807	16580.68
728.149	16463.17
728.491	16439.21
728.833	16518.99
729.175	16431.53
729.516	16465.2
729.858	16371.65
730.199	16466.11
730.541	16321.48
730.882	16335.71
731.224	16459.33
731.565	16318.99
731.906	16344.75
732.248	16367.13
732.589	16307.47
732.93	16303.17
733.271	16275.83
733.612	16323.74
733.953	16269.95
734.294	16237.64
734.635	16267.47
734.976	16221.82
735.317	16194.48
735.658	16123.52
735.999	16232.89
736.339	16248.26
736.68	16229.05
737.021	16164.19
737.361	16103.4
737.702	16245.1
738.042	16251.65
738.383	16105.44
738.723	16195.15
739.063	16128.94
739.404	16164.42
739.744	16100.69
740.084	16103.18
740.424	16163.52
740.764	16097.08
741.104	16123.74
741.444	16184.53
741.784	16029.96
742.124	16225.21
742.464	16064.76
742.804	16133.91
743.143	16062.05
743.483	16160.58
743.823	16001.71
744.162	16161.93
744.502	16241.71
744.841	16172.33
745.181	16231.08
745.52	16135.72
745.86	16293.91
746.199	16205.32
746.538	16308.82
746.877	16370.29
747.216	16351.99
747.556	16352.89
747.895	16384.53
748.234	16290.52
748.573	16450.29
748.911	16391.08
749.25	16390.63
749.589	16478.31
749.928	16582.49
750.267	16610.96
750.605	16621.81
750.944	16650.28
751.283	16659.55
751.621	16791.3
751.96	16730.51
752.298	16768.02
752.636	16858.19
752.975	16876.04
753.313	16930.5
753.651	16998.75
753.989	17064.28
754.327	17071.06
754.666	17161.68
755.004	17224.96
755.342	17288.23
755.679	17376.14
756.017	17316.25
756.355	17524.16
756.693	17456.36
757.031	17656.36
