Data from hue_350_FLMS001491_21.txt Node
Date: Mon Feb 06 15:37:47 GMT 2017
User: dcchb
Spectrometer: FLMS00149
Trigger mode: 0
Integration Time (sec): 2.000000E-2
Scans to average: 10
Electric dark correction enabled: true
Nonlinearity correction enabled: false
Boxcar width: 0
XAxis mode: Wavelengths
Number of Pixels in Spectrum: 2048
>>>>>Begin Spectral Data<<<<<
341.393	-13.29
341.776	-13.29
342.16	-13.29
342.543	-64.36
342.927	-73.63
343.31	-66.85
343.693	-75.21
344.077	-53.29
344.46	-50.35
344.843	-66.17
345.226	-28.66
345.61	-8.09
345.993	-28.21
346.376	2.98
346.759	17.22
347.142	30.32
347.525	28.06
347.908	35.75
348.291	74.16
348.674	84.79
349.057	103.54
349.44	157.78
349.823	153.94
350.206	148.97
350.588	198.91
350.971	216.08
351.354	214.05
351.737	246.14
352.119	240.04
352.502	269.41
352.884	289.98
353.267	272.13
353.65	286.81
354.032	311.22
354.414	320.94
354.797	315.51
355.179	324.1
355.562	313.93
355.944	343.31
356.326	333.59
356.709	333.59
357.091	335.63
357.473	314.61
357.855	335.4
358.238	331.79
358.62	334.72
359.002	333.14
359.384	339.24
359.766	328.17
360.148	342.41
360.53	336.76
360.912	336.08
361.294	327.72
361.676	300.6
362.057	317.1
362.439	327.27
362.821	333.59
363.203	334.27
363.584	322.07
363.966	335.63
364.348	326.14
364.729	315.06
365.111	327.49
365.493	331.33
365.874	302.86
366.256	322.75
366.637	307.15
367.019	337.43
367.4	312.35
367.781	327.04
368.163	294.05
368.544	310.77
368.925	297.21
369.306	306.7
369.688	298.11
370.069	307.38
370.45	310.54
370.831	298.79
371.212	288.85
371.593	310.09
371.974	325.23
372.355	306.7
372.736	305.57
373.117	298.11
373.498	314.16
373.879	284.55
374.26	301.5
374.641	300.37
375.021	304.44
375.402	314.84
375.783	304.22
376.163	328.17
376.544	329.98
376.925	307.6
377.305	308.28
377.686	348.06
378.066	328.62
378.447	326.59
378.827	328.4
379.208	328.4
379.588	307.38
379.968	340.82
380.349	319.36
380.729	318.45
381.109	330.88
381.489	352.12
381.87	333.82
382.25	328.4
382.63	339.24
383.01	323.88
383.39	314.16
383.77	340.15
384.15	340.15
384.53	344.67
384.91	339.69
385.29	328.85
385.67	343.99
386.049	345.34
386.429	324.78
386.809	340.15
387.189	342.41
387.568	349.19
387.948	360.94
388.328	350.54
388.707	355.29
389.087	354.16
389.466	341.73
389.846	340.6
390.225	347.6
390.605	347.38
390.984	345.57
391.363	350.77
391.743	361.39
392.122	367.04
392.501	347.15
392.881	330.2
393.26	352.58
393.639	357.1
394.018	380.37
394.397	350.99
394.776	377.89
395.155	393.03
395.534	379.47
395.913	359.35
396.292	354.84
396.671	359.35
397.05	390.77
397.429	369.75
397.808	351.9
398.186	368.62
398.565	380.37
398.944	369.07
399.323	381.5
399.701	372.91
400.08	409.98
400.458	388.96
400.837	381.95
401.215	394.16
401.594	377.43
401.972	394.61
402.351	393.25
402.729	388.51
403.107	412.23
403.486	387.38
403.864	390.09
404.242	396.87
404.62	410.65
404.999	394.83
405.377	406.13
405.755	416.75
406.133	404.33
406.511	402.74
406.889	416.53
407.267	439.8
407.645	437.77
408.023	418.79
408.401	416.53
408.779	415.62
409.156	429.86
409.534	442.52
409.912	427.83
410.29	426.25
410.667	448.39
411.045	439.13
411.422	450.2
411.8	440.71
412.178	454.95
412.555	454.72
412.933	460.82
413.31	447.26
413.687	477.09
414.065	444.55
414.442	478.67
414.819	476.64
415.197	477.54
415.574	477.09
415.951	472.12
416.328	493.59
416.705	501.95
417.082	480.03
417.46	470.31
417.837	513.7
418.214	495.4
418.591	517.09
418.967	475.06
419.344	524.77
419.721	514.83
420.098	525.68
420.475	512.57
420.852	519.8
421.228	523.64
421.605	540.14
421.982	548.05
422.358	530.65
422.735	509.18
423.111	523.87
423.488	542.85
423.864	552.57
424.241	543.76
424.617	569.74
424.994	578.56
425.37	559.8
425.746	579.69
426.123	568.16
426.499	592.57
426.875	563.42
427.251	595.05
427.627	586.24
428.003	583.98
428.379	601.61
428.756	620.59
429.132	619.24
429.507	609.07
429.883	623.75
430.259	632.57
430.635	625.34
431.011	622.17
431.387	631.21
431.763	658.56
432.138	645.45
432.514	663.08
432.89	649.74
433.265	670.08
433.641	666.47
434.016	677.54
434.392	662.62
434.767	710.76
435.143	692
435.518	687.71
435.894	690.19
436.269	696.3
436.644	720.7
437.02	701.49
437.395	704.2
437.77	713.47
438.145	738.1
438.52	746.46
438.895	736.75
439.271	736.97
439.646	744.43
440.021	759.12
440.395	787.59
440.77	761.83
441.145	763.19
441.52	791.66
441.895	798.89
442.27	779
442.645	789.85
443.019	784.2
443.394	786.91
443.769	781.72
444.143	788.95
444.518	823.75
444.892	801.38
445.267	825.33
445.641	822.85
446.016	816.74
446.39	830.3
446.764	818.78
447.139	807.03
447.513	840.92
447.887	846.8
448.262	833.69
448.636	840.7
449.01	855.84
449.384	851.55
449.758	853.35
450.132	875.05
450.506	882.73
450.88	866.91
451.254	903.75
451.628	874.37
452.002	884.99
452.376	895.61
452.75	896.52
453.123	914.14
453.497	913.24
453.871	926.57
454.244	938.32
454.618	942.39
454.992	932.9
455.365	966.12
455.739	959.34
456.112	993.46
456.486	992.56
456.859	969.73
457.232	1006.57
457.606	1000.47
457.979	1017.87
458.352	1010.86
458.725	1041.82
459.099	1031.43
459.472	1058.32
459.845	1059.22
460.218	1071.65
460.591	1061.71
460.964	1107.36
461.337	1072.78
461.71	1102.84
462.083	1123.85
462.456	1128.37
462.829	1126.11
463.201	1144.42
463.574	1183.97
463.947	1164.98
464.32	1201.37
464.692	1162.72
465.065	1201.37
465.438	1199.11
465.81	1219.22
466.183	1227.35
466.555	1257.18
466.928	1251.31
467.3	1267.81
467.672	1297.64
468.045	1321.82
468.417	1323.85
468.789	1323.17
469.161	1352.1
469.534	1338.99
469.906	1412.89
470.278	1380.12
470.65	1422.83
471.022	1411.3
471.394	1457.41
471.766	1472.09
472.138	1458.99
472.51	1503.28
472.882	1499.21
473.253	1552.32
473.625	1562.94
473.997	1589.15
474.369	1578.08
474.74	1637.29
475.112	1652.88
475.484	1688.36
475.855	1717.74
476.227	1704.86
476.598	1739.66
476.97	1765.19
477.341	1826.44
477.713	1828.47
478.084	1858.75
478.455	1938.07
478.827	1905.75
479.198	1959.54
479.569	1951.63
479.94	2037.5
480.311	2039.08
480.682	2047.67
481.053	2129.25
481.424	2159.31
481.795	2190.27
482.166	2195.69
482.537	2230.94
482.908	2276.82
483.279	2342.13
483.65	2342.58
484.021	2408.57
484.391	2453.31
484.762	2443.59
485.133	2478.17
485.503	2513.42
485.874	2588.22
486.244	2595.23
486.615	2640.88
486.985	2667.09
487.356	2727.2
487.726	2740.76
488.097	2799.29
488.467	2824.83
488.837	2851.27
489.207	2940.08
489.578	2936.91
489.948	2989.12
490.318	3003.81
490.688	3048.78
491.058	3115.21
491.428	3152.5
491.798	3185.5
492.168	3221.43
492.538	3236.12
492.908	3255.78
493.278	3354.08
493.648	3347.75
494.017	3379.84
494.387	3422.78
494.757	3510.01
495.126	3483.11
495.496	3488.76
495.866	3515.43
496.235	3535.09
496.605	3616.67
496.974	3559.04
497.344	3616.44
497.713	3678.59
498.082	3725.59
498.452	3705.71
498.821	3762.43
499.19	3743.22
499.559	3794.74
499.928	3835.65
500.298	3835.42
500.667	3851.24
501.036	3871.35
501.405	3930.56
501.774	3895.08
502.143	3908.87
502.512	3947.51
502.88	3981.86
503.249	4004.23
503.618	4022.08
503.987	4013.95
504.356	4030.22
504.724	4076.32
505.093	4117.22
505.462	4106.6
505.83	4112.93
506.199	4150.67
506.567	4188.63
506.936	4222.08
507.304	4305.47
507.672	4229.08
508.041	4264.34
508.409	4306.82
508.777	4328.06
509.145	4356.99
509.514	4382.53
509.882	4372.81
510.25	4369.64
510.618	4420.49
510.986	4418.46
511.354	4452.35
511.722	4506.59
512.09	4483.09
512.458	4479.25
512.826	4535.06
513.193	4483.31
513.561	4558.11
513.929	4583.88
514.297	4622.29
514.664	4591.79
515.032	4634.72
515.4	4663.65
515.767	4645.12
516.135	4680.82
516.502	4663.87
516.869	4759.69
517.237	4712.23
517.604	4727.83
517.972	4766.02
518.339	4787.26
518.706	4816.64
519.073	4850.08
519.44	4783.65
519.808	4847.15
520.175	4883.08
520.542	4921.27
520.909	4921.04
521.276	4921.27
521.643	4949.74
522.009	4978.44
522.376	5011.66
522.743	5022.51
523.11	5086.24
523.477	5088.5
523.843	5144.77
524.21	5135.73
524.577	5180.25
524.943	5200.13
525.31	5183.86
525.676	5226.35
526.043	5277.19
526.409	5331.88
526.776	5342.5
527.142	5332.33
527.508	5404.19
527.874	5373.23
528.241	5492.33
528.607	5478.09
528.973	5505.21
529.339	5502.04
529.705	5550.18
530.071	5584.08
530.437	5583.62
530.803	5638.31
531.169	5631.76
531.535	5655.94
531.901	5674.7
532.267	5705.88
532.632	5722.83
532.998	5776.84
533.364	5782.72
533.73	5765.31
534.095	5810.29
534.461	5897.97
534.826	5878.31
535.192	5886.89
535.557	5954.69
535.923	5999.43
536.288	5989.94
536.653	6035.36
537.019	6063.61
537.384	6036.27
537.749	6074.23
538.114	6124.4
538.479	6165.98
538.845	6082.14
539.21	6141.12
539.575	6133.67
539.94	6157.85
540.305	6178.41
540.67	6199.2
541.034	6255.7
541.399	6299.54
541.764	6332.53
542.129	6366.43
542.494	6372.3
542.858	6407.11
543.223	6398.29
543.587	6442.13
543.952	6472.64
544.316	6483.04
544.681	6459.76
545.045	6563.94
545.41	6602.58
545.774	6591.96
546.138	6593.99
546.503	6607.78
546.867	6671.28
547.231	6629.92
547.595	6742.69
547.959	6759.41
548.324	6706.53
548.688	6800.77
549.052	6810.48
549.416	6859.07
549.779	6817.04
550.143	6856.81
550.507	6920.09
550.871	6866.3
551.235	6942.46
551.599	6999.41
551.962	6990.14
552.326	7045.51
552.689	7026.3
553.053	7019.07
553.417	7018.84
553.78	7124.15
554.143	7106.97
554.507	7156.69
554.87	7172.06
555.234	7222.23
555.597	7191.49
555.96	7222.45
556.323	7262
556.686	7277.37
557.05	7243.69
557.413	7337.48
557.776	7320.53
558.139	7375.44
558.502	7365.72
558.865	7396.91
559.228	7461.32
559.59	7494.76
559.953	7502.67
560.316	7552.39
560.679	7523.23
561.041	7539.28
561.404	7575.44
561.767	7737.92
562.129	7648.88
562.492	7804.58
562.854	7748.99
563.217	7667.64
563.579	7738.6
563.941	7795.32
564.304	7797.8
564.666	7886.84
565.028	7904.92
565.39	7933.85
565.753	7951.7
566.115	7928.2
566.477	7948.08
566.839	7994.41
567.201	8082.99
567.563	8107.63
567.925	8130.9
568.287	8142.88
568.648	8185.14
569.01	8162.54
569.372	8251.12
569.734	8275.08
570.095	8306.04
570.457	8313.04
570.819	8409.54
571.18	8373.38
571.542	8485.24
571.903	8432.14
572.265	8544.9
572.626	8575.18
572.987	8490.89
573.349	8599.59
573.71	8676.65
574.071	8711
574.432	8844.78
574.794	8848.85
575.155	8860.6
575.516	8928.17
575.877	8964.78
576.238	9080.26
576.599	9061.27
576.96	9162.74
577.32	9234.83
577.681	9324.54
578.042	9402.96
578.403	9447.03
578.763	9553.01
579.124	9584.42
579.485	9743.51
579.845	9840.24
580.206	9863.06
580.566	10080.68
580.927	10112.32
581.287	10296.72
581.648	10334.01
582.008	10458.07
582.368	10603.83
582.728	10821.45
583.089	10867.1
583.449	11029.58
583.809	11190.03
584.169	11329.01
584.529	11487.88
584.889	11724.48
585.249	11853.74
585.609	11965.6
585.969	12166.28
586.329	12312.71
586.688	12540.5
587.048	12786.82
587.408	12899.14
587.768	13070.21
588.127	13387.04
588.487	13505.22
588.846	13903.41
589.206	14022.05
589.565	14268.37
589.925	14533.9
590.284	14704.51
590.643	15005.98
591.003	15367.32
591.362	15561.22
591.721	15809.57
592.08	15990.13
592.44	16298.82
592.799	16510.12
593.158	16789.21
593.517	17066.71
593.876	17379.7
594.235	17608.39
594.593	17973.36
594.952	18261.71
595.311	18576.96
595.67	18836.16
596.029	19174.23
596.387	19458.97
596.746	19663.48
597.104	19941.66
597.463	20156.57
597.822	20539.16
598.18	20823.9
598.538	20892.6
598.897	21468.4
599.255	21501.62
599.613	22074.94
599.972	22204.66
600.33	22421.15
600.688	22681.93
601.046	22989.72
601.404	23399.65
601.762	23526.2
602.12	23916.02
602.478	24204.6
602.836	24468.33
603.194	24600.98
603.552	24845.04
603.91	25024.02
604.268	25533.16
604.625	25512.82
604.983	26057.66
605.341	26108.96
605.698	26433.47
606.056	26703.07
606.413	26974.47
606.771	27151.87
607.128	27426.89
607.485	27585.31
607.843	27820.78
608.2	28166.76
608.557	28450.37
608.914	28457.15
609.272	28811.49
609.629	29074.53
609.986	29291.25
610.343	29398.14
610.7	29912.7
611.057	30089.87
611.414	29962.19
611.771	30287.83
612.127	30620.03
612.484	30645.79
612.841	30973.24
613.198	31030.19
613.554	31110.64
613.911	31503.39
614.267	31672.88
614.624	31750.39
614.98	32054.11
615.337	32225.86
615.693	32302.92
616.05	32479.64
616.406	32783.36
616.762	32727.77
617.118	32909.23
617.475	33049.12
617.831	33312.84
618.187	33385.38
618.543	33597.13
618.899	33801.19
619.255	33890.22
619.611	33973.84
619.967	34160.05
620.323	34336.54
620.678	34340.61
621.034	34417.89
621.39	34525.46
621.746	34580.38
622.101	35020.59
622.457	34836.41
622.812	35006.35
623.168	35169.06
623.523	35244.54
623.879	35476.85
624.234	35276.63
624.589	35454.48
624.945	35663.96
625.3	35629.39
625.655	35700.12
626.01	35817.63
626.365	35829.83
626.72	35950.96
627.075	35957.51
627.43	36029.6
627.785	36057.4
628.14	36078.87
628.495	36232.99
628.85	36331.52
629.205	36176.72
629.559	36631.17
629.914	36376.26
630.269	36532.87
630.623	36351.85
630.978	36306.21
631.332	36424.4
631.687	36712.3
632.041	36529.25
632.396	36720.66
632.75	36473.21
633.104	36648.8
633.459	36565.63
633.813	36650.38
634.167	36515.01
634.521	36710.94
634.875	36585.97
635.229	36597.5
635.583	36584.62
635.937	36564.28
636.291	36566.76
636.645	36679.53
636.999	36725.18
637.352	36890.82
637.706	36555.92
638.06	36768.34
638.413	36778.28
638.767	36658.97
639.121	36741.22
639.474	36645.63
639.828	36620.32
640.181	36758.17
640.534	36636.82
640.888	36660.55
641.241	36557.73
641.594	36699.64
641.947	36754.78
642.301	36576.93
642.654	36697.16
643.007	36670.04
643.36	36641.11
643.713	36464.17
644.066	36652.19
644.419	36520.66
644.771	36265.3
645.124	35883.84
645.477	35915.71
645.83	35701.93
646.182	35668.71
646.535	35479.34
646.888	35582.38
647.24	35509.39
647.593	35585.32
647.945	35481.37
648.298	35390.52
648.65	35314.37
649.002	35286.57
649.355	35457.19
649.707	35369.28
650.059	35385.55
650.411	35827.12
650.763	35903.05
651.115	36399.09
651.467	36290.84
651.819	36201.8
652.171	36192.31
652.523	36043.39
652.875	36099.43
653.227	36063.05
653.578	36193.22
653.93	36022.15
654.282	35960.9
654.633	36067.57
654.985	35947.8
655.337	35966.33
655.688	36049.94
656.039	36118.87
656.391	35821.25
656.742	35911.87
657.094	35975.37
657.445	35933.33
657.796	35859.44
658.147	35923.84
658.498	35812.43
658.849	35915.26
659.2	35904.64
659.551	35827.35
659.902	35998.87
660.253	35743.96
660.604	35917.52
660.955	35755.94
661.306	35924.3
661.656	35892.43
662.007	35868.03
662.358	35817.41
662.708	35781.93
663.059	35794.36
663.409	35591.42
663.76	35913.45
664.11	35801.59
664.461	35770.63
664.811	35854.24
665.161	35766.33
665.511	35661.93
665.862	35735.6
666.212	35818.99
666.562	35929.72
666.912	35760.23
667.262	35706.22
667.612	35678.65
667.962	35855.6
668.312	35732.66
668.662	35945.99
669.011	35760.46
669.361	35722.27
669.711	35722.49
670.06	35586.23
670.41	35587.13
670.76	35502.39
671.109	35681.82
671.459	35613.12
671.808	35677.3
672.157	35709.16
672.507	35348.27
672.856	35437.75
673.205	35500.8
673.554	35527.47
673.904	35424.42
674.253	35598.43
674.602	35430.75
674.951	34884.77
675.3	34832.35
675.649	35409.73
675.998	35393.24
676.346	35327.25
676.695	35452.44
677.044	35172.9
677.393	35375.61
677.741	35364.76
678.09	35232.11
678.438	35196.41
678.787	35276.63
679.135	35275.73
679.484	34983.98
679.832	35139.23
680.181	35012.91
680.529	35042.28
680.877	34996.18
681.225	34989.18
681.573	35265.33
681.922	34929.75
682.27	34855.62
682.618	34852.46
682.966	34730.43
683.314	34783.08
683.661	34771.11
684.009	34642.75
684.357	34490.21
684.705	34336.99
685.053	34434.84
685.4	34454.28
685.748	34205.7
686.095	34184.23
686.443	34007.74
686.79	34039.6
687.138	34124.34
687.485	34216.54
687.832	33974.52
688.18	34041.18
688.527	33756.67
688.874	33745.82
689.221	33790.11
689.568	33699.95
689.915	33619.27
690.262	33582.21
690.609	33541.76
690.956	33386.06
691.303	33308.09
691.65	33190.58
691.997	33177.93
692.344	32950.36
692.69	33001.66
693.037	33034.43
693.383	32720.76
693.73	32817.48
694.077	32660.43
694.423	32711.72
694.769	32586.98
695.116	32645.96
695.462	32481.45
695.808	32339.53
696.155	32424.73
696.501	32114.45
696.847	32154
697.193	32155.36
697.539	32172.3
697.885	31836.04
698.231	31762.82
698.577	31851.41
698.923	31693.45
699.269	31502.49
699.614	31363.96
699.96	31367.58
700.306	31398.54
700.651	31123.97
700.997	31150.86
701.342	31151.09
701.688	31008.27
702.033	30927.14
702.379	30975.05
702.724	30856.63
703.069	30896.63
703.415	30435.63
703.76	30521.05
704.105	30563.76
704.45	30432.01
704.795	30307.04
705.14	30243.77
705.485	30135.52
705.83	29966.94
706.175	30161.51
706.52	29975.53
706.865	29944.11
707.209	29992.7
707.554	29663.44
707.899	29815.3
708.243	29745.7
708.588	29639.26
708.932	29478.82
709.277	29518.36
709.621	29520.17
709.966	29309.33
710.31	29359.95
710.654	29073.85
710.998	29157.02
711.342	29233.85
711.687	29054.42
712.031	29079.96
712.375	28832.05
712.719	28963.8
713.063	28847.19
713.407	28950.02
713.75	28671.83
714.094	28743.24
714.438	28572.62
714.782	28544.6
715.125	28362.46
715.469	28595.45
715.812	28296.93
716.156	28223.26
716.499	28204.72
716.843	28172.86
717.186	28083.15
717.53	28235.68
717.873	28099.42
718.216	27995.01
718.559	27974.45
718.902	27910.27
719.246	27899.87
719.589	27764.51
719.932	27692.87
720.275	27685.42
720.617	27608.36
720.96	27597.96
721.303	27496.27
721.646	27606.55
721.989	27301.92
722.331	27519.54
722.674	27453.11
723.016	27355.48
723.359	27295.14
723.701	27394.58
724.044	27200.46
724.386	26983.97
724.729	27178.54
725.071	26982.61
725.413	27081.59
725.755	27045.66
726.097	26832.33
726.439	26732.67
726.782	26893.12
727.124	26848.83
727.465	26788.94
727.807	26683.86
728.149	26632.34
728.491	26626.69
728.833	26614.26
729.175	26516.41
729.516	26488.39
729.858	26527.48
730.199	26476.41
730.541	26418.1
730.882	26372
731.224	26416.3
731.565	26243.87
731.906	26313.7
732.248	26211.78
732.589	26156.64
732.93	26010.21
733.271	26063.54
733.612	26131.56
733.953	26172.91
734.294	25992.81
734.635	25952.58
734.976	25946.25
735.317	25912.13
735.658	25852.92
735.999	25805.47
736.339	25729.08
736.68	25891.56
737.021	25706.94
737.361	25654.51
737.702	25669.65
738.042	25735.64
738.383	25569.54
738.723	25739.93
739.063	25642.08
739.404	25626.49
739.744	25404.8
740.084	25326.83
740.424	25464.46
740.764	25275.31
741.104	25359.6
741.444	25249.1
741.784	25080.29
742.124	25239.6
742.464	25107.86
742.804	25136.78
743.143	25101.53
743.483	25015.66
743.823	24935.43
744.162	24924.36
744.502	25024.47
744.841	24919.61
745.181	24953.51
745.52	24781.99
745.86	24916.45
746.199	24783.35
746.538	24789
746.877	24833.29
747.216	24755.78
747.556	24725.95
747.895	24678.94
748.234	24628.77
748.573	24503.58
748.911	24499.96
749.25	24517.14
749.589	24340.42
749.928	24409.12
750.267	24421.1
750.605	24250.48
750.944	24281.89
751.283	24201.67
751.621	24221.78
751.96	24047.09
752.298	24144.49
752.636	24108.11
752.975	24011.84
753.313	23905.85
753.651	24059.75
753.989	23787.67
754.327	23896.36
754.666	23881.9
755.004	23819.76
755.342	23721.23
755.679	23741.79
756.017	23612.53
756.355	23651.85
756.693	23561.46
757.031	23561.46
757.368	23559.65
757.706	23337.96
758.044	23268.13
758.381	23329.82
758.719	23252.09
759.056	23262.48
759.394	23166.21
759.731	23063.62
760.068	22889.61
760.405	22970.29
