Data from hue_220_FLMS001491_00045.txt Node
Date: Tue Feb 07 16:39:31 GMT 2017
User: dcchb
Spectrometer: FLMS00149
Trigger mode: 0
Integration Time (sec): 2.000000E-2
Scans to average: 10
Electric dark correction enabled: true
Nonlinearity correction enabled: false
Boxcar width: 0
XAxis mode: Wavelengths
Number of Pixels in Spectrum: 2048
>>>>>Begin Spectral Data<<<<<
341.393	-15.08
341.776	-15.08
342.16	-15.08
342.543	-62.31
342.927	-67.29
343.31	-80.62
343.693	-85.82
344.077	-72.03
344.46	-55.99
344.843	-44.01
345.226	-33.61
345.61	-13.73
345.993	-22.54
346.376	11.58
346.759	11.13
347.142	27.85
347.525	46.38
347.908	65.59
348.291	62.2
348.674	70.56
349.057	113.05
349.44	117.34
349.823	162.54
350.206	170
350.588	184.68
350.971	213.38
351.354	217.9
351.737	229.88
352.119	251.58
352.502	249.54
352.884	270.33
353.267	291.57
353.65	300.84
354.032	303.33
354.414	300.61
354.797	310.78
355.179	313.95
355.562	317.79
355.944	318.47
356.326	331.35
356.709	313.95
357.091	313.72
357.473	355.53
357.855	316.21
358.238	321.86
358.62	336.09
359.002	316.66
359.384	333.61
359.766	355.98
360.148	332.48
360.53	332.7
360.912	331.57
361.294	320.5
361.676	330.9
362.057	343.1
362.439	319.82
362.821	337
363.203	324.34
363.584	326.83
363.966	313.49
364.348	323.44
364.729	319.6
365.111	322.31
365.493	307.85
365.874	312.82
366.256	303.1
366.637	316.66
367.019	308.52
367.4	320.73
367.781	314.4
368.163	327.05
368.544	290.44
368.925	317.56
369.306	302.65
369.688	293.38
370.069	324.34
370.45	312.36
370.831	310.1
371.212	306.94
371.593	314.62
371.974	312.82
372.355	325.25
372.736	287.28
373.117	312.14
373.498	322.76
373.879	314.17
374.26	332.93
374.641	306.94
375.021	312.36
375.402	317.34
375.783	322.99
376.163	323.44
376.544	313.49
376.925	319.82
377.305	348.75
377.686	327.05
378.066	318.24
378.447	313.49
378.827	323.66
379.208	317.11
379.588	322.76
379.968	319.82
380.349	324.34
380.729	324.57
381.109	329.99
381.489	330.44
381.87	340.39
382.25	329.99
382.63	351.46
383.01	346.49
383.39	342.42
383.77	323.66
384.15	333.16
384.53	332.7
384.91	356.66
385.29	366.37
385.67	341.97
386.049	368.18
386.429	361.63
386.809	352.82
387.189	357.56
387.568	369.76
387.948	353.04
388.328	369.31
388.707	347.84
389.087	356.88
389.466	372.93
389.846	362.08
390.225	360.95
390.605	357.34
390.984	391.46
391.363	382.87
391.743	396.88
392.122	354.4
392.501	375.64
392.881	391.46
393.26	382.19
393.639	386.04
394.018	381.52
394.397	375.64
394.776	357.56
395.155	377.67
395.534	395.07
395.913	388.52
396.292	407.28
396.671	416.09
397.05	394.62
397.429	389.2
397.808	411.12
398.186	384.23
398.565	416.54
398.944	424.9
399.323	407.05
399.701	399.59
400.08	416.32
400.458	416.09
400.837	416.99
401.215	426.49
401.594	405.47
401.972	419.71
402.351	431.01
402.729	419.03
403.107	445.92
403.486	442.08
403.864	435.53
404.242	442.53
404.62	446.6
404.999	452.02
405.377	455.64
405.755	472.59
406.133	471.68
406.511	459.48
406.889	495.41
407.267	494.51
407.645	493.15
408.023	466.48
408.401	500.16
408.779	504.22
409.156	533.38
409.534	512.59
409.912	522.53
410.29	542.19
410.667	507.39
411.045	549.87
411.422	551.68
411.8	555.97
412.178	564.11
412.555	597.55
412.933	579.25
413.31	624.22
413.687	605.92
414.065	610.21
414.442	623.32
414.819	628.29
415.197	620.15
415.574	640.49
415.951	644.11
416.328	659.25
416.705	667.16
417.082	650.43
417.46	675.52
417.837	708.74
418.214	693.82
418.591	707.83
418.967	711.45
419.344	730.43
419.721	744.22
420.098	732.24
420.475	765.23
420.852	772.01
421.228	775.18
421.605	785.35
421.982	804.56
422.358	794.61
422.735	820.6
423.111	824.44
423.488	853.59
423.864	877.1
424.241	873.48
424.617	894.95
424.994	916.87
425.37	919.58
425.746	925.46
426.123	948.05
426.499	981.05
426.875	980.82
427.251	977.43
427.627	1020.82
428.003	1011.56
428.379	1030.76
428.756	1032.12
429.132	1064.89
429.507	1061.5
429.883	1076.19
430.259	1081.84
430.635	1091.33
431.011	1121.61
431.387	1126.58
431.763	1134.49
432.138	1159.57
432.514	1171.55
432.89	1186.92
433.265	1207.48
433.641	1247.71
434.016	1245.22
434.392	1301.04
434.767	1334.48
435.143	1329.74
435.518	1329.06
435.894	1368.38
436.269	1411.32
436.644	1424.43
437.02	1443.41
437.395	1442.5
437.77	1475.95
438.145	1485.67
438.52	1523.18
438.895	1527.47
439.271	1529.06
439.646	1596.62
440.021	1609.51
440.395	1591.2
440.77	1609.05
441.145	1655.83
441.52	1693.35
441.895	1702.16
442.27	1693.35
442.645	1724.08
443.019	1771.54
443.394	1785.09
443.769	1794.13
444.143	1774.25
444.518	1842.27
444.892	1782.38
445.267	1828.93
445.641	1887.24
446.016	1877.75
446.39	1878.88
446.764	1887.01
447.139	1873.68
447.513	1893.57
447.887	1959.78
448.262	1943.51
448.636	1974.24
449.01	1948.48
449.384	1995.48
449.758	1999.78
450.132	2010.63
450.506	2030.96
450.88	2064.86
451.254	2042.49
451.628	2090.62
452.002	2113.67
452.376	2136.72
452.75	2123.84
453.123	2160.23
453.497	2193.67
453.871	2200.68
454.244	2253.33
454.618	2274.8
454.992	2292.88
455.365	2292.65
455.739	2361.58
456.112	2362.71
456.486	2371.52
456.859	2406.32
457.232	2465.3
457.606	2446.77
457.979	2473.66
458.352	2540.55
458.725	2524.28
459.099	2562.47
459.472	2607.9
459.845	2633.89
460.218	2645.64
460.591	2688.35
460.964	2693.32
461.337	2724.28
461.71	2773.99
462.083	2796.14
462.456	2818.29
462.829	2826.2
463.201	2890.15
463.574	2883.82
463.947	2907.78
464.32	2994.33
464.692	2967.21
465.065	3048.34
465.438	3024.84
465.81	3071.61
466.183	3144.15
466.555	3185.51
466.928	3190.48
467.3	3209.92
467.672	3265.73
468.045	3305.73
468.417	3328.1
468.789	3407.2
469.161	3400.65
469.534	3417.14
469.906	3506.4
470.278	3553.86
470.65	3555.9
471.022	3627.08
471.394	3685.61
471.766	3702.33
472.138	3754.99
472.51	3865.27
472.882	3854.42
473.253	3891.25
473.625	3925.83
473.997	4013.28
474.369	4016
474.74	4068.65
475.112	4131.7
475.484	4175.77
475.855	4283.79
476.227	4274.52
476.598	4401.3
476.97	4442.2
477.341	4511.35
477.713	4573.72
478.084	4598.81
478.455	4746.82
478.827	4741.85
479.198	4857.1
479.569	4876.31
479.94	4954.28
480.311	4989.53
480.682	5121.28
481.053	5191.33
481.424	5254.61
481.795	5264.32
482.166	5349.52
482.537	5426.58
482.908	5493.92
483.279	5541.38
483.65	5660.47
484.021	5764.2
484.391	5829.28
484.762	5865.44
485.133	5921.26
485.503	5996.96
485.874	6018.88
486.244	6080.8
486.615	6209.84
486.985	6257.75
487.356	6363.28
487.726	6375.48
488.097	6543.84
488.467	6516.27
488.837	6644.18
489.207	6730.28
489.578	6801.23
489.948	6846.88
490.318	6925.75
490.688	6990.61
491.058	7037.84
491.428	7155.12
491.798	7131.62
492.168	7266.98
492.538	7321.67
492.908	7334.55
493.278	7481.44
493.648	7417.49
494.017	7558.28
494.387	7631.27
494.757	7626.3
495.126	7695.67
495.496	7701.32
495.866	7744.03
496.235	7845.05
496.605	7824.94
496.974	7913.07
497.344	7972.73
497.713	8044.59
498.082	8044.14
498.452	8144.48
498.821	8069.67
499.19	8148.54
499.559	8183.34
499.928	8221.08
500.298	8289.33
500.667	8340.63
501.036	8353.51
501.405	8384.02
501.774	8385.6
502.143	8420.85
502.512	8440.96
502.88	8504.01
503.249	8452.94
503.618	8560.96
503.987	8537.69
504.356	8608.64
504.724	8577.46
505.093	8599.83
505.462	8620.39
505.83	8660.85
506.199	8725.48
506.567	8853.38
506.936	8792.59
507.304	8835.76
507.672	8831.69
508.041	8921.63
508.409	8919.6
508.777	8969.09
509.145	9026.49
509.514	8974.28
509.882	8996.43
510.25	9096.09
510.618	9144.45
510.986	9074.85
511.354	9115.07
511.722	9159.14
512.09	9186.26
512.458	9202.53
512.826	9275.29
513.193	9246.37
513.561	9259.25
513.929	9329.98
514.297	9351.9
514.664	9331.34
515.032	9352.13
515.4	9404.78
515.767	9391.22
516.135	9439.81
516.502	9302.86
516.869	9426.02
517.237	9495.63
517.604	9373.14
517.972	9503.08
518.339	9439.58
518.706	9456.08
519.073	9415.4
519.44	9492.01
519.808	9527.04
520.175	9563.65
520.542	9560.48
520.909	9552.12
521.276	9550.31
521.643	9710.54
522.009	9635.28
522.376	9639.58
522.743	9631.89
523.11	9778.1
523.477	9768.16
523.843	9704.66
524.21	9807.93
524.577	9809.97
524.943	9806.13
525.31	9870.08
525.676	9841.15
526.043	9828.5
526.409	9847.26
526.776	9927.93
527.142	9914.6
527.508	9942.17
527.874	9967.93
528.241	9987.82
528.607	9910.76
528.973	9991.21
529.339	9961.38
529.705	9989.62
530.071	9996.86
530.437	10083.86
530.803	10027.14
531.169	9984.65
531.535	10007.93
531.901	10021.71
532.267	9913.69
532.632	10022.39
532.998	10004.31
533.364	10073.46
533.73	9962.05
534.095	10029.17
534.461	9995.73
534.826	10086.34
535.192	10008.38
535.557	10028.49
535.923	9959.12
536.288	9930.42
536.653	9948.72
537.019	9886.35
537.384	9918.89
537.749	9871.89
538.114	9924.77
538.479	9922.73
538.845	9888.38
539.21	9810.65
539.575	9805.67
539.94	9767.71
540.305	9825.56
540.67	9742.4
541.034	9788.27
541.399	9818.1
541.764	9687.94
542.129	9732.91
542.494	9670.08
542.858	9641.61
543.223	9686.81
543.587	9661.27
543.952	9636.41
544.316	9684.32
544.681	9585.34
545.045	9663.76
545.41	9658.11
545.774	9656.98
546.138	9525.46
546.503	9578.56
546.867	9555.06
547.231	9604.78
547.595	9538.56
547.959	9502.86
548.324	9559.81
548.688	9435.97
549.052	9436.64
549.416	9392.8
549.779	9404.1
550.143	9362.97
550.507	9407.72
550.871	9366.14
551.235	9346.03
551.599	9330.88
551.962	9383.76
552.326	9272.58
552.689	9358.68
553.053	9270.77
553.417	9217.22
553.78	9353.93
554.143	9295.86
554.507	9299.92
554.87	9330.43
555.234	9280.26
555.597	9187.16
555.96	9227.38
556.323	9239.14
556.686	9196.42
557.05	9229.19
557.413	9176.31
557.776	9205.69
558.139	9285.01
558.502	9223.54
558.865	9181.51
559.228	9231.9
559.59	9218.57
559.953	9172.92
560.316	9277.55
560.679	9217.44
561.041	9278.23
561.404	9262.19
561.767	9268.06
562.129	9258.12
562.492	9241.62
562.854	9275.52
563.217	9315.52
563.579	9222.41
563.941	9280.49
564.304	9301.73
564.666	9371.11
565.028	9332.01
565.39	9320.72
565.753	9303.31
566.115	9323.2
566.477	9342.18
566.839	9353.93
567.201	9378.34
567.563	9463.99
567.925	9484.33
568.287	9376.76
568.648	9489.07
569.01	9474.38
569.372	9572.91
569.734	9470.32
570.095	9558.22
570.457	9542.4
570.819	9527.94
571.18	9561.61
571.542	9677.54
571.903	9630.31
572.265	9659.92
572.626	9641.16
572.987	9604.1
573.349	9612.69
573.71	9690.42
574.071	9664.89
574.432	9699.69
574.794	9808.39
575.155	9731.55
575.516	9761.16
575.877	9786.47
576.238	9751.66
576.599	9902.62
576.96	9791.21
577.32	9859.01
577.681	9928.38
578.042	9908.95
578.403	9853.81
578.763	9936.97
579.124	10003.86
579.485	10012.22
579.845	9982.62
580.206	10041.37
580.566	9985.78
580.927	10047.48
581.287	10054.48
581.648	10017.65
582.008	10042.28
582.368	10082.05
582.728	10146
583.089	10188.26
583.449	10102.16
583.809	10183.29
584.169	10148.94
584.529	10199.79
584.889	10232.1
585.249	10195.95
585.609	10117.98
585.969	10263.74
586.329	10288.6
586.688	10263.97
587.048	10302.84
587.408	10233.91
587.768	10228.26
588.127	10308.71
588.487	10319.33
588.846	10400.69
589.206	10301.93
589.565	10283.18
589.925	10392.55
590.284	10355.72
590.643	10413.57
591.003	10484.53
591.362	10438.65
591.721	10427.35
592.08	10461.02
592.44	10497.63
592.799	10463.74
593.158	10462.83
593.517	10434.36
593.876	10541.93
594.235	10531.98
594.593	10456.5
594.952	10557.97
595.311	10520.68
595.67	10466.9
596.029	10559.55
596.387	10565.88
596.746	10549.84
597.104	10551.87
597.463	10545.99
597.822	10566.33
598.18	10559.55
598.538	10545.32
598.897	10585.54
599.255	10515.49
599.613	10660.12
599.972	10590.74
600.33	10618.08
600.688	10591.87
601.046	10635.94
601.404	10693.33
601.762	10713.22
602.12	10648.59
602.478	10727.23
602.836	10756.38
603.194	10630.51
603.552	10684.3
603.91	10597.74
604.268	10703.28
604.625	10705.31
604.983	10784.63
605.341	10673.45
605.698	10744.63
606.056	10796.38
606.413	10773.11
606.771	10743.73
607.128	10814.24
607.485	10763.39
607.843	10749.15
608.2	10842.03
608.557	10843.84
608.914	10901.69
609.272	10801.58
609.629	10912.76
609.986	10825.31
610.343	10842.03
610.7	11003.61
611.057	10941.01
611.414	10854.69
611.771	10936.94
612.127	10969.03
612.484	10964.74
612.841	10998.64
613.198	10914.8
613.554	10917.96
613.911	11002.93
614.267	11013.1
614.624	11014.68
614.98	10958.41
615.337	11055.13
615.693	11065.3
616.05	11059.65
616.406	11078.41
616.762	11086.77
617.118	11102.59
617.475	11111.63
617.831	11058.52
618.187	11180.33
618.543	11068.92
618.899	11152.53
619.255	11143.94
619.611	11192.08
619.967	11197.73
620.323	11178.52
620.678	11099.43
621.034	11063.95
621.39	11117.5
621.746	11155.92
622.101	11170.84
622.457	11146.2
622.812	11180.33
623.168	11161.12
623.523	11168.35
623.879	11242.92
624.234	11136.03
624.589	11119.76
624.945	11084.28
625.3	11173.55
625.655	11189.37
626.01	11173.77
626.365	11178.52
626.72	11165.64
627.075	11192.98
627.43	11197.05
627.785	11152.98
628.14	11182.59
628.495	11143.49
628.85	11127.22
629.205	11092.42
629.559	11174.68
629.914	11042.93
630.269	11086.32
630.623	11079.31
630.978	11070.05
631.332	11082.02
631.687	11000.9
632.041	11034.34
632.396	11063.72
632.75	11070.27
633.104	10969.49
633.459	10974.91
633.813	10917.96
634.167	10950.95
634.521	10973.33
634.875	10978.3
635.229	10857.4
635.583	10863.27
635.937	10946.44
636.291	10948.92
636.645	10870.05
636.999	10783.95
637.352	10863.73
637.706	10810.62
638.06	10949.83
638.413	10837.06
638.767	10716.38
639.121	10845.87
639.474	10748.7
639.828	10667.57
640.181	10703.05
640.534	10755.93
640.888	10694.01
641.241	10689.94
641.594	10709.61
641.947	10739.44
642.301	10623.05
642.654	10657.4
643.007	10686.56
643.36	10705.31
643.713	10606.78
644.066	10714.35
644.419	10641.36
644.771	10544.41
645.124	10531.76
645.477	10464.87
645.83	10424.87
646.182	10384.19
646.535	10362.72
646.888	10344.42
647.24	10322.95
647.593	10391.87
647.945	10318.66
648.298	10219.67
648.65	10231.65
649.002	10269.84
649.355	10330.18
649.707	10333.8
650.059	10310.97
650.411	10439.56
650.763	10464.64
651.115	10519.78
651.467	10513
651.819	10548.03
652.171	10492.44
652.523	10493.57
652.875	10546.45
653.227	10484.75
653.578	10597.29
653.93	10485.66
654.282	10493.57
654.633	10522.94
654.985	10487.92
655.337	10558.42
655.688	10484.98
656.039	10586.9
656.391	10390.74
656.742	10509.38
657.094	10521.81
657.445	10540.12
657.796	10493.57
658.147	10468.71
658.498	10520.01
658.849	10570.4
659.2	10589.61
659.551	10520.01
659.902	10504.19
660.253	10503.51
660.604	10550.29
660.955	10472.78
661.306	10526.33
661.656	10586.9
662.007	10543.06
662.358	10470.74
662.708	10563.17
663.059	10474.36
663.409	10453.79
663.76	10588.03
664.11	10580.8
664.461	10594.35
664.811	10593
665.161	10548.03
665.511	10508.48
665.862	10526.33
666.212	10625.31
666.562	10568.14
666.912	10523.17
667.262	10583.96
667.612	10541.25
667.962	10592.32
668.312	10539.21
668.662	10596.39
669.011	10585.99
669.361	10573.11
669.711	10534.47
670.06	10477.3
670.41	10433.23
670.76	10538.76
671.109	10548.03
671.459	10584.86
671.808	10496.96
672.157	10517.97
672.507	10380.12
672.856	10463.51
673.205	10391.42
673.554	10436.39
673.904	10414.02
674.253	10461.48
674.602	10426.67
674.951	10300.8
675.3	10239.34
675.649	10393.68
675.998	10343.06
676.346	10391.42
676.695	10456.96
677.044	10271.2
677.393	10318.66
677.741	10385.32
678.09	10344.19
678.438	10266
678.787	10365.43
679.135	10272.33
679.484	10159.34
679.832	10267.36
680.181	10159.11
680.529	10269.84
680.877	10223.74
681.225	10169.28
681.573	10240.69
681.922	10132.45
682.27	10130.86
682.618	10125.89
682.966	10111.43
683.314	10112.56
683.661	10152.56
684.009	10104.65
684.357	9966.57
684.705	9979.23
685.053	10007.25
685.4	10022.84
685.748	9941.04
686.095	9935.61
686.443	9969.74
686.79	9835.96
687.138	9925.45
687.485	9900.14
687.832	9851.55
688.18	9856.52
688.527	9731.33
688.874	9802.28
689.221	9704.21
689.568	9742.4
689.915	9632.12
690.262	9600.03
690.609	9578.11
690.956	9506.7
691.303	9605.91
691.65	9485.68
691.997	9521.84
692.344	9428.96
692.69	9435.74
693.037	9404.55
693.383	9362.97
693.73	9392.35
694.077	9263.99
694.423	9350.77
694.769	9200.72
695.116	9243.88
695.462	9175.86
695.808	9146.48
696.155	9199.36
696.501	9062.19
696.847	9034.17
697.193	8963.89
697.539	9085.47
697.885	9005.47
698.231	8951.23
698.577	8878.02
698.923	8871.01
699.269	8828.75
699.614	8774.52
699.96	8783.55
700.306	8809.77
700.651	8732.93
700.997	8653.16
701.342	8677.12
701.688	8633.73
702.033	8555.54
702.379	8627.4
702.724	8564.8
703.069	8587.63
703.415	8474.64
703.76	8506.95
704.105	8471.7
704.45	8426.05
704.795	8419.5
705.14	8334.3
705.485	8376.33
705.83	8339.5
706.175	8245.94
706.52	8295.88
706.865	8255.88
707.209	8255.88
707.554	8191.48
707.899	8118.49
708.243	8119.84
708.588	8170.24
708.932	8053.63
709.277	8000.3
709.621	8029.9
709.966	7981.09
710.31	8011.6
710.654	7878.95
710.998	8000.98
711.342	7989.22
711.687	7891.37
712.031	7866.06
712.375	7858.83
712.719	7890.7
713.063	7868.1
713.407	7886.18
713.75	7882.79
714.094	7743.36
714.438	7761.89
714.782	7782.22
715.125	7784.03
715.469	7742.45
715.812	7726.18
716.156	7640.76
716.499	7717.37
716.843	7687.99
717.186	7689.35
717.53	7666.3
717.873	7657.03
718.216	7652.51
718.559	7620.42
718.902	7571.83
719.246	7572.74
719.589	7567.32
719.932	7511.72
720.275	7539.29
720.617	7518.05
720.96	7532.06
721.303	7527.09
721.646	7516.92
721.989	7479.41
722.331	7467.88
722.674	7504.27
723.016	7506.07
723.359	7488.9
723.701	7502.46
724.044	7429.47
724.386	7433.53
724.729	7535.23
725.071	7444.15
725.413	7479.63
725.755	7386.08
726.097	7399.64
726.439	7376.13
726.782	7386.98
727.124	7391.95
727.465	7394.89
727.807	7349.69
728.149	7381.33
728.491	7341.56
728.833	7350.15
729.175	7248.68
729.516	7330.03
729.858	7283.71
730.199	7349.24
730.541	7360.54
730.882	7355.8
731.224	7318.96
731.565	7319.19
731.906	7278.51
732.248	7326.87
732.589	7292.52
732.93	7337.94
733.271	7293.2
733.612	7319.64
733.953	7304.5
734.294	7301.79
734.635	7296.36
734.976	7315.12
735.317	7266.76
735.658	7304.27
735.999	7327.1
736.339	7391.73
736.68	7320.54
737.021	7357.15
737.361	7303.59
737.702	7341.33
738.042	7308.79
738.383	7339.52
738.723	7398.51
739.063	7325.97
739.404	7396.7
739.744	7414.55
740.084	7405.74
740.424	7410.48
740.764	7423.59
741.104	7450.03
741.444	7456.36
741.784	7426.98
742.124	7471.95
742.464	7521.67
742.804	7517.6
743.143	7478.28
743.483	7584.04
743.823	7509.01
744.162	7535
744.502	7626.97
744.841	7566.64
745.181	7711.72
745.52	7671.95
745.86	7731.38
746.199	7732.28
746.538	7770.47
746.877	7846.18
747.216	7853.41
747.556	7866.06
747.895	8021.09
748.234	7934.09
748.573	7997.36
748.911	8110.13
749.25	8091.6
749.589	8179.28
749.928	8272.38
750.267	8322.55
750.605	8339.95
750.944	8442.09
751.283	8549.21
751.621	8615.42
751.96	8638.7
752.298	8718.92
752.636	8884.12
752.975	8897
753.313	8975.64
753.651	9081.4
753.989	9214.5
754.327	9264.22
754.666	9391.67
755.004	9550.99
755.342	9700.37
755.679	9838.44
756.017	9969.51
756.355	10038.89
756.693	10141.26
757.031	10326.56
757.368	10397.75
757.706	10547.8
758.044	10727.01
758.381	10899.66
758.719	11024.85
759.056	11203.83
759.394	11300.78
759.731	11421.23
760.068	11594.78
760.405	11727.66
760.743	11823.7
761.08	12148.44
761.417	12241.54
761.754	12477.02
762.091	12642.89
762.428	12742.32
762.765	12948.64
