Data from hue_20_FLMS001491_3.txt Node
Date: Mon Feb 06 15:33:32 GMT 2017
User: dcchb
Spectrometer: FLMS00149
Trigger mode: 0
Integration Time (sec): 2.000000E-2
Scans to average: 10
Electric dark correction enabled: true
Nonlinearity correction enabled: false
Boxcar width: 0
XAxis mode: Wavelengths
Number of Pixels in Spectrum: 2048
>>>>>Begin Spectral Data<<<<<
341.393	-1.58
341.776	-1.58
342.16	-1.58
342.543	-56.5
342.927	-76.16
343.31	-56.27
343.693	-55.37
344.077	-52.43
344.46	-63.28
344.843	-66.66
345.226	-46.1
345.61	-27.57
345.993	-26.89
346.376	-14.91
346.759	9.27
347.142	19.66
347.525	35.48
347.908	64.41
348.291	88.13
348.674	91.75
349.057	100.79
349.44	120.67
349.823	133.1
350.206	181.69
350.588	169.26
350.971	198.41
351.354	226.43
351.737	240.9
352.119	255.36
352.502	235.93
352.884	283.83
353.267	277.28
353.65	271.86
354.032	304.85
354.414	313.44
354.797	296.72
355.179	325.42
355.562	321.12
355.944	326.32
356.326	341.46
356.709	326.77
357.091	361.57
357.473	344.85
357.855	331.97
358.238	365.64
358.62	339.2
359.002	354.34
359.384	355.7
359.766	352.31
360.148	341.23
360.53	343.72
360.912	348.69
361.294	346.43
361.676	348.92
362.057	345.75
362.439	334.91
362.821	341.91
363.203	311.63
363.584	321.35
363.966	348.69
364.348	318.64
364.729	327.22
365.111	324.06
365.493	323.38
365.874	321.8
366.256	334.45
366.637	313.44
367.019	305.53
367.4	333.1
367.781	307.56
368.163	324.74
368.544	317.96
368.925	340.33
369.306	328.8
369.688	301.91
370.069	302.82
370.45	333.55
370.831	297.39
371.212	320.9
371.593	324.51
371.974	294.91
372.355	325.64
372.736	339.88
373.117	325.19
373.498	291.07
373.879	305.53
374.26	309.82
374.641	308.01
375.021	327
375.402	317.96
375.783	317.96
376.163	343.72
376.544	344.85
376.925	311.4
377.305	323.16
377.686	341.91
378.066	348.01
378.447	308.01
378.827	319.54
379.208	337.84
379.588	308.01
379.968	321.12
380.349	329.03
380.729	345.3
381.109	345.08
381.489	324.29
381.87	332.19
382.25	320.22
382.63	321.57
383.01	337.62
383.39	349.82
383.77	340.56
384.15	335.13
384.53	363.61
384.91	353.89
385.29	347.11
385.67	369.71
386.049	352.08
386.429	326.09
386.809	347.56
387.189	357.05
387.568	348.92
387.948	351.86
388.328	358.41
388.707	357.5
389.087	369.71
389.466	362.7
389.846	367.45
390.225	360.89
390.605	359.99
390.984	348.69
391.363	382.14
391.743	355.24
392.122	374.91
392.501	370.61
392.881	388.24
393.26	358.41
393.639	364.74
394.018	381.01
394.397	368.58
394.776	376.04
395.155	376.26
395.534	370.39
395.913	380.1
396.292	396.83
396.671	367.22
397.05	368.13
397.429	388.69
397.808	366.54
398.186	365.87
398.565	392.31
398.944	390.72
399.323	366.09
399.701	381.68
400.08	385.07
400.458	393.44
400.837	381.46
401.215	362.25
401.594	409.93
401.972	383.94
402.351	402.02
402.729	397.28
403.107	406.54
403.486	408.58
403.864	406.09
404.242	395.7
404.62	401.35
404.999	420.1
405.377	420.33
405.755	416.03
406.133	407.22
406.511	425.98
406.889	413.77
407.267	421.68
407.645	407.22
408.023	404.06
408.401	409.48
408.779	419.42
409.156	422.14
409.534	436.15
409.912	431.63
410.29	439.76
410.667	423.72
411.045	455.81
411.422	424.17
411.8	423.04
412.178	448.8
412.555	464.85
412.933	452.19
413.31	435.92
413.687	462.81
414.065	456.49
414.442	445.64
414.819	452.87
415.197	453.55
415.574	463.94
415.951	461.46
416.328	474.11
416.705	475.69
417.082	481.57
417.46	473.43
417.837	488.8
418.214	487.44
418.591	476.6
418.967	459.2
419.344	493.09
419.721	478.18
420.098	488.57
420.475	480.44
420.852	494.68
421.228	500.78
421.605	507.11
421.982	526.09
422.358	502.59
422.735	485.41
423.111	513.66
423.488	499.42
423.864	506.2
424.241	529.48
424.617	522.47
424.994	538.06
425.37	520.66
425.746	508.91
426.123	524.96
426.499	532.64
426.875	536.71
427.251	541.45
427.627	541
428.003	550.49
428.379	543.04
428.756	547.56
429.132	554.11
429.507	561.12
429.883	550.27
430.259	556.82
430.635	565.18
431.011	552.98
431.387	576.26
431.763	576.93
432.138	592.75
432.514	599.08
432.89	597.27
433.265	603.37
433.641	611.51
434.016	611.28
434.392	591.85
434.767	608.35
435.143	636.37
435.518	614.22
435.894	618.74
436.269	636.37
436.644	640.44
437.02	648.57
437.395	662.81
437.77	665.97
438.145	639.76
438.52	661
438.895	651.96
439.271	661.9
439.646	685.41
440.021	665.52
440.395	653.32
440.77	681.11
441.145	686.76
441.52	705.97
441.895	685.63
442.27	689.02
442.645	683.37
443.019	714.33
443.394	702.81
443.769	711.85
444.143	713.88
444.518	745.52
444.892	721.11
445.267	726.53
445.641	747.1
446.016	754.78
446.39	726.31
446.764	740.09
447.139	740.09
447.513	734.67
447.887	743.71
448.262	763.14
448.636	759.98
449.01	746.65
449.384	769.92
449.758	771.96
450.132	755.46
450.506	771.73
450.88	798.85
451.254	790.04
451.628	778.74
452.002	815.12
452.376	802.92
452.75	801.79
453.123	795.91
453.497	830.94
453.871	828.45
454.244	844.72
454.618	852.86
454.992	828.45
455.365	843.82
455.739	868.68
456.112	858.96
456.486	878.85
456.859	856.7
457.232	895.8
457.606	891.05
457.979	881.78
458.352	934.21
458.725	891.95
459.099	908
459.472	931.5
459.845	954.55
460.218	964.27
460.591	980.31
460.964	955.68
461.337	983.03
461.71	978.73
462.083	1004.49
462.456	985.51
462.829	1010.59
463.201	1037.49
463.574	1023.02
463.947	1054.21
464.32	1055.34
464.692	1071.16
465.065	1063.47
465.438	1099.63
465.81	1089.91
466.183	1116.81
466.555	1157.26
466.928	1145.96
467.3	1140.08
467.672	1166.75
468.045	1195.9
468.417	1180.99
468.789	1164.04
469.161	1211.27
469.534	1218.5
469.906	1242.91
470.278	1254.43
470.65	1278.61
471.022	1322
471.394	1299.17
471.766	1286.07
472.138	1323.81
472.51	1369.91
472.882	1385.73
473.253	1402
473.625	1407.65
473.997	1435.44
474.369	1443.35
474.74	1469.79
475.112	1503.01
475.484	1536.68
475.855	1553.63
476.227	1557.47
476.598	1591.37
476.97	1621.43
477.341	1640.41
477.713	1678.37
478.084	1670.92
478.455	1717.47
478.827	1762.89
479.198	1835.21
479.569	1804.47
479.94	1860.74
480.311	1855.54
480.682	1893.28
481.053	1948.42
481.424	1964.47
481.795	2013.96
482.166	2030.46
482.537	2071.81
482.908	2121.98
483.279	2115.65
483.65	2195.65
484.021	2235.87
484.391	2225.03
484.762	2273.61
485.133	2294.4
485.503	2378.69
485.874	2389.99
486.244	2405.81
486.615	2452.36
486.985	2505.92
487.356	2544.11
487.726	2564.45
488.097	2606.03
488.467	2671.79
488.837	2737.56
489.207	2749.98
489.578	2775.75
489.948	2830.89
490.318	2865.01
490.688	2872.69
491.058	2959.7
491.428	2976.19
491.798	3044.21
492.168	3069.52
492.538	3096.64
492.908	3159.24
493.278	3218.45
493.648	3202.4
494.017	3209.41
494.387	3255.06
494.757	3333.92
495.126	3280.82
495.496	3356.07
495.866	3393.13
496.235	3420.93
496.605	3454.37
496.974	3479.91
497.344	3501.38
497.713	3544.09
498.082	3575.05
498.452	3614.82
498.821	3617.53
499.19	3657.53
499.559	3691.43
499.928	3697.08
500.298	3721.71
500.667	3760.35
501.036	3746.34
501.405	3796.96
501.774	3862.72
502.143	3869.95
502.512	3874.93
502.88	3896.62
503.249	3892.55
503.618	3955.6
503.987	3962.61
504.356	3980.23
504.724	3995.38
505.093	3961.7
505.462	4062.94
505.83	4086.22
506.199	4094.36
506.567	4148.37
506.936	4137.74
507.304	4170.29
507.672	4173.45
508.041	4256.84
508.409	4258.19
508.777	4263.39
509.145	4274.46
509.514	4315.37
509.882	4327.57
510.25	4325.76
510.618	4341.13
510.986	4380.68
511.354	4408.25
511.722	4451.41
512.09	4440.79
512.458	4467.91
512.826	4485.53
513.193	4511.75
513.561	4547
513.929	4562.37
514.297	4551.29
514.664	4620.22
515.032	4661.8
515.4	4675.81
515.767	4672.42
516.135	4713.1
516.502	4686.43
516.869	4756.71
517.237	4753.55
517.604	4773.21
517.972	4783.38
518.339	4803.49
518.706	4778.41
519.073	4843.71
519.44	4839.65
519.808	4866.54
520.175	4886.43
520.542	4940.21
520.909	4944.95
521.276	4976.82
521.643	4988.12
522.009	4984.5
522.376	5038.51
522.743	5052.3
523.11	5101.11
523.477	5130.26
523.843	5123.03
524.21	5189.92
524.577	5205.29
524.943	5277.6
525.31	5277.15
525.676	5261.1
526.043	5396.69
526.409	5345.4
526.776	5393.3
527.142	5416.35
527.508	5416.13
527.874	5475.79
528.241	5509.01
528.607	5502.68
528.973	5551.49
529.339	5558.5
529.705	5553.53
530.071	5623.81
530.437	5654.99
530.803	5699.96
531.169	5714.43
531.535	5695.9
531.901	5745.84
532.267	5785.61
532.632	5805.72
532.998	5863.12
533.364	5817.93
533.73	5839.39
534.095	5911.71
534.461	5950.8
534.826	5975.44
535.192	5973.63
535.557	6060.41
535.923	6065.83
536.288	6036.68
536.653	6074.87
537.019	6100.18
537.384	6096.11
537.749	6131.82
538.114	6096.79
538.479	6136.34
538.845	6189.44
539.21	6159.84
539.575	6206.39
539.94	6269.67
540.305	6316.22
540.67	6318.25
541.034	6275.09
541.399	6336.56
541.764	6353.28
542.129	6423.79
542.494	6439.83
542.858	6423.11
543.223	6464.24
543.587	6486.16
543.952	6495.42
544.316	6520.96
544.681	6521.18
545.045	6588.98
545.41	6576.1
545.774	6652.71
546.138	6587.85
546.503	6677.11
546.867	6722.99
547.231	6734.74
547.595	6772.03
547.959	6823.32
548.324	6827.17
548.688	6817.9
549.052	6839.37
549.416	6838.01
549.779	6913.72
550.143	6957.78
550.507	6887.95
550.871	6974.28
551.235	6973.83
551.599	7071
551.962	7019.7
552.326	7052.47
552.689	7044.33
553.053	7129.53
553.417	7109.64
553.78	7153.03
554.143	7202.52
554.507	7277.55
554.87	7207.04
555.234	7250.2
555.597	7258.34
555.96	7302.63
556.323	7346.25
556.686	7339.47
557.05	7341.28
557.413	7396.64
557.776	7395.74
558.139	7448.62
558.502	7464.66
558.865	7536.75
559.228	7517.99
559.59	7518.67
559.953	7582.63
560.316	7654.71
560.679	7619.01
561.041	7681.83
561.404	7686.58
561.767	7759.8
562.129	7740.36
562.492	7823.98
562.854	7769.74
563.217	7740.81
563.579	7896.29
563.941	7851.54
564.304	7885.89
564.666	8001.6
565.028	7922.96
565.39	7954.14
565.753	7991.2
566.115	8116.85
566.477	8129.96
566.839	8130.18
567.201	8177.86
567.563	8171.99
567.925	8167.92
568.287	8211.76
568.648	8249.05
569.01	8276.39
569.372	8359.1
569.734	8278.65
570.095	8433.68
570.457	8409.04
570.819	8476.84
571.18	8419.89
571.542	8550.06
571.903	8601.58
572.265	8585.31
572.626	8654.91
572.987	8682.94
573.349	8744.4
573.71	8829.82
574.071	8788.7
574.432	8844.74
574.794	8985.98
575.155	8977.62
575.516	8941.46
575.877	9098.97
576.238	9082.93
576.599	9215.12
576.96	9265.52
577.32	9294.9
577.681	9364.73
578.042	9462.12
578.403	9497.15
578.763	9545.51
579.124	9654.89
579.485	9800.19
579.845	9875.67
580.206	9919.06
580.566	10011.26
580.927	10081.77
581.287	10247.19
581.648	10314.98
582.008	10490.8
582.368	10547.29
582.728	10687.63
583.089	10800.39
583.449	10907.96
583.809	11129.88
584.169	11323.77
584.529	11389.53
584.889	11664.33
585.249	11733.7
585.609	11889.63
585.969	12169.4
586.329	12247.36
586.688	12498.43
587.048	12646
587.408	12790.17
587.768	13091.18
588.127	13248.47
588.487	13447.56
588.846	13810.94
589.206	13866.53
589.565	14111.95
589.925	14431.48
590.284	14618.6
590.643	14853.85
591.003	15159.6
591.362	15331.8
591.721	15566.6
592.08	15795.06
592.44	16100.82
592.799	16468.72
593.158	16736.06
593.517	16945.09
593.876	17211.3
594.235	17513.66
594.593	17738.52
594.952	18016.25
595.311	18351.38
595.67	18663.92
596.029	18969.67
596.387	19291.24
596.746	19660.95
597.104	19750.44
597.463	20021.85
597.822	20453.93
598.18	20626.58
598.538	20864.99
598.897	21309.95
599.255	21433.79
599.613	22045.75
599.972	22145.63
600.33	22519.18
600.688	22715.56
601.046	23043.69
601.404	23500.63
601.762	23575.2
602.12	24055.41
602.478	24294.5
602.836	24508.06
603.194	24685.9
603.552	24957.54
603.91	25170.41
604.268	25678.87
604.625	25761.81
604.983	26124.06
605.341	26302.13
605.698	26637.94
606.056	26912.29
606.413	27112.51
606.771	27357.25
607.128	27617.13
607.485	27832.49
607.843	28119.26
608.2	28394.73
608.557	28679.7
608.914	28698.68
609.272	29056.86
609.629	29378.89
609.986	29645.77
610.343	29662.95
610.7	30130.06
611.057	30273.78
611.414	30443.27
611.771	30805.52
612.127	30981.56
612.484	31101.56
612.841	31562.79
613.198	31494.09
613.554	31608.66
613.911	32036.45
614.267	32136.78
614.624	32215.65
614.98	32403.67
615.337	32722.98
615.693	32851.34
616.05	32949.64
616.406	33232.57
616.762	33344.89
617.118	33400.03
617.475	33613.35
617.831	33816.96
618.187	33981.71
618.543	33952.78
618.899	34463.27
619.255	34473.67
619.611	34488.58
619.967	34771.74
620.323	34884.96
620.678	34809.03
621.034	34858.52
621.39	34939.87
621.746	35142.8
622.101	35608.33
622.457	35420.76
622.812	35491.95
623.168	35730.36
623.523	35905.5
623.879	35874.99
624.234	35856.23
624.589	36016.45
624.945	36063.68
625.3	36337.12
625.655	36252.15
626.01	36418.7
626.365	36381.64
626.72	36477.91
627.075	36695.08
627.43	36695.53
627.785	36638.58
628.14	36723.78
628.495	36888.75
628.85	36835.87
629.205	36818.47
629.559	37170.1
629.914	37105.69
630.269	37055.97
630.623	37114.96
630.978	36969.2
631.332	37217.55
631.687	37337.32
632.041	37325.57
632.396	37201.28
632.75	37100.95
633.104	37382.29
633.459	37292.58
633.813	37253.71
634.167	37241.05
634.521	37322.86
634.875	37524.89
635.229	37292.13
635.583	37245.12
635.937	37343.65
636.291	37303.88
636.645	37408.73
636.999	37181.4
637.352	37390.66
637.706	37222.3
638.06	37392.46
638.413	37291
638.767	37297.32
639.121	37470.2
639.474	37208.29
639.828	37339.13
640.181	37300.04
640.534	37356.98
640.888	37240.6
641.241	37131.45
641.594	37235.41
641.947	37384.33
642.301	37286.03
642.654	37227.72
643.007	37211.45
643.36	37110.21
643.713	37129.19
644.066	37347.49
644.419	37135.07
644.771	37022.53
645.124	36633.39
645.477	36566.72
645.83	36396.11
646.182	36172.16
646.535	36224.81
646.888	36216.67
647.24	35962.67
647.593	36188.88
647.945	36199.73
648.298	36024.14
648.65	36040.86
649.002	35936
649.355	36066.62
649.707	35915.67
650.059	36114.98
650.411	36471.58
650.763	36611.01
651.115	37008.07
651.467	36797
651.819	36793.83
652.171	36739.15
652.523	36793.83
652.875	36839.48
653.227	36546.84
653.578	36883.32
653.93	36727.17
654.282	36647.17
654.633	36541.19
654.985	36633.61
655.337	36723.55
655.688	36597.91
656.039	36669.54
656.391	36504.8
656.742	36597.46
657.094	36531.69
657.445	36648.75
657.796	36591.35
658.147	36557
658.498	36479.04
658.849	36539.83
659.2	36439.95
659.551	36515.2
659.902	36592.26
660.253	36412.83
660.604	36624.35
660.955	36416.22
661.306	36417.8
661.656	36478.59
662.007	36314.75
662.358	36418.7
662.708	36493.73
663.059	36438.14
663.409	36270.23
663.76	36406.27
664.11	36507.29
664.461	36468.87
664.811	36389.33
665.161	36333.06
665.511	36227.3
665.862	36401.08
666.212	36433.39
666.562	36383.45
666.912	36377.12
667.262	36373.05
667.612	36274.98
667.962	36433.62
668.312	36241.31
668.662	36520.62
669.011	36399.27
669.361	36258.93
669.711	36319.5
670.06	36188.65
670.41	36250.8
670.76	36138.48
671.109	36358.82
671.459	36390.46
671.808	36170.57
672.157	36283.34
672.507	36149.56
672.856	36011.71
673.205	36093.06
673.554	36256.9
673.904	36028.21
674.253	36224.58
674.602	36190.91
674.951	35673.64
675.3	35490.82
675.649	36047.19
675.998	35876.57
676.346	35974.2
676.695	36115.43
677.044	35887.19
677.393	35995.21
677.741	35969
678.09	35982.1
678.438	35802.45
678.787	35908.66
679.135	35867.76
679.484	35588.89
679.832	35804.03
680.181	35653.53
680.529	35650.59
680.877	35646.75
681.225	35513.19
681.573	35746.86
681.922	35604.26
682.27	35464.15
682.618	35363.59
682.966	35284.5
683.314	35410.82
683.661	35420.76
684.009	35111.39
684.357	34995.92
684.705	35001.57
685.053	34991.62
685.4	35006.31
685.748	34847.22
686.095	34847.45
686.443	34640.45
686.79	34744.62
687.138	34712.31
687.485	34752.53
687.832	34623.5
688.18	34631.86
688.527	34397.97
688.874	34457.4
689.221	34355.93
689.568	34207.69
689.915	34247.69
690.262	34160.23
690.609	34072.32
690.956	33926.11
691.303	33937.19
691.65	33847.47
691.997	33797.76
692.344	33505.11
692.69	33668.95
693.037	33721.37
693.383	33463.98
693.73	33496.29
694.077	33321.61
694.423	33330.88
694.769	33249.07
695.116	33169.98
695.462	33110.32
695.808	32975.18
696.155	32997.55
696.501	32672.59
696.847	32805.47
697.193	32491.12
697.539	32573.38
697.885	32424.68
698.231	32336.78
698.577	32332.71
698.923	32270.79
699.269	32061.98
699.614	32052.26
699.96	31793.74
700.306	31940.18
700.651	31798.71
700.997	31656.34
701.342	31586.29
701.688	31514.65
702.033	31513.75
702.379	31479.62
702.724	31362.79
703.069	31433.07
703.415	31099.07
703.76	31052.29
704.105	31196.02
704.45	31125.06
704.795	30931.62
705.14	30888.68
705.485	30711.51
705.83	30757.61
706.175	30744.05
706.52	30543.38
706.865	30473.55
707.209	30385.64
707.554	30253.22
707.899	30392.87
708.243	30143.16
708.588	30119.21
708.932	30044.63
709.277	29897.07
709.621	29977.06
709.966	29704.76
710.31	29914.47
710.654	29572.1
710.998	29579.11
711.342	29601.71
711.687	29574.82
712.031	29489.85
712.375	29370.3
712.719	29401.49
713.063	29260.93
713.407	29492.33
713.75	29153.81
714.094	29105
714.438	29132.34
714.782	29210.31
715.125	28983.87
715.469	29040.14
715.812	28848.96
716.156	28789.75
716.499	28747.72
716.843	28680.38
717.186	28591.79
717.53	28796.76
717.873	28698.45
718.216	28577.1
718.559	28361.97
718.902	28314.06
719.246	28434.73
719.589	28254.62
719.932	28145.47
720.275	28149.77
720.617	28086.04
720.96	27999.94
721.303	28134.18
721.646	28048.75
721.989	27910.68
722.331	28003.56
722.674	27788.42
723.016	27933.5
723.359	27736.67
723.701	27716.33
724.044	27633.4
724.386	27572.83
724.729	27633.4
725.071	27591.59
725.413	27397.02
725.755	27672.49
726.097	27382.1
726.439	27261.2
726.782	27305.27
727.124	27362.9
727.465	27218.49
727.807	27234.54
728.149	27157.93
728.491	27047.2
728.833	27166.29
729.175	26974.66
729.516	27023.47
729.858	26906.19
730.199	26930.14
730.541	26846.75
730.882	26995.45
731.224	26914.55
731.565	26672.97
731.906	26759.07
732.248	26638.4
732.589	26574.67
732.93	26530.6
733.271	26546.19
733.612	26554.78
733.953	26521.34
734.294	26394.33
734.635	26426.42
734.976	26490.15
735.317	26319.31
735.658	26350.95
735.999	26317.73
736.339	26205.19
736.68	26178.29
737.021	26152.53
737.361	26081.57
737.702	26129.48
738.042	26092.65
738.383	26143.04
738.723	26037.28
739.063	25950.5
739.404	26086.77
739.744	26005.87
740.084	25811.75
740.424	25841.58
740.764	25860.34
741.104	25890.62
741.444	25609.72
741.784	25653.79
742.124	25714.8
742.464	25618.54
742.804	25698.99
743.143	25529.05
743.483	25505.32
743.823	25484.98
744.162	25368.6
744.502	25378.32
744.841	25294.25
745.181	25478.43
745.52	25288.37
745.86	25321.59
746.199	25289.96
746.538	25104.88
746.877	25239.11
747.216	25251.31
747.556	25143.52
747.895	25069.62
748.234	25090.64
748.573	25029.85
748.911	24983.52
749.25	24962.73
749.589	24852
749.928	24850.42
750.267	24883.64
750.605	24812.23
750.944	24720.25
751.283	24531.78
751.621	24761.16
751.96	24647.71
752.298	24539.69
752.636	24586.7
752.975	24517.55
753.313	24316.65
753.651	24577.66
753.989	24421.73
754.327	24348.29
754.666	24161.62
755.004	24228.06
755.342	24228.74
755.679	24135.41
756.017	24023.78
756.355	24076.66
756.693	23934.51
757.031	24032.36
757.368	23861.07
757.706	23871.24
758.044	23818.36
758.381	23807.06
758.719	23674.86
759.056	23757.79
759.394	23706.04
759.731	23446.16
760.068	23481.19
760.405	23406.62
760.743	23204.81
761.08	23343.79
761.417	23224.47
