Data from hue_350_FLMS001491_31.txt Node
Date: Mon Feb 06 15:37:55 GMT 2017
User: dcchb
Spectrometer: FLMS00149
Trigger mode: 0
Integration Time (sec): 2.000000E-2
Scans to average: 10
Electric dark correction enabled: true
Nonlinearity correction enabled: false
Boxcar width: 0
XAxis mode: Wavelengths
Number of Pixels in Spectrum: 2048
>>>>>Begin Spectral Data<<<<<
341.393	-6.23
341.776	-6.23
342.16	-6.23
342.543	-64.53
342.927	-47.58
343.31	-69.73
343.693	-66.11
344.077	-62.95
344.46	-56.85
344.843	-64.08
345.226	-34.7
345.61	-6.68
345.993	-9.62
346.376	-29.96
346.759	21.12
347.142	44.39
347.525	52.07
347.908	41
348.291	77.16
348.674	89.14
349.057	75.8
349.44	140.21
349.823	143.82
350.206	173.43
350.588	192.86
350.971	211.39
351.354	216.82
351.737	252.52
352.119	252.3
352.502	260.66
352.884	268.11
353.267	265.85
353.65	311.05
354.032	316.25
354.414	292.07
354.797	320.09
355.179	304.27
355.562	329.13
355.944	334.1
356.326	360.09
356.709	355.34
357.091	327.55
357.473	360.54
357.855	347.21
358.238	342.91
358.62	327.1
359.002	359.86
359.384	315.12
359.766	353.76
360.148	327.55
360.53	356.25
360.912	334.78
361.294	341.78
361.676	316.7
362.057	332.75
362.439	331.39
362.821	347.89
363.203	325.29
363.584	342.69
363.966	335.23
364.348	309.47
364.729	323.25
365.111	332.07
365.493	305.18
365.874	312.63
366.256	315.8
366.637	305.4
367.019	317.6
367.4	323.93
367.781	302.46
368.163	328
368.544	321.9
368.925	312.63
369.306	326.19
369.688	301.11
370.069	294.78
370.45	299.3
370.831	303.14
371.212	315.8
371.593	294.78
371.974	320.77
372.355	328.9
372.736	321.22
373.117	308.57
373.498	297.72
373.879	296.59
374.26	308.79
374.641	328
375.021	300.66
375.402	324.38
375.783	311.28
376.163	318.73
376.544	331.16
376.925	317.83
377.305	332.29
377.686	328
378.066	340.2
378.447	316.93
378.827	332.75
379.208	333.65
379.588	309.7
379.968	318.06
380.349	335.23
380.729	328.45
381.109	321.9
381.489	328
381.87	320.77
382.25	326.42
382.63	322.8
383.01	317.6
383.39	335.23
383.77	341.78
384.15	328.9
384.53	328.45
384.91	340.65
385.29	324.61
385.67	339.3
386.049	340.2
386.429	341.78
386.809	348.34
387.189	336.36
387.568	343.59
387.948	328.9
388.328	357.15
388.707	320.99
389.087	347.21
389.466	333.65
389.846	351.95
390.225	361.45
390.605	351.05
390.984	371.16
391.363	367.32
391.743	363.93
392.122	365.51
392.501	368.22
392.881	351.05
393.26	344.95
393.639	353.08
394.018	373.2
394.397	351.95
394.776	338.4
395.155	351.05
395.534	368.45
395.913	370.94
396.292	363.71
396.671	362.35
397.05	376.81
397.429	373.87
397.808	354.67
398.186	377.94
398.565	399.18
398.944	382.91
399.323	372.97
399.701	377.72
400.08	370.26
400.458	385.17
400.837	378.17
401.215	393.31
401.594	379.3
401.972	382.01
402.351	399.41
402.729	380.65
403.107	384.27
403.486	383.14
403.864	403.7
404.242	406.19
404.62	376.81
404.999	389.24
405.377	390.37
405.755	390.6
406.133	403.48
406.511	407.77
406.889	389.92
407.267	405.06
407.645	410.26
408.023	413.65
408.401	426.53
408.779	432.86
409.156	425.62
409.534	415.23
409.912	440.99
410.29	406.87
410.667	431.27
411.045	445.06
411.422	440.54
411.8	446.41
412.178	422.46
412.555	451.16
412.933	442.35
413.31	461.33
413.687	455.91
414.065	460.65
414.442	467.88
414.819	444.38
415.197	468.79
415.574	487.77
415.951	473.76
416.328	490.03
416.705	457.04
417.082	473.53
417.46	478.28
417.837	499.29
418.214	485.28
418.591	492.74
418.967	493.65
419.344	488.9
419.721	514.44
420.098	491.84
420.475	499.75
420.852	498.16
421.228	485.28
421.605	511.5
421.982	535.68
422.358	513.08
422.735	523.47
423.111	519.86
423.488	513.31
423.864	511.95
424.241	525.51
424.617	534.1
424.994	539.07
425.37	548.33
425.746	544.04
426.123	562.8
426.499	549.46
426.875	549.01
427.251	548.33
427.627	560.76
428.003	563.02
428.379	572.97
428.756	559.41
429.132	605.05
429.507	570.93
429.883	587.43
430.259	592.4
430.635	603.92
431.011	590.82
431.387	610.48
431.763	627.43
432.138	618.39
432.514	628.78
432.89	602.34
433.265	651.61
433.641	643.25
434.016	652.06
434.392	640.99
434.767	662.68
435.143	659.29
435.518	647.09
435.894	643.47
436.269	696.35
436.644	675.79
437.02	698.16
437.395	692.74
437.77	687.54
438.145	680.53
438.52	699.52
438.895	677.82
439.271	696.58
439.646	723.47
440.021	745.62
440.395	727.99
440.77	707.88
441.145	721.44
441.52	743.13
441.895	744.26
442.27	734.32
442.645	747.2
443.019	755.56
443.394	746.52
443.769	742.68
444.143	747.2
444.518	731.15
444.892	763.47
445.267	755.11
445.641	749.23
446.016	753.3
446.39	751.94
446.764	756.46
447.139	756.24
447.513	774.32
447.887	825.61
448.262	793.07
448.636	809.12
449.01	801.89
449.384	786.97
449.758	796.01
450.132	810.02
450.506	814.09
450.88	812.96
451.254	836.01
451.628	811.6
452.002	817.48
452.376	831.26
452.75	827.87
453.123	833.75
453.497	839.85
453.871	857.7
454.244	873.75
454.618	873.52
454.992	863.58
455.365	869.23
455.739	887.76
456.112	912.39
456.486	876.46
456.859	919.62
457.232	913.52
457.606	932.05
457.979	921.88
458.352	958.04
458.725	954.42
459.099	968.21
459.472	969.56
459.845	971.37
460.218	969.79
460.591	977.25
460.964	998.26
461.337	1003.24
461.71	1030.35
462.083	1003.24
462.456	1007.98
462.829	1037.36
463.201	1055.21
463.574	1057.47
463.947	1055.44
464.32	1104.02
464.692	1091.82
465.065	1112.84
465.438	1097.02
465.81	1111.26
466.183	1123.46
466.555	1140.41
466.928	1155.32
467.3	1151.71
467.672	1172.05
468.045	1187.86
468.417	1195.1
468.789	1163.68
469.161	1193.29
469.534	1223.8
469.906	1236.68
470.278	1256.79
470.65	1284.13
471.022	1297.69
471.394	1285.71
471.766	1318.48
472.138	1336.79
472.51	1350.8
472.882	1374.75
473.253	1395.54
473.625	1420.17
473.997	1438.93
474.369	1471.7
474.74	1479.61
475.112	1495.2
475.484	1494.75
475.855	1546.5
476.227	1555.99
476.598	1565.03
476.97	1621.75
477.341	1624.69
477.713	1658.36
478.084	1685.03
478.455	1699.04
478.827	1735.19
479.198	1770.22
479.569	1795.98
479.94	1820.39
480.311	1832.37
480.682	1897.68
481.053	1909.65
481.424	1965.92
481.795	1952.14
482.166	1992.14
482.537	2022.64
482.908	2073.72
483.279	2093.6
483.65	2128.18
484.021	2202.75
484.391	2202.98
484.762	2215.63
485.133	2242.75
485.503	2294.05
485.874	2320.49
486.244	2343.31
486.615	2406.82
486.985	2408.85
487.356	2425.8
487.726	2478.68
488.097	2541.5
488.467	2572.69
488.837	2633.02
489.207	2613.36
489.578	2677.54
489.948	2703.76
490.318	2717.32
490.688	2782.85
491.058	2813.81
491.428	2824.88
491.798	2854.71
492.168	2915.28
492.538	2939
492.908	2953.24
493.278	3022.84
493.648	3003.41
494.017	3061.94
494.387	3085.22
494.757	3137.19
495.126	3144.87
495.496	3172.9
495.866	3207.47
496.235	3193.69
496.605	3318.66
496.974	3292.22
497.344	3316.85
497.713	3307.36
498.082	3317.53
498.452	3391.42
498.821	3383.74
499.19	3442.72
499.559	3478.2
499.928	3481.82
500.298	3444.53
500.667	3480.23
501.036	3532.44
501.405	3569.5
501.774	3573.79
502.143	3590.06
502.512	3605.65
502.88	3652.66
503.249	3649.72
503.618	3649.95
503.987	3695.37
504.356	3735.82
504.724	3734.24
505.093	3732.43
505.462	3794.8
505.83	3775.59
506.199	3826.21
506.567	3861.01
506.936	3835.25
507.304	3861.92
507.672	3839.77
508.041	3887.68
508.409	3915.7
508.777	3943.05
509.145	3965.87
509.514	3998.64
509.882	3985.3
510.25	4017.17
510.618	4004.29
510.986	4023.04
511.354	4035.92
511.722	4077.05
512.09	4073.66
512.458	4093.1
512.826	4104.4
513.193	4137.62
513.561	4117.05
513.929	4146.43
514.297	4195.24
514.664	4216.49
515.032	4211.29
515.4	4280.44
515.767	4261.91
516.135	4292.64
516.502	4238.86
516.869	4267.11
517.237	4341.91
517.604	4305.07
517.972	4344.84
518.339	4341.23
518.706	4328.57
519.073	4381.9
519.44	4357.5
519.808	4392.07
520.175	4392.53
520.542	4480.89
520.909	4463.71
521.276	4459.19
521.643	4532.18
522.009	4489.25
522.376	4550.49
522.743	4564.72
523.11	4612.41
523.477	4635.91
523.843	4656.7
524.21	4701.22
524.577	4686.3
524.943	4723.59
525.31	4683.14
525.676	4750.26
526.043	4754.1
526.409	4777.83
526.776	4872.97
527.142	4830.93
527.508	4837.71
527.874	4865.96
528.241	4902.12
528.607	4917.26
528.973	4966.75
529.339	4960.42
529.705	4996.13
530.071	5054.88
530.437	5046.97
530.803	5084.48
531.169	5090.59
531.535	5099.4
531.901	5119.51
532.267	5149.79
532.632	5180.53
532.998	5183.92
533.364	5245.38
533.73	5215.33
534.095	5289.45
534.461	5262.33
534.826	5272.73
535.192	5303.69
535.557	5377.13
535.923	5377.13
536.288	5377.13
536.653	5434.31
537.019	5417.58
537.384	5399.05
537.749	5457.13
538.114	5458.26
538.479	5524.47
538.845	5521.31
539.21	5479.95
539.575	5569.9
539.94	5530.35
540.305	5649.44
540.67	5626.62
541.034	5598.14
541.399	5651.93
541.764	5680.18
542.129	5703.9
542.494	5703.45
542.858	5772.38
543.223	5726.5
543.587	5824.8
543.952	5818.93
544.316	5845.82
544.681	5858.93
545.045	5902.77
545.41	5960.17
545.774	5933.5
546.138	6006.95
546.503	5957.46
546.867	5976.21
547.231	6029.54
547.595	6093.05
547.959	6031.35
548.324	6124.91
548.688	6126.94
549.052	6156.1
549.416	6128.3
549.779	6141.86
550.143	6170.11
550.507	6179.15
550.871	6275.87
551.235	6210.78
551.599	6201.97
551.962	6266.37
552.326	6333.27
552.689	6369.65
553.053	6350.67
553.417	6352.25
553.78	6448.52
554.143	6443.77
554.507	6430.89
554.87	6437.9
555.234	6517.67
555.597	6457.56
555.96	6459.82
556.323	6534.84
556.686	6496.88
557.05	6541.62
557.413	6582.07
557.776	6552.92
558.139	6628.4
558.502	6580.72
558.865	6640.38
559.228	6695.29
559.59	6694.61
559.953	6754.95
560.316	6815.96
560.679	6793.82
561.041	6809.86
561.404	6868.84
561.767	6884.44
562.129	6875.62
562.492	6952.01
562.854	6953.59
563.217	6916.08
563.579	6970.09
563.941	7025
564.304	7022.06
564.666	7061.83
565.028	7129.18
565.39	7049.41
565.753	7154.49
566.115	7112
566.477	7152.23
566.839	7180.93
567.201	7269.74
567.563	7237.65
567.925	7294.82
568.287	7303.18
568.648	7323.75
569.01	7312
569.372	7400.81
569.734	7357.65
570.095	7455.27
570.457	7502.05
570.819	7538.21
571.18	7493.69
571.542	7585.66
571.903	7577.98
572.265	7601.71
572.626	7634.93
572.987	7727.81
573.349	7750.4
573.71	7851.87
574.071	7822.04
574.432	7867.46
574.794	8045.99
575.155	8013.67
575.516	8032.2
575.877	8168.7
576.238	8178.19
576.599	8230.84
576.96	8257.73
577.32	8322.37
577.681	8410.05
578.042	8479.2
578.403	8493.66
578.763	8619.53
579.124	8696.14
579.485	8803.71
579.845	8956.93
580.206	9001.67
580.566	9135.45
580.927	9216.58
581.287	9315.33
581.648	9413.86
582.008	9621.99
582.368	9694.08
582.728	9821.76
583.089	9963.9
583.449	10145.82
583.809	10166.16
584.169	10425.81
584.529	10539.93
584.889	10862.86
585.249	10884.11
585.609	11065.57
585.969	11272.34
586.329	11439.57
586.688	11609.74
587.048	11813.8
587.408	12014.47
587.768	12280.45
588.127	12410.39
588.487	12628.69
588.846	12946.65
589.206	13082.47
589.565	13334.66
589.925	13630.7
590.284	13877.93
590.643	14096
591.003	14390.68
591.362	14614.4
591.721	14919.25
592.08	15156.54
592.44	15468.84
592.799	15710.42
593.158	16030.19
593.517	16312.66
593.876	16643.96
594.235	16816.61
594.593	17130.72
594.952	17410.94
595.311	17608.9
595.67	18023.81
596.029	18349.22
596.387	18584.69
596.746	18912.37
597.104	19141.06
597.463	19375.18
597.822	19798.45
598.18	19967.71
598.538	20308.27
598.897	20651.76
599.255	20732.21
599.613	21275.92
599.972	21294.91
600.33	21830.03
600.688	21896.02
601.046	22342.34
601.404	22627.07
601.762	22937.35
602.12	23284.23
602.478	23531.46
602.836	23771
603.194	23876.76
603.552	24327.82
603.91	24403.3
604.268	24722.39
604.625	24951.53
604.983	25255.71
605.341	25494.8
605.698	25890.04
606.056	26034.44
606.413	26260.65
606.771	26451.61
607.128	26856.34
607.485	27003.46
607.843	27167.52
608.2	27511.01
608.557	27789.88
608.914	27877.33
609.272	28278.23
609.629	28470.08
609.986	28789.17
610.343	28707.82
610.7	29365.65
611.057	29386.22
611.414	29446.78
611.771	29714.35
612.127	29970.16
612.484	30152.75
612.841	30316.82
613.198	30501.22
613.554	30749.12
613.911	31053.07
614.267	31182.1
614.624	31223.23
614.98	31441.98
615.337	31804.01
615.693	31831.8
616.05	31918.81
616.406	32264.79
616.762	32289.87
617.118	32299.36
617.475	32490.77
617.831	32820.03
618.187	32859.8
618.543	33138.21
618.899	33304.31
619.255	33371.2
619.611	33454.13
619.967	33591.76
620.323	33789.72
620.678	33858.87
621.034	33941.13
621.39	33963.5
621.746	34035.59
622.101	34497.72
622.457	34388.12
622.812	34479.64
623.168	34640.32
623.523	34778.85
623.879	34904.27
624.234	34760.77
624.589	35033.75
624.945	35135.67
625.3	35263.13
625.655	35198.95
626.01	35356.68
626.365	35401.65
626.72	35525.04
627.075	35565.27
627.43	35453.4
627.785	35603.46
628.14	35842.09
628.495	35853.17
628.85	35878.25
629.205	35667.41
629.559	35985.37
629.914	35872.15
630.269	36028.08
630.623	36048.87
630.978	35993.73
631.332	36325.02
631.687	36264.91
632.041	36179.94
632.396	36273.27
632.75	36122.31
633.104	36246.38
633.459	36129.32
633.813	36243.89
634.167	36256.32
634.521	36317.79
634.875	36351.69
635.229	36360.27
635.583	36101.75
635.937	36214.29
636.291	36249.09
636.645	36203.67
636.999	36187.62
637.352	36275.76
637.706	36259.94
638.06	36313.04
638.413	36278.47
638.767	36236.21
639.121	36367.73
639.474	36145.36
639.828	36181.52
640.181	36418.12
640.534	36270.33
640.888	36119.15
641.241	36040.28
641.594	36101.52
641.947	36275.53
642.301	36071.69
642.654	36137
643.007	36191.01
643.36	36110.11
643.713	36121.41
644.066	36250.67
644.419	35991.92
644.771	35875.99
645.124	35469.67
645.477	35487.08
645.83	35223.58
646.182	35107.65
646.535	35004.38
646.888	35168.21
647.24	34912.63
647.593	35320.53
647.945	35210.47
648.298	34951.95
648.65	34883.93
649.002	34879.86
649.355	34949.69
649.707	34939.97
650.059	35152.62
650.411	35446.4
650.763	35473.74
651.115	35933.84
651.467	35891.13
651.819	35736.33
652.171	35789.89
652.523	35652.72
652.875	35638.26
653.227	35539.28
653.578	35974.75
653.93	35649.56
654.282	35670.35
654.633	35564.81
654.985	35566.62
655.337	35604.13
655.688	35639.84
656.039	35684.36
656.391	35321.88
656.742	35510.58
657.094	35536.57
657.445	35656.79
657.796	35389.45
658.147	35507.19
658.498	35469.22
658.849	35497.92
659.2	35408.66
659.551	35277.59
659.902	35517.81
660.253	35358.27
660.604	35439.84
660.955	35176.12
661.306	35421.99
661.656	35358.04
662.007	35346.29
662.358	35246.86
662.708	35290.47
663.059	35304.03
663.409	35174.09
663.76	35267.87
664.11	35282.34
664.461	35293.41
664.811	35367.08
665.161	35311.94
665.511	35314.2
665.862	35384.25
666.212	35476.45
666.562	35278.49
666.912	35277.14
667.262	35135.67
667.612	35195.33
667.962	35271.94
668.312	35190.81
668.662	35389.68
669.011	35195.78
669.361	35149.68
669.711	35167.99
670.06	35133.19
670.41	35141.32
670.76	35037.37
671.109	35288.89
671.459	35169.57
671.808	35219.29
672.157	35106.75
672.507	34906.3
672.856	35006.64
673.205	35016.35
673.554	35171.83
673.904	35050.25
674.253	35100.42
674.602	35000.08
674.951	34530.04
675.3	34320.78
675.649	35006.18
675.998	34933.19
676.346	34898.39
676.695	34987.65
677.044	34838.73
677.393	34914.44
677.741	34871.05
678.09	34980.87
678.438	34674.67
678.787	34706.98
679.135	34887.32
679.484	34569.59
679.832	34713.99
680.181	34608
680.529	34650.49
680.877	34498.85
681.225	34443.49
681.573	34650.04
681.922	34411.62
682.27	34346.09
682.618	34343.38
682.966	34295.02
683.314	34380.21
683.661	34320.78
684.009	34119.2
684.357	34144.51
684.705	34068.13
685.053	33925.53
685.4	33941.58
685.748	33732.55
686.095	33860.9
686.443	33836.72
686.79	33731.42
687.138	33657.07
687.485	33749.27
687.832	33650.97
688.18	33568.71
688.527	33317.41
688.874	33329.62
689.221	33314.25
689.568	33274.48
689.915	33027.48
690.262	33119.68
690.609	32942.74
690.956	32854.83
691.303	32992.45
691.65	32760.59
691.997	32837.2
692.344	32609.64
692.69	32500.49
693.037	32572.58
693.383	32213.04
693.73	32478.11
694.077	32316.76
694.423	32298.01
694.769	32200.16
695.116	32062.53
695.462	32149.08
695.808	31878.58
696.155	32004.68
696.501	31718.36
696.847	31748.19
697.193	31437.24
697.539	31582.55
697.885	31405.37
698.231	31412.83
698.577	31371.7
698.923	31262.1
699.269	31217.13
699.614	30943.69
699.96	30909.34
700.306	31033.86
700.651	30759.97
700.997	30662.34
701.342	30707.54
701.688	30578.5
702.033	30548.22
702.379	30449.69
702.724	30484.27
703.069	30431.84
703.415	30151.62
703.76	30234.11
704.105	30108.46
704.45	30024.62
704.795	29813.1
705.14	29865.98
705.485	29888.13
705.83	29644.74
706.175	29665.76
706.52	29610.85
706.865	29501.47
707.209	29475.71
707.554	29503.05
707.899	29528.36
708.243	29341.25
708.588	29227.35
708.932	29138.09
709.277	29084.08
709.621	29080.92
709.966	28924.99
710.31	28912.78
710.654	28755.05
710.998	28833.69
711.342	28770.42
711.687	28612.68
712.031	28567.26
712.375	28435.51
712.719	28447.26
713.063	28429.86
713.407	28521.38
713.75	28315.51
714.094	28228.51
714.438	28216.08
714.782	28280.03
715.125	28243.42
715.469	28088.4
715.812	27969.98
716.156	27839.14
716.499	27832.59
716.843	27925.92
717.186	27734.28
717.53	27852.02
717.873	27860.84
718.216	27734.28
718.559	27640.73
718.902	27462.65
719.246	27529.09
719.589	27187.18
719.932	27267.86
720.275	27274.18
720.617	27308.99
720.96	27243.45
721.303	27223.79
721.646	27112.15
721.989	27080.52
722.331	27012.72
722.674	27013.4
723.016	26967.07
723.359	26946.51
723.701	27071.48
724.044	26828.09
724.386	26616.8
724.729	26775.67
725.071	26703.8
725.413	26673.52
725.755	26731.83
726.097	26583.81
726.439	26500.87
726.782	26487.31
727.124	26629.46
727.465	26414.55
727.807	26406.41
728.149	26303.59
728.491	26378.84
728.833	26339.75
729.175	26171.16
729.516	26149.47
729.858	26143.37
730.199	26154.44
730.541	26081.45
730.882	26082.12
731.224	26009.36
731.565	25905.41
731.906	25989.02
732.248	25896.37
732.589	25780.89
732.93	25739.08
733.271	25792.19
733.612	25879.19
733.953	25811.62
734.294	25667.45
734.635	25596.49
734.976	25748.8
735.317	25464.97
735.658	25543.16
735.999	25438.3
736.339	25425.42
736.68	25501.12
737.021	25530.28
737.361	25348.13
737.702	25434.23
738.042	25194.46
738.383	25293.45
738.723	25261.58
739.063	25168.7
739.404	25074.47
739.744	25079.44
740.084	24992.89
740.424	25054.13
740.764	24948.14
741.104	25030.85
741.444	24829.28
741.784	24823.17
742.124	24886.22
742.464	24912.66
742.804	24736.4
743.143	24675.38
743.483	24736.85
743.823	24588.83
744.162	24563.75
744.502	24601.49
744.841	24452.56
745.181	24646
745.52	24457.99
745.86	24476.52
746.199	24377.54
746.538	24318.78
746.877	24528.27
747.216	24438.55
747.556	24333.7
747.895	24390.64
748.234	24238.56
748.573	24119.01
748.911	24281.95
749.25	24132.35
749.589	24132.57
749.928	24166.7
750.267	24063.42
750.605	24066.81
750.944	23954.95
751.283	23970.09
751.621	24020.03
751.96	23813.26
752.298	23701.17
752.636	23844.22
752.975	23593.15
753.313	23543.21
753.651	23660.72
753.989	23539.59
754.327	23502.76
754.666	23380.95
755.004	23547.28
755.342	23432.25
755.679	23324.23
756.017	23286.94
756.355	23333.27
756.693	23202.88
757.031	23171.24
757.368	23044.69
757.706	23036.33
758.044	22914.75
758.381	23008.76
758.719	22808.99
759.056	22884.47
759.394	22806.28
759.731	22657.36
760.068	22627.53
760.405	22609.9
760.743	22540.52
761.08	22531.71
761.417	22407.19
