Data from hue_30_FLMS001491_40.txt Node
Date: Mon Feb 06 15:05:12 GMT 2017
User: dcchb
Spectrometer: FLMS00149
Trigger mode: 0
Integration Time (sec): 2.000000E-2
Scans to average: 10
Electric dark correction enabled: true
Nonlinearity correction enabled: false
Boxcar width: 0
XAxis mode: Wavelengths
Number of Pixels in Spectrum: 2048
>>>>>Begin Spectral Data<<<<<
341.393	-19.24
341.776	-19.24
342.16	-19.24
342.543	-83.87
342.927	-64.43
343.31	-58.11
343.693	-61.27
344.077	-50.87
344.46	-64.89
344.843	-33.47
345.226	-33.93
345.61	-42.74
345.993	-18.33
346.376	-14.04
346.759	-1.16
347.142	28.9
347.525	46.3
347.908	59.86
348.291	78.61
348.674	78.16
349.057	86.98
349.44	131.72
349.823	145.96
350.206	161.78
350.588	182.34
350.971	206.97
351.354	211.49
351.737	241.77
352.119	253.07
352.502	289.68
352.884	264.82
353.267	259.17
353.65	297.14
354.032	313.64
354.414	290.81
354.797	310.47
355.179	314.54
355.562	304.82
355.944	340.08
356.326	343.92
356.709	360.19
357.091	352.28
357.473	352.05
357.855	372.17
358.238	339.4
358.62	321.09
359.002	331.26
359.384	339.85
359.766	328.55
360.148	329.68
360.53	345.27
360.912	347.08
361.294	321.77
361.676	328.32
362.057	330.58
362.439	321.32
362.821	332.62
363.203	316.57
363.584	306.86
363.966	338.49
364.348	340.98
364.729	319.96
365.111	316.57
365.493	334.43
365.874	326.29
366.256	315.22
366.637	324.26
367.019	321.09
367.4	310.25
367.781	320.87
368.163	303.92
368.544	302.11
368.925	302.79
369.306	319.96
369.688	297.14
370.069	297.59
370.45	317.93
370.831	324.03
371.212	306.63
371.593	316.8
371.974	321.77
372.355	313.18
372.736	336.23
373.117	308.66
373.498	323.81
373.879	314.31
374.26	302.34
374.641	309.12
375.021	320.64
375.402	299.85
375.783	292.39
376.163	336.46
376.544	316.8
376.925	313.18
377.305	329
377.686	312.96
378.066	303.24
378.447	325.16
378.827	345.95
379.208	328.78
379.588	326.74
379.968	322
380.349	333.52
380.729	327.87
381.109	338.04
381.489	333.52
381.87	344.14
382.25	322
382.63	342.11
383.01	331.04
383.39	357.02
383.77	331.49
384.15	352.05
384.53	346.18
384.91	334.2
385.29	354.31
385.67	347.76
386.049	354.54
386.429	364.71
386.809	347.76
387.189	342.11
387.568	361.77
387.948	344.6
388.328	349.79
388.707	334.2
389.087	354.54
389.466	363.58
389.846	331.26
390.225	353.41
390.605	353.63
390.984	379.62
391.363	364.26
391.743	351.37
392.122	355.44
392.501	391.6
392.881	387.76
393.26	371.49
393.639	360.19
394.018	367.65
394.397	355.67
394.776	370.13
395.155	379.62
395.534	370.36
395.913	372.62
396.292	374.65
396.671	391.83
397.05	383.69
397.429	380.53
397.808	386.18
398.186	388.44
398.565	388.44
398.944	380.07
399.323	390.02
399.701	400.87
400.08	387.31
400.458	413.29
400.837	382.11
401.215	400.19
401.594	387.98
401.972	390.7
402.351	396.57
402.729	402.67
403.107	398.15
403.486	399.28
403.864	406.51
404.242	393.86
404.62	404.03
404.999	402.45
405.377	411.49
405.755	424.37
406.133	422.79
406.511	424.14
406.889	384.37
407.267	424.59
407.645	428.21
408.023	421.88
408.401	423.01
408.779	415.1
409.156	414.2
409.534	418.72
409.912	427.98
410.29	440.19
410.667	435.67
411.045	409.23
411.422	437.25
411.8	448.32
412.178	448.1
412.555	449.45
412.933	451.26
413.31	451.94
413.687	441.54
414.065	457.36
414.442	460.07
414.819	445.16
415.197	491.03
415.574	483.57
415.951	464.14
416.328	474.99
416.705	451.71
417.082	464.59
417.46	460.07
417.837	474.76
418.214	485.16
418.591	469.34
418.967	498.72
419.344	500.52
419.721	491.94
420.098	493.07
420.475	541.88
420.852	513.86
421.228	509.11
421.605	513.63
421.982	514.08
422.358	517.7
422.735	521.99
423.111	535.1
423.488	522.67
423.864	517.92
424.241	528.32
424.617	533.52
424.994	555.21
425.37	527.42
425.746	534.19
426.123	525.61
426.499	572.39
426.875	559.28
427.251	546.4
427.627	558.6
428.003	556.79
428.379	572.39
428.756	561.99
429.132	565.15
429.507	573.29
429.883	547.08
430.259	591.82
430.635	599.28
431.011	587.3
431.387	602.22
431.763	609.22
432.138	623.68
432.514	624.14
432.89	630.92
433.265	630.24
433.641	612.84
434.016	618.03
434.392	647.86
434.767	645.15
435.143	641.54
435.518	665.26
435.894	642.44
436.269	648.32
436.644	675.43
437.02	675.89
437.395	670.91
437.77	679.73
438.145	657.13
438.52	682.44
438.895	678.15
439.271	703.23
439.646	687.86
440.021	718.14
440.395	681.31
440.77	704.36
441.145	713.17
441.52	706.62
441.895	727.18
442.27	727.41
442.645	713.63
443.019	739.16
443.394	722.21
443.769	752.72
444.143	749.33
444.518	765.6
444.892	764.02
445.267	726.28
445.641	752.95
446.016	747.75
446.39	756.34
446.764	773.51
447.139	750.46
447.513	762.89
447.887	785.49
448.262	754.53
448.636	798.37
449.01	776.67
449.384	819.84
449.758	807.18
450.132	789.78
450.506	803.79
450.88	816.45
451.254	811.48
451.628	804.7
452.002	833.17
452.376	836.79
452.75	843.79
453.123	862.32
453.497	851.47
453.871	841.98
454.244	859.61
454.618	880.17
454.992	890.57
455.365	918.82
455.739	921.3
456.112	909.1
456.486	919.72
456.859	913.62
457.232	905.94
457.606	931.25
457.979	953.84
458.352	960.85
458.725	959.27
459.099	978.7
459.472	997.91
459.845	967.63
460.218	1002.43
460.591	1026.39
460.964	1001.3
461.337	1005.37
461.71	1051.92
462.083	1086.95
462.456	1068.42
462.829	1076.33
463.201	1069.55
463.574	1092.37
463.947	1087.85
464.32	1091.92
464.692	1150.68
465.065	1138.02
465.438	1157.91
465.81	1150.9
466.183	1160.17
466.555	1187.96
466.928	1213.5
467.3	1212.14
467.672	1240.62
468.045	1248.98
468.417	1270.67
468.789	1283.55
469.161	1309.54
469.534	1286.04
469.906	1339.37
470.278	1332.59
470.65	1340.28
471.022	1343.21
471.394	1387.28
471.766	1421.4
472.138	1407.62
472.51	1470.44
472.882	1517.67
473.253	1501.85
473.625	1524.9
473.997	1569.42
474.369	1588.18
474.74	1591.57
475.112	1649.42
475.484	1671.79
475.855	1683.32
476.227	1751.11
476.598	1766.93
476.97	1760.83
477.341	1812.81
477.713	1850.77
478.084	1874.95
478.455	1919.92
478.827	1923.54
479.198	2010.99
479.569	2019.35
479.94	2107.26
480.311	2118.11
480.682	2161.72
481.053	2197.43
481.424	2248.73
481.795	2274.04
482.166	2309.29
482.537	2349.29
482.908	2438.55
483.279	2459.12
483.65	2470.87
484.021	2548.15
484.391	2618.66
484.762	2665.89
485.133	2662.73
485.503	2707.92
485.874	2783.85
486.244	2853
486.615	2881.25
486.985	2964.41
487.356	3001.47
487.726	3094.13
488.097	3138.19
488.467	3126.22
488.837	3240.56
489.207	3305.87
489.578	3333.67
489.948	3405.76
490.318	3521.46
490.688	3478.52
491.058	3561.46
491.428	3575.24
491.798	3669.48
492.168	3758.29
492.538	3810.04
492.908	3851.4
493.278	3898.4
493.648	3913.77
494.017	3998.51
494.387	4063.59
494.757	4091.84
495.126	4162.8
495.496	4206.64
495.866	4205.51
496.235	4263.14
496.605	4287.77
496.974	4382.23
497.344	4409.8
497.713	4454.09
498.082	4504.49
498.452	4563.47
498.821	4581.32
499.19	4587.65
499.559	4642.56
499.928	4704.25
500.298	4752.62
500.667	4802.33
501.036	4835.78
501.405	4872.16
501.774	4867.87
502.143	4934.31
502.512	4998.03
502.88	5006.39
503.249	5035.09
503.618	5092.95
503.987	5101.98
504.356	5091.82
504.724	5222.66
505.093	5230.12
505.462	5280.96
505.83	5270.79
506.199	5362.77
506.567	5403.22
506.936	5366.38
507.304	5472.37
507.672	5480.51
508.041	5555.53
508.409	5558.7
508.777	5550.79
509.145	5665.81
509.514	5642.54
509.882	5703.78
510.25	5704.68
510.618	5695.42
510.986	5750.1
511.354	5826.71
511.722	5903.55
512.09	5914.17
512.458	5949.87
512.826	5915.75
513.193	5942.64
513.561	5982.87
513.929	5970.66
514.297	6083.65
514.664	6104.9
515.032	6096.31
515.4	6101.28
515.767	6261.95
516.135	6235.06
516.502	6216.31
516.869	6255.85
517.237	6280.48
517.604	6311.44
517.972	6304.66
518.339	6342.86
518.706	6386.24
519.073	6375.17
519.44	6443.64
519.808	6517.09
520.175	6549.4
520.542	6569.52
520.909	6562.51
521.276	6544.43
521.643	6652.9
522.009	6683.41
522.376	6720.7
522.743	6779.91
523.11	6855.84
523.477	6877.98
523.843	6931.09
524.21	6979.68
524.577	6955.95
524.943	7026.91
525.31	7013.35
525.676	7060.35
526.043	7155.94
526.409	7169.95
526.776	7251.08
527.142	7235.04
527.508	7258.09
527.874	7306.22
528.241	7395.71
528.607	7383.96
528.973	7435.03
529.339	7417.18
529.705	7530.4
530.071	7562.94
530.437	7614.69
530.803	7654.91
531.169	7685.42
531.535	7677.96
531.901	7688.58
532.267	7760.22
532.632	7795.25
532.998	7787.34
533.364	7900.55
533.73	7948.24
534.095	7954.79
534.461	7973.32
534.826	8092.87
535.192	8084.28
535.557	8112.3
535.923	8069.36
536.288	8159.98
536.653	8173.99
537.019	8174.22
537.384	8211.96
537.749	8209.02
538.114	8264.16
538.479	8303.93
538.845	8390.03
539.21	8345.06
539.575	8460.31
539.94	8368.34
540.305	8468.68
540.67	8506.19
541.034	8527.43
541.399	8649.01
541.764	8602.46
542.129	8711.38
542.494	8709.35
542.858	8713.87
543.223	8711.83
543.587	8853.75
543.952	8793.86
544.316	8792.73
544.681	8853.75
545.045	8872.96
545.41	8934.88
545.774	8955.89
546.138	9024.37
546.503	8976.68
546.867	9006.51
547.231	9180.75
547.595	9124.25
547.959	9139.17
548.324	9239.73
548.688	9205.38
549.052	9243.57
549.416	9233.63
549.779	9319.95
550.143	9393.62
550.507	9404.24
550.871	9434.07
551.235	9388.65
551.599	9540.74
551.962	9533.73
552.326	9567.18
552.689	9583
553.053	9534.18
553.417	9566.5
553.78	9733.05
554.143	9670.23
554.507	9784.8
554.87	9738.47
555.234	9839.71
555.597	9719.72
555.96	9840.84
556.323	9884.68
556.686	9848.53
557.05	10003.78
557.413	9972.82
557.776	9962.87
558.139	10054.4
558.502	10036.09
558.865	10109.76
559.228	10154.73
559.59	10119.93
559.953	10121.51
560.316	10230.21
560.679	10290.55
561.041	10385.69
561.404	10422.97
561.767	10395.63
562.129	10397.44
562.492	10575.06
562.854	10509.53
563.217	10578.22
563.579	10569.64
563.941	10655.28
564.304	10634.04
564.666	10665.91
565.028	10772.34
565.39	10749.52
565.753	10799.24
566.115	10839.46
566.477	10873.81
566.839	10882.4
567.201	11011.21
567.563	10992.9
567.925	11146.35
568.287	11098.89
568.648	11038.55
569.01	11153.35
569.372	11192.67
569.734	11173.24
570.095	11340.69
570.457	11402.38
570.819	11380.46
571.18	11355.61
571.542	11442.83
571.903	11505.88
572.265	11552.44
572.626	11634.92
572.987	11636.28
573.349	11721.02
573.71	11831.07
574.071	11915.36
574.432	11897.06
574.794	12009.6
575.155	12042.59
575.516	12068.58
575.877	12166.88
576.238	12215.24
576.599	12339.08
576.96	12406.65
577.32	12516.93
577.681	12570.04
578.042	12703.59
578.403	12739.52
578.763	12826.08
579.124	12894.1
579.485	13098.16
579.845	13215.22
580.206	13255.44
580.566	13363.69
580.927	13494.53
581.287	13646.17
581.648	13757.35
582.008	13986.72
582.368	14038.25
582.728	14258.13
583.089	14388.52
583.449	14491.12
583.809	14717.32
584.169	14881.39
584.529	14989.63
584.889	15324.54
585.249	15468.27
585.609	15595.04
585.969	15769.05
586.329	15927.91
586.688	16192.77
587.048	16355.47
587.408	16581
587.768	16847.44
588.127	16979.19
588.487	17102.12
588.846	17565.16
589.206	17499.4
589.565	17813.29
589.925	18030.68
590.284	18307.96
590.643	18662.98
591.003	18874.5
591.362	19048.06
591.721	19234.72
592.08	19522.4
592.44	19793.8
592.799	20081.03
593.158	20321.02
593.517	20518.53
593.876	20752.19
594.235	20999.65
594.593	21310.37
594.952	21541.33
595.311	21804.6
595.67	22071.93
596.029	22403
596.387	22728.41
596.746	22932.7
597.104	22979.71
597.463	23278.23
597.822	23518.45
598.18	23741.72
598.538	24080.24
598.897	24411.08
599.255	24363.85
599.613	24999.54
599.972	24999.31
600.33	25387.33
600.688	25411.06
601.046	25750.26
601.404	26087.65
601.762	26245.16
602.12	26436.56
602.478	26717.01
602.836	26913.61
603.194	27048.75
603.552	27314.96
603.91	27472.47
604.268	27827.94
604.625	27940.25
604.983	28403.29
605.341	28352.45
605.698	28574.14
606.056	28935.71
606.413	28923.28
606.771	29243.5
607.128	29513.09
607.485	29554.45
607.843	29649.14
608.2	30011.16
608.557	30258.39
608.914	30304.49
609.272	30601.43
609.629	30760.97
609.986	31055.2
610.343	31052.49
610.7	31437.34
611.057	31572.25
611.414	31693.6
611.771	31841.62
612.127	32047.04
612.484	32243.87
612.841	32421.04
613.198	32463.98
613.554	32542.17
613.911	32695.61
614.267	32913.91
614.624	32989.84
614.98	33135.6
615.337	33400.9
615.693	33424.86
616.05	33537.62
616.406	33933.32
616.762	33788.01
617.118	33862.13
617.475	34081.79
617.831	34202.46
618.187	34351.16
618.543	34536.24
618.899	34682
619.255	34768.55
619.611	34770.81
619.967	34985.04
620.323	35046.96
620.678	34997.92
621.034	35056.9
621.39	35069.33
621.746	35145.04
622.101	35545.03
622.457	35465.93
622.812	35533.27
623.168	35718.58
623.523	35859.14
623.879	35831.12
624.234	35749.99
624.589	35888.07
624.945	36006.26
625.3	36062.98
625.655	36219.13
626.01	36247.61
626.365	36359.92
626.72	36306.81
627.075	36284.44
627.43	36410.31
627.785	36421.39
628.14	36496.19
628.495	36475.62
628.85	36509.75
629.205	36421.84
629.559	36802.39
629.914	36631.32
630.269	36708.84
630.623	36566.69
630.978	36539.58
631.332	36873.58
631.687	36735.73
632.041	36623.87
632.396	36787.25
632.75	36643.3
633.104	36882.84
633.459	36515.4
633.813	36593.36
634.167	36583.42
634.521	36687.82
634.875	36754.94
635.229	36700.7
635.583	36429.07
635.937	36676.3
636.291	36641.04
636.645	36654.6
636.999	36668.61
637.352	36738.44
637.706	36588.84
638.06	36750.19
638.413	36658.67
638.767	36627.71
639.121	36670.87
639.474	36385.91
639.828	36544.77
640.181	36473.59
640.534	36569.63
640.888	36540.03
641.241	36377.09
641.594	36436.3
641.947	36562.85
642.301	36468.84
642.654	36528.05
643.007	36424.55
643.36	36466.13
643.713	36384.1
644.066	36615.51
644.419	36330.32
644.771	36045.58
645.124	35784.12
645.477	35679.26
645.83	35429.32
646.182	35394.97
646.535	35157.01
646.888	35356.56
647.24	35073.17
647.593	35460.51
647.945	35231.36
648.298	35157.69
648.65	35140.52
649.002	34976.91
649.355	35158.37
649.707	35022.1
650.059	35273.17
650.411	35789.77
650.763	35838.58
651.115	36130.55
651.467	36075.18
651.819	36068.4
652.171	35904.79
652.523	35824.11
652.875	36071.11
653.227	35755.64
653.578	35982.98
653.93	35903.66
654.282	35616.89
654.633	35738.69
654.985	35735.08
655.337	35653.5
655.688	35818.24
656.039	35806.49
656.391	35478.36
656.742	35596.78
657.094	35560.84
657.445	35873.38
657.796	35604.69
658.147	35504.12
658.498	35525.59
658.849	35528.08
659.2	35554.97
659.551	35512.94
659.902	35628.64
660.253	35663.44
660.604	35566.95
660.955	35459.38
661.306	35568.98
661.656	35506.16
662.007	35578.25
662.358	35499.38
662.708	35558.36
663.059	35490.11
663.409	35329.66
663.76	35594.97
664.11	35522.88
664.461	35481.52
664.811	35566.72
665.161	35521.75
665.511	35435.2
665.862	35608.3
666.212	35578.92
666.562	35509.77
666.912	35378.25
667.262	35453.95
667.612	35479.04
667.962	35457.57
668.312	35324.47
668.662	35581.18
669.011	35354.52
669.361	35423.9
669.711	35209.44
670.06	35198.14
670.41	35308.65
670.76	35149.78
671.109	35276.56
671.459	35257.35
671.808	35210.12
672.157	35265.03
672.507	35022.1
672.856	35062.33
673.205	35114.3
673.554	35229.78
673.904	35150.01
674.253	35258.25
674.602	35077.47
674.951	34682.68
675.3	34597.03
675.649	35134.19
675.998	35098.48
676.346	34957.7
676.695	35167.41
677.044	34779.17
677.393	34911.37
677.741	35107.3
678.09	34993.85
678.438	34918.83
678.787	34850.81
679.135	34954.31
679.484	34744.14
679.832	34785.72
680.181	34590.93
680.529	34725.39
680.877	34661.43
681.225	34714.77
681.573	34714.99
681.922	34415.56
682.27	34404.94
682.618	34486.3
682.966	34348.45
683.314	34347.32
683.661	34344.83
684.009	34131.5
684.357	34024.16
684.705	34112.75
685.053	34078.4
685.4	34070.04
685.748	33830.95
686.095	33809.03
686.443	33769.25
686.79	33716.83
687.138	33883.6
687.485	33749.59
687.832	33649.26
688.18	33762.02
688.527	33508.24
688.874	33463.5
689.221	33350.06
689.568	33356.83
689.915	33168.14
690.262	33136.73
690.609	33214.24
690.956	33173.56
691.303	32990.29
691.65	32791.43
691.997	32922.04
692.344	32608.61
692.69	32552.56
693.037	32633.01
693.383	32313.02
693.73	32566.35
694.077	32198.67
694.423	32298.56
694.769	32232.8
695.116	32100.14
695.462	32061.28
695.808	32076.87
696.155	32126.58
696.501	31796.65
696.847	31753.04
697.193	31554.4
697.539	31705.13
697.885	31416.55
698.231	31336.77
698.577	31317.57
698.923	31270.11
699.269	31157.34
699.614	30997.35
699.96	31047.07
700.306	30995.99
700.651	30928.65
700.997	30683.01
701.342	30860.86
701.688	30702.89
702.033	30480.98
702.379	30709.67
702.724	30523.01
703.069	30488.66
703.415	30151.04
703.76	30102.46
704.105	30145.39
704.45	30148.11
704.795	29995.57
705.14	29807.32
705.485	29860.66
705.83	29735.01
706.175	29724.61
706.52	29651.62
706.865	29537.27
707.209	29570.04
707.554	29438.52
707.899	29457.28
708.243	29487.11
708.588	29328.69
708.932	29151.3
709.277	29054.8
709.621	29114.69
709.966	28941.36
710.31	28977.74
710.654	28779.78
710.998	28864.75
711.342	28726.22
711.687	28625.43
712.031	28510.63
712.375	28528.26
712.719	28500.01
713.063	28389.28
713.407	28457.75
713.75	28377.98
714.094	28285.1
714.438	28154.03
714.782	28172.34
715.125	28074.94
715.469	28085.56
715.812	27907.71
716.156	27785.46
716.499	27934.6
716.843	27860.71
717.186	27646.48
717.53	27830.88
717.873	27714.27
718.216	27733.48
718.559	27515.41
718.902	27414.62
719.246	27563.31
719.589	27422.3
719.932	27267.5
720.275	27333.72
720.617	27252.36
720.96	27199.26
721.303	27222.31
721.646	27139.82
721.989	27072.25
722.331	27064.12
722.674	27031.58
723.016	27071.12
723.359	27037.68
723.701	26955.42
724.044	26759.49
724.386	26675.88
724.729	26847.85
725.071	26718.59
725.413	26705.26
725.755	26769.21
726.097	26547.97
726.439	26477.92
726.782	26462.78
727.124	26526.28
727.465	26375.55
727.807	26423.23
728.149	26335.55
728.491	26330.13
728.833	26301.88
729.175	26240.19
729.516	26169.68
729.858	26086.07
730.199	26202.45
730.541	26108.44
730.882	26027.99
731.224	26144.14
731.565	25962.45
731.906	25943.02
732.248	25970.81
732.589	25786.64
732.93	25753.87
733.271	25614.21
733.612	25783.02
733.953	25820.31
734.294	25723.14
734.635	25678.84
734.976	25686.3
735.317	25397.5
735.658	25455.57
735.999	25525.85
736.339	25463.48
736.68	25458.74
737.021	25476.36
737.361	25343.26
737.702	25524.05
738.042	25416.93
738.383	25314.33
738.723	25284.73
739.063	25199.76
739.404	25260.32
739.744	25098.29
740.084	25094
740.424	25146.2
740.764	25078.18
741.104	25050.16
741.444	24902.37
741.784	24898.75
742.124	24869.6
742.464	24881.35
742.804	24875.93
743.143	24751.41
743.483	24809.71
743.823	24573.34
744.162	24640.68
744.502	24606.1
744.841	24665.09
745.181	24613.79
745.52	24487.24
745.86	24639.32
746.199	24486.79
746.538	24402.72
746.877	24544.64
747.216	24448.82
747.556	24343.29
747.895	24404.98
748.234	24355.26
748.573	24307.13
748.911	24291.08
749.25	24202.73
749.589	24223.29
749.928	24253.57
750.267	24171.77
750.605	24064.65
750.944	24009.96
751.283	24009.06
751.621	23939.23
751.96	23886.12
752.298	23842.51
752.636	23898.33
752.975	23786.01
753.313	23633.7
753.651	23671.21
753.989	23606.13
754.327	23549.41
754.666	23475.96
755.004	23560.71
755.342	23628.28
755.679	23528.39
756.017	23321.84
756.355	23432.12
756.693	23350.54
757.031	23370.43
757.368	23186.25
757.706	23257.44
758.044	23134.28
758.381	23188.97
758.719	23104.45
759.056	23031.91
759.394	23076.88
