Data from hue_100_FLMS001491_00094.txt Node
Date: Tue Feb 07 17:03:54 GMT 2017
User: dcchb
Spectrometer: FLMS00149
Trigger mode: 0
Integration Time (sec): 2.000000E-2
Scans to average: 10
Electric dark correction enabled: true
Nonlinearity correction enabled: false
Boxcar width: 0
XAxis mode: Wavelengths
Number of Pixels in Spectrum: 2048
>>>>>Begin Spectral Data<<<<<
341.393	-9.51
341.776	-9.51
342.16	-9.51
342.543	-42.27
342.927	-82.27
343.31	-63.52
343.693	-86.79
344.077	-71.65
344.46	-48.15
344.843	-68.49
345.226	-38.43
345.61	-36.4
345.993	2.25
346.376	0.44
346.759	-4.53
347.142	21.68
347.525	49.48
347.908	53.32
348.291	76.82
348.674	93.09
349.057	120.89
349.44	131.28
349.823	144.39
350.206	166.54
350.588	200.66
350.971	216.03
351.354	228.91
351.737	250.83
352.119	258.96
352.502	255.35
352.884	272.75
353.267	278.4
353.65	291.96
354.032	320.66
354.414	309.58
354.797	320.66
355.179	291.96
355.562	328.79
355.944	346.19
356.326	349.13
356.709	340.09
357.091	351.16
357.473	343.93
357.855	326.3
358.238	344.84
358.62	331.5
359.002	355.68
359.384	363.37
359.766	348.23
360.148	364.5
360.53	344.61
360.912	328.56
361.294	338.06
361.676	342.8
362.057	336.47
362.439	326.08
362.821	330.6
363.203	334.89
363.584	319.53
363.966	331.73
364.348	329.92
364.729	314.55
365.111	340.09
365.493	354.1
365.874	311.39
366.256	317.72
366.637	321.11
367.019	313.65
367.4	294.89
367.781	318.85
368.163	315.68
368.544	316.81
368.925	304.61
369.306	358.85
369.688	285.18
370.069	310.71
370.45	309.58
370.831	316.36
371.212	330.6
371.593	307.32
371.974	319.98
372.355	323.59
372.736	303.48
373.117	325.63
373.498	316.36
373.879	341.22
374.26	316.59
374.641	321.79
375.021	326.08
375.402	315.68
375.783	315.46
376.163	336.02
376.544	333.99
376.925	321.33
377.305	326.3
377.686	319.53
378.066	306.19
378.447	343.03
378.827	336.02
379.208	311.62
379.588	332.41
379.968	345.51
380.349	331.95
380.729	338.51
381.109	306.87
381.489	353.42
381.87	318.85
382.25	349.81
382.63	344.61
383.01	358.17
383.39	338.06
383.77	357.26
384.15	359.07
384.53	364.95
384.91	352.07
385.29	372.63
385.67	367.43
386.049	356.81
386.429	351.16
386.809	358.62
387.189	381.44
387.568	352.29
387.948	357.94
388.328	366.3
388.707	356.81
389.087	366.98
389.466	352.07
389.846	351.62
390.225	395.46
390.605	376.7
390.984	374.21
391.363	391.16
391.743	378.51
392.122	376.7
392.501	384.83
392.881	380.09
393.26	385.51
393.639	386.19
394.018	381.9
394.397	396.36
394.776	386.87
395.155	378.28
395.534	396.36
395.913	376.93
396.292	394.1
396.671	393.65
397.05	390.26
397.429	398.39
397.808	403.14
398.186	420.31
398.565	397.49
398.944	395.91
399.323	404.72
399.701	393.2
400.08	397.49
400.458	422.12
400.837	408.79
401.215	429.35
401.594	424.83
401.972	424.16
402.351	395.23
402.729	427.32
403.107	435.23
403.486	421.44
403.864	425.06
404.242	420.99
404.62	475.68
404.999	443.14
405.377	441.56
405.755	433.87
406.133	446.75
406.511	460.54
406.889	444.95
407.267	459.86
407.645	455.12
408.023	464.15
408.401	449.69
408.779	491.72
409.156	478.62
409.534	483.14
409.912	466.64
410.29	483.81
410.667	490.82
411.045	490.37
411.422	489.92
411.8	513.19
412.178	499.63
412.555	520.65
412.933	519.52
413.31	512.29
413.687	514.32
414.065	532.85
414.442	507.32
414.819	520.88
415.197	509.35
415.574	523.14
415.951	519.07
416.328	528.79
416.705	526.98
417.082	539.41
417.46	541.21
417.837	556.58
418.214	549.12
418.591	565.85
418.967	562.46
419.344	569.01
419.721	582.57
420.098	566.3
420.475	579.86
420.852	603.59
421.228	603.59
421.605	579.18
421.982	587.77
422.358	590.25
422.735	591.83
423.111	608.78
423.488	605.85
423.864	617.14
424.241	632.96
424.617	613.08
424.994	615.56
425.37	635.68
425.746	637.71
426.123	630.48
426.499	643.58
426.875	637.71
427.251	651.04
427.627	629.8
428.003	652.85
428.379	674.77
428.756	679.06
429.132	667.54
429.507	687.88
429.883	683.36
430.259	684.94
430.635	710.48
431.011	726.97
431.387	716.35
431.763	719.51
432.138	715.22
432.514	717.71
432.89	726.97
433.265	743.02
433.641	765.84
434.016	774.65
434.392	741.89
434.767	767.42
435.143	760.87
435.518	802.68
435.894	771.94
436.269	802.22
436.644	810.36
437.02	806.07
437.395	809.91
437.77	825.05
438.145	843.81
438.52	861.88
438.895	864.37
439.271	827.08
439.646	865.05
440.021	864.37
440.395	873.41
440.77	873.86
441.145	870.47
441.52	893.97
441.895	911.15
442.27	905.27
442.645	926.06
443.019	939.62
443.394	900.75
443.769	936.46
444.143	933.52
444.518	950.47
444.892	915.44
445.267	946.4
445.641	933.07
446.016	973.07
446.39	957.25
446.764	981.43
447.139	985.95
447.513	963.8
447.887	991.37
448.262	999.06
448.636	995.21
449.01	987.98
449.384	1014.2
449.758	1004.71
450.132	1022.33
450.506	1032.05
450.88	1070.01
451.254	1048.77
451.628	1074.08
452.002	1061.43
452.376	1046.29
452.75	1089.9
453.123	1073.4
453.497	1115.89
453.871	1153.4
454.244	1131.26
454.618	1141.88
454.992	1198.37
455.365	1167.86
455.739	1195.43
456.112	1216.45
456.486	1206.51
456.859	1238.82
457.232	1265.04
457.606	1232.04
457.979	1264.36
458.352	1289.67
458.725	1317.47
459.099	1305.71
459.472	1317.01
459.845	1332.15
460.218	1351.59
460.591	1355.43
460.964	1372.83
461.337	1423.23
461.71	1432.94
462.083	1444.02
462.456	1454.18
462.829	1506.39
463.201	1480.17
463.574	1518.36
463.947	1529.89
464.32	1549.55
464.692	1560.17
465.065	1602.88
465.438	1606.72
465.81	1631.13
466.183	1702.09
466.555	1701.64
466.928	1686.95
467.3	1725.59
467.672	1746.38
468.045	1788.87
468.417	1841.29
468.789	1842.88
469.161	1872.7
469.534	1920.84
469.906	1932.14
470.278	1993.61
470.65	1977.34
471.022	2032.02
471.394	2106.37
471.766	2105.92
472.138	2148.86
472.51	2206.03
472.882	2237.22
473.253	2305.01
473.625	2314.95
473.997	2423.65
474.369	2416.65
474.74	2486.93
475.112	2542.29
475.484	2561.95
475.855	2660.03
476.227	2678.33
476.598	2783.42
476.97	2851.89
477.341	2892.11
477.713	2974.6
478.084	3031.32
478.455	3149.28
478.827	3200.58
479.198	3315.38
479.569	3335.94
479.94	3478.31
480.311	3525.32
480.682	3669.49
481.053	3742.71
481.424	3857.51
481.795	3943.16
482.166	4065.87
482.537	4114.45
482.908	4292.3
483.279	4327.56
483.65	4482.13
484.021	4567.32
484.391	4678.51
484.762	4776.58
485.133	4920.99
485.503	4993.53
485.874	5153.07
486.244	5269.68
486.615	5457.24
486.985	5641.65
487.356	5729.1
487.726	5827.4
488.097	6025.59
488.467	6092.93
488.837	6296.54
489.207	6383.77
489.578	6556.42
489.948	6684.1
490.318	6870.09
490.688	6975.62
491.058	7132.45
491.428	7304.43
491.798	7416.74
492.168	7672.55
492.538	7772.44
492.908	7911.19
493.278	8109.6
493.648	8156.83
494.017	8322.7
494.387	8455.81
494.757	8639.53
495.126	8776.48
495.496	8824.16
495.866	8953.65
496.235	9263.47
496.605	9265.5
496.974	9405.16
497.344	9587.98
497.713	9692.84
498.082	9839.28
498.452	9949.33
498.821	10058.48
499.19	10113.84
499.559	10328.53
499.928	10375.53
500.298	10490.78
500.667	10654.17
501.036	10675.64
501.405	10884.45
501.774	10834.05
502.143	11097.1
502.512	11134.83
502.88	11273.59
503.249	11356.3
503.618	11380.25
503.987	11464.77
504.356	11610.08
504.724	11728.94
505.093	11788.38
505.462	11898.2
505.83	11945.43
506.199	12100.46
506.567	12276.27
506.936	12240.79
507.304	12393.78
507.672	12521.46
508.041	12543.84
508.409	12629.03
508.777	12814.56
509.145	12856.37
509.514	12815.69
509.882	12900.66
510.25	12903.15
510.618	13073.31
510.986	13094.33
511.354	13204.61
511.722	13316.47
512.09	13418.62
512.458	13421.1
512.826	13521.89
513.193	13587.2
513.561	13543.13
513.929	13709.68
514.297	13746.97
514.664	13851.37
515.032	13860.41
515.4	13951.48
515.767	13999.17
516.135	14127.52
516.502	14010.46
516.869	14221.53
517.237	14167.3
517.604	14131.82
517.972	14251.81
518.339	14308.31
518.706	14334.3
519.073	14301.08
519.44	14436.89
519.808	14488.87
520.175	14446.16
520.542	14598.25
520.909	14636.44
521.276	14621.3
521.643	14667.4
522.009	14826.26
522.376	14819.94
522.743	14887.05
523.11	14936.09
523.477	15033.71
523.843	14947.16
524.21	15206.59
524.577	15216.76
524.943	15136.09
525.31	15178.12
525.676	15228.06
526.043	15378.79
526.409	15445.23
526.776	15575.85
527.142	15448.39
527.508	15522.74
527.874	15552.8
528.241	15530.2
528.607	15579.01
528.973	15609.07
529.339	15551.67
529.705	15639.12
530.071	15725.9
530.437	15744.66
530.803	15732.68
531.169	15788.27
531.535	15656.3
531.901	15732.68
532.267	15677.77
532.632	15718.22
532.998	15713.25
533.364	15809.97
533.73	15776.52
534.095	15853.35
534.461	15785.56
534.826	15835.05
535.192	15790.98
535.557	15863.98
535.923	15723.64
536.288	15823.98
536.653	15812.45
537.019	15704.43
537.384	15793.02
537.749	15754.37
538.114	15670.99
538.479	15644.55
538.845	15660.37
539.21	15579.01
539.575	15626.24
539.94	15566.81
540.305	15654.72
540.67	15504.89
541.034	15560.03
541.399	15595.96
541.764	15541.5
542.129	15481.39
542.494	15469.18
542.858	15441.84
543.223	15443.87
543.587	15440.48
543.952	15407.49
544.316	15390.09
544.681	15387.83
545.045	15334.27
545.41	15320.71
545.774	15317.1
546.138	15220.15
546.503	15272.8
546.867	15151.9
547.231	15197.78
547.595	15171.56
547.959	15059.25
548.324	15088.85
548.688	15113.26
549.052	15038.01
549.416	15022.19
549.779	14955.75
550.143	14954.39
550.507	14985.81
550.871	14982.64
551.235	14864.91
551.599	14964.56
551.962	14920.5
552.326	14817.9
552.689	14899.93
553.053	14731.58
553.417	14761.63
553.78	14918.46
554.143	14777.45
554.507	14829.65
554.87	14679.37
555.234	14865.13
555.597	14684.57
555.96	14701.75
556.323	14727.06
556.686	14760.05
557.05	14757.34
557.413	14759.37
557.776	14725.02
558.139	14791.24
558.502	14687.51
558.865	14696.55
559.228	14681.86
559.59	14710.79
559.953	14690.67
560.316	14841.4
560.679	14821.97
561.041	14780.39
561.404	14907.16
561.767	14883.89
562.129	14738.58
562.492	14900.39
562.854	14774.51
563.217	14842.31
563.579	14841.4
563.941	14937.45
564.304	14969.99
564.666	14929.99
565.028	14960.27
565.39	14979.93
565.753	15015.64
566.115	15017.22
566.477	14965.69
566.839	14983.77
567.201	15111.68
567.563	15035.97
567.925	15113.94
568.287	15104
568.648	15094.96
569.01	15216.31
569.372	15188.74
569.734	15132.02
570.095	15155.29
570.457	15297.89
570.819	15227.38
571.18	15256.53
571.542	15245.23
571.903	15158.46
572.265	15347.38
572.626	15321.39
572.987	15336.98
573.349	15392.35
573.71	15432.8
574.071	15415.85
574.432	15373.14
574.794	15410.2
575.155	15441.61
575.516	15390.32
575.877	15394.16
576.238	15456.98
576.599	15477.55
576.96	15495.62
577.32	15448.62
577.681	15515.74
578.042	15510.31
578.403	15501.05
578.763	15506.24
579.124	15450.2
579.485	15561.16
579.845	15691.32
580.206	15492.69
580.566	15466.7
580.927	15548.28
581.287	15564.32
581.648	15509.63
582.008	15567.03
582.368	15510.09
582.728	15508.05
583.089	15490.43
583.449	15493.14
583.809	15493.82
584.169	15536.53
584.529	15416.3
584.889	15594.6
585.249	15444.55
585.609	15413.82
585.969	15431.9
586.329	15353.03
586.688	15478.67
587.048	15483.65
587.408	15409.98
587.768	15335.18
588.127	15316.42
588.487	15279.36
588.846	15463.08
589.206	15323.88
589.565	15361.62
589.925	15344.22
590.284	15311.9
590.643	15327.49
591.003	15263.77
591.362	15365.01
591.721	15271.9
592.08	15409.98
592.44	15405.91
592.799	15279.36
593.158	15267.83
593.517	15324.33
593.876	15316.42
594.235	15256.53
594.593	15285.91
594.952	15299.47
595.311	15240.94
595.67	15229.42
596.029	15391.9
596.387	15278.91
596.746	15316.42
597.104	15278.23
597.463	15124.79
597.822	15178.57
598.18	15201.39
598.538	15092.02
598.897	15230.09
599.255	15101.96
599.613	15389.64
599.972	15203.65
600.33	15260.15
600.688	15194.61
601.046	15247.04
601.404	15333.37
601.762	15257.21
602.12	15338.11
602.478	15231
602.836	15290.43
603.194	15218.57
603.552	15140.6
603.91	15218.57
604.268	15260.83
604.625	15130.89
604.983	15193.26
605.341	15097.67
605.698	15244.1
606.056	15251.79
606.413	15209.08
606.771	15263.54
607.128	15303.76
607.485	15281.84
607.843	15294.05
608.2	15342.63
608.557	15378.11
608.914	15311.9
609.272	15395.06
609.629	15351.9
609.986	15474.38
610.343	15383.54
610.7	15463.99
611.057	15447.72
611.414	15404.55
611.771	15374.27
612.127	15402.97
612.484	15315.29
612.841	15396.87
613.198	15465.57
613.554	15448.62
613.911	15611.78
614.267	15519.58
614.624	15445.23
614.98	15497.66
615.337	15608.84
615.693	15529.07
616.05	15576.3
616.406	15655.39
616.762	15614.04
617.118	15584.43
617.475	15592.12
617.831	15613.13
618.187	15616.3
618.543	15628.28
618.899	15707.37
619.255	15734.26
619.611	15602.29
619.967	15800.47
620.323	15840.02
620.678	15655.39
621.034	15654.72
621.39	15702.85
621.746	15626.24
622.101	15833.69
622.457	15725.67
622.812	15752.34
623.168	15683.19
623.523	15783.53
623.879	15847.48
624.234	15712.34
624.589	15745.79
624.945	15682.51
625.3	15738.56
625.655	15696.97
626.01	15781.27
626.365	15723.64
626.72	15739.69
627.075	15607.03
627.43	15655.62
627.785	15736.3
628.14	15678.44
628.495	15750.08
628.85	15609.07
629.205	15627.15
629.559	15670.99
629.914	15658.56
630.269	15582.4
630.623	15591.21
630.978	15571.78
631.332	15566.81
631.687	15718.89
632.041	15558.45
632.396	15596.86
632.75	15558.22
633.104	15534.72
633.459	15400.03
633.813	15458.56
634.167	15394.16
634.521	15496.08
634.875	15480.71
635.229	15416.53
635.583	15274.16
635.937	15350.77
636.291	15338.11
636.645	15354.16
636.999	15260.6
637.352	15296.53
637.706	15211.34
638.06	15258.57
638.413	15243.88
638.767	15287.95
639.121	15200.49
639.474	15145.35
639.828	15099.7
640.181	15198.23
640.534	15214.95
640.888	15073.04
641.241	15057.67
641.594	15101.96
641.947	15102.64
642.301	15069.87
642.654	15029.42
643.007	15094.28
643.36	14903.77
643.713	15000.27
644.066	15113.71
644.419	15030.78
644.771	14933.38
645.124	14842.76
645.477	14758.24
645.83	14635.08
646.182	14581.75
646.535	14574.97
646.888	14573.61
647.24	14443.22
647.593	14453.39
647.945	14491.58
648.298	14462.66
648.65	14407.97
649.002	14460.85
649.355	14511.02
649.707	14591.24
650.059	14585.59
650.411	14725.02
650.763	14736.32
651.115	14876.88
651.467	14818.13
651.819	14858.13
652.171	14802.99
652.523	14793.95
652.875	14745.81
653.227	14741.07
653.578	14796.21
653.93	14793.72
654.282	14805.47
654.633	14624.91
654.985	14736.77
655.337	14726.15
655.688	14717.79
656.039	14801.18
656.391	14658.13
656.742	14765.93
657.094	14850.89
657.445	14866.94
657.796	14779.94
658.147	14836.66
658.498	14859.93
658.849	14869.65
659.2	14780.39
659.551	14783.78
659.902	14835.3
660.253	14809.54
660.604	14869.2
660.955	14813.83
661.306	14890.22
661.656	14803.44
662.007	14815.42
662.358	14829.65
662.708	14851.8
663.059	14813.61
663.409	14837.11
663.76	14870.56
664.11	14973.15
664.461	14861.06
664.811	14883.44
665.161	14897.45
665.511	14853.15
665.862	14974.96
666.212	14930.67
666.562	14966.82
666.912	14878.69
667.262	14883.21
667.612	14844.12
667.962	14948.75
668.312	14868.52
668.662	14963.66
669.011	14836.21
669.361	14876.88
669.711	14838.01
670.06	14741.97
670.41	14831.91
670.76	14768.64
671.109	14859.26
671.459	14832.14
671.808	14780.39
672.157	14814.29
672.507	14756.66
672.856	14730.9
673.205	14681.18
673.554	14745.36
673.904	14701.97
674.253	14697.45
674.602	14693.16
674.951	14581.07
675.3	14451.58
675.649	14694.51
675.998	14645.48
676.346	14614.29
676.695	14642.99
677.044	14537.46
677.393	14548.53
677.741	14588.08
678.09	14533.39
678.438	14574.97
678.787	14572.71
679.135	14544.69
679.484	14413.84
679.832	14479.15
680.181	14473.96
680.529	14466.5
680.877	14363.45
681.225	14340.63
681.573	14443.67
681.922	14424.24
682.27	14322.32
682.618	14259.95
682.966	14353.28
683.314	14298.59
683.661	14165.49
684.009	14142.21
684.357	14140.41
684.705	14036.9
685.053	14005.95
685.4	14015.44
685.748	13929.34
686.095	13878.94
686.443	13913.97
686.79	13936.57
687.138	13922.78
687.485	13956.46
687.832	13840.07
688.18	13823.8
688.527	13789.68
688.874	13746.29
689.221	13743.35
689.568	13659.29
689.915	13669.68
690.262	13664.71
690.609	13554.21
690.956	13554.88
691.303	13527.99
691.65	13443.93
691.997	13493.64
692.344	13342.46
692.69	13258.85
693.037	13293.65
693.383	13221.56
693.73	13203.03
694.077	13176.59
694.423	13094.56
694.769	13116.7
695.116	13000.55
695.462	12988.12
695.808	12980.21
696.155	13045.29
696.501	12783.38
696.847	12818.41
697.193	12773.44
697.539	12793.32
697.885	12642.59
698.231	12559.66
698.577	12573.89
698.923	12557.85
699.269	12429.72
699.614	12434.91
699.96	12373.9
700.306	12368.02
700.651	12330.51
700.997	12252.77
701.342	12225.65
701.688	12220.91
702.033	12164.86
702.379	12162.6
702.724	12109.5
703.069	12083.74
703.415	11956.96
703.76	12002.61
704.105	12010.74
704.45	11885.1
704.795	11860.01
705.14	11750.86
705.485	11801.94
705.83	11667.7
706.175	11700.92
706.52	11667.48
706.865	11625.89
707.209	11595.16
707.554	11605.78
707.899	11605.56
708.243	11505.9
708.588	11415.5
708.932	11420.02
709.277	11365.11
709.621	11419.8
709.966	11370.08
710.31	11361.95
710.654	11232.23
710.998	11297.54
711.342	11269.29
711.687	11159.01
712.031	11206.7
712.375	11148.62
712.719	11163.76
713.063	11173.7
713.407	11161.27
713.75	11056.87
714.094	11009.41
714.438	10994.5
714.782	11072.92
715.125	10990.88
715.469	10984.33
715.812	10975.97
716.156	10871.79
716.499	10878.34
716.843	10811
717.186	10801.96
717.53	10849.42
717.873	10844.67
718.216	10812.58
718.559	10763.54
718.902	10672.47
719.246	10755.64
719.589	10681.51
719.932	10664.34
720.275	10707.95
720.617	10700.5
720.96	10669.31
721.303	10608.97
721.646	10629.76
721.989	10585.24
722.331	10592.7
722.674	10582.98
723.016	10571.01
723.359	10561.52
723.701	10618.01
724.044	10535.75
724.386	10441.52
724.729	10568.3
725.071	10529.65
725.413	10509.54
725.755	10493.27
726.097	10484.46
726.439	10443.33
726.782	10444.23
727.124	10432.25
727.465	10388.19
727.807	10395.19
728.149	10370.11
728.491	10394.06
728.833	10341.63
729.175	10375.31
729.516	10373.72
729.858	10319.94
730.199	10413.72
730.541	10295.76
730.882	10277
731.224	10376.21
731.565	10273.39
731.906	10313.84
732.248	10356.55
732.589	10222.99
732.93	10230.68
733.271	10248.53
733.612	10297.34
733.953	10359.49
734.294	10230.23
734.635	10262.31
734.976	10341.18
735.317	10226.61
735.658	10307.96
735.999	10279.26
736.339	10260.96
736.68	10268.19
737.021	10277.91
737.361	10301.41
737.702	10329.88
738.042	10314.29
738.383	10301.86
738.723	10333.95
739.063	10270.45
739.404	10336.89
739.744	10421.86
740.084	10329.21
740.424	10386.38
740.764	10359.71
741.104	10350.45
741.444	10329.43
741.784	10335.99
742.124	10490.56
742.464	10414.63
742.804	10464.57
743.143	10489.88
743.483	10499.37
743.823	10545.92
744.162	10527.39
744.502	10582.08
744.841	10564.68
745.181	10682.19
745.52	10703.43
745.86	10649.42
746.199	10690.1
746.538	10730.33
746.877	10846.25
747.216	10885.12
747.556	10834.73
747.895	10936.65
748.234	10971.45
748.573	11055.29
748.911	11110.88
749.25	11164.89
749.589	11279.46
749.928	11315.85
750.267	11334.38
750.605	11404.43
750.944	11438.78
751.283	11518.55
751.621	11628.38
751.96	11689.85
752.298	11808.04
752.636	11933.68
752.975	11926
753.313	12073.34
753.651	12249.16
753.989	12280.34
754.327	12458.87
754.666	12444.86
755.004	12569.37
755.342	12765.53
755.679	12954.9
