Data from hue_350_FLMS001491_83.txt Node
Date: Mon Feb 06 15:38:38 GMT 2017
User: dcchb
Spectrometer: FLMS00149
Trigger mode: 0
Integration Time (sec): 2.000000E-2
Scans to average: 10
Electric dark correction enabled: true
Nonlinearity correction enabled: false
Boxcar width: 0
XAxis mode: Wavelengths
Number of Pixels in Spectrum: 2048
>>>>>Begin Spectral Data<<<<<
341.393	-9.58
341.776	-9.58
342.16	-9.58
342.543	-50.93
342.927	-44.15
343.31	-84.6
343.693	-69.24
344.077	-60.2
344.46	-58.39
344.843	-65.62
345.226	-41.89
345.61	-31.04
345.993	-37.6
346.376	-10.48
346.759	-0.54
347.142	40.37
347.525	58.22
347.908	68.84
348.291	75.17
348.674	101.61
349.057	115.39
349.44	130.99
349.823	141.61
350.206	146.8
350.588	213.69
350.971	219.34
351.354	220.47
351.737	229.51
352.119	253.24
352.502	264.99
352.884	272.45
353.267	283.75
353.65	301.15
354.032	275.84
354.414	281.94
354.797	316.97
355.179	304.31
355.562	322.84
355.944	306.8
356.326	331.88
356.709	347.02
357.091	347.02
357.473	333.92
357.855	325.56
358.238	347.25
358.62	348.61
359.002	352
359.384	346.12
359.766	328.95
360.148	360.58
360.53	344.31
360.912	328.27
361.294	351.54
361.676	348.15
362.057	322.17
362.439	335.5
362.821	322.62
363.203	324.88
363.584	333.47
363.966	318.32
364.348	323.75
364.729	319
365.111	313.35
365.493	320.81
365.874	327.36
366.256	329.62
366.637	325.56
367.019	323.3
367.4	313.81
367.781	310.19
368.163	324.65
368.544	323.97
368.925	324.43
369.306	317.87
369.688	302.73
370.069	301.6
370.45	308.38
370.831	297.53
371.212	313.81
371.593	313.58
371.974	332.34
372.355	341.38
372.736	321.04
373.117	305.44
373.498	301.38
373.879	304.31
374.26	325.56
374.641	314.03
375.021	319.23
375.402	335.27
375.783	321.26
376.163	326.23
376.544	356.06
376.925	314.26
377.305	314.26
377.686	317.65
378.066	327.14
378.447	326.91
378.827	327.59
379.208	329.62
379.588	334.82
379.968	358.55
380.349	365.56
380.729	348.38
381.109	322.84
381.489	338.66
381.87	336.86
382.25	334.82
382.63	333.69
383.01	337.08
383.39	341.6
383.77	338.66
384.15	337.08
384.53	344.99
384.91	328.04
385.29	334.6
385.67	347.25
386.049	351.09
386.429	357.65
386.809	339.34
387.189	362.39
387.568	360.36
387.948	367.59
388.328	370.75
388.707	351.77
389.087	353.8
389.466	362.39
389.846	351.77
390.225	368.04
390.605	362.62
390.984	367.36
391.363	353.58
391.743	370.53
392.122	389.51
392.501	375.5
392.881	371.2
393.26	382.05
393.639	391.09
394.018	365.56
394.397	352.9
394.776	376.4
395.155	364.43
395.534	384.99
395.913	367.82
396.292	368.49
396.671	375.72
397.05	393.58
397.429	398.77
397.808	402.84
398.186	360.58
398.565	371.2
398.944	388.83
399.323	395.16
399.701	390.87
400.08	402.39
400.458	397.19
400.837	392.45
401.215	408.27
401.594	383.41
401.972	397.87
402.351	390.64
402.729	390.64
403.107	405.55
403.486	410.98
403.864	398.55
404.242	401.71
404.62	393.58
404.999	394.71
405.377	430.19
405.755	414.37
406.133	392.22
406.511	407.59
406.889	411.2
407.267	401.71
407.645	412.33
408.023	447.59
408.401	424.31
408.779	421.37
409.156	421.83
409.534	434.71
409.912	427.25
410.29	434.25
410.667	460.92
411.045	449.62
411.422	441.94
411.8	455.5
412.178	463.41
412.555	449.39
412.933	471.09
413.31	475.61
413.687	477.19
414.065	470.41
414.442	482.39
414.819	483.97
415.197	483.97
415.574	492.11
415.951	477.87
416.328	489.17
416.705	480.35
417.082	518.32
417.46	454.59
417.837	520.13
418.214	522.39
418.591	516.74
418.967	517.87
419.344	507.7
419.721	526
420.098	509.73
420.475	517.19
420.852	537.98
421.228	559.67
421.605	533.23
421.982	538.43
422.358	540.24
422.735	548.6
423.111	568.94
423.488	553.57
423.864	529.84
424.241	566.91
424.617	550.18
424.994	596.51
425.37	577.3
425.746	583.63
426.123	581.59
426.499	568.94
426.875	597.64
427.251	581.14
427.627	584.08
428.003	614.36
428.379	588.37
428.756	598.77
429.132	611.65
429.507	613.01
429.883	626.11
430.259	612.33
430.635	632.67
431.011	629.5
431.387	643.29
431.763	650.97
432.138	647.81
432.514	650.52
432.89	655.04
433.265	680.35
433.641	676.51
434.016	656.17
434.392	673.34
434.767	675.38
435.143	692.33
435.518	712.21
435.894	691.65
436.269	691.87
436.644	698.65
437.02	728.71
437.395	728.94
437.77	727.35
438.145	736.85
438.52	735.94
438.895	740.01
439.271	771.19
439.646	735.94
440.021	775.26
440.395	767.58
440.77	770.06
441.145	780.46
441.52	765.09
441.895	782.95
442.27	774.81
442.645	786.11
443.019	793.79
443.394	811.19
443.769	800.8
444.143	770.52
444.518	795.37
444.892	812.55
445.267	834.24
445.641	808.03
446.016	826.33
446.39	841.48
446.764	827.69
447.139	837.41
447.513	839.22
447.887	850.97
448.262	841.48
448.636	826.56
449.01	852.1
449.384	852.55
449.758	871.08
450.132	863.85
450.506	892.77
450.88	861.59
451.254	882.6
451.628	893.23
452.002	873.79
452.376	885.09
452.75	892.1
453.123	897.52
453.497	896.16
453.871	914.24
454.244	914.47
454.618	915.6
454.992	914.47
455.365	933
455.739	932.32
456.112	997.63
456.486	992.88
456.859	973
457.232	992.66
457.606	992.21
457.979	1005.76
458.352	1023.17
458.725	1013.22
459.099	1029.04
459.472	1033.33
459.845	1051.64
460.218	1066.55
460.591	1071.3
460.964	1060.9
461.337	1102.49
461.71	1112.88
462.083	1100.45
462.456	1096.16
462.829	1138.42
463.201	1117.4
463.574	1123.95
463.947	1147.91
464.32	1173.67
464.692	1186.1
465.065	1172.77
465.438	1196.72
465.81	1198.75
466.183	1220.9
466.555	1250.73
466.928	1249.37
467.3	1245.76
467.672	1269.71
468.045	1291.18
468.417	1303.84
468.789	1300.67
469.161	1331.18
469.534	1350.61
469.906	1367.11
470.278	1351.07
470.65	1387.9
471.022	1417.05
471.394	1441.46
471.766	1436.94
472.138	1460.22
472.51	1500.21
472.882	1531.4
473.253	1528.91
473.625	1533.89
473.997	1546.99
474.369	1591.96
474.74	1610.49
475.112	1624.28
475.484	1657.72
475.855	1689.81
476.227	1695.01
476.598	1704.96
476.97	1751.96
477.341	1770.04
477.713	1826.99
478.084	1833.99
478.455	1895.91
478.827	1869.47
479.198	1929.58
479.569	1939.75
479.94	1951.73
480.311	2040.77
480.682	2066.3
481.053	2073.99
481.424	2118.73
481.795	2123.48
482.166	2212.51
482.537	2217.48
482.908	2280.76
483.279	2285.96
483.65	2332.28
484.021	2372.51
484.391	2370.7
484.762	2406.41
485.133	2458.38
485.503	2445.05
485.874	2494.76
486.244	2533.86
486.615	2571.37
486.985	2604.14
487.356	2661.31
487.726	2695.44
488.097	2750.13
488.467	2751.03
488.837	2821.99
489.207	2847.98
489.578	2895.88
489.948	2886.84
490.318	2949.67
490.688	3010.68
491.058	2992.38
491.428	3056.78
491.798	3097.23
492.168	3117.12
492.538	3156.22
492.908	3180.85
493.278	3213.84
493.648	3256.1
494.017	3301.3
494.387	3354.86
494.757	3321.64
495.126	3381.07
495.496	3378.36
495.866	3408.41
496.235	3452.03
496.605	3479.37
496.974	3512.14
497.344	3504.68
497.713	3534.51
498.082	3624
498.452	3600.72
498.821	3622.42
499.19	3663.32
499.559	3699.7
499.928	3709.87
500.298	3756.65
500.667	3738.12
501.036	3787.39
501.405	3841.17
501.774	3791.91
502.143	3831.9
502.512	3838.01
502.88	3900.38
503.249	3899.7
503.618	3854.73
503.987	3906.25
504.356	4015.18
504.724	3959.81
505.093	3962.07
505.462	3982.41
505.83	4010.66
506.199	4020.83
506.567	4124.78
506.936	4118.9
507.304	4096.08
507.672	4118.68
508.041	4174.95
508.409	4188.05
508.777	4170.2
509.145	4247.26
509.514	4246.58
509.882	4258.33
510.25	4240.48
510.618	4260.59
510.986	4328.39
511.354	4341.95
511.722	4344.66
512.09	4374.94
512.458	4366.58
512.826	4348.5
513.193	4448.84
513.561	4381.04
513.929	4443.41
514.297	4458.56
514.664	4488.84
515.032	4489.97
515.4	4494.94
515.767	4528.84
516.135	4542.17
516.502	4504.43
516.869	4583.75
517.237	4625.33
517.604	4542.85
517.972	4647.48
518.339	4652.9
518.706	4656.97
519.073	4697.19
519.44	4696.06
519.808	4722.05
520.175	4730.64
520.542	4755.72
520.909	4746.68
521.276	4738.55
521.643	4836.85
522.009	4853.57
522.376	4879.56
522.743	4848.83
523.11	4863.97
523.477	4892.67
523.843	4919.79
524.21	5008.82
524.577	5016.73
524.943	5047.24
525.31	5030.29
525.676	5108.03
526.043	5113.45
526.409	5093.11
526.776	5181.02
527.142	5216.5
527.508	5232.55
527.874	5223.73
528.241	5263.51
528.607	5263.51
528.973	5318.87
529.339	5333.33
529.705	5323.84
530.071	5377.63
530.437	5404.97
530.803	5421.47
531.169	5479.55
531.535	5528.36
531.901	5454.69
532.267	5521.35
532.632	5562.03
532.998	5571.29
533.364	5561.58
533.73	5625.08
534.095	5641.12
534.461	5632.31
534.826	5682.7
535.192	5700.56
535.557	5760.89
535.923	5743.72
536.288	5767.45
536.653	5822.81
537.019	5851.29
537.384	5870.27
537.749	5854.9
538.114	5863.72
538.479	5882.47
538.845	5926.99
539.21	5904.17
539.575	5955.46
539.94	5999.98
540.305	6072.75
540.67	6080.43
541.034	6008.8
541.399	6108.23
541.764	6144.16
542.129	6122.47
542.494	6187.55
542.858	6242.24
543.223	6183.93
543.587	6238.62
543.952	6228
544.316	6284.04
544.681	6322.01
545.045	6250.6
545.41	6373.76
545.774	6388.45
546.138	6382.35
546.503	6453.53
546.867	6412.63
547.231	6510.7
547.595	6481.33
547.959	6506.64
548.324	6563.36
548.688	6536.92
549.052	6556.35
549.416	6575.79
549.779	6610.36
550.143	6627.76
550.507	6700.98
550.871	6689.91
551.235	6712.51
551.599	6721.09
551.962	6776.01
552.326	6819.4
552.689	6822.11
553.053	6759.51
553.417	6759.74
553.78	6881.99
554.143	6886.29
554.507	6886.74
554.87	6921.99
555.234	6988.21
555.597	6993.86
555.96	6959.73
556.323	7011.93
556.686	6992.73
557.05	7091.25
557.413	7100.97
557.776	7109.11
558.139	7132.84
558.502	7200.63
558.865	7136.9
559.228	7225.26
559.59	7212.61
559.953	7214.41
560.316	7315.66
560.679	7268.65
561.041	7332.38
561.404	7361.98
561.767	7408.76
562.129	7392.94
562.492	7440.17
562.854	7479.27
563.217	7459.83
563.579	7426.16
563.941	7579.6
564.304	7604.91
564.666	7609.43
565.028	7635.87
565.39	7678.36
565.753	7651.92
566.115	7640.39
566.477	7680.84
566.839	7750.45
567.201	7780.28
567.563	7768.07
567.925	7870.22
568.287	7844.23
568.648	7923.77
569.01	7963.55
569.372	8024.34
569.734	7975.75
570.095	8013.26
570.457	8081.96
570.819	8093.26
571.18	8109.53
571.542	8183.65
571.903	8206.25
572.265	8229.76
572.626	8262.07
572.987	8329.87
573.349	8330.77
573.71	8388.4
574.071	8462.52
574.432	8495.74
574.794	8579.58
575.155	8609.63
575.516	8633.81
575.877	8718.33
576.238	8743.41
576.599	8802.17
576.96	8895.73
577.32	8894.82
577.681	9003.97
578.042	9125.55
578.403	9159.22
578.763	9248.03
579.124	9317.18
579.485	9403.96
579.845	9449.16
580.206	9565.77
580.566	9691.19
580.927	9765.76
581.287	9963.72
581.648	10002.14
582.008	10180.66
582.368	10277.16
582.728	10413.2
583.089	10541.33
583.449	10645.29
583.809	10887.76
584.169	11025.61
584.529	11165.5
584.889	11418.15
585.249	11436.45
585.609	11588.99
585.969	11866.04
586.329	12078.24
586.688	12246.37
587.048	12372.47
587.408	12613.59
587.768	12782.86
588.127	13030.99
588.487	13261.26
588.846	13492.22
589.206	13675.26
589.565	13842.26
589.925	14145.98
590.284	14311.18
590.643	14669.13
591.003	14978.96
591.362	15237.25
591.721	15456.68
592.08	15704.14
592.44	16010.34
592.799	16224.35
593.158	16542.31
593.517	16760.6
593.876	17114.04
594.235	17332.34
594.593	17643.97
594.952	17974.81
595.311	18247.35
595.67	18587
596.029	18837.39
596.387	19128.9
596.746	19436.01
597.104	19641.66
597.463	20023.12
597.822	20278.03
598.18	20603.67
598.538	20760.73
598.897	21163.2
599.255	21365.23
599.613	21912.33
599.972	21994.59
600.33	22336.73
600.688	22513.45
601.046	22874.12
601.404	23146.88
601.762	23295.35
602.12	23798.61
602.478	24040.19
602.836	24284.7
603.194	24477.24
603.552	24730.34
603.91	24944.57
604.268	25370.32
604.625	25685.79
604.983	25926.69
605.341	26036.52
605.698	26417.75
606.056	26744.75
606.413	26956.49
606.771	27201.69
607.128	27370.04
607.485	27517.84
607.843	27767.09
608.2	28140.42
608.557	28448.43
608.914	28588.99
609.272	28839.16
609.629	29127.28
609.986	29358.92
610.343	29446.6
610.7	29750.09
611.057	29957.77
611.414	30075.96
611.771	30452
612.127	30739.9
612.484	30823.96
612.841	31051.3
613.198	31270.05
613.554	31451.07
613.911	31590.5
614.267	31829.36
614.624	31892.18
614.98	32083.82
615.337	32479.06
615.693	32569.45
616.05	32610.36
616.406	32976.22
616.762	32890.12
617.118	33091.02
617.475	33245.59
617.831	33479.49
618.187	33644.68
618.543	33749.08
618.899	33953.37
619.255	34077.44
619.611	34204.21
619.967	34337.77
620.323	34562.62
620.678	34587.93
621.034	34719
621.39	34785.22
621.746	34734.82
622.101	35399.44
622.457	35208.93
622.812	35167.13
623.168	35370.51
623.523	35422.49
623.879	35816.83
624.234	35408.25
624.589	35711.74
624.945	35851.85
625.3	35895.47
625.655	35964.17
626.01	36180.66
626.365	36179.75
626.72	36121.23
627.075	36283.03
627.43	36211.84
627.785	36284.38
628.14	36498.16
628.495	36591.04
628.85	36572.29
629.205	36472.85
629.559	36846.86
629.914	36704.71
630.269	36864.26
630.623	36635.11
630.978	36698.61
631.332	36940.64
631.687	36965.95
632.041	36997.13
632.396	36980.64
632.75	37011.6
633.104	37105.38
633.459	36833.07
633.813	36806.41
634.167	36977.93
634.521	37111.48
634.875	37133.18
635.229	37104.93
635.583	36878.95
635.937	36985.16
636.291	37084.59
636.645	37098.6
636.999	36898.38
637.352	37084.59
637.706	36871.71
638.06	37078.26
638.413	37020.18
638.767	36983.12
639.121	37110.35
639.474	36785.84
639.828	36953.75
640.181	36912.17
640.534	37082.33
640.888	36884.14
641.241	36798.72
641.594	36859.06
641.947	37036.68
642.301	36897.02
642.654	36950.36
643.007	37087.75
643.36	36972.73
643.713	36861.09
644.066	37131.14
644.419	36642.57
644.771	36682.34
645.124	36155.35
645.477	36241.22
645.83	35955.58
646.182	35902.47
646.535	35822.02
646.888	35918.07
647.24	35670.16
647.593	35997.61
647.945	35809.37
648.298	35701.12
648.65	35630.16
649.002	35478.76
649.355	35821.35
649.707	35662.93
650.059	35819.31
650.411	36224.95
650.763	36340.2
651.115	36690.25
651.467	36493.64
651.819	36569.8
652.171	36436.25
652.523	36548.33
652.875	36395.34
653.227	36400.31
653.578	36579.29
653.93	36486.41
654.282	36437.6
654.633	36329.36
654.985	36229.02
655.337	36320.99
655.688	36311.5
656.039	36539.29
656.391	36227.21
656.742	36241.45
657.094	36317.6
657.445	36422.69
657.796	36298.4
658.147	36291.39
658.498	36315.57
658.849	36462.69
659.2	36230.15
659.551	36187.89
659.902	36363.7
660.253	36255.69
660.604	36357.83
660.955	36099.53
661.306	36332.29
661.656	36157.83
662.007	36249.13
662.358	36161.68
662.708	36022.24
663.059	36053.66
663.409	35950.83
663.76	36203.94
664.11	36157.83
664.461	36247.1
664.811	36278.96
665.161	36182.69
665.511	36086.2
665.862	36058.18
666.212	36264.27
666.562	36353.54
666.912	36208.91
667.262	36170.04
667.612	36113.77
667.962	36231.96
668.312	35988.57
668.662	36061.11
669.011	36045.75
669.361	35972.08
669.711	36029.25
670.06	35926.43
670.41	35968.24
670.76	35973.43
671.109	35986.54
671.459	35942.02
671.808	36015.01
672.157	36097.27
672.507	35666.77
672.856	35898.18
673.205	35905.41
673.554	35974.79
673.904	35815.7
674.253	35988.35
674.602	35986.09
674.951	35423.84
675.3	35127.35
675.649	35723.72
675.998	35791.29
676.346	35785.87
676.695	35863.38
677.044	35533.67
677.393	35710.39
677.741	35631.52
678.09	35587.45
678.438	35418.87
678.787	35652.76
679.135	35662.25
679.484	35343.17
679.832	35460.68
680.181	35362.15
680.529	35460.45
680.877	35427.01
681.225	35349.72
681.573	35553.56
681.922	35233.11
682.27	35149.73
682.618	35054.36
682.966	35044.87
683.314	35201.93
683.661	35025.43
684.009	34974.36
684.357	34891.2
684.705	34886.23
685.053	34791.77
685.4	34761.94
685.748	34624.99
686.095	34579.8
686.443	34583.86
686.79	34509.97
687.138	34530.31
687.485	34476.75
687.832	34309.07
688.18	34483.3
688.527	34150.2
688.874	34246.02
689.221	34172.12
689.568	34025.69
689.915	33931
690.262	33864.56
690.609	33966.71
690.956	33745.69
691.303	33684
691.65	33526.27
691.997	33562.65
692.344	33401.97
692.69	33502.76
693.037	33397
693.383	33151.13
693.73	33323.78
694.077	32990.69
694.423	32990.46
694.769	33013.51
695.116	32961.31
695.462	32859.39
695.808	32838.37
696.155	32824.59
696.501	32489.23
696.847	32576.46
697.193	32260.08
697.539	32543.69
697.885	32256.02
698.231	32091.5
698.577	32194.32
698.923	32021.45
699.269	31740.32
699.614	31763.15
699.96	31776.25
700.306	31828.68
700.651	31579.88
700.997	31477.05
701.342	31313.89
701.688	31443.61
702.033	31314.57
702.379	31315.02
702.724	31232.54
703.069	31159.32
703.415	30788.94
703.76	30898.31
704.105	30865.54
704.45	30797.98
704.795	30652.67
705.14	30608.6
705.485	30549.17
705.83	30424.43
706.175	30444.76
706.52	30389.17
706.865	30328.16
707.209	30259.01
707.554	30246.58
707.899	30199.12
708.243	29946.92
708.588	30086.36
708.932	29787.15
709.277	29788.28
709.621	29831.67
709.966	29708.74
710.31	29752.35
710.654	29401.4
710.998	29495.18
711.342	29477.33
711.687	29440.05
712.031	29251.58
712.375	29240.05
712.719	29262.65
713.063	29113.95
713.407	29220.84
713.75	29038.93
714.094	29071.69
714.438	28824.02
714.782	28961.87
715.125	28792.15
715.469	28884.35
715.812	28699.95
716.156	28621.31
716.499	28483.91
716.843	28538.37
717.186	28413.86
717.53	28525.94
717.873	28407.08
718.216	28339.96
718.559	28241.21
718.902	27995.34
719.246	28180.64
719.589	28095.9
719.932	27962.12
720.275	28046.41
720.617	27850.71
720.96	27851.16
721.303	27877.6
721.646	27895.45
721.989	27704.95
722.331	27730.03
722.674	27762.12
723.016	27674.89
723.359	27560.55
723.701	27649.36
724.044	27413.43
724.386	27364.85
724.729	27514.22
725.071	27347.9
725.413	27370.27
725.755	27395.58
726.097	27178.41
726.439	27076.72
726.782	27096.83
727.124	27137.05
727.465	27020.9
727.807	27138.18
728.149	26963.05
728.491	26983.84
728.833	26979.77
729.175	26866.55
729.516	26795.37
729.858	26770.51
730.199	26783.84
730.541	26730.29
730.882	26657.75
731.224	26794.92
731.565	26661.14
731.906	26574.13
732.248	26552.44
732.589	26578.65
732.93	26483.74
733.271	26390.86
733.612	26455.26
733.953	26480.8
734.294	26323.29
734.635	26229.51
734.976	26281.48
735.317	26105.67
735.658	26157.87
735.999	26137.53
736.339	26086.69
736.68	26107.93
737.021	26128.95
737.361	25913.81
737.702	26051.66
738.042	25898.9
738.383	25972.34
738.723	25898.67
739.063	25928.73
739.404	25832.46
739.744	25843.53
740.084	25652.8
740.424	25689.18
740.764	25682.18
741.104	25681.95
741.444	25571.45
741.784	25467.49
742.124	25607.15
742.464	25399.02
742.804	25378.91
743.143	25283.09
743.483	25303.88
743.823	25211
744.162	25238.35
744.502	25275.63
744.841	25109.09
745.181	25241.06
745.52	25083.1
745.86	25129.88
746.199	25151.57
746.538	25040.16
746.877	25050.33
747.216	25060.95
747.556	25109.09
747.895	25073.15
748.234	24886.04
748.573	24791.35
748.911	24809.88
749.25	24719.72
749.589	24730.34
749.928	24753.39
750.267	24660.06
750.605	24611.25
750.944	24643.11
751.283	24538.71
751.621	24536.67
751.96	24447.86
752.298	24473.62
752.636	24342.78
752.975	24300.29
753.313	24192.27
753.651	24307.07
753.989	24178.71
754.327	24112.73
754.666	24005.84
755.004	24056.01
755.342	24145.5
755.679	24050.81
756.017	23811.72
756.355	23919.51
756.693	23734.43
757.031	23749.35
757.368	23605.17
757.706	23672.51
758.044	23549.8
758.381	23572.18
758.719	23517.71
759.056	23560.43
759.394	23354.33
759.731	23217.38
760.068	23258.51
760.405	23061.68
760.743	23078.86
