Data from hue_100_FLMS001491_00009.txt Node
Date: Tue Feb 07 17:02:34 GMT 2017
User: dcchb
Spectrometer: FLMS00149
Trigger mode: 0
Integration Time (sec): 2.000000E-2
Scans to average: 10
Electric dark correction enabled: true
Nonlinearity correction enabled: false
Boxcar width: 0
XAxis mode: Wavelengths
Number of Pixels in Spectrum: 2048
>>>>>Begin Spectral Data<<<<<
341.393	-9.96
341.776	-9.96
342.16	-9.96
342.543	-76.85
342.927	-70.75
343.31	-79.79
343.693	-69.62
344.077	-49.96
344.46	-61.93
344.843	-56.51
345.226	-42.72
345.61	-26.23
345.993	-25.1
346.376	-8.38
346.759	14.45
347.142	18.29
347.525	43.15
347.908	59.87
348.291	56.71
348.674	91.73
349.057	136.03
349.44	123.6
349.823	132.64
350.206	149.36
350.588	215.57
350.971	216.48
351.354	220.77
351.737	236.82
352.119	273.88
352.502	271.17
352.884	271.39
353.267	283.37
353.65	279.75
354.032	323.59
354.414	302.12
354.797	319.53
355.179	327.66
355.562	333.08
355.944	325.4
356.326	340.54
356.709	337.6
357.091	318.4
357.473	352.29
357.855	308.68
358.238	336.93
358.62	347.32
359.002	328.34
359.384	316.59
359.766	329.47
360.148	334.44
360.53	345.74
360.912	343.71
361.294	337.38
361.676	344.38
362.057	318.62
362.439	329.24
362.821	331.05
363.203	311.84
363.584	318.17
363.966	314.33
364.348	333.99
364.729	331.05
365.111	306.87
365.493	303.48
365.874	328.11
366.256	305.06
366.637	321.79
367.019	338.51
367.4	306.19
367.781	301.9
368.163	314.78
368.544	327.89
368.925	321.11
369.306	308
369.688	299.86
370.069	301.9
370.45	323.82
370.831	325.4
371.212	318.4
371.593	315.91
371.974	303.93
372.355	323.14
372.736	301.45
373.117	331.05
373.498	326.53
373.879	322.92
374.26	322.46
374.641	317.72
375.021	336.02
375.402	347.1
375.783	305.29
376.163	321.79
376.544	323.82
376.925	321.33
377.305	340.99
377.686	342.58
378.066	335.34
378.447	330.15
378.827	362.46
379.208	335.12
379.588	326.08
379.968	337.38
380.349	331.5
380.729	329.24
381.109	359.3
381.489	359.75
381.87	329.24
382.25	345.51
382.63	335.8
383.01	354.1
383.39	347.1
383.77	349.58
384.15	341.9
384.53	378.96
384.91	348.23
385.29	340.09
385.67	344.16
386.049	369.02
386.429	379.18
386.809	360.2
387.189	354.33
387.568	357.26
387.948	372.86
388.328	346.42
388.707	364.27
389.087	352.97
389.466	377.15
389.846	366.3
390.225	362.46
390.605	386.64
390.984	378.28
391.363	405.85
391.743	381.67
392.122	384.83
392.501	396.36
392.881	375.34
393.26	393.2
393.639	402.69
394.018	390.03
394.397	385.96
394.776	398.85
395.155	408.79
395.534	399.3
395.913	392.07
396.292	385.51
396.671	384.83
397.05	406.08
397.429	407.66
397.808	409.47
398.186	413.31
398.565	408.56
398.944	400.43
399.323	411.5
399.701	412.63
400.08	390.03
400.458	406.98
400.837	414.89
401.215	416.25
401.594	420.54
401.972	437.94
402.351	419.64
402.729	418.05
403.107	441.78
403.486	433.19
403.864	443.59
404.242	426.64
404.62	432.29
404.999	455.57
405.377	450.14
405.755	434.32
406.133	430.48
406.511	448.79
406.889	477.26
407.267	474.1
407.645	463.7
408.023	458.73
408.401	493.98
408.779	468.67
409.156	465.51
409.534	470.93
409.912	481.78
410.29	488.56
410.667	492.85
411.045	481.56
411.422	490.59
411.8	509.8
412.178	498.28
412.555	505.96
412.933	531.95
413.31	523.14
413.687	515.68
414.065	537.15
414.442	541.21
414.819	523.81
415.197	537.82
415.574	553.87
415.951	563.59
416.328	558.62
416.705	542.34
417.082	563.13
417.46	553.19
417.837	550.03
418.214	526.53
418.591	588.9
418.967	552.97
419.344	568.33
419.721	552.51
420.098	582.8
420.475	612.85
420.852	599.74
421.228	607.43
421.605	594.77
421.982	604.04
422.358	613.98
422.735	615.11
423.111	614.66
423.488	616.69
423.864	624.15
424.241	627.77
424.617	632.74
424.994	613.98
425.37	655.79
425.746	633.64
426.123	653.08
426.499	649.91
426.875	673.87
427.251	666.41
427.627	694.43
428.003	672.28
428.379	694.66
428.756	684.04
429.132	697.59
429.507	690.82
429.883	700.98
430.259	709.35
430.635	703.47
431.011	705.96
431.387	721.1
431.763	749.8
432.138	761.1
432.514	771.04
432.89	777.14
433.265	773.52
433.641	763.81
434.016	802.22
434.392	794.77
434.767	786.41
435.143	795.9
435.518	823.69
435.894	823.24
436.269	827.76
436.644	841.32
437.02	867.76
437.395	860.08
437.77	864.82
438.145	883.35
438.52	892.62
438.895	893.52
439.271	888.1
439.646	878.15
440.021	913.63
440.395	917.02
440.77	914.54
441.145	897.36
441.52	920.41
441.895	958.6
442.27	956.57
442.645	936.46
443.019	941.43
443.394	962.22
443.769	969.45
444.143	965.16
444.518	972.84
444.892	969.45
445.267	974.2
445.641	976.46
446.016	999.28
446.39	985.04
446.764	1006.06
447.139	1018.04
447.513	1015.78
447.887	1032.73
448.262	1028.43
448.636	1033.18
449.01	1050.13
449.384	1053.97
449.758	1065.04
450.132	1065.04
450.506	1072.05
450.88	1079.96
451.254	1085.61
451.628	1093.52
452.002	1082.9
452.376	1121.54
452.75	1135.55
453.123	1155.21
453.497	1154.76
453.871	1166.96
454.244	1197.24
454.618	1181.42
454.992	1198.37
455.365	1197.92
455.739	1252.38
456.112	1227.52
456.486	1250.57
456.859	1260.74
457.232	1311.82
457.606	1295.09
457.979	1303.68
458.352	1355.88
458.725	1360.85
459.099	1350.91
459.472	1394.53
459.845	1404.02
460.218	1436.11
460.591	1434.3
460.964	1421.42
461.337	1466.61
461.71	1490.34
462.083	1521.53
462.456	1512.26
462.829	1559.72
463.201	1542.32
463.574	1587.51
463.947	1554.3
464.32	1639.49
464.692	1630.9
465.065	1639.94
465.438	1669.32
465.81	1736.66
466.183	1754.06
466.555	1796.32
466.928	1817.11
467.3	1790.9
467.672	1861.86
468.045	1868.64
468.417	1908.86
468.789	1935.75
469.161	1918.81
469.534	1967.17
469.906	2047.39
470.278	2052.59
470.65	2090.33
471.022	2133.04
471.394	2173.49
471.766	2222.98
472.138	2222.75
472.51	2295.97
472.882	2342.07
473.253	2431.33
473.625	2439.24
473.997	2476.3
474.369	2530.31
474.74	2577.09
475.112	2653.02
475.484	2704.77
475.855	2758.33
476.227	2796.75
476.598	2944.09
476.97	2926.24
477.341	2983.41
477.713	3074.26
478.084	3147.47
478.455	3261.37
478.827	3324.87
479.198	3433.79
479.569	3492.1
479.94	3612.77
480.311	3612.77
480.682	3782.49
481.053	3827
481.424	3975.25
481.795	4072.65
482.166	4161.23
482.537	4234.9
482.908	4363.26
483.279	4456.37
483.65	4574.33
484.021	4737.49
484.391	4815.68
484.762	4935.22
485.133	5022.9
485.503	5102.68
485.874	5262.67
486.244	5396.23
486.615	5558.26
486.985	5638.03
487.356	5820.62
487.726	5934.52
488.097	6145.36
488.467	6187.85
488.837	6396.43
489.207	6542.19
489.578	6658.34
489.948	6816.53
490.318	6969.52
490.688	7087.94
491.058	7203.41
491.428	7428.49
491.798	7480.47
492.168	7715.04
492.538	7944.18
492.908	8027.12
493.278	8193.89
493.648	8247.9
494.017	8523.38
494.387	8551.17
494.757	8799.75
495.126	8883.14
495.496	8926.3
495.866	9127.66
496.235	9255.11
496.605	9463.01
496.974	9526.97
497.344	9648.09
497.713	9747.98
498.082	9993.62
498.452	10106.16
498.821	10175.76
499.19	10338.7
499.559	10375.98
499.928	10546.83
500.298	10674.51
500.667	10838.12
501.036	10902.98
501.405	10956.76
501.774	11060.03
502.143	11158.56
502.512	11323.3
502.88	11437.88
503.249	11462.74
503.618	11509.29
503.987	11619.34
504.356	11825.66
504.724	11832.67
505.093	11940.24
505.462	12060.01
505.83	12183.85
506.199	12229.95
506.567	12428.81
506.936	12501.58
507.304	12597.39
507.672	12680.78
508.041	12751.29
508.409	12874.68
508.777	12930.95
509.145	13104.27
509.514	13026.76
509.882	13242.58
510.25	13158.74
510.618	13307.21
510.986	13337.94
511.354	13443.7
511.722	13509.46
512.09	13738.61
512.458	13652.96
512.826	13740.42
513.193	13877.59
513.561	13938.83
513.929	13961.65
514.297	14109.45
514.664	14193.06
515.032	14193.96
515.4	14244.58
515.767	14363.68
516.135	14376.33
516.502	14302.66
516.869	14580.62
517.237	14474.63
517.604	14535.87
517.972	14511.92
518.339	14584.24
518.706	14720.73
519.073	14671.24
519.44	14758.69
519.808	14930.44
520.175	14813.38
520.542	15006.6
520.909	15075.75
521.276	14896.54
521.643	15090.89
522.009	15068.74
522.376	15266.48
522.743	15287.95
523.11	15363.65
523.477	15501.95
523.843	15579.46
524.21	15582.18
524.577	15646.35
524.943	15672.34
525.31	15726.35
525.676	15833.24
526.043	15842.73
526.409	15847.48
526.776	15974.26
527.142	15886.35
527.508	15928.15
527.874	16028.49
528.241	16155.72
528.607	16088.38
528.973	16172.44
529.339	16037.08
529.705	16207.24
530.071	16247.47
530.437	16254.25
530.803	16304.64
531.169	16368.14
531.535	16224.19
531.901	16296.96
532.267	16219.9
532.632	16277.3
532.998	16383.51
533.364	16324.98
533.73	16273.68
534.095	16403.62
534.461	16392.78
534.826	16363.85
535.192	16357.3
535.557	16414.24
535.923	16320.91
536.288	16307.81
536.653	16401.59
537.019	16264.64
537.384	16238.43
537.749	16334.92
538.114	16226.45
538.479	16244.76
538.845	16200.01
539.21	16198.88
539.575	16233.46
539.94	16103.97
540.305	16179.9
540.67	16177.87
541.034	16121.82
541.399	16151.2
541.764	16106.23
542.129	16079.79
542.494	16067.36
542.858	15980.81
543.223	16089.73
543.587	16016.97
543.952	15898.32
544.316	15927.48
544.681	15849.51
545.045	15831.66
545.41	15950.53
545.774	15905.33
546.138	15824.88
546.503	15810.64
546.867	15751.21
547.231	15816.07
547.595	15690.42
547.959	15787.37
548.324	15729.29
548.688	15651.1
549.052	15668.95
549.416	15722.74
549.779	15581.27
550.143	15520.48
550.507	15695.17
550.871	15674.83
551.235	15508.28
551.599	15525.23
551.962	15415.4
552.326	15541.27
552.689	15529.75
553.053	15396.87
553.417	15440.03
553.78	15515.74
554.143	15360.49
554.507	15423.54
554.87	15423.76
555.234	15532.01
555.597	15367.27
555.96	15390.77
556.323	15341.05
556.686	15283.65
557.05	15528.17
557.413	15394.16
557.776	15434.83
558.139	15446.59
558.502	15376.3
558.865	15289.98
559.228	15465.79
559.59	15457.66
559.953	15335.18
560.316	15465.34
560.679	15524.55
561.041	15448.62
561.404	15589.63
561.767	15562.51
562.129	15568.16
562.492	15537.43
562.854	15576.3
563.217	15519.8
563.579	15525.68
563.941	15584.66
564.304	15612.46
564.666	15660.59
565.028	15712.57
565.39	15643.64
565.753	15757.99
566.115	15757.99
566.477	15758.89
566.839	15792.34
567.201	15789.63
567.563	15801.15
567.925	15923.18
568.287	15905.1
568.648	15779.91
569.01	15902.39
569.372	16045.21
569.734	15854.94
570.095	16031.43
570.457	15997.08
570.819	16018.32
571.18	16017.64
571.542	16042.05
571.903	16061.26
572.265	16122.95
572.626	16090.64
572.987	16163.63
573.349	16100.35
573.71	16237.98
574.071	16185.1
574.432	16267.58
574.794	16281.14
575.155	16258.09
575.516	16219.9
575.877	16240.69
576.238	16261.03
576.599	16236.85
576.96	16211.09
577.32	16276.17
577.681	16425.32
578.042	16323.85
578.403	16372.21
578.763	16365.43
579.124	16289.05
579.485	16429.61
579.845	16429.84
580.206	16286.11
580.566	16331.99
580.927	16369.95
581.287	16377.86
581.648	16356.17
582.008	16427.35
582.368	16343.06
582.728	16388.48
583.089	16311.2
583.449	16385.32
583.809	16378.54
584.169	16300.35
584.529	16248.82
584.889	16405.2
585.249	16343.28
585.609	16273.91
585.969	16351.87
586.329	16228.94
586.688	16294.92
587.048	16231.88
587.408	16301.48
587.768	16294.02
588.127	16196.85
588.487	16266.22
588.846	16322.95
589.206	16237.3
589.565	16166.11
589.925	16321.36
590.284	16165.44
590.643	16157.98
591.003	16127.47
591.362	16269.16
591.721	16153.23
592.08	16127.02
592.44	16241.82
592.799	16177.64
593.158	16148.71
593.517	16100.58
593.876	16122.95
594.235	16125.66
594.593	16129.05
594.952	16112.78
595.311	16142.16
595.67	16193.01
596.029	16167.92
596.387	16235.04
596.746	16199.33
597.104	16107.36
597.463	16160.69
597.822	16243.4
598.18	16178.09
598.538	16087.7
598.897	16253.57
599.255	16085.66
599.613	16210.86
599.972	16097.64
600.33	16104.2
600.688	16091.77
601.046	16202.5
601.404	16230.75
601.762	16211.99
602.12	16240.91
602.478	16144.19
602.836	16203.18
603.194	16119.56
603.552	16113.23
603.91	16070.52
604.268	16157.53
604.625	16179.9
604.983	16170.86
605.341	16097.87
605.698	16083.4
606.056	16269.61
606.413	16209.96
606.771	16176.06
607.128	16165.21
607.485	16051.77
607.843	16120.69
608.2	16265.77
608.557	16247.47
608.914	16179
609.272	16191.2
609.629	16253.12
609.986	16373.34
610.343	16233.91
610.7	16328.82
611.057	16349.61
611.414	16265.55
611.771	16344.64
612.127	16387.35
612.484	16349.61
612.841	16426.67
613.198	16365.21
613.554	16408.37
613.911	16492.43
614.267	16487.24
614.624	16479.1
614.98	16555.48
615.337	16507.57
615.693	16537.18
616.05	16561.13
616.406	16604.75
616.762	16470.51
617.118	16503.05
617.475	16574.69
617.831	16540.12
618.187	16569.27
618.543	16518.65
618.899	16586.44
619.255	16606.55
619.611	16654.01
619.967	16558.87
620.323	16619.66
620.678	16636.61
621.034	16616.95
621.39	16571.75
621.746	16597.29
622.101	16887.68
622.457	16680.9
622.812	16620.79
623.168	16698.76
623.523	16755.48
623.879	16717.51
624.234	16687.46
624.589	16691.3
624.945	16623.05
625.3	16554.8
625.655	16610.62
626.01	16664.63
626.365	16616.05
626.72	16605.42
627.075	16544.41
627.43	16639.77
627.785	16608.36
628.14	16621.02
628.495	16592.77
628.85	16642.49
629.205	16522.49
629.559	16626.89
629.914	16514.81
630.269	16507.8
630.623	16558.19
630.978	16430.29
631.332	16491.3
631.687	16567.69
632.041	16490.85
632.396	16524.75
632.75	16424.41
633.104	16435.94
633.459	16450.4
633.813	16378.76
634.167	16455.82
634.521	16412.89
634.875	16362.49
635.229	16364.08
635.583	16335.15
635.937	16307.58
636.291	16316.39
636.645	16266.45
636.999	16243.17
637.352	16203.63
637.706	16124.08
638.06	16119.56
638.413	16101.26
638.767	16085.89
639.121	16146.23
639.474	16071.43
639.828	15984.65
640.181	16037.98
640.534	16117.98
640.888	16020.13
641.241	15981.26
641.594	15928.61
641.947	15950.3
642.301	15992.79
642.654	15969.74
643.007	15974.71
643.36	15970.64
643.713	15859.68
644.066	15952.79
644.419	15931.77
644.771	15773.81
645.124	15595.73
645.477	15670.99
645.83	15463.76
646.182	15462.86
646.535	15527.49
646.888	15422.86
647.24	15311.22
647.593	15411.11
647.945	15334.5
648.298	15320.71
648.65	15339.47
649.002	15319.58
649.355	15388.51
649.707	15384.67
650.059	15441.16
650.411	15560.71
650.763	15561.16
651.115	15824.65
651.467	15702.85
651.819	15749.4
652.171	15661.49
652.523	15709.4
652.875	15677.31
653.227	15583.76
653.578	15713.47
653.93	15619.01
654.282	15677.99
654.633	15575.85
654.985	15685.22
655.337	15634.6
655.688	15628.28
656.039	15676.86
656.391	15607.49
656.742	15645.68
657.094	15666.47
657.445	15717.54
657.796	15666.47
658.147	15646.13
658.498	15572.23
658.849	15605.68
659.2	15628.73
659.551	15675.28
659.902	15719.8
660.253	15579.92
660.604	15710.53
660.955	15623.53
661.306	15707.14
661.656	15742.4
662.007	15689.74
662.358	15621.95
662.708	15674.83
663.059	15648.39
663.409	15565.23
663.76	15689.74
664.11	15648.39
664.461	15818.1
664.811	15780.81
665.161	15694.71
665.511	15624.89
665.862	15671.44
666.212	15765.22
666.562	15716.86
666.912	15734.94
667.262	15699.91
667.612	15645.9
667.962	15667.37
668.312	15676.86
668.662	15813.36
669.011	15682.06
669.361	15670.76
669.711	15650.42
670.06	15739.46
670.41	15640.03
670.76	15588.95
671.109	15691.1
671.459	15526.36
671.808	15612.23
672.157	15574.94
672.507	15531.1
672.856	15565.9
673.205	15499.47
673.554	15575.17
673.904	15523.65
674.253	15571.33
674.602	15485
674.951	15276.19
675.3	15267.38
675.649	15437.55
675.998	15429.18
676.346	15397.77
676.695	15531.1
677.044	15326.81
677.393	15367.94
677.741	15444.55
678.09	15347.38
678.438	15348.28
678.787	15325.23
679.135	15403.2
679.484	15230.55
679.832	15241.62
680.181	15142.86
680.529	15178.12
680.877	15156.2
681.225	15065.13
681.573	15195.29
681.922	15095.63
682.27	14967.95
682.618	15074.17
682.966	15105.8
683.314	15099.7
683.661	15006.82
684.009	14892.48
684.357	14896.77
684.705	14864.45
685.053	14895.87
685.4	14833.27
685.748	14778.58
686.095	14751.46
686.443	14662.2
686.79	14685.02
687.138	14761.86
687.485	14714.63
687.832	14529.77
688.18	14529.32
688.527	14443.9
688.874	14482.32
689.221	14452.04
689.568	14469.21
689.915	14438.48
690.262	14361.19
690.609	14367.29
690.956	14341.98
691.303	14268.99
691.65	14241.87
691.997	14188.09
692.344	14064.25
692.69	14033.74
693.037	13988.09
693.383	13955.33
693.73	13957.36
694.077	13861.54
694.423	13919.17
694.769	13919.17
695.116	13758.72
695.462	13810.02
695.808	13754.88
696.155	13772.73
696.501	13547.2
696.847	13557.6
697.193	13436.47
697.539	13548.56
697.885	13349.24
698.231	13365.28
698.577	13367.54
698.923	13393.53
699.269	13203.93
699.614	13135.69
699.96	13119.64
700.306	13052.98
700.651	13043.48
700.997	13036.03
701.342	12916.71
701.688	12928.46
702.033	12888.69
702.379	12844.17
702.724	12846.88
703.069	12930.95
703.415	12676.94
703.76	12639.2
704.105	12748.35
704.45	12723.04
704.795	12572.76
705.14	12543.38
705.485	12485.53
705.83	12486.21
706.175	12445.53
706.52	12362.6
706.865	12261.36
707.209	12267.69
707.554	12265.88
707.899	12249.61
708.243	12211.64
708.588	12189.95
708.932	12141.81
709.277	12120.12
709.621	12097.29
709.966	11986.79
710.31	12044.19
710.654	11904.08
710.998	11969.84
711.342	11966.9
711.687	11870.41
712.031	11881.71
712.375	11796.29
712.719	11869.73
713.063	11855.27
713.407	11824.08
713.75	11749.51
714.094	11775.04
714.438	11676.29
714.782	11644.2
715.125	11625.44
715.469	11571.21
715.812	11582.51
716.156	11496.18
716.499	11471.55
716.843	11520.36
717.186	11412.57
717.53	11515.16
717.873	11466.8
718.216	11519.91
718.559	11363.98
718.902	11380.93
719.246	11401.49
719.589	11388.61
719.932	11380.25
720.275	11310.65
720.617	11332.8
720.96	11367.6
721.303	11291.89
721.646	11294.83
721.989	11238.56
722.331	11257.99
722.674	11245.34
723.016	11222.06
723.359	11168.28
723.701	11187.04
724.044	11131.22
724.386	11129.41
724.729	11158.56
725.071	11148.39
725.413	11189.97
725.755	11135.74
726.097	11094.61
726.439	11081.28
726.782	11025.68
727.124	11067.49
727.465	10958.57
727.807	11011.67
728.149	10999.24
728.491	10969.64
728.833	11042.18
729.175	10942.97
729.516	10956.76
729.858	10953.37
730.199	10890.32
730.541	10930.09
730.882	10916.08
731.224	10963.31
731.565	10893.26
731.906	10921.28
732.248	10895.97
732.589	10966.48
732.93	10874.73
733.271	10928.29
733.612	10905.01
733.953	10902.52
734.294	10888.51
734.635	10870.66
734.976	10873.15
735.317	10807.84
735.658	10874.73
735.999	10899.81
736.339	10854.62
736.68	10881.28
737.021	10838.34
737.361	10850.55
737.702	10966.25
738.042	10866.14
738.383	10911.56
738.723	10883.54
739.063	10802.19
739.404	10885.35
739.744	10962.41
740.084	10904.11
740.424	10925.35
740.764	10940.04
741.104	11026.59
741.444	10937.78
741.784	10927.16
742.124	10978.23
742.464	10939.81
742.804	11046.25
743.143	10996.76
743.483	11093.48
743.823	11058.9
744.162	11048.96
744.502	11144.1
744.841	11145
745.181	11153.14
745.52	11199.47
745.86	11232.23
746.199	11284.66
746.538	11273.14
746.877	11384.09
747.216	11406.01
747.556	11350.87
747.895	11498.21
748.234	11399.23
748.573	11514.71
748.911	11598.55
749.25	11720.13
749.589	11629.06
749.928	11756.74
750.267	11926.23
750.605	11912.44
750.944	11941.37
751.283	12039.44
751.621	12141.36
751.96	12138.42
752.298	12324.41
752.636	12433.78
752.975	12481.24
753.313	12614.34
753.651	12745.87
753.989	12835.81
754.327	12847.11
754.666	12966.65
755.004	13162.58
755.342	13208.45
755.679	13359.18
