Data from hue_240_FLMS001491_00015.txt Node
Date: Tue Feb 07 16:35:07 GMT 2017
User: dcchb
Spectrometer: FLMS00149
Trigger mode: 0
Integration Time (sec): 2.000000E-2
Scans to average: 10
Electric dark correction enabled: true
Nonlinearity correction enabled: false
Boxcar width: 0
XAxis mode: Wavelengths
Number of Pixels in Spectrum: 2048
>>>>>Begin Spectral Data<<<<<
341.393	7.56
341.776	7.56
342.16	7.56
342.543	-69.5
342.927	-55.49
343.31	-50.97
343.693	-76.51
344.077	-41.48
344.46	-61.37
344.843	-47.58
345.226	-51.65
345.61	-26.79
345.993	-26.57
346.376	-12.1
346.759	4.84
347.142	31.51
347.525	34
347.908	63.83
348.291	77.84
348.674	85.07
349.057	97.95
349.44	112.64
349.823	144.95
350.206	161.45
350.588	165.07
350.971	199.87
351.354	219.08
351.737	232.64
352.119	225.18
352.502	234.89
352.884	262.01
353.267	274.67
353.65	281.22
354.032	287.55
354.414	290.71
354.797	302.46
355.179	300.88
355.562	294.33
355.944	310.83
356.326	333.65
356.709	326.42
357.091	328.9
357.473	334.55
357.855	332.07
358.238	343.59
358.62	324.16
359.002	312.18
359.384	340.88
359.766	325.51
360.148	314.21
360.53	342.01
360.912	335.68
361.294	315.34
361.676	331.39
362.057	327.32
362.439	313.76
362.821	330.03
363.203	318.51
363.584	331.84
363.966	327.1
364.348	302.01
364.729	337.27
365.111	312.63
365.493	320.77
365.874	310.37
366.256	283.03
366.637	316.93
367.019	309.47
367.4	323.48
367.781	307.66
368.163	308.11
368.544	321.9
368.925	296.59
369.306	302.46
369.688	301.11
370.069	301.11
370.45	300.66
370.831	297.94
371.212	290.94
371.593	315.12
371.974	305.85
372.355	283.48
372.736	315.12
373.117	304.95
373.498	299.07
373.879	302.46
374.26	292.07
374.641	302.92
375.021	299.75
375.402	299.53
375.783	311.05
376.163	309.24
376.544	316.7
376.925	338.62
377.305	310.15
377.686	314.67
378.066	328.9
378.447	327.55
378.827	310.37
379.208	335.68
379.588	317.38
379.968	331.62
380.349	324.16
380.729	326.42
381.109	298.62
381.489	328.9
381.87	311.5
382.25	335.68
382.63	327.77
383.01	324.16
383.39	331.62
383.77	338.17
384.15	329.36
384.53	342.01
384.91	337.04
385.29	352.41
385.67	333.42
386.049	344.04
386.429	355.8
386.809	344.95
387.189	352.63
387.568	347.89
387.948	351.73
388.328	352.86
388.707	340.43
389.087	356.02
389.466	347.43
389.846	354.44
390.225	357.83
390.605	372.74
390.984	342.69
391.363	367.77
391.743	358.28
392.122	368.68
392.501	359.41
392.881	372.29
393.26	365.74
393.639	356.93
394.018	361.45
394.397	346.76
394.776	364.84
395.155	372.97
395.534	369.13
395.913	382.01
396.292	389.47
396.671	388.34
397.05	384.72
397.429	386.53
397.808	403.48
398.186	376.81
398.565	412.52
398.944	383.14
399.323	377.26
399.701	401.22
400.08	387.21
400.458	417.72
400.837	407.77
401.215	418.84
401.594	408.22
401.972	421.33
402.351	434.21
402.729	400.31
403.107	409.58
403.486	442.12
403.864	439.41
404.242	437.38
404.62	449.35
404.999	450.26
405.377	430.14
405.755	417.72
406.133	452.97
406.511	436.25
406.889	451.16
407.267	457.26
407.645	467.21
408.023	478.5
408.401	469.92
408.779	493.19
409.156	487.77
409.534	467.66
409.912	522.35
410.29	487.09
410.667	497.49
411.045	484.15
411.422	498.39
411.8	521.67
412.178	527.99
412.555	544.27
412.933	549.01
413.31	531.38
413.687	537.71
414.065	565.73
414.442	543.14
414.819	557.37
415.197	567.99
415.574	577.26
415.951	595.79
416.328	577.71
416.705	594.21
417.082	622.91
417.46	622
417.837	613.19
418.214	623.36
418.591	612.96
418.967	635.34
419.344	665.39
419.721	629.91
420.098	648.67
420.475	676.92
420.852	673.98
421.228	650.48
421.605	668.1
421.982	668.1
422.358	701.78
422.735	713.53
423.111	674.88
423.488	736.58
423.864	744.49
424.241	715.33
424.617	767.54
424.994	753.98
425.37	763.24
425.746	744.71
426.123	789
426.499	760.98
426.875	803.47
427.251	778.61
427.627	803.92
428.003	816.35
428.379	827.2
428.756	828.1
429.132	824.94
429.507	872.62
429.883	838.95
430.259	903.8
430.635	878.72
431.011	913.52
431.387	918.72
431.763	939.96
432.138	937.48
432.514	960.53
432.89	933.86
433.265	947.64
433.641	993.75
434.016	980.41
434.392	1005.72
434.767	1030.81
435.143	1028.09
435.518	1050.69
435.894	1054.31
436.269	1076.23
436.644	1075.78
437.02	1117.81
437.395	1114.42
437.77	1136.79
438.145	1142.89
438.52	1176.57
438.895	1161.2
439.271	1175.89
439.646	1207.07
440.021	1227.64
440.395	1211.59
440.77	1205.94
441.145	1237.58
441.52	1289.56
441.895	1248.88
442.27	1292.49
442.645	1302.21
443.019	1301.53
443.394	1303.57
443.769	1320.29
444.143	1288.43
444.518	1369.1
444.892	1335.66
445.267	1365.49
445.641	1344.24
446.016	1366.16
446.39	1403
446.764	1403.45
447.139	1391.47
447.513	1435.77
447.887	1441.42
448.262	1423.56
448.636	1424.02
449.01	1458.14
449.384	1484.13
449.758	1500.62
450.132	1514.41
450.506	1495.2
450.88	1499.04
451.254	1508.76
451.628	1553.5
452.002	1556.89
452.376	1539.72
452.75	1563.22
453.123	1591.7
453.497	1568.42
453.871	1651.35
454.244	1650.68
454.618	1635.99
454.992	1642.32
455.365	1663.11
455.739	1723.9
456.112	1733.61
456.486	1738.13
456.859	1771.58
457.232	1772.93
457.606	1750.34
457.979	1783.1
458.352	1822.88
458.725	1860.39
459.099	1867.17
459.472	1917.34
459.845	1918.47
460.218	1886.38
460.591	1933.61
460.964	1958.01
461.337	2012.93
461.71	2010.44
462.083	2030.1
462.456	1987.39
462.829	2041.18
463.201	2083.43
463.574	2104.45
463.947	2129.31
464.32	2165.69
464.692	2152.58
465.065	2173.6
465.438	2197.78
465.81	2233.03
466.183	2268.06
466.555	2314.61
466.928	2310.55
467.3	2318.91
467.672	2353.71
468.045	2372.47
468.417	2395.52
468.789	2443.2
469.161	2435.29
469.534	2471.67
469.906	2536.76
470.278	2574.04
470.65	2554.61
471.022	2608.17
471.394	2666.92
471.766	2661.05
472.138	2689.97
472.51	2699.01
472.882	2772.46
473.253	2792.57
473.625	2805.22
473.997	2905.11
474.369	2924.09
474.74	2902.17
475.112	2986.69
475.484	3012.45
475.855	3058.1
476.227	3117.98
476.598	3134.03
476.97	3179.9
477.341	3259
477.713	3304.87
478.084	3318.2
478.455	3338.54
478.827	3395.72
479.198	3491.31
479.569	3486.56
479.94	3571.08
480.311	3572.21
480.682	3637.74
481.053	3727.46
481.424	3792.77
481.795	3828.47
482.166	3872.54
482.537	3895.36
482.908	3995.02
483.279	4019.88
483.65	4057.39
484.021	4131.29
484.391	4188.92
484.762	4199.99
485.133	4301
485.503	4294.9
485.874	4402.92
486.244	4412.41
486.615	4467.55
486.985	4556.14
487.356	4577.83
487.726	4643.14
488.097	4655.12
488.467	4770.82
488.837	4847.43
489.207	4806.98
489.578	4931.72
489.948	4961.1
490.318	5054.2
490.688	5001.78
491.058	5044.94
491.428	5192.05
491.798	5192.73
492.168	5262.79
492.538	5219.62
492.908	5313.41
493.278	5430.46
493.648	5368.55
494.017	5465.04
494.387	5514.08
494.757	5513.4
495.126	5617.35
495.496	5617.8
495.866	5570.57
496.235	5662.1
496.605	5749.78
496.974	5724.47
497.344	5738.03
497.713	5791.36
498.082	5826.39
498.452	5891.24
498.821	5871.81
499.19	5908.64
499.559	5961.75
499.928	5998.13
500.298	5954.07
500.667	6105.48
501.036	6065.25
501.405	6125.36
501.774	6129.66
502.143	6173.95
502.512	6171.91
502.88	6232.7
503.249	6231.12
503.618	6241.74
503.987	6248.07
504.356	6295.75
504.724	6305.24
505.093	6332.59
505.462	6408.29
505.83	6400.61
506.199	6391.8
506.567	6563.77
506.936	6494.62
507.304	6503.66
507.672	6556.54
508.041	6626.82
508.409	6583.43
508.777	6697.55
509.145	6743.42
509.514	6686.7
509.882	6719.47
510.25	6711.79
510.618	6764.44
510.986	6698
511.354	6762.86
511.722	6784.55
512.09	6843.53
512.458	6845.79
512.826	6873.59
513.193	6851.22
513.561	6882.4
513.929	6916.75
514.297	7000.37
514.664	7024.77
515.032	7000.82
515.4	7086.47
515.767	7063.64
516.135	7150.19
516.502	6995.62
516.869	7174.37
517.237	7155.39
517.604	7103.64
517.972	7170.08
518.339	7208.72
518.706	7181.15
519.073	7159.23
519.44	7267.93
519.808	7274.94
520.175	7226.35
520.542	7308.83
520.909	7336.63
521.276	7375.05
521.643	7361.49
522.009	7373.46
522.376	7370.53
522.743	7434.71
523.11	7436.51
523.477	7518.55
523.843	7498.43
524.21	7533.46
524.577	7622.27
524.943	7637.19
525.31	7615.27
525.676	7657.98
526.043	7665.43
526.409	7665.66
526.776	7846.22
527.142	7683.29
527.508	7741.14
527.874	7774.81
528.241	7797.86
528.607	7769.39
528.973	7878.76
529.339	7807.13
529.705	7872.89
530.071	7872.43
530.437	7917.86
530.803	7943.62
531.169	7914.92
531.535	7924.41
531.901	7946.33
532.267	7932.55
532.632	7946.1
532.998	7959.89
533.364	7949.49
533.73	8008.7
534.095	7993.56
534.461	8027.91
534.826	8026.55
535.192	8042.37
535.557	8000.11
535.923	8010.51
536.288	8046.89
536.653	7999.89
537.019	8022.26
537.384	7965.54
537.749	8056.61
538.114	7989.72
538.479	8055.71
538.845	8020.68
539.21	8006.44
539.575	8009.83
539.94	8051.19
540.305	8091.86
540.67	8033.56
541.034	8008.7
541.399	8068.59
541.764	7992.21
542.129	7988.59
542.494	8039.66
542.858	8002.6
543.223	8005.09
543.587	8014.8
543.952	7974.58
544.316	7967.12
544.681	8021.13
545.045	8034.92
545.41	8013.22
545.774	8026.55
546.138	8005.09
546.503	7989.49
546.867	7941.13
547.231	8010.96
547.595	8012.09
547.959	8101.13
548.324	8022.71
548.688	8010.74
549.052	7981.13
549.416	8023.39
549.779	8006.67
550.143	7947.91
550.507	7985.65
550.871	8090.51
551.235	7994.01
551.599	8018.65
551.962	8017.74
552.326	7999.21
552.689	8050.28
553.053	8000.34
553.417	7982.94
553.78	7976.16
554.143	8041.24
554.507	7967.35
554.87	8030.4
555.234	8043.96
555.597	7959.89
555.96	8012.77
556.323	8033.11
556.686	8066.1
557.05	8087.57
557.413	8052.77
557.776	8063.39
558.139	8097.06
558.502	8148.13
558.865	8075.82
559.228	8183.16
559.59	8140.22
559.953	8131.18
560.316	8235.36
560.679	8186.78
561.041	8217.28
561.404	8239.2
561.767	8284.4
562.129	8229.49
562.492	8394.45
562.854	8261.35
563.217	8335.47
563.579	8225.87
563.941	8386.09
564.304	8366.66
564.666	8437.17
565.028	8453.66
565.39	8436.94
565.753	8504.96
566.115	8474.23
566.477	8478.29
566.839	8497.5
567.201	8582.47
567.563	8524.62
567.925	8594.22
568.287	8553.09
568.648	8631.96
569.01	8629.93
569.372	8681.45
569.734	8595.35
570.095	8696.14
570.457	8701.34
570.819	8683.94
571.18	8721.23
571.542	8798.29
571.903	8745.86
572.265	8818.17
572.626	8822.47
572.987	8880.32
573.349	8736.14
573.71	8941.11
574.071	8921.9
574.432	8983.82
574.794	8989.24
575.155	8960.77
575.516	8960.32
575.877	8867.44
576.238	8985.4
576.599	9110.37
576.96	9022.91
577.32	9004.38
577.681	9088.9
578.042	9113.98
578.403	9127.32
578.763	9092.97
579.124	9117.6
579.485	9201.66
579.845	9255.22
580.206	9170.03
580.566	9204.38
580.927	9222.46
581.287	9301.55
581.648	9179.52
582.008	9280.08
582.368	9318.05
582.728	9311.94
583.089	9329.8
583.449	9332.06
583.809	9323.7
584.169	9364.37
584.529	9315.79
584.889	9415.22
585.249	9394.43
585.609	9343.13
585.969	9401.89
586.329	9340.19
586.688	9408.89
587.048	9402.56
587.408	9353.07
587.768	9442.34
588.127	9347.88
588.487	9453.64
588.846	9540.19
589.206	9404.37
589.565	9431.04
589.925	9431.26
590.284	9460.19
590.643	9453.18
591.003	9537.7
591.362	9524.59
591.721	9452.73
592.08	9405.05
592.44	9525.5
592.799	9513.97
593.158	9554.65
593.517	9546.97
593.876	9538.38
594.235	9517.36
594.593	9541.99
594.952	9603.91
595.311	9513.97
595.67	9504.71
596.029	9562.11
596.387	9583.12
596.746	9636.46
597.104	9633.97
597.463	9544.03
597.822	9647.08
598.18	9619.28
598.538	9615.89
598.897	9663.57
599.255	9649.11
599.613	9724.36
599.972	9692.95
600.33	9698.6
600.688	9671.71
601.046	9698.15
601.404	9708.77
601.762	9768.2
602.12	9801.42
602.478	9793.51
602.836	9768.66
603.194	9696.57
603.552	9726.85
603.91	9678.04
604.268	9768.66
604.625	9724.59
604.983	9768.2
605.341	9706.51
605.698	9814.08
606.056	9778.37
606.413	9803
606.771	9856.56
607.128	9779.95
607.485	9750.58
607.843	9745.61
608.2	9849.78
608.557	9868.31
608.914	9833.06
609.272	9875.55
609.629	9859.27
609.986	9919.39
610.343	9838.94
610.7	9885.26
611.057	9901.99
611.414	9897.24
611.771	9879.16
612.127	9992.6
612.484	9977.01
612.841	10009.78
613.198	9938.82
613.554	9891.14
613.911	9934.75
614.267	10038.25
614.624	9924.58
614.98	9985.83
615.337	10007.75
615.693	9952.38
616.05	9984.47
616.406	10124.13
616.762	10059.04
617.118	10018.14
617.475	10043.45
617.831	10056.11
618.187	10056.56
618.543	10117.35
618.899	10097.91
619.255	10096.33
619.611	10101.53
619.967	10139.95
620.323	10122.32
620.678	10033.96
621.034	10032.15
621.39	10055.2
621.746	10090.46
622.101	10134.75
622.457	10092.26
622.812	10066.95
623.168	10169.32
623.523	10083.9
623.879	10188.08
624.234	10100.17
624.589	10080.96
624.945	10172.49
625.3	10129.1
625.655	10030.57
626.01	10113.05
626.365	10113.28
626.72	10062.21
627.075	9985.15
627.43	10104.01
627.785	10111.25
628.14	10103.34
628.495	10121.87
628.85	10082.55
629.205	10049.1
629.559	10143.79
629.914	10100.4
630.269	10100.85
630.623	9987.86
630.978	10068.99
631.332	9976.79
631.687	10018.59
632.041	10044.81
632.396	10049.1
632.75	9912.15
633.104	9946.28
633.459	9961.42
633.813	9943.34
634.167	9874.87
634.521	9872.61
634.875	9924.13
635.229	9839.84
635.583	9867.86
635.937	9821.76
636.291	9866.51
636.645	9785.6
636.999	9803.46
637.352	9824.93
637.706	9766.17
638.06	9869.22
638.413	9777.69
638.767	9732.72
639.121	9812.27
639.474	9723.46
639.828	9693.86
640.181	9749.67
640.534	9713.74
640.888	9698.15
641.241	9678.26
641.594	9664.25
641.947	9729.33
642.301	9643.24
642.654	9666.74
643.007	9730.01
643.36	9644.14
643.713	9649.56
644.066	9703.57
644.419	9592.39
644.771	9552.39
645.124	9450.92
645.477	9456.35
645.83	9369.8
646.182	9391.49
646.535	9321.21
646.888	9352.85
647.24	9326.18
647.593	9284.6
647.945	9270.82
648.298	9259.52
648.65	9236.47
649.002	9256.13
649.355	9175
649.707	9299.97
650.059	9357.14
650.411	9448.89
650.763	9492.28
651.115	9528.21
651.467	9460.42
651.819	9461.09
652.171	9427.2
652.523	9403.02
652.875	9478.04
653.227	9408.89
653.578	9475.33
653.93	9425.84
654.282	9393.52
654.633	9390.13
654.985	9399.63
655.337	9409.79
655.688	9369.8
656.039	9447.99
656.391	9378.38
656.742	9410.47
657.094	9390.81
657.445	9403.69
657.796	9408.67
658.147	9370.47
658.498	9434.43
658.849	9448.44
659.2	9341.32
659.551	9359.63
659.902	9454.31
660.253	9448.21
660.604	9401.43
660.955	9319.63
661.306	9370.47
661.656	9415.44
662.007	9394.88
662.358	9369.8
662.708	9433.3
663.059	9395.33
663.409	9336.58
663.76	9355.56
664.11	9472.39
664.461	9401.21
664.811	9440.75
665.161	9425.16
665.511	9416.12
665.862	9365.05
666.212	9430.59
666.562	9399.85
666.912	9383.81
667.262	9456.12
667.612	9427.42
667.962	9373.86
668.312	9356.69
668.662	9448.66
669.011	9389
669.361	9406.18
669.711	9369.8
670.06	9334.99
670.41	9321.44
670.76	9368.21
671.109	9367.54
671.459	9305.84
671.808	9347.2
672.157	9334.32
672.507	9284.83
672.856	9269.46
673.205	9317.14
673.554	9369.34
673.904	9258.39
674.253	9290.93
674.602	9281.66
674.951	9184.04
675.3	9107.43
675.649	9274.21
675.998	9253.41
676.346	9238.05
676.695	9233.3
677.044	9243.7
677.393	9169.12
677.741	9189.46
678.09	9169.12
678.438	9139.29
678.787	9183.81
679.135	9178.16
679.484	9109.92
679.832	9171.38
680.181	9006.87
680.529	9120.54
680.877	9089.8
681.225	9037.83
681.573	9076.47
681.922	9073.53
682.27	9064.95
682.618	9034.89
682.966	9005.74
683.314	8942.69
683.661	8960.77
684.009	8876.48
684.357	8931.39
684.705	8926.42
685.053	8819.3
685.4	8890.03
685.748	8854.33
686.095	8838.06
686.443	8766.42
686.79	8793.31
687.138	8818.17
687.485	8756.48
687.832	8761.68
688.18	8683.26
688.527	8784.95
688.874	8677.38
689.221	8690.94
689.568	8698.85
689.915	8610.27
690.262	8619.31
690.609	8547.9
690.956	8526.43
691.303	8473.77
691.65	8477.39
691.997	8485.98
692.344	8396.94
692.69	8472.19
693.037	8398.52
693.383	8303.61
693.73	8384.06
694.077	8304.51
694.423	8302.03
694.769	8312.87
695.116	8282.14
695.462	8231.52
695.808	8212.31
696.155	8174.12
696.501	8162.14
696.847	8143.39
697.193	8088.47
697.539	8150.85
697.885	8100.68
698.231	8027.23
698.577	7997.18
698.923	7971.19
699.269	7987.46
699.614	7929.38
699.96	7832.44
700.306	7859.78
700.651	7832.21
700.997	7853
701.342	7785.43
701.688	7780.91
702.033	7744.53
702.379	7794.24
702.724	7730.07
703.069	7768.71
703.415	7610.75
703.76	7633.57
704.105	7622.5
704.45	7622.05
704.795	7543.86
705.14	7572.1
705.485	7513.12
705.83	7492.33
706.175	7443.29
706.52	7457.08
706.865	7437.87
707.209	7401.26
707.554	7407.14
707.899	7410.07
708.243	7353.35
708.588	7348.61
708.932	7340.92
709.277	7324.2
709.621	7293.24
709.966	7293.92
710.31	7244.65
710.654	7162.85
710.998	7181.6
711.342	7199.46
711.687	7153.36
712.031	7219.57
712.375	7118.56
712.719	7101.83
713.063	7143.64
713.407	7173.92
713.75	7020.25
714.094	7110.19
714.438	7043.53
714.782	7023.87
715.125	6986.13
715.469	7076.52
715.812	7062.29
716.156	6937.77
716.499	6997.2
716.843	6996.53
717.186	6954.94
717.53	6954.72
717.873	6960.14
718.216	6896.19
718.559	6916.98
718.902	6862.07
719.246	6858.9
719.589	6882.4
719.932	6832.24
720.275	6834.95
720.617	6834.95
720.96	6780.03
721.303	6803.54
721.646	6801.05
721.989	6826.13
722.331	6769.86
722.674	6810.77
723.016	6749.07
723.359	6743.2
723.701	6783.42
724.044	6661.17
724.386	6675.63
724.729	6756.31
725.071	6726.48
725.413	6718.57
725.755	6722.86
726.097	6676.99
726.439	6700.71
726.782	6664.33
727.124	6671.11
727.465	6689.41
727.807	6679.02
728.149	6665.91
728.491	6615.52
728.833	6667.49
729.175	6605.8
729.516	6651
729.858	6637.21
730.199	6596.08
730.541	6659.36
730.882	6638.34
731.224	6581.62
731.565	6649.42
731.906	6582.07
732.248	6646.03
732.589	6556.31
732.93	6592.24
733.271	6600.38
733.612	6527.38
733.953	6548.18
734.294	6562.64
734.635	6567.84
734.976	6635.18
735.317	6546.82
735.658	6586.14
735.999	6587.95
736.339	6587.95
736.68	6586.37
737.021	6597.89
737.361	6587.27
737.702	6626.37
738.042	6538.23
738.383	6541.85
738.723	6582.3
739.063	6620.26
739.404	6592.47
739.744	6604.22
740.084	6578.68
740.424	6581.62
740.764	6558.8
741.104	6636.53
741.444	6583.43
741.784	6651.68
742.124	6642.64
742.464	6603.77
742.804	6595.41
743.143	6651.68
743.483	6660.71
743.823	6658.23
744.162	6634.05
744.502	6704.33
744.841	6679.7
745.181	6725.35
745.52	6704.78
745.86	6761.05
746.199	6749.3
746.538	6789.52
746.877	6796.98
747.216	6830.2
747.556	6814.16
747.895	6829.07
748.234	6855.96
748.573	6904.55
748.911	6883.76
749.25	7027.26
749.589	6962.63
749.928	7046.92
750.267	7098.22
750.605	7111.1
750.944	7192
751.283	7242.62
751.621	7266.12
751.96	7249.63
752.298	7303.86
752.636	7356.06
752.975	7432.45
753.313	7472.67
753.651	7511.54
753.989	7557.87
754.327	7645.55
754.666	7654.81
755.004	7759.89
755.342	7842.83
755.679	7861.81
756.017	7951.75
756.355	8068.81
756.693	8162.82
757.031	8199.66
757.368	8297.96
757.706	8338.64
758.044	8404.4
758.381	8577.27
758.719	8657.95
759.056	8692.98
759.394	8699.08
759.731	8822.92
760.068	8848
760.405	9029.01
760.743	9094.1
761.08	9199.18
761.417	9318.72
761.754	9345.39
762.091	9472.17
762.428	9504.71
762.765	9606.63
763.102	9714.87
763.438	9779.28
763.775	9859.5
764.112	9962.55
764.449	9968.2
764.785	10109.89
765.122	10096.33
765.458	10302.43
765.795	10262.2
766.131	10360.5
766.467	10487.96
766.804	10542.65
767.14	10547.84
767.476	10716.88
767.812	10702.42
768.148	10805.92
768.485	10813.15
768.821	10867.38
