Data from hue_70_FLMS001491_38.txt Node
Date: Mon Feb 06 15:20:46 GMT 2017
User: dcchb
Spectrometer: FLMS00149
Trigger mode: 0
Integration Time (sec): 2.000000E-2
Scans to average: 10
Electric dark correction enabled: true
Nonlinearity correction enabled: false
Boxcar width: 0
XAxis mode: Wavelengths
Number of Pixels in Spectrum: 2048
>>>>>Begin Spectral Data<<<<<
341.393	-28.28
341.776	-28.28
342.16	-28.28
342.543	-59.24
342.927	-59.69
343.31	-62.85
343.693	-66.02
344.077	-53.36
344.46	-66.47
344.843	-53.13
345.226	-49.07
345.61	-29.18
345.993	-33.25
346.376	-16.3
346.759	5.62
347.142	18.95
347.525	38.61
347.908	55.34
348.291	86.52
348.674	77.48
349.057	147.09
349.44	121.32
349.823	141.44
350.206	174.88
350.588	195.9
350.971	209.01
351.354	240.87
351.737	243.36
352.119	233.19
352.502	270.7
352.884	262.11
353.267	285.39
353.65	310.7
354.032	303.92
354.414	288.33
354.797	318.83
355.179	306.86
355.562	312.51
355.944	341.88
356.326	350.25
356.709	339.17
357.091	344.82
357.473	348.89
357.855	361.09
358.238	336.01
358.62	335.1
359.002	339.85
359.384	346.86
359.766	322.22
360.148	333.52
360.53	351.83
360.912	346.63
361.294	345.95
361.676	342.34
362.057	345.95
362.439	340.53
362.821	317.03
363.203	347.99
363.584	330.58
363.966	327.42
364.348	322.68
364.729	329.91
365.111	322.68
365.493	318.38
365.874	308.66
366.256	331.49
366.637	322.45
367.019	327.42
367.4	322.68
367.781	314.54
368.163	322
368.544	321.32
368.925	309.12
369.306	317.25
369.688	307.99
370.069	307.76
370.45	333.75
370.831	311.83
371.212	312.28
371.593	304.82
371.974	326.74
372.355	302.34
372.736	314.09
373.117	323.81
373.498	301.21
373.879	323.35
374.26	331.26
374.641	293.07
375.021	301.88
375.402	311.6
375.783	329.23
376.163	307.08
376.544	319.06
376.925	320.42
377.305	317.7
377.686	320.64
378.066	323.81
378.447	329
378.827	324.26
379.208	311.15
379.588	317.25
379.968	323.13
380.349	329.45
380.729	329.45
381.109	319.74
381.489	305.27
381.87	342.34
382.25	312.05
382.63	364.48
383.01	328.1
383.39	337.82
383.77	334.65
384.15	344.37
384.53	331.94
384.91	329.68
385.29	359.96
385.67	350.92
386.049	364.48
386.429	371.26
386.809	350.7
387.189	349.79
387.568	345.73
387.948	335.78
388.328	354.99
388.707	342.79
389.087	335.33
389.466	336.01
389.846	352.73
390.225	388.44
390.605	348.44
390.984	357.93
391.363	369.91
391.743	367.42
392.122	363.35
392.501	362.9
392.881	349.34
393.26	383.69
393.639	364.48
394.018	348.44
394.397	369.23
394.776	361.54
395.155	378.04
395.534	376.23
395.913	364.48
396.292	356.12
396.671	381.2
397.05	393.41
397.429	373.3
397.808	378.72
398.186	385.5
398.565	381.2
398.944	383.01
399.323	376.23
399.701	375.1
400.08	365.16
400.458	385.5
400.837	383.01
401.215	379.17
401.594	390.02
401.972	400.19
402.351	406.74
402.729	399.96
403.107	378.49
403.486	394.31
403.864	390.24
404.242	393.86
404.62	403.35
404.999	407.64
405.377	419.85
405.755	400.41
406.133	412.84
406.511	401.54
406.889	417.81
407.267	412.84
407.645	404.25
408.023	429.11
408.401	400.19
408.779	409.23
409.156	421.88
409.534	415.78
409.912	418.94
410.29	439.73
410.667	438.38
411.045	418.04
411.422	438.38
411.8	437.7
412.178	413.75
412.555	447.87
412.933	447.42
413.31	428.21
413.687	438.6
414.065	466.17
414.442	439.51
414.819	443.12
415.197	461.2
415.574	444.25
415.951	460.52
416.328	475.44
416.705	467.3
417.082	468.21
417.46	451.03
417.837	470.69
418.214	463.01
418.591	476.12
418.967	497.59
419.344	471.82
419.721	479.96
420.098	497.36
420.475	508.21
420.852	503.46
421.228	495.55
421.605	496.23
421.982	498.26
422.358	503.69
422.735	496.23
423.111	498.94
423.488	504.82
423.864	517.7
424.241	508.21
424.617	517.25
424.994	524.7
425.37	511.6
425.746	522.9
426.123	552.5
426.499	550.69
426.875	529.45
427.251	541.65
427.627	535.32
428.003	534.42
428.379	558.38
428.756	559.73
429.132	565.38
429.507	569.45
429.883	555.66
430.259	561.99
430.635	592.95
431.011	565.38
431.387	615.32
431.763	586.85
432.138	586.85
432.514	601.31
432.89	578.71
433.265	627.53
433.641	609
434.016	599.96
434.392	613.51
434.767	618.03
435.143	638.83
435.518	653.51
435.894	644.02
436.269	632.27
436.644	655.32
437.02	670.24
437.395	638.37
437.77	660.07
438.145	649.45
438.52	654.64
438.895	683.8
439.271	670.91
439.646	686.51
440.021	672.27
440.395	672.72
440.77	676.11
441.145	710.01
441.52	730.35
441.895	671.14
442.27	717.69
442.645	715.89
443.019	705.94
443.394	743
443.769	684.02
444.143	706.17
444.518	724.7
444.892	730.35
445.267	716.79
445.641	703
446.016	740.07
446.39	762.89
446.764	727.64
447.139	747.3
447.513	750.91
447.887	761.31
448.262	749.56
448.636	771.93
449.01	781.42
449.384	790.69
449.758	808.31
450.132	794.98
450.506	794.98
450.88	789.56
451.254	798.14
451.628	837.46
452.002	802.89
452.376	826.39
452.75	830.91
453.123	824.58
453.497	850.8
453.871	842.44
454.244	872.49
454.618	876.33
454.992	871.14
455.365	891.7
455.739	907.29
456.112	890.12
456.486	920.63
456.859	939.38
457.232	952.94
457.606	942.77
457.979	923.11
458.352	973.96
458.725	980.96
459.099	982.32
459.472	995.2
459.845	999.72
460.218	982.32
460.591	1049.21
460.964	1023.9
461.337	1067.06
461.71	1057.12
462.083	1085.82
462.456	1058.93
462.829	1106.16
463.201	1107.97
463.574	1085.82
463.947	1117.46
464.32	1140.28
464.692	1151.13
465.065	1147.51
465.438	1179.15
465.81	1179.15
466.183	1195.87
466.555	1222.76
466.928	1230.9
467.3	1246.49
467.672	1285.81
468.045	1331.24
468.417	1298.92
468.789	1308.19
469.161	1344.34
469.534	1363.33
469.906	1382.76
470.278	1419.14
470.65	1437.67
471.022	1457.79
471.394	1506.82
471.766	1506.15
472.138	1540.27
472.51	1578.46
472.882	1587.5
473.253	1644
473.625	1690.32
473.997	1727.38
474.369	1755.41
474.74	1775.97
475.112	1824.78
475.484	1847.61
475.855	1921.96
476.227	1952.91
476.598	1984.55
476.97	2025.91
477.341	2098
477.713	2152.91
478.084	2168.5
478.455	2260.93
478.827	2302.96
479.198	2396.74
479.569	2426.57
479.94	2523.52
480.311	2553.35
480.682	2636.96
481.053	2756.96
481.424	2824.98
481.795	2896.84
482.166	2930.29
482.537	3026.56
482.908	3145.88
483.279	3238.08
483.65	3313.78
484.021	3427.23
484.391	3521.46
484.762	3590.84
485.133	3687.11
485.503	3760.32
485.874	3884.39
486.244	3972.52
486.615	4132.52
486.985	4216.81
487.356	4365.51
487.726	4479.18
488.097	4574.77
488.467	4679.85
488.837	4814.99
489.207	4905.83
489.578	5066.51
489.948	5190.8
490.318	5360.96
490.688	5386.95
491.058	5543.33
491.428	5740.39
491.798	5815.19
492.168	6003.66
492.538	6135.86
492.908	6247.94
493.278	6391.67
493.648	6530.2
494.017	6661.27
494.387	6794.6
494.757	6914.82
495.126	7094.7
495.496	7212.66
495.866	7317.29
496.235	7517.06
496.605	7659.21
496.974	7737.62
497.344	7928.12
497.713	8009.93
498.082	8211.06
498.452	8340.54
498.821	8467.09
499.19	8548.45
499.559	8648.11
499.928	8860.98
500.298	8879.51
500.667	9089.45
501.036	9096.46
501.405	9274.08
501.774	9375.32
502.143	9546.16
502.512	9620.74
502.88	9810.34
503.249	9906.15
503.618	10001.97
503.987	10145.47
504.356	10186.14
504.724	10407.83
505.093	10497.77
505.462	10573.93
505.83	10611.67
506.199	10861.38
506.567	10957.65
506.936	11036.29
507.304	11292.56
507.672	11260.92
508.041	11363.51
508.409	11484.19
508.777	11614.81
509.145	11825.65
509.514	11809.83
509.882	12008.92
510.25	12054.34
510.618	12130.27
510.986	12200.55
511.354	12393.09
511.722	12520.55
512.09	12701.78
512.458	12656.14
512.826	12813.19
513.193	12879.86
513.561	12950.59
513.929	13147.2
514.297	13136.12
514.664	13321.2
515.032	13357.59
515.4	13438.26
515.767	13585.15
516.135	13661.08
516.502	13666.96
516.869	13806.16
517.237	13935.2
517.604	13878.25
517.972	14070.11
518.339	14202.54
518.706	14247.73
519.073	14331.8
519.44	14418.8
519.808	14625.8
520.175	14491.79
520.542	14730.88
520.909	14834.16
521.276	14853.37
521.643	15027.6
522.009	15125
522.376	15181.04
522.743	15275.05
523.11	15437.08
523.477	15673.91
523.843	15608.15
524.21	15798.65
524.577	15873.45
524.943	15917.29
525.31	15966.33
525.676	16107.8
526.043	16181.24
526.409	16296.72
526.776	16479.31
527.142	16436.6
527.508	16545.3
527.874	16617.16
528.241	16756.14
528.607	16800.66
528.973	16862.35
529.339	16895.35
529.705	17091.73
530.071	17157.26
530.437	17209.01
530.803	17374.2
531.169	17371.04
531.535	17257.6
531.901	17418.27
532.267	17489.23
532.632	17660.3
532.998	17604.48
533.364	17586.4
533.73	17666.17
534.095	17841.76
534.461	17847.19
534.826	17845.38
535.192	17980.52
535.557	17952.49
535.923	18015.32
536.288	18033.4
536.653	18140.06
537.019	18045.82
537.384	18234.52
537.749	18227.29
538.114	18224.8
538.479	18211.47
538.845	18286.5
539.21	18295.08
539.575	18321.98
539.94	18310.68
540.305	18377.12
540.67	18462.76
541.034	18470.9
541.399	18527.85
541.764	18616.88
542.129	18563.1
542.494	18521.52
542.858	18636.09
543.223	18582.53
543.587	18720.84
543.952	18682.87
544.316	18646.26
544.681	18701.4
545.045	18866.59
545.41	18841.96
545.774	18794.51
546.138	18746.15
546.503	18906.59
546.867	18754.28
547.231	18928.06
547.595	18839.48
547.959	18940.26
548.324	18872.02
548.688	18954.73
549.052	19040.15
549.416	18992.24
549.779	18996.08
550.143	18959.47
550.507	19146.13
550.871	19114.27
551.235	19099.58
551.599	19149.75
551.962	19142.29
552.326	19125.8
552.689	19241.5
553.053	19184.78
553.417	19290.76
553.78	19516.29
554.143	19310.88
554.507	19350.42
554.87	19407.37
555.234	19631.32
555.597	19436.07
555.96	19568.5
556.323	19667.25
556.686	19581.83
557.05	19696.18
557.413	19696.18
557.776	19718.55
558.139	19820.69
558.502	19763.29
558.865	19875.83
559.228	20071.76
559.59	20041.03
559.953	20011.2
560.316	20154.02
560.679	20126.9
561.041	20241.25
561.404	20311.75
561.767	20452.32
562.129	20313.11
562.492	20551.3
562.854	20529.15
563.217	20459.55
563.579	20539.77
563.941	20617.96
564.304	20613.44
564.666	20822.25
565.028	20883.26
565.39	20874.45
565.753	20953.77
566.115	20980.44
566.477	21086.65
566.839	21194.44
567.201	21252.97
567.563	21331.61
567.925	21318.51
568.287	21294.78
568.648	21354.89
569.01	21506.75
569.372	21641.89
569.734	21552.85
570.095	21661.32
570.457	21696.12
570.819	21814.54
571.18	21785.61
571.542	21815.22
571.903	21850.47
572.265	21860.87
572.626	21922.11
572.987	22044.59
573.349	22116.68
573.71	22101.99
574.071	22180.63
574.432	22190.8
574.794	22466.05
575.155	22243
575.516	22291.36
575.877	22329.55
576.238	22414.07
576.599	22447.52
576.96	22475.09
577.32	22519.15
577.681	22582.43
578.042	22609.09
578.403	22539.04
578.763	22628.98
579.124	22590.56
579.485	22682.09
579.845	22706.95
580.206	22686.61
580.566	22737.23
580.927	22682.99
581.287	22825.13
581.648	22675.99
582.008	22855.87
582.368	22679.15
582.728	22845.7
583.089	22827.39
583.449	22900.84
583.809	22842.31
584.169	22824
584.529	22764.8
584.889	22908.3
585.249	22807.73
585.609	22812.71
585.969	22891.35
586.329	22799.82
586.688	22886.6
587.048	22945.36
587.408	22833.5
587.768	22847.96
588.127	22784.68
588.487	22782.65
588.846	22970.22
589.206	22888.64
589.565	22775.19
589.925	22935.64
590.284	22905.58
590.643	22798.69
591.003	22967.96
591.362	22961.4
591.721	22905.36
592.08	22906.26
592.44	22900.16
592.799	22966.6
593.158	22888.86
593.517	22936.32
593.876	22917.56
594.235	22824.91
594.593	22921.18
594.952	22944.68
595.311	22980.84
595.67	22916.66
596.029	23057.67
596.387	23089.31
596.746	23027.39
597.104	22916.43
597.463	22920.73
597.822	23015.64
598.18	22951.91
598.538	22894.29
598.897	23059.03
599.255	22895.41
599.613	23161.85
599.972	23033.72
600.33	23188.74
600.688	23021.97
601.046	23101.06
601.404	23107.61
601.762	23065.81
602.12	23266.93
602.478	23120.95
602.836	23182.19
603.194	23108.97
603.552	23089.08
603.91	23188.06
604.268	23295.18
604.625	23259.02
604.983	23195.07
605.341	23116.2
605.698	23275.29
606.056	23360.94
606.413	23260.15
606.771	23376.53
607.128	23396.42
607.485	23390.09
607.843	23329.53
608.2	23449.75
608.557	23504.66
608.914	23507.15
609.272	23563.42
609.629	23571.33
609.986	23793.7
610.343	23585.11
610.7	23785.79
611.057	23666.92
611.414	23717.99
611.771	23796.86
612.127	23864.65
612.484	23767.93
612.841	23985.1
613.198	23690.2
613.554	23705.11
613.911	23997.08
614.267	23983.3
614.624	23874.15
614.98	23925.44
615.337	24044.76
615.693	24066.23
616.05	24011.54
616.406	24226.45
616.762	24197.3
617.118	24079.56
617.475	24058.77
617.831	24166.57
618.187	24306.23
618.543	24287.92
618.899	24321.37
619.255	24256.51
619.611	24320.46
619.967	24447.46
620.323	24447.92
620.678	24416.73
621.034	24316.62
621.39	24333.8
621.746	24367.01
622.101	24561.81
622.457	24350.07
622.812	24425.32
623.168	24520
623.523	24487.92
623.879	24616.05
624.234	24454.92
624.589	24586.44
624.945	24526.11
625.3	24504.19
625.655	24576.5
626.01	24597.07
626.365	24571.98
626.72	24474.13
627.075	24609.95
627.43	24468.48
627.785	24469.84
628.14	24625.54
628.495	24670.51
628.85	24452.44
629.205	24461.02
629.559	24659.66
629.914	24554.13
630.269	24542.6
630.623	24563.85
630.978	24412.66
631.332	24522.72
631.687	24523.17
632.041	24466.67
632.396	24425.09
632.75	24365.88
633.104	24402.95
633.459	24274.14
633.813	24274.59
634.167	24340.57
634.521	24331.76
634.875	24409.95
635.229	24399.78
635.583	24115.72
635.937	24279.79
636.291	24259.22
636.645	24239.11
636.999	24133.12
637.352	24282.27
637.706	24019.23
638.06	24195.72
638.413	24046.35
638.767	24073.92
639.121	24124.54
639.474	24003.41
639.828	24017.19
640.181	24079.34
640.534	24079.79
640.888	23962.73
641.241	23792.34
641.594	23989.85
641.947	24045.44
642.301	23945.78
642.654	23986.46
643.007	23826.24
643.36	23985.33
643.713	23812.68
644.066	23940.59
644.419	23774.26
644.771	23610.88
645.124	23481.84
645.477	23362.75
645.83	23258.34
646.182	23143.32
646.535	23137.44
646.888	23202.75
647.24	22916.43
647.593	23029.65
647.945	23070.1
648.298	23023.1
648.65	22932.02
649.002	22831.46
649.355	22979.71
649.707	22943.55
650.059	23042.76
650.411	23260.15
650.763	23307.38
651.115	23482.97
651.467	23476.64
651.819	23337.21
652.171	23422.63
652.523	23385.8
652.875	23341.73
653.227	23299.92
653.578	23482.74
653.93	23434.38
654.282	23318
654.633	23217.44
654.985	23430.32
655.337	23205.01
655.688	23345.57
656.039	23474.16
656.391	23248.63
656.742	23260.83
657.094	23353.48
657.445	23351
657.796	23333.82
658.147	23321.62
658.498	23299.7
658.849	23273.94
659.2	23230.1
659.551	23275.74
659.902	23416.08
660.253	23351.67
660.604	23379.24
660.955	23206.82
661.306	23319.81
661.656	23339.47
662.007	23334.95
662.358	23364.33
662.708	23351.22
663.059	23322.75
663.409	23143.54
663.76	23307.38
664.11	23280.04
664.461	23318.45
664.811	23242.75
665.161	23308.96
665.511	23249.76
665.862	23296.31
666.212	23326.59
666.562	23446.81
666.912	23237.1
667.262	23295.63
667.612	23316.19
667.962	23314.16
668.312	23352.13
668.662	23401.39
669.011	23454.5
669.361	23164.56
669.711	23257.89
670.06	23181.96
670.41	23115.3
670.76	23068.74
671.109	23208.18
671.459	23192.13
671.808	23129.08
672.157	23287.04
672.507	23057.44
672.856	23106.71
673.205	23190.77
673.554	23174.28
673.904	23049.76
674.253	23173.15
674.602	23058.35
674.951	22744.01
675.3	22633.05
675.649	22976.77
675.998	23060.16
676.346	22966.83
676.695	23000.27
677.044	22933.15
677.393	22977.67
677.741	22949.88
678.09	22942.65
678.438	22798.69
678.787	22843.21
679.135	22842.76
679.484	22706.95
679.832	22850.67
680.181	22737
680.529	22801.41
680.877	22779.03
681.225	22678.92
681.573	22806.6
681.922	22611.35
682.27	22615.2
682.618	22593.5
682.966	22512.37
683.314	22491.36
683.661	22472.38
684.009	22328.2
684.357	22319.84
684.705	22283.23
685.053	22279.16
685.4	22230.12
685.748	22116.9
686.095	22046.4
686.443	22078.04
686.79	22022.9
687.138	22050.01
687.485	21949.45
687.832	21878.27
688.18	21863.8
688.527	21765.05
688.874	21758.27
689.221	21734.77
689.568	21686.18
689.915	21558.73
690.262	21522.8
690.609	21633.3
690.956	21302.01
691.303	21301.56
691.65	21212.3
691.997	21250.71
692.344	21152.64
692.69	21160.32
693.037	21219.53
693.383	21071.96
693.73	21082.36
694.077	20928.91
694.423	20969.36
694.769	20908.8
695.116	20748.13
695.462	20776.83
695.808	20856.82
696.155	20717.62
696.501	20490.51
696.847	20521.24
697.193	20261.36
697.539	20420.9
697.885	20290.96
698.231	20196.5
698.577	20274.69
698.923	20062.5
699.269	20019.56
699.614	19894.36
699.96	19921.03
700.306	19863.86
700.651	19862.95
700.997	19700.47
701.342	19756.51
701.688	19705.67
702.033	19580.02
702.379	19523.07
702.724	19390.2
703.069	19526.69
703.415	19287.6
703.76	19252.12
704.105	19238.11
704.45	19299.58
704.795	19126.93
705.14	19093.26
705.485	19003.99
705.83	18953.37
706.175	18949.3
706.52	18859.81
706.865	18769.42
707.209	18785.69
707.554	18756.54
707.899	18728.29
708.243	18626.6
708.588	18565.81
708.932	18437.23
709.277	18519.71
709.621	18408.3
709.966	18362.65
710.31	18343.9
710.654	18210.57
710.998	18273.84
711.342	18203.56
711.687	18127.63
712.031	18102.32
712.375	18062.32
712.719	18146.16
713.063	17969.67
713.407	18064.13
713.75	17872.72
714.094	17905.49
714.438	17867.98
714.782	17952.49
715.125	17770.58
715.469	17833.18
715.812	17712.95
716.156	17579.17
716.499	17672.73
716.843	17717.7
717.186	17577.14
717.53	17623.46
717.873	17629.79
718.216	17516.12
718.559	17454.65
718.902	17369.68
719.246	17377.37
719.589	17375.11
719.932	17341.66
720.275	17273.19
720.617	17259.4
720.96	17313.41
721.303	17302.57
721.646	17179.63
721.989	17152.52
722.331	17230.48
722.674	17103.93
723.016	17091.95
723.359	17115
723.701	17075.91
724.044	16977.6
724.386	17002.24
724.729	17009.92
725.071	16963.59
725.413	17023.48
725.755	16875.01
726.097	16886.08
726.439	16810.6
726.782	16821.68
727.124	16850.6
727.465	16738.06
727.807	16825.97
728.149	16788.68
728.491	16722.02
728.833	16771.96
729.175	16719.76
729.516	16622.81
729.858	16682.24
730.199	16621.23
730.541	16625.98
730.882	16625.75
731.224	16652.19
731.565	16584.85
731.906	16520.89
732.248	16626.88
732.589	16506.66
732.93	16504.4
733.271	16472.08
733.612	16526.77
733.953	16554.56
734.294	16446.09
734.635	16451.29
734.976	16499.2
735.317	16382.14
735.658	16541.91
735.999	16439.54
736.339	16510.95
736.68	16516.37
737.021	16325.64
737.361	16348.69
737.702	16466.88
738.042	16397.28
738.383	16379.65
738.723	16387.56
739.063	16300.11
739.404	16397.73
739.744	16381.01
740.084	16230.96
740.424	16359.54
740.764	16289.49
741.104	16339.66
741.444	16267.57
741.784	16191.86
742.124	16388.69
742.464	16237.51
742.804	16322.03
743.143	16251.52
743.483	16333.1
743.823	16239.54
744.162	16322.93
744.502	16373.78
744.841	16307.79
745.181	16383.5
745.52	16224.86
745.86	16416.94
746.199	16399.31
746.538	16400.44
746.877	16487.67
747.216	16473.44
747.556	16537.39
747.895	16600.89
748.234	16515.47
748.573	16618.97
748.911	16572.87
749.25	16600.67
749.589	16546.2
749.928	16727.89
750.267	16720.44
750.605	16783.49
750.944	16806.54
751.283	16807.89
751.621	16831.62
751.96	16801.79
752.298	16978.06
752.636	17037.26
752.975	16986.87
753.313	17013.54
753.651	17123.59
753.989	17071.39
754.327	17186.19
754.666	17180.99
755.004	17319.29
755.342	17428.89
755.679	17479.74
756.017	17426.18
756.355	17566.52
756.693	17540.53
757.031	17706.62
757.368	17681.31
