Data from hue_240_FLMS001491_00004.txt Node
Date: Tue Feb 07 16:34:58 GMT 2017
User: dcchb
Spectrometer: FLMS00149
Trigger mode: 0
Integration Time (sec): 2.000000E-2
Scans to average: 10
Electric dark correction enabled: true
Nonlinearity correction enabled: false
Boxcar width: 0
XAxis mode: Wavelengths
Number of Pixels in Spectrum: 2048
>>>>>Begin Spectral Data<<<<<
341.393	-36.81
341.776	-36.81
342.16	-36.81
342.543	-52.85
342.927	-60.54
343.31	-99.18
343.693	-76.58
344.077	-75.22
344.46	-52.85
344.843	-54.66
345.226	-42.91
345.61	-2.91
345.993	-12.85
346.376	5.68
346.759	-5.4
347.142	32.8
347.525	47.48
347.908	54.72
348.291	63.08
348.674	102.62
349.057	116.18
349.44	116.64
349.823	145.79
350.206	168.39
350.588	191.21
350.971	196.63
351.354	212.68
351.737	235.05
352.119	241.83
352.502	247.25
352.884	280.25
353.267	270.3
353.65	266.69
354.032	280.7
354.414	302.39
354.797	304.65
355.179	297.87
355.562	296.74
355.944	296.07
356.326	319.79
356.709	326.12
357.091	336.06
357.473	345.56
357.855	321.38
358.238	335.39
358.62	344.88
359.002	314.82
359.384	340.36
359.766	314.37
360.148	340.58
360.53	333.35
360.912	322.28
361.294	312.11
361.676	320.7
362.057	312.11
362.439	326.12
362.821	322.05
363.203	318.89
363.584	321.6
363.966	337.19
364.348	309.4
364.729	301.94
365.111	315.73
365.493	302.39
365.874	312.56
366.256	306.91
366.637	294.71
367.019	291.55
367.4	310.08
367.781	302.62
368.163	330.42
368.544	312.56
368.925	301.94
369.306	308.27
369.688	300.36
370.069	301.26
370.45	292.45
370.831	307.59
371.212	324.77
371.593	313.47
371.974	306.69
372.355	298.33
372.736	314.82
373.117	320.02
373.498	295.61
373.879	296.52
374.26	324.99
374.641	324.54
375.021	318.44
375.402	321.83
375.783	303.52
376.163	320.02
376.544	309.4
376.925	316.4
377.305	323.18
377.686	321.15
378.066	324.31
378.447	322.73
378.827	315.73
379.208	327.03
379.588	313.92
379.968	309.17
380.349	334.71
380.729	329.51
381.109	336.06
381.489	355.73
381.87	341.49
382.25	339
382.63	331.54
383.01	336.06
383.39	341.71
383.77	343.75
384.15	334.03
384.53	324.99
384.91	334.48
385.29	348.49
385.67	345.1
386.049	338.78
386.429	338.1
386.809	357.76
387.189	353.24
387.568	346.91
387.948	350.75
388.328	356.18
388.707	352.34
389.087	343.52
389.466	360.7
389.846	354.37
390.225	365.67
390.605	360.7
390.984	352.56
391.363	355.05
391.743	376.29
392.122	363.63
392.501	365.67
392.881	367.7
393.26	395.5
393.639	348.72
394.018	364.31
394.397	405.44
394.776	375.84
395.155	379
395.534	389.4
395.913	368.83
396.292	382.39
396.671	390.53
397.05	403.41
397.429	389.4
397.808	373.13
398.186	391.88
398.565	399.34
398.944	401.15
399.323	393.01
399.701	409.51
400.08	397.76
400.458	404.54
400.837	395.05
401.215	407.02
401.594	412.22
401.972	387.81
402.351	419.45
402.729	415.16
403.107	404.76
403.486	436.63
403.864	436.63
404.242	434.82
404.62	427.59
404.999	433.01
405.377	421.71
405.755	452.9
406.133	441.15
406.511	439.34
406.889	441.82
407.267	449.51
407.645	444.76
408.023	451.09
408.401	461.03
408.779	481.37
409.156	485.67
409.534	473.24
409.912	484.76
410.29	507.81
410.667	511.2
411.045	511.2
411.422	532.44
411.8	523.63
412.178	517.53
412.555	529.73
412.933	534.03
413.31	539.9
413.687	549.84
414.065	537.64
414.442	549.39
414.819	546.23
415.197	570.41
415.574	578.54
415.951	584.65
416.328	582.61
416.705	588.04
417.082	590.97
417.46	604.31
417.837	590.97
418.214	624.19
418.591	604.53
418.967	629.84
419.344	616.96
419.721	637.75
420.098	657.19
420.475	669.16
420.852	666
421.228	669.62
421.605	662.16
421.982	689.73
422.358	690.86
422.735	724.3
423.111	713
423.488	704.64
423.864	738.99
424.241	736.51
424.617	745.55
424.994	739.22
425.37	740.57
425.746	761.36
426.123	817.18
426.499	782.38
426.875	781.02
427.251	822.83
427.627	838.2
428.003	840.23
428.379	832.1
428.756	845.2
429.132	868.25
429.507	857.41
429.883	864.19
430.259	898.99
430.635	879.78
431.011	870.06
431.387	930.63
431.763	944.18
432.138	937.86
432.514	915.48
432.89	997.06
433.265	984.41
433.641	1002.71
434.016	993.67
434.392	1025.54
434.767	1040.45
435.143	1021.92
435.518	1071.19
435.894	1077.06
436.269	1061.92
436.644	1107.34
437.02	1135.37
437.395	1148.25
437.77	1143.73
438.145	1172.65
438.52	1189.83
438.895	1204.97
439.271	1174.46
439.646	1216.95
440.021	1265.53
440.395	1257.17
440.77	1236.61
441.145	1263.5
441.52	1289.26
441.895	1292.42
442.27	1315.7
442.645	1304.63
443.019	1321.58
443.394	1353.66
443.769	1365.19
444.143	1334
444.518	1391.63
444.892	1389.6
445.267	1413.1
445.641	1395.92
446.016	1402.48
446.39	1430.05
446.764	1428.92
447.139	1403.83
447.513	1483.15
447.887	1461.01
448.262	1471.85
448.636	1454.23
449.01	1454.45
449.384	1494.68
449.758	1502.14
450.132	1459.88
450.506	1555.24
450.88	1542.36
451.254	1543.04
451.628	1558.18
452.002	1587.56
452.376	1616.26
452.75	1591.17
453.123	1639.53
453.497	1624.17
453.871	1660.1
454.244	1695.8
454.618	1684.96
454.992	1674.79
455.365	1724.95
455.739	1742.81
456.112	1759.3
456.486	1768.57
456.859	1772.86
457.232	1839.53
457.606	1810.6
457.979	1843.82
458.352	1865.52
458.725	1870.49
459.099	1896.7
459.472	1962.24
459.845	1969.24
460.218	1966.3
460.591	1994.78
460.964	1976.7
461.337	2035
461.71	2031.61
462.083	2075.45
462.456	2091.27
462.829	2073.19
463.201	2112.52
463.574	2114.77
463.947	2173.3
464.32	2164.72
464.692	2217.37
465.065	2233.19
465.438	2272.51
465.81	2302.11
466.183	2299.85
466.555	2341.21
466.928	2353.41
467.3	2381.66
467.672	2412.85
468.045	2421.66
468.417	2441.32
468.789	2452.17
469.161	2524.26
469.534	2520.41
469.906	2580.75
470.278	2620.07
470.65	2646.29
471.022	2665.04
471.394	2689.45
471.766	2704.82
472.138	2726.74
472.51	2814.42
472.882	2863.46
473.253	2844.7
473.625	2894.87
473.997	2924.25
474.369	2948.65
474.74	2980.06
475.112	3035.43
475.484	3100.74
475.855	3109.1
476.227	3145.03
476.598	3256.21
476.97	3271.13
477.341	3343.44
477.713	3342.54
478.084	3411.46
478.455	3432.03
478.827	3439.03
479.198	3576.88
479.569	3566.94
479.94	3674.06
480.311	3672.7
480.682	3728.74
481.053	3782.3
481.424	3854.62
481.795	3897.55
482.166	3941.62
482.537	3956.76
482.908	4033.82
483.279	4090.54
483.65	4171.67
484.021	4195.62
484.391	4254.83
484.762	4285.79
485.133	4320.82
485.503	4359.46
485.874	4457.54
486.244	4493.02
486.615	4555.16
486.985	4610.53
487.356	4637.87
487.726	4714.48
488.097	4767.13
488.467	4830.86
488.837	4864.31
489.207	4956.73
489.578	4990.18
489.948	5012.78
490.318	5111.76
490.688	5133.23
491.058	5160.57
491.428	5230.17
491.798	5245.99
492.168	5332.54
492.538	5364.86
492.908	5382.49
493.278	5445.53
493.648	5442.6
494.017	5564.4
494.387	5542.71
494.757	5581.12
495.126	5668.58
495.496	5639.65
495.866	5673.1
496.235	5754.45
496.605	5767.79
496.974	5816.37
497.344	5866.09
497.713	5892.3
498.082	5903.15
498.452	5992.41
498.821	5964.17
499.19	5996.03
499.559	6074.22
499.928	6036.03
500.298	6099.75
500.667	6182.69
501.036	6164.61
501.405	6142.01
501.774	6163.71
502.143	6240.77
502.512	6238.73
502.88	6265.17
503.249	6280.54
503.618	6311.73
503.987	6346.98
504.356	6373.87
504.724	6389.01
505.093	6396.47
505.462	6432.63
505.83	6427.43
506.199	6481.44
506.567	6533.19
506.936	6526.18
507.304	6653.86
507.672	6584.04
508.041	6608.44
508.409	6619.97
508.777	6681.21
509.145	6684.6
509.514	6686.86
509.882	6732.28
510.25	6789.91
510.618	6777.93
510.986	6746.97
511.354	6772.51
511.722	6873.52
512.09	6883.24
512.458	6850.02
512.826	6880.53
513.193	6851.83
513.561	6880.07
513.929	6981.77
514.297	7001.65
514.664	7057.02
515.032	7040.75
515.4	7129.33
515.767	7029
516.135	7079.39
516.502	6999.39
516.869	7106.06
517.237	7130.69
517.604	7152.61
517.972	7143.57
518.339	7148.54
518.706	7146.96
519.073	7185.83
519.44	7176.79
519.808	7195.77
520.175	7173.17
520.542	7284.36
520.909	7247.3
521.276	7229.22
521.643	7344.02
522.009	7350.12
522.376	7319.16
522.743	7287.07
523.11	7437.12
523.477	7441.64
523.843	7524.12
524.21	7486.39
524.577	7503.56
524.943	7516.21
525.31	7534.29
525.676	7604.12
526.043	7616.78
526.409	7624.69
526.776	7691.13
527.142	7594.86
527.508	7642.31
527.874	7731.12
528.241	7703.1
528.607	7705.36
528.973	7701.75
529.339	7736.55
529.705	7751.46
530.071	7755.3
530.437	7755.08
530.803	7868.07
531.169	7809.99
531.535	7772.25
531.901	7826.72
532.267	7781.29
532.632	7861.29
532.998	7827.17
533.364	7810.22
533.73	7836.21
534.095	7812.25
534.461	7829.65
534.826	7907.16
535.192	7842.99
535.557	7910.55
535.923	7830.78
536.288	7844.79
536.653	7813.16
537.019	7807.05
537.384	7818.81
537.749	7779.94
538.114	7828.07
538.479	7771.35
538.845	7831.46
539.21	7781.74
539.575	7770.45
539.94	7804.12
540.305	7799.15
540.67	7812.48
541.034	7798.02
541.399	7813.83
541.764	7771.58
542.129	7777.22
542.494	7784.91
542.858	7736.1
543.223	7762.31
543.587	7761.86
543.952	7683.22
544.316	7742.42
544.681	7692.48
545.045	7778.81
545.41	7671.24
545.774	7708.3
546.138	7684.8
546.503	7722.54
546.867	7706.72
547.231	7713.72
547.595	7714.85
547.959	7739.03
548.324	7661.75
548.688	7623.1
549.052	7681.18
549.416	7712.82
549.779	7646.83
550.143	7645.25
550.507	7668.75
550.871	7624.23
551.235	7687.74
551.599	7645.7
551.962	7669.21
552.326	7623.56
552.689	7673.05
553.053	7626.49
553.417	7691.58
553.78	7645.7
554.143	7632.14
554.507	7673.5
554.87	7646.38
555.234	7702.2
555.597	7651.58
555.96	7589.43
556.323	7664.69
556.686	7629.43
557.05	7684.12
557.413	7717.11
557.776	7711.92
558.139	7707.4
558.502	7702.42
558.865	7642.09
559.228	7707.17
559.59	7724.34
559.953	7759.82
560.316	7763.21
560.679	7768.86
561.041	7772.48
561.404	7767.06
561.767	7828.97
562.129	7780.61
562.492	7928.18
562.854	7880.5
563.217	7805.7
563.579	7830.33
563.941	7892.02
564.304	7907.84
564.666	7927.28
565.028	7952.36
565.39	7984.68
565.753	7952.36
566.115	7990.78
566.477	7993.94
566.839	7988.07
567.201	8022.42
567.563	8077.56
567.925	8071.23
568.287	8104.45
568.648	8071.68
569.01	8118.46
569.372	8197.33
569.734	8101.74
570.095	8194.84
570.457	8201.85
570.819	8190.32
571.18	8192.81
571.542	8246.14
571.903	8303.09
572.265	8281.17
572.626	8324.33
572.987	8283.2
573.349	8309.64
573.71	8334.27
574.071	8358.9
574.432	8467.15
574.794	8432.12
575.155	8413.14
575.516	8425.34
575.877	8444.33
576.238	8457.66
576.599	8551.44
576.96	8492.46
577.32	8567.03
577.681	8566.13
578.042	8501.27
578.403	8582.63
578.763	8580.37
579.124	8667.82
579.485	8637.32
579.845	8630.31
580.206	8656.98
580.566	8652.23
580.927	8668.95
581.287	8715.05
581.648	8695.17
582.008	8728.84
582.368	8748.27
582.728	8729.29
583.089	8706.92
583.449	8769.97
583.809	8770.19
584.169	8849.97
584.529	8767.03
584.889	8853.13
585.249	8814.94
585.609	8824.65
585.969	8868.5
586.329	8872.56
586.688	8852.22
587.048	8935.84
587.408	8873.24
587.768	8899.68
588.127	8956.4
588.487	8895.84
588.846	8962.96
589.206	8908.27
589.565	8878.66
589.925	8953.47
590.284	9000.47
590.643	9023.52
591.003	8926.35
591.362	9037.3
591.721	8985.55
592.08	8992.33
592.44	9013.58
592.799	9107.59
593.158	9014.48
593.517	9064.2
593.876	9091.09
594.235	9037.53
594.593	9093.8
594.952	9104.65
595.311	9092.67
595.67	9085.67
596.029	9069.62
596.387	9112.33
596.746	9087.47
597.104	9116.62
597.463	9157.08
597.822	9178.32
598.18	9126.34
598.538	9146.91
598.897	9174.25
599.255	9150.07
599.613	9237.98
599.972	9228.94
600.33	9202.95
600.688	9157.08
601.046	9222.16
601.404	9218.09
601.762	9262.61
602.12	9271.87
602.478	9261.71
602.836	9250.18
603.194	9243.4
603.552	9207.7
603.91	9203.4
604.268	9342.16
604.625	9255.15
604.983	9317.52
605.341	9230.29
605.698	9236.17
606.056	9259.9
606.413	9270.29
606.771	9289.5
607.128	9307.35
607.485	9297.86
607.843	9308.48
608.2	9350.06
608.557	9377.63
608.914	9323.4
609.272	9346.22
609.629	9413.57
609.986	9420.12
610.343	9413.57
610.7	9387.8
611.057	9402.49
611.414	9421.7
611.771	9439.78
612.127	9377.41
612.484	9468.93
612.841	9435.71
613.198	9428.03
613.554	9472.55
613.911	9507.12
614.267	9467.8
614.624	9461.25
614.98	9482.04
615.337	9563.39
615.693	9517.74
616.05	9531.08
616.406	9566.33
616.762	9528.14
617.118	9550.51
617.475	9592.54
617.831	9595.48
618.187	9604.52
618.543	9625.76
618.899	9627.12
619.255	9628.48
619.611	9607.69
619.967	9668.47
620.323	9668.47
620.678	9579.66
621.034	9623.96
621.39	9558.87
621.746	9655.59
622.101	9741.47
622.457	9618.98
622.812	9611.53
623.168	9667.57
623.523	9644.75
623.879	9680.23
624.234	9611.98
624.589	9585.54
624.945	9626.22
625.3	9604.52
625.655	9595.03
626.01	9635.93
626.365	9625.54
626.72	9573.79
627.075	9611.75
627.43	9609.04
627.785	9640
628.14	9561.36
628.495	9601.36
628.85	9604.75
629.205	9568.14
629.559	9534.92
629.914	9563.39
630.269	9567.46
630.623	9524.75
630.978	9515.26
631.332	9584.18
631.687	9556.61
632.041	9482.94
632.396	9548.93
632.75	9457.41
633.104	9494.92
633.459	9390.74
633.813	9479.55
634.167	9451.08
634.521	9353.68
634.875	9423.06
635.229	9426.22
635.583	9386
635.937	9382.38
636.291	9402.49
636.645	9405.66
636.999	9399.78
637.352	9381.7
637.706	9353.45
638.06	9408.59
638.413	9385.54
638.767	9265.32
639.121	9290.86
639.474	9275.72
639.828	9306.9
640.181	9275.49
640.534	9303.74
640.888	9263.97
641.241	9256.96
641.594	9262.38
641.947	9223.97
642.301	9213.57
642.654	9233.01
643.007	9181.48
643.36	9252.67
643.713	9186
644.066	9218.77
644.419	9112.56
644.771	9046.12
645.124	9095.61
645.477	9000.92
645.83	8955.27
646.182	8896.07
646.535	8889.06
646.888	8885.22
647.24	8802.73
647.593	8939.68
647.945	8877.76
648.298	8889.96
648.65	8815.39
649.002	8767.93
649.355	8835.95
649.707	8839.57
650.059	8876.41
650.411	8957.31
650.763	8985.33
651.115	9061.48
651.467	9047.7
651.819	9022.16
652.171	9067.13
652.523	9032.56
652.875	9051.09
653.227	8959.11
653.578	9009.28
653.93	9037.53
654.282	9054.71
654.633	8957.76
654.985	8984.2
655.337	9000.7
655.688	8953.01
656.039	9075.27
656.391	8858.78
656.742	8979.91
657.094	8985.1
657.445	9029.85
657.796	8965.44
658.147	8969.74
658.498	9012.67
658.849	9044.76
659.2	8976.74
659.551	8952.56
659.902	9025.33
660.253	9019.9
660.604	8986.68
660.955	8955.95
661.306	9001.37
661.656	8974.48
662.007	8963.86
662.358	8989.85
662.708	9010.19
663.059	9007.25
663.409	8953.01
663.76	8946.69
664.11	9024.2
664.461	9011.32
664.811	9036.17
665.161	8951.66
665.511	8983.07
665.862	8970.41
666.212	8960.92
666.562	9020.81
666.912	9035.72
667.262	9052.67
667.612	9000.24
667.962	9012.22
668.312	9031.66
668.662	9054.71
669.011	9010.64
669.361	8999.79
669.711	8975.61
670.06	8988.27
670.41	8889.51
670.76	8929.74
671.109	8953.92
671.459	8928.61
671.808	8975.16
672.157	9037.76
672.507	8925.22
672.856	8849.51
673.205	8953.01
673.554	8962.05
673.904	8845.45
674.253	8924.99
674.602	8978.78
674.951	8801.38
675.3	8732.91
675.649	8912.11
675.998	8810.19
676.346	8928.16
676.695	8927.7
677.044	8743.3
677.393	8878.66
677.741	8830.53
678.09	8823.53
678.438	8734.26
678.787	8754.37
679.135	8809.74
679.484	8738.33
679.832	8686.35
680.181	8703.08
680.529	8709.18
680.877	8693.58
681.225	8671.89
681.573	8706.01
681.922	8649.07
682.27	8583.98
682.618	8624.43
682.966	8641.83
683.314	8620.82
683.661	8552.57
684.009	8527.49
684.357	8558
684.705	8549.63
685.053	8517.32
685.4	8488.17
685.748	8507.38
686.095	8421.5
686.443	8416.08
686.79	8463.08
687.138	8495.85
687.485	8430.54
687.832	8389.64
688.18	8423.31
688.527	8334.05
688.874	8273.48
689.221	8273.48
689.568	8238
689.915	8227.16
690.262	8260.15
690.609	8188.51
690.956	8177.44
691.303	8180.83
691.65	8177.67
691.997	8095.41
692.344	8086.6
692.69	8068.97
693.037	8061.29
693.383	8019.7
693.73	8008.18
694.077	8008.86
694.423	8045.24
694.769	7943.77
695.116	7872.59
695.462	7919.82
695.808	7875.98
696.155	7838.47
696.501	7791.24
696.847	7789.65
697.193	7734.51
697.539	7694.29
697.885	7687.51
698.231	7625.59
698.577	7638.47
698.923	7717.34
699.269	7624.01
699.614	7567.74
699.96	7536.1
700.306	7536.1
700.651	7504.46
700.997	7417.46
701.342	7505.82
701.688	7484.35
702.033	7443.45
702.379	7390.57
702.724	7358.93
703.069	7387.4
703.415	7322.1
703.76	7323.23
704.105	7275.32
704.45	7297.24
704.795	7204.13
705.14	7192.16
705.485	7217.24
705.83	7174.3
706.175	7188.54
706.52	7159.84
706.865	7079.16
707.209	7098.15
707.554	7097.92
707.899	7102.67
708.243	7019.28
708.588	7015.44
708.932	6954.65
709.277	6950.81
709.621	7003.69
709.966	6913.97
710.31	6973.86
710.654	6866.06
710.998	6890.24
711.342	6817.25
711.687	6844.37
712.031	6784.71
712.375	6867.19
712.719	6814.54
713.063	6839.4
713.407	6873.29
713.75	6790.58
714.094	6765.73
714.438	6680.98
714.782	6730.47
715.125	6705.61
715.469	6758.04
715.812	6719.4
716.156	6702.22
716.499	6670.59
716.843	6679.63
717.186	6612.96
717.53	6671.72
717.873	6661.77
718.216	6656.12
718.559	6645.73
718.902	6578.84
719.246	6560.99
719.589	6608.67
719.932	6548.56
720.275	6604.37
720.617	6597.14
720.96	6575.22
721.303	6528.44
721.646	6576.8
721.989	6534.55
722.331	6492.29
722.674	6534.32
723.016	6553.08
723.359	6481.67
723.701	6501.1
724.044	6484.38
724.386	6392.85
724.729	6472.17
725.071	6469.46
725.413	6532.29
725.755	6464.49
726.097	6417.03
726.439	6404.83
726.782	6367.77
727.124	6447.09
727.465	6396.02
727.807	6412.74
728.149	6332.07
728.491	6369.35
728.833	6355.79
729.175	6363.48
729.516	6408.22
729.858	6351.73
730.199	6348.11
730.541	6327.32
730.882	6346.08
731.224	6428.79
731.565	6289.81
731.906	6268.34
732.248	6308.79
732.589	6308.79
732.93	6316.25
733.271	6317.38
733.612	6328.22
733.953	6294.78
734.294	6301.56
734.635	6328.45
734.976	6317.15
735.317	6351.95
735.658	6308.56
735.999	6344.49
736.339	6320.09
736.68	6368.67
737.021	6309.69
737.361	6320.54
737.702	6372.52
738.042	6284.38
738.383	6373.19
738.723	6363.7
739.063	6311.95
739.404	6384.27
739.744	6375.91
740.084	6324.61
740.424	6348.56
740.764	6343.14
741.104	6328.68
741.444	6347.43
741.784	6347.21
742.124	6356.47
742.464	6429.24
742.804	6356.02
743.143	6414.1
743.483	6423.36
743.823	6413.42
744.162	6435.79
744.502	6428.56
744.841	6445.73
745.181	6526.41
745.52	6477.37
745.86	6538.16
746.199	6580.19
746.538	6588.1
746.877	6645.28
747.216	6592.17
747.556	6615.67
747.895	6680.76
748.234	6643.47
748.573	6729.12
748.911	6778.16
749.25	6777.48
749.589	6829.23
749.928	6847.08
750.267	6859.51
750.605	6909.68
750.944	7030.58
751.283	7002.1
751.621	7117.81
751.96	7101.31
752.298	7178.6
752.636	7230.12
752.975	7260.18
753.313	7293.4
753.651	7411.58
753.989	7421.53
754.327	7495.2
754.666	7577.68
755.004	7672.37
755.342	7765.7
755.679	7812.7
756.017	7925.02
756.355	8005.69
756.693	8027.39
757.031	8122.3
757.368	8208.63
757.706	8287.72
758.044	8364.78
758.381	8510.76
758.719	8542.18
759.056	8675.96
759.394	8778.55
759.731	8844.54
760.068	8969.28
760.405	8999.11
760.743	9097.87
761.08	9267.58
761.417	9322.49
761.754	9404.07
762.091	9484.52
762.428	9578.76
762.765	9733.11
763.102	9827.79
763.438	9883.38
763.775	10007.67
764.112	10108.91
764.449	10225.75
764.785	10280.21
765.122	10356.14
765.458	10428.68
765.795	10503.25
766.131	10563.59
766.467	10615.34
766.804	10689.92
767.14	10797.71
767.476	10914.32
767.812	10901.66
768.148	11124.26
768.485	11086.52
768.821	11155.89
769.157	11275.21
769.492	11310.69
