Data from hue_36_FLMS001491_00014.txt Node
Date: Tue Feb 07 17:29:27 GMT 2017
User: dcchb
Spectrometer: FLMS00149
Trigger mode: 0
Integration Time (sec): 2.000000E-2
Scans to average: 10
Electric dark correction enabled: true
Nonlinearity correction enabled: false
Boxcar width: 0
XAxis mode: Wavelengths
Number of Pixels in Spectrum: 2048
>>>>>Begin Spectral Data<<<<<
341.393	-32.15
341.776	-32.15
342.16	-32.15
342.543	-53.16
342.927	-75.08
343.31	-79.15
343.693	-70.79
344.077	-59.04
344.46	-54.97
344.843	-51.81
345.226	-21.52
345.61	-24.91
345.993	-13.62
346.376	-10
346.759	21.86
347.142	25.03
347.525	46.95
347.908	52.37
348.291	58.02
348.674	85.59
349.057	95.99
349.44	110.9
349.823	154.97
350.206	154.97
350.588	178.92
350.971	199.94
351.354	234.29
351.737	235.64
352.119	252.14
352.502	279.48
352.884	278.58
353.267	291.46
353.65	281.97
354.032	279.03
354.414	319.26
354.797	308.41
355.179	331.46
355.562	324.68
355.944	320.84
356.326	325.13
356.709	314.06
357.091	338.24
357.473	335.98
357.855	349.31
358.238	340.05
358.62	333.72
359.002	345.02
359.384	336.88
359.766	335.53
360.148	345.92
360.53	343.21
360.912	342.99
361.294	338.47
361.676	322.19
362.057	327.39
362.439	344.34
362.821	320.61
363.203	331.01
363.584	339.82
363.966	331.23
364.348	314.74
364.729	317.68
365.111	320.16
365.493	321.97
365.874	297.79
366.256	314.06
366.637	315.42
367.019	314.96
367.4	330.1
367.781	333.49
368.163	314.51
368.544	313.61
368.925	301.86
369.306	326.04
369.688	319.71
370.069	306.15
370.45	308.41
370.831	307.28
371.212	323.32
371.593	322.19
371.974	293.72
372.355	315.64
372.736	311.8
373.117	317.22
373.498	314.74
373.879	322.19
374.26	330.33
374.641	319.26
375.021	312.48
375.402	324.45
375.783	302.99
376.163	308.18
376.544	313.16
376.925	323.32
377.305	328.97
377.686	314.74
378.066	334.17
378.447	331.91
378.827	351.57
379.208	336.88
379.588	320.39
379.968	312.03
380.349	344.79
380.729	340.27
381.109	341.18
381.489	340.27
381.87	310.9
382.25	347.5
382.63	354.28
383.01	340.73
383.39	353.15
383.77	342.99
384.15	326.26
384.53	365.36
384.91	337.11
385.29	325.36
385.67	328.07
386.049	336.88
386.429	345.25
386.809	356.32
387.189	349.09
387.568	352.48
387.948	336.88
388.328	363.55
388.707	362.19
389.087	338.47
389.466	364.45
389.846	383.66
390.225	363.78
390.605	371.01
390.984	373.72
391.363	349.76
391.743	373.04
392.122	379.59
392.501	381.4
392.881	378.24
393.26	374.62
393.639	376.43
394.018	352.7
394.397	364.45
394.776	362.87
395.155	362.19
395.534	386.83
395.913	373.72
396.292	380.05
396.671	396.32
397.05	393.38
397.429	384.79
397.808	371.46
398.186	370.78
398.565	381.85
398.944	381.18
399.323	367.39
399.701	377.33
400.08	383.89
400.458	410.78
400.837	402.64
401.215	400.61
401.594	382.31
401.972	417.56
402.351	387.96
402.729	394.28
403.107	407.62
403.486	416.66
403.864	406.49
404.242	411.23
404.62	412.36
404.999	418.92
405.377	435.41
405.755	407.84
406.133	434.73
406.511	421.63
406.889	398.35
407.267	418.24
407.645	410.55
408.023	423.89
408.401	412.14
408.779	430.21
409.156	437.9
409.534	434.28
409.912	460.95
410.29	447.84
410.667	451.46
411.045	450.78
411.422	449.2
411.8	462.98
412.178	449.65
412.555	451.91
412.933	454.39
413.31	454.85
413.687	449.88
414.065	474.96
414.442	468.63
414.819	466.6
415.197	473.6
415.574	478.35
415.951	470.67
416.328	497.78
416.705	468.86
417.082	473.38
417.46	468.63
417.837	486.71
418.214	486.71
418.591	502.98
418.967	506.6
419.344	486.03
419.721	480.83
420.098	496.43
420.475	499.14
420.852	516.09
421.228	541.85
421.605	519.03
421.982	523.55
422.358	531.23
422.735	524.45
423.111	510.21
423.488	539.59
423.864	513.6
424.241	536.88
424.617	540.27
424.994	527.84
425.37	532.81
425.746	565.13
426.123	550.21
426.499	550.21
426.875	556.31
427.251	565.35
427.627	531.68
428.003	570.32
428.379	584.11
428.756	566.26
429.132	611.9
429.507	602.19
429.883	571.68
430.259	583.66
430.635	584.56
431.011	598.35
431.387	610.77
431.763	615.75
432.138	613.26
432.514	620.94
432.89	647.84
433.265	643.77
433.641	630.89
434.016	630.89
434.392	643.77
434.767	668.17
435.143	654.16
435.518	654.62
435.894	667.04
436.269	703.2
436.644	660.49
437.02	663.2
437.395	690.55
437.77	648.97
438.145	691
438.52	699.36
438.895	683.77
439.271	700.94
439.646	718.57
440.021	718.12
440.395	712.69
440.77	701.17
441.145	721.73
441.52	711.11
441.895	720.38
442.27	721.05
442.645	729.42
443.019	761.73
443.394	742.75
443.769	756.99
444.143	734.16
444.518	768.96
444.892	733.03
445.267	754.95
445.641	770.54
446.016	756.76
446.39	769.41
446.764	776.19
447.139	779.58
447.513	771.9
447.887	790.21
448.262	785.46
448.636	780.04
449.01	825.91
449.384	810.32
449.758	828.17
450.132	820.03
450.506	797.44
450.88	827.27
451.254	804.67
451.628	836.98
452.002	842.41
452.376	889.86
452.75	858.23
453.123	862.29
453.497	856.42
453.871	873.37
454.244	900.48
454.618	892.12
454.992	906.36
455.365	900.48
455.739	938
456.112	925.12
456.486	942.29
456.859	916.98
457.232	982.52
457.606	954.49
457.979	961.5
458.352	978
458.725	1004.89
459.099	1006.92
459.472	988.39
459.845	1004.89
460.218	1008.5
460.591	1023.87
460.964	1028.62
461.337	1062.06
461.71	1076.07
462.083	1085.34
462.456	1083.08
462.829	1100.03
463.201	1137.54
463.574	1148.39
463.947	1126.92
464.32	1181.16
464.692	1152.68
465.065	1169.86
465.438	1206.24
465.81	1210.31
466.183	1232.68
466.555	1245.11
466.928	1268.84
467.3	1264.32
467.672	1277.2
468.045	1309.29
468.417	1319.46
468.789	1317.65
469.161	1338.44
469.534	1368.72
469.906	1404.88
470.278	1401.71
470.65	1416.18
471.022	1464.31
471.394	1510.64
471.766	1497.08
472.138	1533.69
472.51	1546.8
472.882	1589.73
473.253	1621.14
473.625	1636.28
473.997	1676.06
474.369	1702.5
474.74	1772.55
475.112	1762.84
475.484	1806.9
475.855	1825.43
476.227	1874.92
476.598	1961.47
476.97	1953.11
477.341	2000.12
477.713	2010.74
478.084	2055.93
478.455	2158.53
478.827	2189.72
479.198	2255.48
479.569	2298.19
479.94	2347.45
480.311	2421.8
480.682	2479.88
481.053	2544.06
481.424	2653.66
481.795	2675.58
482.166	2688.69
482.537	2793.09
482.908	2867.89
483.279	2926.87
483.65	3020.88
484.021	3104.95
484.391	3189.46
484.762	3251.38
485.133	3316.24
485.503	3405.5
485.874	3464.71
486.244	3539.51
486.615	3667.42
486.985	3752.61
487.356	3840.52
487.726	3894.08
488.097	4042.78
488.467	4101.53
488.837	4200.06
489.207	4282.32
489.578	4303.56
489.948	4498.81
490.318	4544
490.688	4661.29
491.058	4757.56
491.428	4826.03
491.798	4948.51
492.168	5022.41
492.538	5120.26
492.908	5223.31
493.278	5354.15
493.648	5409.52
494.017	5554.15
494.387	5561.83
494.757	5728.83
495.126	5795.95
495.496	5905.32
495.866	5977.41
496.235	6057.64
496.605	6207.92
496.974	6163.4
497.344	6295.82
497.713	6356.39
498.082	6473.9
498.452	6610.84
498.821	6604.29
499.19	6707.34
499.559	6804.28
499.928	6884.06
500.298	6955.69
500.667	7094.9
501.036	7090.38
501.405	7135.12
501.774	7244.5
502.143	7274.33
502.512	7406.08
502.88	7504.6
503.249	7496.24
503.618	7578.95
503.987	7632.29
504.356	7748.44
504.724	7844.93
505.093	7870.7
505.462	7970.36
505.83	8014.42
506.199	8103.23
506.567	8203.57
506.936	8230.46
507.304	8296
507.672	8340.52
508.041	8402.43
508.409	8495.31
508.777	8548.42
509.145	8629.55
509.514	8712.93
509.882	8746.38
510.25	8838.13
510.618	8893.95
510.986	8895.3
511.354	9021.18
511.722	9135.3
512.09	9217.55
512.458	9184.33
512.826	9293.03
513.193	9331
513.561	9448.28
513.929	9404.89
514.297	9515.4
514.664	9578.45
515.032	9628.16
515.4	9707.03
515.767	9718.11
516.135	9783.87
516.502	9722.17
516.869	9987.93
517.237	9983.18
517.604	10039.23
517.972	10076.51
518.339	10124.2
518.706	10245.32
519.073	10238.54
519.44	10333.68
519.808	10395.15
520.175	10412.78
520.542	10457.07
520.909	10595.82
521.276	10582.26
521.643	10738.64
522.009	10686.44
522.376	10784.74
522.743	10862.93
523.11	11007.11
523.477	11036.04
523.843	11036.04
524.21	11192.64
524.577	11303.38
524.943	11293.21
525.31	11392.64
525.676	11492.3
526.043	11553.54
526.409	11637.6
526.776	11636.25
527.142	11831.27
527.508	11809.58
527.874	11979.06
528.241	11947.43
528.607	11983.36
528.973	12085.5
529.339	12156.91
529.705	12167.31
530.071	12353.29
530.437	12320.52
530.803	12461.54
531.169	12513.29
531.535	12454.76
531.901	12554.64
532.267	12629.89
532.632	12747.86
532.998	12757.12
533.364	12846.39
533.73	12910.79
534.095	13037.34
534.461	13016.1
534.826	13093.16
535.192	13157.79
535.557	13252.25
535.923	13257.67
536.288	13306.26
536.653	13390.1
537.019	13372.47
537.384	13472.36
537.749	13478.01
538.114	13589.42
538.479	13571.56
538.845	13715.74
539.21	13680.04
539.575	13744.67
539.94	13787.15
540.305	13870.31
540.67	13883.65
541.034	13974.72
541.399	14064.21
541.764	14001.16
542.129	14122.06
542.494	14181.94
542.858	14157.09
543.223	14215.39
543.587	14394.37
543.952	14376.06
544.316	14436.4
544.681	14402.73
545.045	14478.66
545.41	14528.15
545.774	14723.85
546.138	14715.04
546.503	14722.04
546.867	14741.25
547.231	14830.06
547.595	14903.51
547.959	14931.08
548.324	14923.39
548.688	14960.68
549.052	15140.34
549.416	15134.91
549.779	15114.57
550.143	15200.9
550.507	15243.61
550.871	15293.55
551.235	15349.37
551.599	15483.83
551.962	15454.68
552.326	15532.19
552.689	15615.13
553.053	15623.94
553.417	15689.93
553.78	15771.96
554.143	15759.53
554.507	15890.6
554.87	15937.38
555.234	15954.55
555.597	15955.91
555.96	16035.23
556.323	16146.19
556.686	16123.59
557.05	16323.13
557.413	16219.18
557.776	16281.32
558.139	16531.49
558.502	16440.87
558.865	16454.65
559.228	16643.8
559.59	16606.74
559.953	16634.31
560.316	16823.68
560.679	16900.52
561.041	16921.31
561.404	17031.81
561.767	17123.56
562.129	17088.76
562.492	17333.27
562.854	17174.63
563.217	17128.31
563.579	17321.75
563.941	17430.67
564.304	17438.13
564.666	17586.37
565.028	17589.99
565.39	17618.24
565.753	17779.81
566.115	17742.75
566.477	17979.81
566.839	17948.17
567.201	17990.2
567.563	18109.3
567.925	18204.89
568.287	18134.61
568.648	18204.66
569.01	18342.96
569.372	18481.94
569.734	18545.22
570.095	18684.88
570.457	18592
570.819	18767.36
571.18	18756.29
571.542	18809.17
571.903	18926.68
572.265	19004.42
572.626	19052.32
572.987	19135.49
573.349	19219.1
573.71	19278.08
574.071	19455.7
574.432	19522.59
574.794	19653.89
575.155	19667.45
575.516	19636.72
575.877	19811.85
576.238	19934.56
576.599	20004.84
576.96	20084.16
577.32	20240.54
577.681	20468.33
578.042	20571.38
578.403	20559.18
578.763	20704.71
579.124	20748.78
579.485	21113.29
579.845	21238.48
580.206	21272.6
580.566	21388.31
580.927	21491.81
581.287	21715.08
581.648	21829.65
582.008	22103.54
582.368	22080.49
582.728	22313.26
583.089	22497.66
583.449	22667.6
583.809	22776.07
584.169	22950.75
584.529	23129.5
584.889	23404.75
585.249	23502.6
585.609	23500.57
585.969	23898.52
586.329	23987.56
586.688	24232.07
587.048	24533.76
587.408	24575.12
587.768	24771.27
588.127	25050.58
588.487	25186.4
588.846	25633.39
589.206	25690.57
589.565	25825.48
589.925	26247.16
590.284	26269.31
590.643	26575.52
591.003	26734.16
591.362	27117.87
591.721	27294.14
592.08	27479.22
592.44	27698.65
592.799	27979.32
593.158	28118.98
593.517	28473.32
593.876	28513.32
594.235	28717.83
594.593	29009.58
594.952	29204.83
595.311	29352.84
595.67	29687.3
596.029	30061.75
596.387	30263.78
596.746	30395.75
597.104	30404.12
597.463	30621.96
597.822	30968.17
598.18	31056.53
598.538	31247.71
598.897	31556.85
599.255	31496.29
599.613	32189.83
599.972	32065.32
600.33	32438.86
600.688	32428.02
601.046	32627.11
601.404	33005.18
601.762	33051.5
602.12	33390.25
602.478	33548.21
602.836	33818.72
603.194	33640.64
603.552	33901.65
603.91	33969.22
604.268	34344.58
604.625	34346.39
604.983	34666.38
605.341	34624.34
605.698	34804.23
606.056	35135.06
606.413	35120.6
606.771	35384.1
607.128	35486.47
607.485	35426.58
607.843	35696.63
608.2	35930.98
608.557	36285.54
608.914	36140.91
609.272	36371.87
609.629	36702.48
609.986	36755.81
610.343	36791.97
610.7	37238.96
611.057	37180.43
611.414	37301.56
611.771	37410.49
612.127	37708.1
612.484	37776.58
612.841	38009.11
613.198	37862.9
613.554	37920.75
613.911	38227.19
614.267	38299.95
614.624	38427.86
614.98	38556.9
615.337	38798.92
615.693	38775.65
616.05	38894.51
616.406	39186.48
616.762	39088.18
617.118	39159.37
617.475	39175.18
617.831	39397.1
618.187	39462.18
618.543	39584.44
618.899	39860.36
619.255	39780.82
619.611	39806.58
619.967	39883.87
620.323	40055.84
620.678	40041.15
621.034	40055.16
621.39	40114.59
621.746	40084.09
622.101	40575.6
622.457	40331.99
622.812	40429.39
623.168	40590.97
623.523	40672.55
623.879	40834.58
624.234	40563.17
624.589	40785.99
624.945	40798.87
625.3	41003.61
625.655	41036.38
626.01	40964.29
626.365	41018.3
626.72	40920
627.075	41094
627.43	40949.15
627.785	41083.16
628.14	41174.68
628.495	41278.86
628.85	41214.23
629.205	41097.62
629.559	41414.9
629.914	41182.36
630.269	41202.48
630.623	41113.44
630.978	41174.45
631.332	41371.29
631.687	41291.74
632.041	41167.45
632.396	41189.37
632.75	41196.6
633.104	41185.98
633.459	41235.02
633.813	41214.68
634.167	41254.68
634.521	41253.32
634.875	41367.9
635.229	41300.55
635.583	41065.98
635.937	41141.69
636.291	41248.35
636.645	41195.7
636.999	41178.3
637.352	41320.89
637.706	40985.76
638.06	41097.17
638.413	41086.77
638.767	41038.64
639.121	41076.6
639.474	40840.68
639.828	40809.94
640.181	40964.52
640.534	40933.33
640.888	41019.43
641.241	40837.29
641.594	40916.83
641.947	41007.23
642.301	40970.39
642.654	40856.27
643.007	41104.17
643.36	40942.37
643.713	40744.86
644.066	41000.22
644.419	40673.68
644.771	40355.94
645.124	40101.26
645.477	40084.09
645.83	39821.04
646.182	39700.59
646.535	39418.12
646.888	39742.85
647.24	39511.9
647.593	39749.86
647.945	39665.34
648.298	39442.52
648.65	39400.26
649.002	39324.33
649.355	39447.27
649.707	39430.32
650.059	39536.31
650.411	39968.16
650.763	40034.82
651.115	40425.55
651.467	40372.44
651.819	40549.84
652.171	40204.76
652.523	40105.78
652.875	40227.13
653.227	40160.92
653.578	40412.21
653.93	40345.78
654.282	40122.96
654.633	40057.2
654.985	40122.05
655.337	40110.08
655.688	40170.41
656.039	40251.31
656.391	39951.21
656.742	39968.84
657.094	39939.01
657.445	40167.25
657.796	40079.34
658.147	39995.05
658.498	39890.65
658.849	39982.85
659.2	39896.97
659.551	39819.24
659.902	39948.05
660.253	39930.19
660.604	39992.56
660.955	39789.63
661.306	40104.2
661.656	39956.18
662.007	39839.35
662.358	39840.93
662.708	39809.07
663.059	39863.98
663.409	39662.4
663.76	39921.61
664.11	39924.09
664.461	39938.33
664.811	39883.19
665.161	39843.87
665.511	39774.49
665.862	39826.24
666.212	39874.6
666.562	39865.34
666.912	39753.47
667.262	39815.85
667.612	39798.22
667.962	39767.71
668.312	39718.45
668.662	39882.06
669.011	39710.09
669.361	39715.74
669.711	39800.48
670.06	39738.79
670.41	39579.24
670.76	39638.45
671.109	39723.19
671.459	39724.55
671.808	39474.61
672.157	39708.05
672.507	39441.62
672.856	39437.32
673.205	39511.9
673.554	39612.91
673.904	39513.93
674.253	39727.71
674.602	39554.61
674.951	38981.97
675.3	38913.04
675.649	39374.05
675.998	39427.38
676.346	39529.98
676.695	39548.06
677.044	39268.97
677.393	39365.46
677.741	39438.23
678.09	39180.38
678.438	39220.83
678.787	39313.49
679.135	39356.87
679.484	39011.57
679.832	39249.76
680.181	38923.67
680.529	39084.34
680.877	38917.79
681.225	38950.78
681.573	39088.41
681.922	38848.41
682.27	38814.74
682.618	38768.19
682.966	38737.68
683.314	38732.71
683.661	38665.82
684.009	38464.92
684.357	38421.98
684.705	38302.89
685.053	38433.74
685.4	38380.4
685.748	38233.51
686.095	38173.86
686.443	38111.94
686.79	38052.5
687.138	38009.79
687.485	38103.8
687.832	37863.58
688.18	37992.62
688.527	37654.77
688.874	37680.76
689.221	37674.43
689.568	37660.2
689.915	37488.22
690.262	37452.29
690.609	37418.17
690.956	37380.88
691.303	37176.59
691.65	37014.79
691.997	37162.58
692.344	36898.86
692.69	36868.13
693.037	36861.35
693.383	36648.25
693.73	36684.18
694.077	36492.09
694.423	36504.07
694.769	36497.06
695.116	36298.65
695.462	36253
695.808	36100.24
696.155	36145.21
696.501	35874.48
696.847	35948.83
697.193	35712
697.539	35760.81
697.885	35476.3
698.231	35436.53
698.577	35608.27
698.923	35489.63
699.269	35222.75
699.614	35063.88
699.96	35017.55
700.306	35012.13
700.651	34808.75
700.997	34882.87
701.342	34730.78
701.688	34715.41
702.033	34696.88
702.379	34711.35
702.724	34448.76
703.069	34696.66
703.415	34300.51
703.76	34237.01
704.105	34240.63
704.45	34265.71
704.795	33911.59
705.14	33855.55
705.485	33762.45
705.83	33670.7
706.175	33761.09
706.52	33616.91
706.865	33485.16
707.209	33470.02
707.554	33432.96
707.899	33467.99
708.243	33277.49
708.588	33266.41
708.932	33039.3
709.277	32961.11
709.621	32975.57
709.966	32787.78
710.31	32892.64
710.654	32576.04
710.998	32617.39
711.342	32665.53
711.687	32561.8
712.031	32326.33
712.375	32336.72
712.719	32457.4
713.063	32312.54
713.407	32292.43
713.75	32103.51
714.094	32083.17
714.438	31952.32
714.782	32000.01
715.125	31860.35
715.469	32035.26
715.812	31770.41
716.156	31642.73
716.499	31555.5
716.843	31660.13
717.186	31323.64
717.53	31575.84
717.873	31554.59
718.216	31466.23
718.559	31449.96
718.902	31166.36
719.246	31164.1
719.589	31191.89
719.932	30919.13
720.275	30992.57
720.617	30910.54
720.96	30902.18
721.303	30835.29
721.646	30929.53
721.989	30663.77
722.331	30679.81
722.674	30674.84
723.016	30727.5
723.359	30642.75
723.701	30625.8
724.044	30534.06
724.386	30404.57
724.729	30582.64
725.071	30364.34
725.413	30414.74
725.755	30302.65
726.097	30202.77
726.439	30184.46
726.782	30211.8
727.124	30176.33
727.465	30137.91
727.807	29969.55
728.149	29864.24
728.491	29974.52
728.833	29870.34
729.175	29781.76
729.516	29805.49
729.858	29673.74
730.199	29634.19
730.541	29586.51
730.882	29579.73
731.224	29766.17
731.565	29501.99
731.906	29494.76
732.248	29489.11
732.589	29260.87
732.93	29286.63
733.271	29323.69
733.612	29291.15
733.953	29263.13
734.294	29193.3
734.635	29018.62
734.976	29163.92
735.317	29005.28
735.658	28914.21
735.999	28939.07
736.339	28963.02
736.68	28914.21
737.021	28819.07
737.361	28693.43
737.702	28843.7
738.042	28815.68
738.383	28695.23
738.723	28817.72
739.063	28667.21
739.404	28670.83
739.744	28584.95
740.084	28557.61
740.424	28417.95
740.764	28521.68
741.104	28527.1
741.444	28421.34
741.784	28318.52
742.124	28380.21
742.464	28253.44
742.804	28228.35
743.143	28093.22
743.483	28151.29
743.823	28123.27
744.162	28013.22
744.502	28136.83
744.841	27952.43
745.181	28082.82
745.52	27808.7
745.86	27909.72
746.199	27869.27
746.538	27790.63
746.877	27836.5
747.216	27823.39
747.556	27640.12
747.895	27738.65
748.234	27587.47
748.573	27575.49
748.911	27520.35
749.25	27423.63
749.589	27333.91
749.928	27458.88
750.267	27551.54
750.605	27325.33
750.944	27290.07
751.283	27197.65
751.621	27288.72
751.96	27117.87
752.298	27096.18
752.636	27130.53
752.975	27067.71
753.313	26879.01
753.651	26975.73
753.989	26839.92
754.327	26754.49
754.666	26683.31
755.004	26767.6
755.342	26836.53
755.679	26693.93
756.017	26395.18
756.355	26520.83
756.693	26367.39
757.031	26527.38
757.368	26340.04
