Data from hue_330_FLMS001491_52.txt Node
Date: Mon Feb 06 15:45:34 GMT 2017
User: dcchb
Spectrometer: FLMS00149
Trigger mode: 0
Integration Time (sec): 2.000000E-2
Scans to average: 10
Electric dark correction enabled: true
Nonlinearity correction enabled: false
Boxcar width: 0
XAxis mode: Wavelengths
Number of Pixels in Spectrum: 2048
>>>>>Begin Spectral Data<<<<<
341.393	-22.25
341.776	-22.25
342.16	-22.25
342.543	-62.7
342.927	-65.63
343.31	-66.09
343.693	-66.54
344.077	-55.01
344.46	-61.79
344.843	-62.24
345.226	-31.06
345.61	-45.52
345.993	-15.92
346.376	-15.92
346.759	21.82
347.142	26.79
347.525	38.32
347.908	48.26
348.291	72.67
348.674	93.91
349.057	118.32
349.44	124.87
349.823	145.66
350.206	162.83
350.588	182.04
350.971	224.98
351.354	224.75
351.737	255.26
352.119	251.19
352.502	246.67
352.884	283.74
353.267	269.72
353.65	297.97
354.032	291.19
354.414	323.96
354.797	310.4
355.179	305.66
355.562	329.84
355.944	319.67
356.326	342.94
356.709	330.74
357.091	333.23
357.473	324.64
357.855	333.45
358.238	337.97
358.62	337.52
359.002	331.19
359.384	346.11
359.766	336.84
360.148	347.69
360.53	336.39
360.912	339.33
361.294	303.4
361.676	320.57
362.057	339.33
362.439	328.03
362.821	318.76
363.203	340.23
363.584	323.28
363.966	313.34
364.348	321.7
364.729	321.25
365.111	314.24
365.493	326.45
365.874	336.62
366.256	322.38
366.637	298.2
367.019	314.92
367.4	318.31
367.781	293.45
368.163	311.31
368.544	300.46
368.925	315.83
369.306	325.77
369.688	314.24
370.069	292.55
370.45	307.92
370.831	312.21
371.212	302.94
371.593	306.11
371.974	330.74
372.355	331.42
372.736	322.83
373.117	315.37
373.498	312.44
373.879	291.87
374.26	317.41
374.641	307.92
375.021	330.74
375.402	318.31
375.783	304.75
376.163	337.97
376.544	324.64
376.925	336.62
377.305	326.22
377.686	318.76
378.066	309.5
378.447	326.67
378.827	327.58
379.208	345.2
379.588	331.42
379.968	330.97
380.349	326.9
380.729	338.65
381.109	326.9
381.489	333.23
381.87	321.02
382.25	352.89
382.63	340.23
383.01	341.81
383.39	338.2
383.77	357.63
384.15	336.84
384.53	342.27
384.91	356.73
385.29	346.56
385.67	352.66
386.049	344.52
386.429	350.4
386.809	341.81
387.189	337.52
387.568	355.82
387.948	347.91
388.328	365.54
388.707	365.99
389.087	353.11
389.466	341.81
389.846	357.63
390.225	352.66
390.605	351.53
390.984	370.51
391.363	364.41
391.743	370.51
392.122	369.16
392.501	383.39
392.881	375.71
393.26	382.94
393.639	383.17
394.018	384.3
394.397	365.77
394.776	370.96
395.155	366.67
395.534	386.78
395.913	386.11
396.292	369.61
396.671	401.92
397.05	374.58
397.429	391.3
397.808	394.47
398.186	397.63
398.565	401.02
398.944	391.3
399.323	402.15
399.701	410.96
400.08	405.09
400.458	411.87
400.837	400.57
401.215	396.27
401.594	405.31
401.972	413.45
402.351	411.42
402.729	427.69
403.107	439.89
403.486	422.26
403.864	416.16
404.242	431.08
404.62	430.62
404.999	439.21
405.377	411.64
405.755	425.88
406.133	440.12
406.511	429.95
406.889	428.82
407.267	448.48
407.645	459.32
408.023	456.61
408.401	468.59
408.779	449.15
409.156	455.26
409.534	478.08
409.912	488.02
410.29	469.04
410.667	480.34
411.045	478.98
411.422	489.83
411.8	463.84
412.178	496.16
412.555	495.71
412.933	517.4
413.31	520.79
413.687	517.18
414.065	517.85
414.442	541.13
414.819	516.95
415.197	536.38
415.574	560.34
415.951	555.14
416.328	558.98
416.705	569.83
417.082	575.25
417.46	569.6
417.837	582.71
418.214	572.32
418.591	616.83
418.967	618.42
419.344	592.2
419.721	610.28
420.098	595.59
420.475	632.88
420.852	627.46
421.228	648.47
421.605	652.54
421.982	628.13
422.358	620.68
422.735	645.99
423.111	651.18
423.488	675.36
423.864	672.43
424.241	684.18
424.617	698.41
424.994	697.51
425.37	711.29
425.746	697.74
426.123	698.19
426.499	696.83
426.875	728.02
427.251	723.27
427.627	760.33
428.003	760.56
428.379	761.91
428.756	783.38
429.132	789.71
429.507	776.15
429.883	792.65
430.259	798.07
430.635	796.72
431.011	814.79
431.387	834
431.763	808.69
432.138	819.31
432.514	831.74
432.89	849.37
433.265	855.92
433.641	862.93
434.016	902.48
434.392	879.88
434.767	893.21
435.143	919.42
435.518	904.74
435.894	925.07
436.269	930.72
436.644	943.61
437.02	942.48
437.395	915.13
437.77	962.59
438.145	965.3
438.52	955.36
438.895	985.19
439.271	983.15
439.646	1017.73
440.021	1021.34
440.395	1005.3
440.77	1015.24
441.145	1023.83
441.52	1041.46
441.895	1037.39
442.27	1071.51
442.645	1063.6
443.019	1064.05
443.394	1041.68
443.769	1074.45
444.143	1077.39
444.518	1100.21
444.892	1088.01
445.267	1095.47
445.641	1084.62
446.016	1101.57
446.39	1103.15
446.764	1106.09
447.139	1121
447.513	1104.96
447.887	1126.43
448.262	1122.36
448.636	1115.13
449.01	1124.84
449.384	1147.44
449.758	1152.19
450.132	1134.56
450.506	1156.93
450.88	1157.16
451.254	1164.39
451.628	1201.9
452.002	1171.62
452.376	1201.23
452.75	1166.42
453.123	1188.34
453.497	1203.26
453.871	1210.26
454.244	1243.48
454.618	1230.83
454.992	1236.93
455.365	1262.92
455.739	1292.75
456.112	1309.92
456.486	1281.9
456.859	1332.75
457.232	1316.93
457.606	1304.27
457.979	1322.58
458.352	1342.69
458.725	1349.7
459.099	1349.7
459.472	1395.8
459.845	1373.88
460.218	1412.97
460.591	1396.93
460.964	1406.87
461.337	1450.94
461.71	1476.47
462.083	1477.6
462.456	1458.62
462.829	1462.24
463.201	1503.36
463.574	1510.6
463.947	1524.61
464.32	1542.46
464.692	1532.29
465.065	1581.33
465.438	1541.1
465.81	1589.01
466.183	1565.51
466.555	1640.31
466.928	1663.59
467.3	1651.16
467.672	1703.81
468.045	1696.13
468.417	1691.83
468.789	1687.09
469.161	1723.47
469.534	1748.33
469.906	1762.79
470.278	1810.93
470.65	1800.76
471.022	1817.71
471.394	1862.68
471.766	1847.76
472.138	1873.98
472.51	1913.52
472.882	1924.6
473.253	1946.97
473.625	1979.28
473.997	2030.13
474.369	2032.16
474.74	2022.9
475.112	2055.21
475.484	2080.3
475.855	2111.94
476.227	2132.05
476.598	2176.34
476.97	2172.27
477.341	2248.43
477.713	2260.41
478.084	2298.6
478.455	2336.11
478.827	2344.92
479.198	2394.87
479.569	2363.68
479.94	2436.22
480.311	2468.54
480.682	2509.21
481.053	2551.02
481.424	2614.07
481.795	2616.78
482.166	2628.98
482.537	2683.67
482.908	2693.62
483.279	2695.42
483.65	2775.87
484.021	2801.86
484.391	2879.6
484.762	2856.32
485.133	2892.03
485.503	2910.11
485.874	3003.89
486.244	2988.3
486.615	3087.5
486.985	3086.6
487.356	3141.29
487.726	3132.7
488.097	3201.4
488.467	3185.13
488.837	3275.07
489.207	3248.86
489.578	3336.54
489.948	3366.82
490.318	3387.38
490.688	3407.5
491.058	3442.3
491.428	3464.89
491.798	3522.29
492.168	3581.28
492.538	3583.08
492.908	3628.51
493.278	3633.25
493.648	3658.56
494.017	3692.46
494.387	3771.78
494.757	3758.9
495.126	3836.41
495.496	3811.78
495.866	3832.79
496.235	3843.19
496.605	3816.07
496.974	3894.26
497.344	3932.23
497.713	3961.6
498.082	3970.64
498.452	4021.49
498.821	3976.52
499.19	3988.72
499.559	4081.6
499.928	4074.14
500.298	4123.63
500.667	4111.43
501.036	4126.57
501.405	4211.99
501.774	4206.57
502.143	4264.65
502.512	4202.28
502.88	4220.58
503.249	4256.96
503.618	4249.28
503.987	4309.39
504.356	4306.91
504.724	4287.7
505.093	4304.65
505.462	4341.71
505.83	4374.25
506.199	4376.51
506.567	4430.52
506.936	4456.96
507.304	4456.06
507.672	4559.1
508.041	4516.17
508.409	4508.71
508.777	4536.05
509.145	4554.58
509.514	4546.22
509.882	4584.19
510.25	4604.98
510.618	4578.76
510.986	4569.5
511.354	4629.61
511.722	4679.33
512.09	4691.3
512.458	4669.61
512.826	4715.48
513.193	4755.48
513.561	4744.41
513.929	4711.64
514.297	4784.18
514.664	4821.02
515.032	4824.41
515.4	4825.76
515.767	4860.79
516.135	4889.04
516.502	4807.01
516.869	4912.54
517.237	4964.52
517.604	4926.55
517.972	4946.66
518.339	4955.25
518.706	4980.34
519.073	4968.81
519.44	5021.24
519.808	5009.49
520.175	5055.59
520.542	5090.84
520.909	5104.63
521.276	5102.82
521.643	5139.65
522.009	5122.48
522.376	5169.48
522.743	5232.76
523.11	5247.67
523.477	5275.92
523.843	5263.72
524.21	5326.99
524.577	5299.2
524.943	5397.73
525.31	5358.63
525.676	5418.97
526.043	5419.87
526.409	5474.56
526.776	5492.41
527.142	5527.67
527.508	5538.06
527.874	5626.42
528.241	5631.17
528.607	5618.06
528.973	5704.61
529.339	5681.56
529.705	5735.57
530.071	5730.37
530.437	5776.47
530.803	5776.25
531.169	5874.32
531.535	5814.44
531.901	5887.66
532.267	5898.96
532.632	5929.24
532.998	5955.45
533.364	5967.43
533.73	5985.51
534.095	5982.79
534.461	5997.03
534.826	6020.53
535.192	6059.85
535.557	6143.47
535.923	6105.05
536.288	6149.12
536.653	6142.34
537.019	6169.91
537.384	6233.86
537.749	6266.63
538.114	6259.4
538.479	6301.43
538.845	6328.55
539.21	6357.25
539.575	6310.47
539.94	6401.09
540.305	6417.81
540.67	6440.18
541.034	6458.26
541.399	6533.51
541.764	6490.58
542.129	6540.29
542.494	6557.47
542.858	6589.56
543.223	6611.25
543.587	6644.92
543.952	6654.42
544.316	6665.94
544.681	6730.57
545.045	6721.98
545.41	6770.8
545.774	6810.34
546.138	6823
546.503	6833.62
546.867	6830.68
547.231	6911.81
547.595	6899.38
547.959	6961.98
548.324	6951.81
548.688	6962.2
549.052	6970.11
549.416	7024.12
549.779	7045.59
550.143	6991.81
550.507	7097.79
550.871	7152.03
551.235	7112.71
551.599	7114.74
551.962	7240.84
552.326	7267.28
552.689	7243.1
553.053	7215.08
553.417	7227.51
553.78	7350.67
554.143	7295.08
554.507	7365.36
554.87	7386.6
555.234	7491.68
555.597	7407.62
555.96	7445.58
556.323	7459.59
556.686	7493.26
557.05	7504.56
557.413	7465.24
557.776	7555.41
558.139	7592.7
558.502	7552.47
558.865	7674.28
559.228	7682.41
559.59	7663.43
559.953	7702.75
560.316	7782.97
560.679	7742.75
561.041	7792.01
561.404	7821.84
561.767	7905.46
562.129	7778.45
562.492	7957.43
562.854	7947.26
563.217	8003.98
563.579	8004.21
563.941	7987.94
564.304	8041.5
564.666	8051.21
565.028	8138.44
565.39	8084.66
565.753	8126.69
566.115	8157.2
566.477	8211.89
566.839	8191.55
567.201	8204.88
567.563	8305.22
567.925	8339.34
568.287	8361.72
568.648	8354.48
569.01	8445.33
569.372	8469.96
569.734	8464.54
570.095	8547.25
570.457	8534.14
570.819	8567.36
571.18	8608.26
571.542	8646
571.903	8736.17
572.265	8747.47
572.626	8810.74
572.987	8829.27
573.349	8846.67
573.71	8982.04
574.071	8911.31
574.432	9043.28
574.794	9174.35
575.155	9059.55
575.516	9107.46
575.877	9283.5
576.238	9298.41
576.599	9373.44
576.96	9534.57
577.32	9446.43
577.681	9649.82
578.042	9688.69
578.403	9758.06
578.763	9843.71
579.124	9915.35
579.485	10026.76
579.845	10179.52
580.206	10252.06
580.566	10318.73
580.927	10391.72
581.287	10578.61
581.648	10688.21
582.008	10874.19
582.368	10984.25
582.728	11170.68
583.089	11278.93
583.449	11515.76
583.809	11616.32
584.169	11812.47
584.529	11894.28
584.889	12207.94
585.249	12337.2
585.609	12489.97
585.969	12736.97
586.329	12900.35
586.688	13157.75
587.048	13321.58
587.408	13462.15
587.768	13760.22
588.127	13985.75
588.487	14254.22
588.846	14613.75
589.206	14674.32
589.565	15039.05
589.925	15286.28
590.284	15419.16
590.643	15739.15
591.003	16080.83
591.362	16324.67
591.721	16576.87
592.08	16885.78
592.44	17176.85
592.799	17507.46
593.158	17715.82
593.517	17936.83
593.876	18325.75
594.235	18593.08
594.593	18860.42
594.952	19212.96
595.311	19337.02
595.67	19803
596.029	20247.05
596.387	20430.1
596.746	20821.5
597.104	21023.08
597.463	21250.42
597.822	21609.5
598.18	21906.44
598.538	22164.97
598.897	22639.98
599.255	22647.44
599.613	23289.68
599.972	23356.35
600.33	23671.6
600.688	23942.1
601.046	24277.68
601.404	24625.24
601.762	24813.71
602.12	25176.87
602.478	25479.01
602.836	25813.69
603.194	25853.91
603.552	26235.14
603.91	26563.5
604.268	26838.52
604.625	27066.31
604.983	27393.31
605.341	27391.95
605.698	27729.79
606.056	28152.83
606.413	28258.59
606.771	28602.76
607.128	28760.73
607.485	28942.87
607.843	29100.38
608.2	29551.44
608.557	29938.1
608.914	29912.33
609.272	30205.43
609.629	30354.36
609.986	30761.58
610.343	30808.36
610.7	31277.27
611.057	31489.92
611.414	31578.51
611.771	31889.91
612.127	32113.86
612.484	32180.07
612.841	32623.9
613.198	32506.17
613.554	32806.04
613.911	33064.34
614.267	33240.61
614.624	33363.09
614.98	33669.3
615.337	33902.06
615.693	33939.57
616.05	34059.57
616.406	34329.17
616.762	34387.25
617.118	34453.91
617.475	34761.7
617.831	35049.15
618.187	35024.74
618.543	35226.77
618.899	35488.69
619.255	35633.54
619.611	35719.19
619.967	35902.23
620.323	36060.2
620.678	36103.13
621.034	35993.76
621.39	36209.8
621.746	36257.93
622.101	36673.97
622.457	36450.92
622.812	36717.13
623.168	36915.09
623.523	37026.27
623.879	37176.32
624.234	36942.88
624.589	37223.33
624.945	37213.84
625.3	37389.43
625.655	37408.64
626.01	37558.91
626.365	37706.71
626.72	37773.37
627.075	37720.72
627.43	37720.04
627.785	37839.13
628.14	37978.34
628.495	38034.16
628.85	37985.34
629.205	37965.68
629.559	38388.95
629.914	38105.79
630.269	38273.7
630.623	38183.08
630.978	38141.72
631.332	38434.37
631.687	38593.01
632.041	38389.85
632.396	38687.47
632.75	38321.83
633.104	38657.64
633.459	38440.7
633.813	38346.01
634.167	38574.93
634.521	38449.74
634.875	38568.6
635.229	38546.68
635.583	38410.64
635.937	38432.56
636.291	38415.39
636.645	38495.16
636.999	38473.69
637.352	38654.03
637.706	38344.66
638.06	38624.42
638.413	38444.54
638.767	38320.25
639.121	38418.78
639.474	38291.1
639.828	38475.95
640.181	38417.2
640.534	38475.95
640.888	38491.54
641.241	38339.46
641.594	38375.84
641.947	38608.83
642.301	38413.13
642.654	38499.23
643.007	38488.83
643.36	38444.09
643.713	38269.86
644.066	38520.47
644.419	38367.03
644.771	38064.66
645.124	37745.12
645.477	37676.88
645.83	37640.49
646.182	37380.61
646.535	37435.08
646.888	37374.51
647.24	37261.29
647.593	37442.98
647.945	37249.09
648.298	37328.41
648.65	37170.45
649.002	37162.54
649.355	37155.53
649.707	37323.67
650.059	37270.56
650.411	37786.7
650.763	37761.62
651.115	38297.65
651.467	37983.08
651.819	38035.74
652.171	37953.25
652.523	37886.14
652.875	37873.26
653.227	37707.16
653.578	38061.73
653.93	37952.35
654.282	37723.88
654.633	37653.6
654.985	37728.4
655.337	37762.52
655.688	37751.68
656.039	37866.93
656.391	37534.96
656.742	37602.53
657.094	37677.55
657.445	37757.33
657.796	37685.46
658.147	37655.41
658.498	37687.72
658.849	37710.1
659.2	37689.31
659.551	37602.08
659.902	37676.88
660.253	37697.89
660.604	37799.13
660.955	37569.53
661.306	37672.58
661.656	37649.31
662.007	37700.83
662.358	37571.12
662.708	37645.01
663.059	37616.54
663.409	37459.93
663.76	37696.54
664.11	37649.53
664.461	37708.97
664.811	37575.64
665.161	37685.92
665.511	37486.37
665.862	37749.64
666.212	37846.82
666.562	37650.89
666.912	37588.74
667.262	37544.22
667.612	37580.38
667.962	37616.31
668.312	37465.81
668.662	37599.36
669.011	37422.87
669.361	37402.76
669.711	37480.95
670.06	37483.66
670.41	37369.77
670.76	37498.58
671.109	37449.99
671.459	37398.92
671.808	37441.85
672.157	37423.32
672.507	37116.67
672.856	37259.03
673.205	37374.29
673.554	37429.2
673.904	37208.19
674.253	37380.39
674.602	37332.48
674.951	36897.91
675.3	36640.07
675.649	37209.09
675.998	37178.13
676.346	37048.64
676.695	37311.69
677.044	37012.26
677.393	37331.57
677.741	37047.97
678.09	37065.37
678.438	37066.72
678.787	36995.99
679.135	37033.96
679.484	36812.04
679.832	36920.74
680.181	36765.04
680.529	36778.14
680.877	36736.11
681.225	36797.58
681.573	36920.06
681.922	36715.32
682.27	36504.93
682.618	36589.67
682.966	36438.49
683.314	36537.92
683.661	36397.36
684.009	36332.28
684.357	36277.59
684.705	36248.67
685.053	36068.33
685.4	36172.06
685.748	36082.12
686.095	36071.95
686.443	35828.79
686.79	35647.33
687.138	35948.33
687.485	35894.1
687.832	35777.27
688.18	35770.94
688.527	35608.91
688.874	35498.4
689.221	35486.2
689.568	35382.25
689.915	35388.8
690.262	35413.89
690.609	35225.19
690.956	35044.63
691.303	35150.62
691.65	34878.76
691.997	34968.7
692.344	34762.15
692.69	34782.49
693.037	34757.86
693.383	34456.85
693.73	34553.34
694.077	34385.89
694.423	34487.81
694.769	34257.53
695.116	34298.66
695.462	34284.2
695.808	34076.29
696.155	34206.69
696.501	33855.96
696.847	33756.53
697.193	33656.87
697.539	33747.71
697.885	33441.51
698.231	33323.32
698.577	33396.54
698.923	33313.38
699.269	33105.02
699.614	33064.12
699.96	33030.45
700.306	32961.07
700.651	32952.71
700.997	32753.84
701.342	32791.58
701.688	32616.67
702.033	32601.53
702.379	32563.56
702.724	32449.44
703.069	32485.37
703.415	32109.57
703.76	32282.44
704.105	32297.81
704.45	32124.71
704.795	31961.55
705.14	31877.03
705.485	31838.39
705.83	31769.24
706.175	31603.82
706.52	31719.75
706.865	31534.67
707.209	31456.7
707.554	31398.17
707.899	31426.87
708.243	31213.54
708.588	31275.69
708.932	31119.31
709.277	31122.7
709.621	31014.9
709.966	30862.37
710.31	30966.54
710.654	30657.85
710.998	30810.39
711.342	30721.35
711.687	30543.5
712.031	30531.98
712.375	30393.9
712.719	30379.89
713.063	30405.88
713.407	30423.06
713.75	30355.26
714.094	30198.43
714.438	30116.4
714.782	30114.82
715.125	29992.78
715.469	30044.31
715.812	29831.66
716.156	29690.65
716.499	29820.13
716.843	29761.6
717.186	29532.01
717.53	29741.04
717.873	29720.7
718.216	29547.82
718.559	29518.9
718.902	29280.94
719.246	29275.29
719.589	29332.24
719.932	29139.47
720.275	29187.16
720.617	29092.7
720.96	29185.12
721.303	29062.19
721.646	29165.46
721.989	28932.93
722.331	28976.09
722.674	28948.52
723.016	28889.09
723.359	28762.08
723.701	28896.77
724.044	28651.58
724.386	28539.49
724.729	28600.96
725.071	28586.04
725.413	28574.52
725.755	28541.75
726.097	28384.69
726.439	28333.39
726.782	28328.42
727.124	28355.54
727.465	28273.73
727.807	28189.67
728.149	28093.85
728.491	28133.17
728.833	28076.45
729.175	27914.42
729.516	28085.72
729.858	27909.68
730.199	28008.88
730.541	27859.73
730.882	27807.98
731.224	27870.35
731.565	27753.3
731.906	27704.48
732.248	27855.44
732.589	27467.88
732.93	27526.86
733.271	27506.3
733.612	27562.11
733.953	27501.1
734.294	27390.59
734.635	27326.64
734.976	27290.71
735.317	27247.77
735.658	27265.4
735.999	27094.1
736.339	27153.09
736.68	27309.24
737.021	27078.29
737.361	26960.32
737.702	27004.61
738.042	26899.76
738.383	27000.55
738.723	26909.48
739.063	26789.25
739.404	27034.44
739.744	26690.05
740.084	26779.31
740.424	26679.2
740.764	26584.06
741.104	26717.39
741.444	26588.35
741.784	26590.61
742.124	26469.94
742.464	26440.34
742.804	26409.38
743.143	26460.22
743.483	26380.45
743.823	26225.2
744.162	26303.62
744.502	26380
744.841	26227.46
745.181	26350.62
745.52	26202.38
745.86	26206.9
746.199	26155.6
746.538	26009.61
746.877	26113.79
747.216	26071.53
747.556	25963.29
747.895	25998.09
748.234	25805.32
748.573	25812.33
748.911	25836.28
749.25	25770.52
749.589	25617.31
749.928	25642.62
750.267	25768.94
750.605	25673.8
750.944	25562.62
751.283	25435.62
751.621	25505.22
751.96	25249.18
752.298	25345.45
752.636	25404.66
752.975	25142.97
753.313	25173.02
753.651	25170.76
753.989	25046.47
754.327	25182.74
754.666	24937.78
755.004	24991.79
755.342	24933.71
755.679	24873.15
756.017	24741.62
756.355	24794.96
756.693	24720.83
757.031	24660.5
757.368	24602.64
757.706	24529.43
758.044	24475.87
758.381	24464.12
758.719	24443.1
759.056	24354.29
759.394	24249.66
