Data from hue_240_FLMS001491_00019.txt Node
Date: Tue Feb 07 16:35:07 GMT 2017
User: dcchb
Spectrometer: FLMS00149
Trigger mode: 0
Integration Time (sec): 2.000000E-2
Scans to average: 10
Electric dark correction enabled: true
Nonlinearity correction enabled: false
Boxcar width: 0
XAxis mode: Wavelengths
Number of Pixels in Spectrum: 2048
>>>>>Begin Spectral Data<<<<<
341.393	-28.11
341.776	-28.11
342.16	-28.11
342.543	-52.51
342.927	-54.55
343.31	-74.21
343.693	-81.21
344.077	-80.99
344.46	-48.9
344.843	-53.87
345.226	-45.73
345.61	-20.88
345.993	-18.39
346.376	0.82
346.759	24.1
347.142	29.52
347.525	36.98
347.908	47.37
348.291	63.64
348.674	104.09
349.057	117.65
349.44	125.79
349.823	159.23
350.206	154.04
350.588	220.47
350.971	199.23
351.354	225.9
351.737	223.86
352.119	231.1
352.502	250.08
352.884	262.51
353.267	279
353.65	279.68
354.032	295.5
354.414	291.21
354.797	309.51
355.179	315.61
355.562	316.74
355.944	318.55
356.326	306.12
356.709	321.49
357.091	315.16
357.473	326.46
357.855	324.65
358.238	323.52
358.62	349.51
359.002	329.62
359.384	320.58
359.766	349.28
360.148	313.81
360.53	337.31
360.912	341.38
361.294	319.68
361.676	319
362.057	323.75
362.439	334.82
362.821	293.69
363.203	307.7
363.584	300.7
363.966	317.87
364.348	300.47
364.729	299.12
365.111	322.84
365.493	317.87
365.874	312.22
366.256	312.68
366.637	306.12
367.019	323.07
367.4	302.73
367.781	311.55
368.163	291.21
368.544	304.09
368.925	313.58
369.306	321.94
369.688	317.2
370.069	298.44
370.45	296.86
370.831	311.09
371.212	328.49
371.593	322.39
371.974	326.46
372.355	326.91
372.736	297.31
373.117	303.41
373.498	310.42
373.879	314.71
374.26	311.32
374.641	302.96
375.021	310.87
375.402	302.28
375.783	336.18
376.163	322.62
376.544	309.29
376.925	324.88
377.305	304.31
377.686	332.56
378.066	311.32
378.447	303.86
378.827	327.82
379.208	323.3
379.588	315.61
379.968	322.39
380.349	305.44
380.729	327.82
381.109	319.68
381.489	316.74
381.87	334.14
382.25	318.78
382.63	352.22
383.01	331.88
383.39	319.23
383.77	325.33
384.15	329.17
384.53	329.85
384.91	354.03
385.29	352
385.67	341.38
386.049	337.31
386.429	327.14
386.809	359.23
387.189	335.5
387.568	343.18
387.948	336.18
388.328	343.86
388.707	347.25
389.087	341.15
389.466	361.04
389.846	358.32
390.225	359.68
390.605	349.28
390.984	361.71
391.363	362.39
391.743	365.1
392.122	356.29
392.501	363.75
392.881	362.62
393.26	379.34
393.639	375.72
394.018	387.48
394.397	360.58
394.776	357.42
395.155	378.44
395.534	370.98
395.913	385.22
396.292	372.33
396.671	408.72
397.05	391.32
397.429	377.31
397.808	372.79
398.186	405.1
398.565	390.41
398.944	410.75
399.323	381.6
399.701	383.63
400.08	408.49
400.458	386.8
400.837	395.84
401.215	411.88
401.594	385.89
401.972	416.4
402.351	414.37
402.729	429.51
403.107	420.92
403.486	427.02
403.864	427.93
404.242	424.99
404.62	424.08
404.999	414.14
405.377	432.22
405.755	439.23
406.133	430.41
406.511	461.15
406.889	440.13
407.267	443.75
407.645	461.37
408.023	484.42
408.401	476.74
408.779	467.93
409.156	478.55
409.534	476.51
409.912	497.08
410.29	508.6
410.667	519.9
411.045	507.25
411.422	483.97
411.8	502.95
412.178	517.19
412.555	534.14
412.933	500.92
413.31	543.86
413.687	551.31
414.065	556.51
414.442	555.38
414.819	552.22
415.197	583.85
415.574	578.66
415.951	592.67
416.328	566.68
416.705	595.15
417.082	588.6
417.46	613.23
417.837	588.6
418.214	627.92
418.591	620.24
418.967	586.57
419.344	622.5
419.721	620.24
420.098	642.84
420.475	634.93
420.852	654.36
421.228	683.06
421.605	667.02
421.982	660.69
422.358	682.84
422.735	687.13
423.111	704.08
423.488	710.18
423.864	716.96
424.241	728.26
424.617	723.96
424.994	754.02
425.37	765.54
425.746	754.25
426.123	770.29
426.499	770.52
426.875	806
427.251	815.49
427.627	793.57
428.003	821.59
428.379	836.73
428.756	843.51
429.132	845.77
429.507	850.06
429.883	851.87
430.259	870.85
430.635	900.91
431.011	923.51
431.387	894.81
431.763	905.88
432.138	916.95
432.514	924.41
432.89	928.93
433.265	987.01
433.641	976.39
434.016	973.9
434.392	996.95
434.767	1026.78
435.143	1019.78
435.518	1052.54
435.894	1048.93
436.269	1081.24
436.644	1093.67
437.02	1084.86
437.395	1104.74
437.77	1124.18
438.145	1154.01
438.52	1158.08
438.895	1169.38
439.271	1182.48
439.646	1206.66
440.021	1220.22
440.395	1195.59
440.77	1201.92
441.145	1223.84
441.52	1264.97
441.895	1269.03
442.27	1292.31
442.645	1289.82
443.019	1312.2
443.394	1315.81
443.769	1338.64
444.143	1292.08
444.518	1342.7
444.892	1372.08
445.267	1353.78
445.641	1362.14
446.016	1369.14
446.39	1364.4
446.764	1438.52
447.139	1392.42
447.513	1388.35
447.887	1396.26
448.262	1408.47
448.636	1448.01
449.01	1441.91
449.384	1484.17
449.758	1492.08
450.132	1487.11
450.506	1521.01
450.88	1491.85
451.254	1517.84
451.628	1526.2
452.002	1556.94
452.376	1542.25
452.75	1564.39
453.123	1584.51
453.497	1596.48
453.871	1592.19
454.244	1645.75
454.618	1677.84
454.992	1679.42
455.365	1649.82
455.739	1730.49
456.112	1735.24
456.486	1727.1
456.859	1759.42
457.232	1782.47
457.606	1780.43
457.979	1822.47
458.352	1845.74
458.725	1864.95
459.099	1826.53
459.472	1878.28
459.845	1936.36
460.218	1924.84
460.591	1926.19
460.964	1930.03
461.337	2016.13
461.71	1980.43
462.083	2029.01
462.456	2015.91
462.829	2038.28
463.201	2098.39
463.574	2060.88
463.947	2117.15
464.32	2170.03
464.692	2169.35
465.065	2191.5
465.438	2229.69
465.81	2245.28
466.183	2271.72
466.555	2299.52
466.928	2312.62
467.3	2313.07
467.672	2368.21
468.045	2385.84
468.417	2367.08
468.789	2407.08
469.161	2453.64
469.534	2483.92
469.906	2502.45
470.278	2535.44
470.65	2565.5
471.022	2606.4
471.394	2678.94
471.766	2636
472.138	2715.1
472.51	2719.17
472.882	2778.6
473.253	2821.31
473.625	2857.69
473.997	2910.12
474.369	2920.29
474.74	2952.83
475.112	3042.1
475.484	3046.39
475.855	3032.15
476.227	3094.98
476.598	3163.45
476.97	3182.2
477.341	3234.18
477.713	3272.37
478.084	3278.47
478.455	3400.5
478.827	3423.78
479.198	3480.95
479.569	3515.08
479.94	3540.16
480.311	3591.46
480.682	3662.19
481.053	3737.44
481.424	3782.41
481.795	3842.3
482.166	3872.36
482.537	3948.74
482.908	3985.12
483.279	3966.82
483.65	4069.41
484.021	4175.4
484.391	4159.81
484.762	4203.19
485.133	4243.42
485.503	4322.97
485.874	4350.54
486.244	4383.98
486.615	4454.49
486.985	4496.07
487.356	4584.65
487.726	4622.39
488.097	4694.71
488.467	4698.32
488.837	4793.69
489.207	4868.26
489.578	4939.67
489.948	4945.1
490.318	4982.16
490.688	5000.46
491.058	5103.06
491.428	5154.58
491.798	5184.41
492.168	5229.61
492.538	5323.17
492.908	5304.63
493.278	5378.53
493.648	5410.85
494.017	5437.06
494.387	5485.42
494.757	5541.01
495.126	5574.46
495.496	5557.74
495.866	5596.38
496.235	5641.57
496.605	5720.67
496.974	5725.41
497.344	5767.9
497.713	5820.78
498.082	5782.81
498.452	5906.65
498.821	5901.45
499.19	5933.54
499.559	5957.95
499.928	5991.62
500.298	6006.09
500.667	6122.69
501.036	6037.72
501.405	6115.69
501.774	6093.31
502.143	6139.87
502.512	6173.99
502.88	6207.21
503.249	6235.68
503.618	6201.33
503.987	6262.12
504.356	6327.66
504.724	6327.66
505.093	6352.52
505.462	6312.29
505.83	6365.62
506.199	6390.71
506.567	6472.51
506.936	6506.18
507.304	6553.19
507.672	6578.5
508.041	6561.78
508.409	6633.64
508.777	6625.5
509.145	6664.15
509.514	6648.1
509.882	6677.25
510.25	6700.3
510.618	6727.87
510.986	6757.7
511.354	6725.16
511.722	6819.85
512.09	6839.28
512.458	6777.82
512.826	6853.75
513.193	6870.24
513.561	6879.73
513.929	6953.4
514.297	7013.29
514.664	7044.93
515.032	7006.28
515.4	7076.11
515.767	7020.07
516.135	7106.17
516.502	6991.37
516.869	7105.27
517.237	7215.32
517.604	7059.62
517.972	7177.81
518.339	7123.8
518.706	7177.81
519.073	7147.75
519.44	7196.11
519.808	7306.16
520.175	7268.65
520.542	7298.48
520.909	7262.1
521.276	7345.48
521.643	7372.15
522.009	7381.64
522.376	7411.02
522.743	7411.02
523.11	7457.8
523.477	7510.23
523.843	7566.27
524.21	7556.78
524.577	7621.18
524.943	7564.24
525.31	7602.65
525.676	7611.47
526.043	7684.01
526.409	7699.83
526.776	7778.47
527.142	7750.45
527.508	7706.83
527.874	7753.38
528.241	7752.71
528.607	7774.85
528.973	7841.29
529.339	7838.35
529.705	7864.12
530.071	7909.54
530.437	7907.05
530.803	7882.65
531.169	7917.22
531.535	7885.13
531.901	7924.45
532.267	7972.14
532.632	7965.58
532.998	7977.78
533.364	8034.73
533.73	7988.18
534.095	8030.89
534.461	7931.46
534.826	7993.6
535.192	7992.02
535.557	8083.09
535.923	8040.61
536.288	7996.09
536.653	8018.91
537.019	7988.63
537.384	8025.24
537.749	8031.57
538.114	8004.68
538.479	8031.34
538.845	8078.35
539.21	7986.15
539.575	7992.7
539.94	8013.94
540.305	8060.49
540.67	7974.39
541.034	8048.97
541.399	7983.66
541.764	7989.31
542.129	8042.87
542.494	8055.07
542.858	8025.47
543.223	8003.32
543.587	8010.78
543.952	8008.74
544.316	8054.39
544.681	7981.17
545.045	8025.01
545.41	8012.59
545.774	8029.99
546.138	7973.26
546.503	8053.26
546.867	7991.8
547.231	8003.32
547.595	8022.08
547.959	8028.4
548.324	8014.85
548.688	8026.6
549.052	8060.04
549.416	7984.34
549.779	8005.13
550.143	8020.72
550.507	7947.73
550.871	7946.82
551.235	8016.2
551.599	8058.46
551.962	8030.89
552.326	7985.24
552.689	8033.38
553.053	7964.9
553.417	7973.26
553.78	8063.43
554.143	7975.98
554.507	8011
554.87	8022.53
555.234	8059.14
555.597	7975.3
555.96	8054.84
556.323	8082.64
556.686	8011.91
557.05	8093.26
557.413	8056.43
557.776	8114.28
558.139	8109.98
558.502	8096.88
558.865	8031.79
559.228	8155.63
559.59	8147.95
559.953	8139.81
560.316	8212.81
560.679	8144.56
561.041	8233.37
561.404	8205.58
561.767	8287.83
562.129	8203.32
562.492	8299.58
562.854	8309.53
563.217	8303.88
563.579	8347.27
563.941	8371.9
564.304	8342.29
564.666	8342.29
565.028	8429.07
565.39	8401.5
565.753	8402.18
566.115	8440.82
566.477	8432.01
566.839	8471.78
567.201	8533.02
567.563	8508.62
567.925	8626.58
568.287	8554.04
568.648	8545
569.01	8618.9
569.372	8639.24
569.734	8613.93
570.095	8690.53
570.457	8655.51
570.819	8682.62
571.18	8647.15
571.542	8686.92
571.903	8714.71
572.265	8775.73
572.626	8855.73
572.987	8784.54
573.349	8874.26
573.71	8911.09
574.071	8827.71
574.432	8929.62
574.794	8914.48
575.155	8931.66
575.516	8901.15
575.877	8972.56
576.238	8951.77
576.599	9058.43
576.96	9035.16
577.32	9093.69
577.681	9105.89
578.042	9036.29
578.403	9143.18
578.763	9077.19
579.124	9126
579.485	9156.51
579.845	9207.36
580.206	9148.83
580.566	9230.63
580.927	9198.54
581.287	9244.42
581.648	9259.56
582.008	9229.28
582.368	9226.57
582.728	9253.68
583.089	9278.77
583.449	9282.84
583.809	9343.17
584.169	9321.93
584.529	9323.96
584.889	9367.58
585.249	9320.8
585.609	9284.19
585.969	9379.78
586.329	9349.05
586.688	9387.01
587.048	9397.86
587.408	9331.42
587.768	9392.66
588.127	9479.67
588.487	9422.04
588.846	9509.04
589.206	9410.97
589.565	9398.54
589.925	9489.38
590.284	9431.76
590.643	9429.27
591.003	9486.45
591.362	9555.14
591.721	9526.9
592.08	9491.87
592.44	9548.59
592.799	9525.09
593.158	9504.07
593.517	9555.82
593.876	9614.13
594.235	9509.04
594.593	9521.25
594.952	9603.73
595.311	9605.09
595.67	9596.27
596.029	9651.19
596.387	9612.54
596.746	9650.06
597.104	9632.2
597.463	9535.03
597.822	9640.11
598.18	9638.98
598.538	9626.78
598.897	9578.65
599.255	9573.9
599.613	9747
599.972	9681.92
600.33	9720.11
600.688	9646.22
601.046	9647.12
601.404	9695.48
601.762	9707.68
602.12	9778.19
602.478	9735.48
602.836	9792.65
603.194	9731.86
603.552	9732.99
603.91	9709.94
604.268	9753.11
604.625	9658.87
604.983	9789.49
605.341	9625.2
605.698	9776.83
606.056	9784.52
606.413	9767.79
606.771	9736.16
607.128	9830.62
607.485	9767.79
607.843	9743.16
608.2	9828.58
608.557	9838.75
608.914	9804.86
609.272	9881.92
609.629	9860.45
609.986	9962.59
610.343	9853.44
610.7	9888.02
611.057	9906.77
611.414	9879.66
611.771	9895.25
612.127	10053.44
612.484	9978.86
612.841	9981.57
613.198	9975.7
613.554	9973.89
613.911	9999.65
614.267	9997.17
614.624	9954
614.98	9989.26
615.337	10066.54
615.693	9959.2
616.05	10030.16
616.406	10028.58
616.762	9978.18
617.118	10020.89
617.475	10010.95
617.831	10018.63
618.187	10052.53
618.543	10045.3
618.899	10122.36
619.255	10060.22
619.611	10086.88
619.967	10176.14
620.323	10114.23
620.678	10109.48
621.034	10001.01
621.39	10048.92
621.746	10066.54
622.101	10164.85
622.457	10074.68
622.812	10082.36
623.168	10120.1
623.523	10100.67
623.879	10169.82
624.234	10103.15
624.589	10023.15
624.945	10107.45
625.3	10080.1
625.655	10087.56
626.01	10035.81
626.365	10092.76
626.72	10103.38
627.075	10049.82
627.43	10075.13
627.785	10021.8
628.14	10074.45
628.495	10070.16
628.85	10121.91
629.205	10027
629.559	10095.47
629.914	10042.36
630.269	10054.79
630.623	9970.73
630.978	9929.6
631.332	10049.59
631.687	10052.31
632.041	9926.66
632.396	10017.96
632.75	9950.39
633.104	9920.11
633.459	9937.06
633.813	9945.19
634.167	9883.05
634.521	9874.46
634.875	9933.67
635.229	9826.1
635.583	9865.19
635.937	9809.6
636.291	9835.14
636.645	9862.48
636.999	9792.2
637.352	9839.2
637.706	9789.94
638.06	9770.28
638.413	9758.75
638.767	9734.12
639.121	9807.79
639.474	9715.59
639.828	9730.96
640.181	9714.01
640.534	9725.08
640.888	9734.57
641.241	9682.82
641.594	9713.78
641.947	9664.29
642.301	9648.7
642.654	9646.44
643.007	9645.31
643.36	9631.07
643.713	9541.59
644.066	9631.3
644.419	9587.91
644.771	9535.71
645.124	9451.42
645.477	9547.46
645.83	9380.69
646.182	9342.95
646.535	9279.9
646.888	9259.33
647.24	9251.42
647.593	9369.61
647.945	9283.96
648.298	9256.17
648.65	9194.7
649.002	9242.16
649.355	9243.06
649.707	9246
650.059	9283.96
650.411	9415.71
650.763	9460.01
651.115	9497.97
651.467	9515.6
651.819	9408.48
652.171	9504.98
652.523	9549.04
652.875	9492.1
653.227	9407.35
653.578	9441.93
653.93	9406.22
654.282	9384.98
654.633	9378.88
654.985	9412.78
655.337	9333.23
655.688	9393.34
656.039	9376.17
656.391	9346.11
656.742	9413.23
657.094	9365.54
657.445	9418.65
657.796	9418.65
658.147	9376.84
658.498	9366.67
658.849	9378.43
659.2	9469.5
659.551	9342.49
659.902	9384.75
660.253	9410.29
660.604	9357.86
660.955	9324.87
661.306	9389.5
661.656	9355.15
662.007	9403.28
662.358	9387.47
662.708	9380.23
663.059	9427.69
663.409	9333
663.76	9399.89
664.11	9410.06
664.461	9411.65
664.811	9401.48
665.161	9394.24
665.511	9382.72
665.862	9368.71
666.212	9414.36
666.562	9385.88
666.912	9364.64
667.262	9423.62
667.612	9352.89
667.962	9415.71
668.312	9353.79
668.662	9387.92
669.011	9334.81
669.361	9306.34
669.711	9381.59
670.06	9356.73
670.41	9295.72
670.76	9258.43
671.109	9283.51
671.459	9333.23
671.808	9300.46
672.157	9338.43
672.507	9251.88
672.856	9268.37
673.205	9295.04
673.554	9327.35
673.904	9255.94
674.253	9272.89
674.602	9290.52
674.951	9184.53
675.3	9091.2
675.649	9263.4
675.998	9199
676.346	9192.22
676.695	9247.13
677.044	9142.27
677.393	9150.41
677.741	9147.47
678.09	9205.77
678.438	9135.72
678.787	9154.48
679.135	9168.94
679.484	9117.87
679.832	9125.33
680.181	9064.99
680.529	9145.44
680.877	9093.01
681.225	8992.67
681.573	9141.14
681.922	8999.45
682.27	9019.57
682.618	9012.56
682.966	8960.13
683.314	8961.04
683.661	8873.35
684.009	8897.99
684.357	8928.49
684.705	8888.5
685.053	8871.77
685.4	8858.21
685.748	8812.56
686.095	8787.25
686.443	8754.26
686.79	8758.33
687.138	8816.18
687.485	8831.55
687.832	8736.41
688.18	8776.63
688.527	8666.13
688.874	8696.64
689.221	8686.92
689.568	8638.33
689.915	8627.71
690.262	8537.32
690.609	8523.08
690.956	8486.7
691.303	8556.53
691.65	8503.87
691.997	8483.76
692.344	8422.07
692.69	8398.34
693.037	8383.65
693.383	8349.07
693.73	8344.1
694.077	8315.18
694.423	8301.17
694.769	8280.83
695.116	8302.52
695.462	8234.5
695.808	8170.77
696.155	8212.13
696.501	8145.69
696.847	8128.29
697.193	8119.7
697.539	8063.21
697.885	8030.44
698.231	8034.05
698.577	7973.94
698.923	7961.06
699.269	7960.16
699.614	7931.68
699.96	7868.41
700.306	7893.27
700.651	7758.58
700.997	7787.96
701.342	7780.95
701.688	7768.52
702.033	7738.47
702.379	7799.03
702.724	7733.95
703.069	7720.62
703.415	7607.17
703.76	7604.24
704.105	7655.53
704.45	7557.23
704.795	7607.17
705.14	7578.25
705.485	7550.68
705.83	7479.72
706.175	7520.4
706.52	7406.5
706.865	7459.38
707.209	7358.59
707.554	7417.12
707.899	7418.93
708.243	7348.87
708.588	7351.13
708.932	7216.22
709.277	7273.4
709.621	7310.68
709.966	7233.62
710.31	7193.17
710.654	7143.46
710.998	7210.35
711.342	7166.28
711.687	7143.68
712.031	7159.28
712.375	7099.62
712.719	7113.85
713.063	7079.73
713.407	7155.89
713.75	7027.08
714.094	7113.4
714.438	7127.41
714.782	7028.88
715.125	7072.5
715.469	6976.23
715.812	6968.55
716.156	6920.41
716.499	6966.29
716.843	7004.02
717.186	6890.36
717.53	6954.08
717.873	6921.09
718.216	6919.06
718.559	6901.65
718.902	6865.05
719.246	6869.11
719.589	6854.42
719.932	6789.12
720.275	6881.09
720.617	6829.57
720.96	6868.21
721.303	6796.12
721.646	6801.32
721.989	6791.6
722.331	6748.21
722.674	6758.83
723.016	6801.77
723.359	6736.69
723.701	6759.29
724.044	6731.94
724.386	6725.84
724.729	6768.32
725.071	6747.31
725.413	6737.14
725.755	6714.54
726.097	6645.16
726.439	6646.07
726.782	6665.73
727.124	6695.11
727.465	6672.73
727.807	6668.44
728.149	6583.24
728.491	6626.18
728.833	6637.03
729.175	6650.81
729.516	6632.28
729.858	6595.45
730.199	6641.1
730.541	6611.04
730.882	6531.95
731.224	6617.59
731.565	6602.45
731.906	6588.22
732.248	6626.18
732.589	6590.48
732.93	6548.9
733.271	6551.61
733.612	6595.9
733.953	6615.56
734.294	6550.7
734.635	6537.37
734.976	6552.06
735.317	6594.54
735.658	6526.98
735.999	6535.79
736.339	6604.71
736.68	6584.37
737.021	6578.05
737.361	6562.45
737.702	6559.97
738.042	6596.8
738.383	6559.06
738.723	6627.99
739.063	6571.49
739.404	6613.3
739.744	6554.77
740.084	6539.18
740.424	6575.56
740.764	6577.82
741.104	6615.33
741.444	6572.62
741.784	6576.47
742.124	6601.55
742.464	6602
742.804	6638.38
743.143	6651.04
743.483	6665.5
743.823	6617.37
744.162	6677.71
744.502	6692.85
744.841	6703.69
745.181	6722
745.52	6697.37
745.86	6752.96
746.199	6784.6
746.538	6746.4
746.877	6805.61
747.216	6835.44
747.556	6842.9
747.895	6889.45
748.234	6839.96
748.573	6884.03
748.911	6929.22
749.25	7004.02
749.589	7001.54
749.928	7027.53
750.267	7114.3
750.605	7100.52
750.944	7150.69
751.283	7157.02
751.621	7229.1
751.96	7228.88
752.298	7300.97
752.636	7367.41
752.975	7411.25
753.313	7438.36
753.651	7522.66
753.989	7574.18
754.327	7686.72
754.666	7585.03
755.004	7778.92
755.342	7865.7
755.679	7953.15
756.017	7987.95
756.355	8087.39
756.693	8096.88
757.031	8234.28
757.368	8236.31
757.706	8295.74
758.044	8471.1
758.381	8462.74
758.719	8602.85
759.056	8737.99
759.394	8726.01
759.731	8765.11
760.068	8848.04
760.405	8978.89
760.743	9069.51
761.08	9147.47
761.417	9218.43
761.754	9396.5
762.091	9431.53
762.428	9528.7
762.765	9565.31
763.102	9693.45
763.438	9767.57
763.775	9872.42
764.112	9946.32
764.449	10007.34
764.785	10124.17
765.122	10106.32
765.458	10175.92
765.795	10316.48
766.131	10393.54
766.467	10407.55
766.804	10508.34
767.14	10558.73
767.476	10732.97
767.812	10664.72
768.148	10813.42
768.485	10886.63
768.821	10914.88
