Data from hue_10_FLMS001491_98.txt Node
Date: Mon Feb 06 15:32:51 GMT 2017
User: dcchb
Spectrometer: FLMS00149
Trigger mode: 0
Integration Time (sec): 2.000000E-2
Scans to average: 10
Electric dark correction enabled: true
Nonlinearity correction enabled: false
Boxcar width: 0
XAxis mode: Wavelengths
Number of Pixels in Spectrum: 2048
>>>>>Begin Spectral Data<<<<<
341.393	-12.01
341.776	-12.01
342.16	-12.01
342.543	-57.2
342.927	-60.59
343.31	-64.89
343.693	-78.67
344.077	-80.93
344.46	-63.3
344.843	-77.54
345.226	-40.48
345.61	-25.11
345.993	-0.25
346.376	12.4
346.759	-2.51
347.142	13.08
347.525	37.03
347.908	66.18
348.291	92.17
348.674	101.44
349.057	111.38
349.44	114.77
349.823	145.73
350.206	155
350.588	198.84
350.971	203.13
351.354	210.59
351.737	239.74
352.119	248.1
352.502	240.19
352.884	251.72
353.267	295.11
353.65	277.93
354.032	278.38
354.414	293.07
354.797	300.75
355.179	323.81
355.562	304.6
355.944	312.28
356.326	327.42
356.709	329.23
357.091	324.03
357.473	328.32
357.855	331.04
358.238	314.31
358.62	339.4
359.002	330.13
359.384	331.49
359.766	346.4
360.148	323.13
360.53	329.45
360.912	343.92
361.294	321.77
361.676	339.17
362.057	337.14
362.439	320.64
362.821	329.45
363.203	316.8
363.584	306.4
363.966	327.65
364.348	325.84
364.729	307.99
365.111	321.32
365.493	297.59
365.874	294.43
366.256	318.38
366.637	311.38
367.019	309.12
367.4	282.22
367.781	318.38
368.163	291.04
368.544	292.39
368.925	303.69
369.306	327.65
369.688	305.27
370.069	299.17
370.45	305.27
370.831	310.92
371.212	293.75
371.593	301.21
371.974	301.43
372.355	307.99
372.736	305.73
373.117	314.99
373.498	322.45
373.879	314.54
374.26	327.42
374.641	291.49
375.021	307.31
375.402	310.92
375.783	293.98
376.163	300.08
376.544	322.45
376.925	306.4
377.305	335.33
377.686	305.27
378.066	303.69
378.447	313.41
378.827	347.99
379.208	319.96
379.588	325.61
379.968	319.74
380.349	330.58
380.729	305.5
381.109	325.16
381.489	340.08
381.87	339.62
382.25	333.97
382.63	331.71
383.01	311.38
383.39	324.71
383.77	352.05
384.15	337.59
384.53	321.55
384.91	331.26
385.29	323.13
385.67	323.35
386.049	342.79
386.429	319.74
386.809	343.01
387.189	330.81
387.568	336.91
387.948	334.65
388.328	341.21
388.707	362
389.087	329
389.466	361.77
389.846	331.49
390.225	333.97
390.605	361.54
390.984	354.76
391.363	366.52
391.743	348.89
392.122	370.81
392.501	353.63
392.881	369
393.26	359.51
393.639	362.22
394.018	348.21
394.397	351.6
394.776	380.98
395.155	358.83
395.534	350.25
395.913	381.2
396.292	355.67
396.671	378.04
397.05	357.02
397.429	374.2
397.808	363.35
398.186	362.45
398.565	365.84
398.944	385.5
399.323	369.68
399.701	383.01
400.08	370.81
400.458	373.75
400.837	374.65
401.215	374.2
401.594	366.29
401.972	383.92
402.351	398.83
402.729	363.35
403.107	401.77
403.486	379.17
403.864	408.32
404.242	403.12
404.62	385.72
404.999	394.99
405.377	419.4
405.755	388.89
406.133	405.38
406.511	392.05
406.889	397.7
407.267	425.95
407.645	398.83
408.023	406.51
408.401	413.07
408.779	409.23
409.156	416.68
409.534	421.2
409.912	417.14
410.29	413.97
410.667	417.59
411.045	431.6
411.422	436.57
411.8	413.52
412.178	437.02
412.555	452.62
412.933	447.87
413.31	453.29
413.687	449.9
414.065	439.06
414.442	438.15
414.819	449.68
415.197	443.35
415.574	458.26
415.951	470.24
416.328	477.7
416.705	459.17
417.082	473.41
417.46	465.5
417.837	466.63
418.214	448.32
418.591	482.9
418.967	508.66
419.344	478.38
419.721	492.39
420.098	486.06
420.475	484.25
420.852	489
421.228	486.51
421.605	494.65
421.982	497.36
422.358	512.05
422.735	504.82
423.111	498.94
423.488	516.57
423.864	512.95
424.241	523.8
424.617	504.14
424.994	513.63
425.37	524.48
425.746	525.83
426.123	527.42
426.499	532.39
426.875	530.58
427.251	543.46
427.627	541.88
428.003	541.2
428.379	546.62
428.756	563.8
429.132	568.54
429.507	580.07
429.883	578.71
430.259	568.09
430.635	575.78
431.011	610.13
431.387	572.16
431.763	618.49
432.138	586.85
432.514	584.14
432.89	621.88
433.265	616
433.641	614.64
434.016	612.61
434.392	617.36
434.767	637.24
435.143	638.15
435.518	630.46
435.894	636.57
436.269	643.12
436.644	650.12
437.02	657.13
437.395	639.5
437.77	673.17
438.145	670.91
438.52	684.47
438.895	680.63
439.271	682.44
439.646	682.67
440.021	688.32
440.395	705.94
440.77	681.54
441.145	695.09
441.52	687.41
441.895	693.74
442.27	716.34
442.645	708.43
443.019	717.92
443.394	717.69
443.769	745.04
444.143	714.53
444.518	727.86
444.892	731.25
445.267	745.71
445.641	738.26
446.016	744.13
446.39	753.4
446.764	768.31
447.139	743.46
447.513	737.13
447.887	757.24
448.262	772.15
448.636	774.41
449.01	776.45
449.384	783.45
449.758	781.19
450.132	781.65
450.506	789.33
450.88	763.79
451.254	814.87
451.628	798.82
452.002	806.96
452.376	829.78
452.75	806.28
453.123	854.64
453.497	843.57
453.871	839.05
454.244	841.08
454.618	845.37
454.992	866.39
455.365	860.06
455.739	883.34
456.112	879.04
456.486	905.26
456.859	874.07
457.232	907.52
457.606	910.91
457.979	914.52
458.352	955.88
458.725	945.71
459.099	957.69
459.472	976.22
459.845	973.28
460.218	976.22
460.591	967.86
460.964	976.67
461.337	1006.05
461.71	1028.65
462.083	1037.23
462.456	1017.57
462.829	1029.32
463.201	1051.7
463.574	1065.03
463.947	1060.06
464.32	1068.64
464.692	1094.86
465.065	1090.56
465.438	1111.58
465.81	1106.84
466.183	1130.79
466.555	1177.57
466.928	1159.49
467.3	1171.47
467.672	1181.18
468.045	1225.48
468.417	1209.21
468.789	1226.15
469.161	1275.42
469.534	1230.9
469.906	1270.9
470.278	1270.67
470.65	1284.91
471.022	1330.56
471.394	1322.2
471.766	1376.88
472.138	1367.85
472.51	1398.81
472.882	1428.86
473.253	1413.27
473.625	1473.61
473.997	1462.53
474.369	1500.27
474.74	1513.38
475.112	1537.56
475.484	1558.12
475.855	1583.88
476.227	1594.28
476.598	1639.7
476.97	1638.35
477.341	1692.13
477.713	1706.37
478.084	1715.41
478.455	1771.68
478.827	1792.02
479.198	1799.92
479.569	1848.28
479.94	1892.8
480.311	1919.92
480.682	1986.36
481.053	2045.34
481.424	2033.36
481.795	2021.16
482.166	2094.83
482.537	2128.28
482.908	2173.25
483.279	2190.42
483.65	2261.38
484.021	2277.2
484.391	2305.45
484.762	2329.85
485.133	2327.59
485.503	2438.33
485.874	2456.86
486.244	2469.96
486.615	2524.43
486.985	2565.33
487.356	2636.06
487.726	2655.72
488.097	2684.42
488.467	2710.41
488.837	2780.46
489.207	2827.92
489.578	2830.86
489.948	2890.97
490.318	2922.83
490.688	2920.35
491.058	2983.85
491.428	3022.72
491.798	3075.15
492.168	3119.21
492.538	3097.29
492.908	3184.97
493.278	3234.24
493.648	3194.24
494.017	3279.21
494.387	3297.29
494.757	3339.54
495.126	3377.74
495.496	3368.47
495.866	3420.9
496.235	3450.73
496.605	3489.15
496.974	3502.48
497.344	3590.84
497.713	3558.3
498.082	3620.22
498.452	3630.38
498.821	3655.24
499.19	3683.04
499.559	3756.48
499.928	3771.62
500.298	3752.64
500.667	3779.99
501.036	3779.08
501.405	3844.39
501.774	3849.36
502.143	3906.76
502.512	3927.55
502.88	3956.03
503.249	3954.44
503.618	4005.29
503.987	3967.55
504.356	3971.84
504.724	4067.44
505.093	4059.07
505.462	4064.27
505.83	4091.39
506.199	4084.38
506.567	4138.17
506.936	4144.95
507.304	4175.46
507.672	4198.96
508.041	4252.06
508.409	4308.79
508.777	4294.77
509.145	4316.24
509.514	4295.68
509.882	4318.5
510.25	4303.59
510.618	4385.62
510.986	4376.13
511.354	4432.4
511.722	4414.54
512.09	4446.41
512.458	4448.67
512.826	4512.4
513.193	4508.78
513.561	4517.82
513.929	4524.37
514.297	4565.5
514.664	4588.78
515.032	4610.92
515.4	4652.96
515.767	4638.95
516.135	4650.92
516.502	4662.22
516.869	4740.86
517.237	4752.16
517.604	4730.47
517.972	4745.61
518.339	4766.63
518.706	4790.58
519.073	4828.32
519.44	4771.15
519.808	4861.99
520.175	4872.61
520.542	4895.89
520.909	4930.92
521.276	4864.7
521.643	4961.42
522.009	5006.39
522.376	4974.76
522.743	4985.83
523.11	5078.26
523.477	5123
523.843	5169.33
524.21	5151.47
524.577	5219.27
524.943	5186.28
525.31	5235.31
525.676	5262.88
526.043	5266.27
526.409	5308.98
526.776	5347.4
527.142	5347.4
527.508	5426.04
527.874	5433.73
528.241	5464.46
528.607	5473.95
528.973	5569.09
529.339	5506.72
529.705	5548.98
530.071	5599.6
530.437	5639.15
530.803	5666.04
531.169	5670.11
531.535	5626.72
531.901	5685.92
532.267	5746.49
532.632	5762.76
532.998	5789.2
533.364	5800.5
533.73	5840.27
534.095	5882.08
534.461	5897.9
534.826	5891.12
535.192	5964.11
535.557	6005.92
535.923	5984.22
536.288	6011.34
536.653	6041.62
537.019	6035.07
537.384	6083.88
537.749	6074.16
538.114	6083.43
538.479	6140.15
538.845	6165.01
539.21	6178.57
539.575	6185.57
539.94	6187.15
540.305	6254.04
540.67	6236.42
541.034	6302.63
541.399	6336.08
541.764	6343.76
542.129	6377.21
542.494	6390.31
542.858	6431.89
543.223	6431.44
543.587	6472.8
543.952	6527.03
544.316	6465.79
544.681	6538.33
545.045	6507.82
545.41	6572
545.774	6609.29
546.138	6655.84
546.503	6690.87
546.867	6646.8
547.231	6775.39
547.595	6699.91
547.959	6779.23
548.324	6783.75
548.688	6756.86
549.052	6803.86
549.416	6812
549.779	6828.72
550.143	6852.9
550.507	6930.64
550.871	6989.84
551.235	6942.84
551.599	7012.67
551.962	7024.42
552.326	7087.47
552.689	7052.67
553.053	7076.85
553.417	7076.17
553.78	7153
554.143	7147.81
554.507	7188.71
554.87	7091.08
555.234	7190.74
555.597	7187.81
555.96	7227.58
556.323	7257.63
556.686	7293.11
557.05	7334.02
557.413	7348.03
557.776	7359.55
558.139	7406.78
558.502	7426.22
558.865	7436.61
559.228	7483.84
559.59	7477.29
559.953	7515.25
560.316	7588.7
560.679	7603.39
561.041	7616.27
561.404	7673.22
561.767	7720.67
562.129	7708.47
562.492	7737.4
562.854	7718.86
563.217	7834.12
563.579	7837.28
563.941	7905.98
564.304	7835.47
564.666	7898.3
565.028	7913.44
565.39	8014.45
565.753	7975.58
566.115	8041.12
566.477	8104.39
566.839	8029.14
567.201	8133.09
567.563	8140.55
567.925	8135.13
568.287	8163.6
568.648	8151.4
569.01	8177.38
569.372	8266.2
569.734	8331.05
570.095	8384.61
570.457	8418.06
570.819	8421.22
571.18	8436.59
571.542	8451.95
571.903	8529.69
572.265	8578.96
572.626	8548.22
572.987	8642
573.349	8672.06
573.71	8747.54
574.071	8774.88
574.432	8832.51
574.794	8933.97
575.155	8969.23
575.516	8969
575.877	9052.84
576.238	9108.43
576.599	9213.97
576.96	9148.66
577.32	9281.31
577.681	9349.33
578.042	9470.91
578.403	9498.71
578.763	9524.24
579.124	9573.73
579.485	9685.37
579.845	9831.8
580.206	9902.31
580.566	10065.02
580.927	10110.44
581.287	10208.74
581.648	10334.39
582.008	10517.44
582.368	10540.49
582.728	10756.3
583.089	10820.25
583.449	10955.84
583.809	11095.05
584.169	11213.91
584.529	11405.1
584.889	11589.05
585.249	11680.57
585.609	11873.56
585.969	12163.04
586.329	12258.41
586.688	12401.23
587.048	12636.02
587.408	12862.23
587.768	13003.92
588.127	13184.48
588.487	13404.14
588.846	13655.21
589.206	13858.36
589.565	14110.56
589.925	14372.02
590.284	14515.97
590.643	14863.76
591.003	15075.96
591.362	15314.6
591.721	15571.99
592.08	15727.69
592.44	16119.1
592.799	16293.55
593.158	16590.72
593.517	16900.77
593.876	17124.27
594.235	17317.03
594.593	17677.7
594.952	17977.8
595.311	18184.58
595.67	18532.37
596.029	18904.33
596.387	19104.33
596.746	19364.21
597.104	19585.22
597.463	19871.31
597.822	20209.38
598.18	20479.21
598.538	20830.61
598.897	21072.86
599.255	21190.15
599.613	21832.84
599.972	21979.73
600.33	22243.23
600.688	22433.28
601.046	22836.89
601.404	23054.73
601.762	23302.18
602.12	23668.28
602.478	23897.87
602.836	24252.89
603.194	24284.98
603.552	24613.34
603.91	24744.41
604.268	25292.64
604.625	25334.9
604.983	25706.87
605.341	25807.43
605.698	26257.13
606.056	26453.29
606.413	26720.63
606.771	27009.43
607.128	27260.95
607.485	27366.94
607.843	27573.03
608.2	27863.42
608.557	28168.27
608.914	28203.98
609.272	28597.19
609.629	28959.21
609.986	29126.89
610.343	29234.01
610.7	29646.2
611.057	29723.94
611.414	29870.15
611.771	30097.71
612.127	30395.56
612.484	30513.52
612.841	30774.3
613.198	30916.45
613.554	31103.33
613.911	31316.21
614.267	31413.84
614.624	31652.47
614.98	31808.63
615.337	32153.93
615.693	32119.58
616.05	32309.86
616.406	32636.18
616.762	32665.1
617.118	32790.07
617.475	32995.04
617.831	33167.69
618.187	33443.84
618.543	33494.91
618.899	33719.09
619.255	33753.66
619.611	33879.53
619.967	34082.92
620.323	34208.79
620.678	34256.47
621.034	34345.28
621.39	34408.33
621.746	34408.33
622.101	34966.28
622.457	34764.93
622.812	34961.31
623.168	35064.36
623.523	35192.72
623.879	35310
624.234	35205.6
624.589	35379.15
624.945	35468.42
625.3	35699.15
625.655	35627.28
626.01	35702.99
626.365	35817.11
626.72	36042.19
627.075	35950.21
627.43	36007.39
627.785	35909.31
628.14	36127.61
628.495	36274.95
628.85	36115.63
629.205	36087.16
629.559	36418.22
629.914	36311.11
630.269	36359.02
630.623	36275.18
630.978	36318.79
631.332	36555.39
631.687	36636.75
632.041	36391.33
632.396	36622.29
632.75	36524.21
633.104	36600.37
633.459	36295.29
633.813	36528.05
634.167	36490.54
634.521	36774.82
634.875	36665
635.229	36737.31
635.583	36519.01
635.937	36655.28
636.291	36445.34
636.645	36691.44
636.999	36524.66
637.352	36691.21
637.706	36615.96
638.06	36603.3
638.413	36694.6
638.767	36488.73
639.121	36621.83
639.474	36496.87
639.828	36465.91
640.181	36595.39
640.534	36550.2
640.888	36507.49
641.241	36541.84
641.594	36551.33
641.947	36624.77
642.301	36543.87
642.654	36570.99
643.007	36573.25
643.36	36603.53
643.713	36499.8
644.066	36756.29
644.419	36462.29
644.771	36173.71
645.124	35885.36
645.477	35767.84
645.83	35682.88
646.182	35613.5
646.535	35500.51
646.888	35549.09
647.24	35318.82
647.593	35540.73
647.945	35467.51
648.298	35432.49
648.65	35267.07
649.002	35148.88
649.355	35436.78
649.707	35302.09
650.059	35429.1
650.411	35942.53
650.763	36008.74
651.115	36294.84
651.467	36064.11
651.819	36074.28
652.171	36122.86
652.523	35997.67
652.875	36004.22
653.227	36082.19
653.578	36156.99
653.93	36042.41
654.282	35878.8
654.633	35770.56
654.985	35962.19
655.337	36114.95
655.688	35988.63
656.039	36131.9
656.391	35855.75
656.742	35834.74
657.094	35754.51
657.445	35982.75
657.796	35843.32
658.147	35853.27
658.498	35805.58
658.849	35795.64
659.2	35952.7
659.551	35796.32
659.902	36038.8
660.253	35772.82
660.604	35765.59
660.955	35563.56
661.306	35773.95
661.656	35705.25
662.007	35686.49
662.358	35665.25
662.708	35678.13
663.059	35779.82
663.409	35571.92
663.76	35674.97
664.11	35726.04
664.461	35760.84
664.811	35784.12
665.161	35768.75
665.511	35602.43
665.862	35661.86
666.212	35837.9
666.562	35721.07
666.912	35707.73
667.262	35535.76
667.612	35666.6
667.962	35749.77
668.312	35682.42
668.662	35753.61
669.011	35656.44
669.361	35658.7
669.711	35623.22
670.06	35435.42
670.41	35409.44
670.76	35448.98
671.109	35560.62
671.459	35534.18
671.808	35563.1
672.157	35566.72
672.507	35360.85
672.856	35354.52
673.205	35327.4
673.554	35465.71
673.904	35321.3
674.253	35533.95
674.602	35510.9
674.951	34851.94
675.3	34752.5
675.649	35274.3
675.998	35238.82
676.346	35271.36
676.695	35284.47
677.044	35164.7
677.393	35246.05
677.741	35202.89
678.09	35274.98
678.438	35055.77
678.787	35126.96
679.135	35242.21
679.484	34898.04
679.832	35157.47
680.181	34907.98
680.529	35094.64
680.877	34951.82
681.225	34851.71
681.573	35222.1
681.922	34728.32
682.27	34721.54
682.618	34697.36
682.966	34680.42
683.314	34775.1
683.661	34531.27
684.009	34416.47
684.357	34370.14
684.705	34272.29
685.053	34282.69
685.4	34269.81
685.748	34081.56
686.095	34106.87
686.443	33966.31
686.79	33893.32
687.138	33981.68
687.485	33947.1
687.832	33931.28
688.18	34077.04
688.527	33639.09
688.874	33663.72
689.221	33731.29
689.568	33626.21
689.915	33495.81
690.262	33559.54
690.609	33465.98
690.956	33249.72
691.303	33263.73
691.65	33033.91
691.997	33140.12
692.344	32915.04
692.69	32880.24
693.037	32963.85
693.383	32623.97
693.73	32939.9
694.077	32593.92
694.423	32668.04
694.769	32440.02
695.116	32526.57
695.462	32374.94
695.808	32361.83
696.155	32193.93
696.501	32130.88
696.847	32111.44
697.193	31723.88
697.539	31908.29
697.885	31689.76
698.231	31692.25
698.577	31661.51
698.923	31558.01
699.269	31387.4
699.614	31245.7
699.96	31232.6
700.306	31336.32
700.651	31170.45
700.997	31075.09
701.342	31009.1
701.688	30906.73
702.033	30942.89
702.379	30792.61
702.724	30720.75
703.069	30721.42
703.415	30378.16
703.76	30453.63
704.105	30407.53
704.45	30342.45
704.795	30183.81
705.14	30154.66
705.485	30121.89
705.83	29920.77
706.175	30015.23
706.52	29863.14
706.865	29724.84
707.209	29757.16
707.554	29704.73
707.899	29662.69
708.243	29509.7
708.588	29523.72
708.932	29353.1
709.277	29349.71
709.621	29354.23
709.966	29155.14
710.31	29118.75
710.654	28894.35
710.998	28946.33
711.342	29153.78
711.687	28909.49
712.031	28752.44
712.375	28694.13
712.719	28827.24
713.063	28681.03
713.407	28794.92
713.75	28613
714.094	28617.52
714.438	28419.11
714.782	28552.22
715.125	28274.03
715.469	28417.76
715.812	28180.47
716.156	28100.02
716.499	28084.88
716.843	27977.77
717.186	27932.12
717.53	28117.88
717.873	28113.36
718.216	28005.56
718.559	27918.56
718.902	27736.64
719.246	27836.53
719.589	27575.52
719.932	27618.45
720.275	27574.61
720.617	27552.92
720.96	27507.27
721.303	27450.32
721.646	27469.08
721.989	27207.39
722.331	27315.86
722.674	27137.11
723.016	27225.24
723.359	27144.57
723.701	27230.67
724.044	26983.67
724.386	26783.45
724.729	26968.75
725.071	27106.38
725.413	27001.07
725.755	26990.45
726.097	26845.59
726.439	26761.3
726.782	26614.19
727.124	26885.37
727.465	26661.42
727.807	26651.02
728.149	26662.55
728.491	26518.82
728.833	26605.15
729.175	26410.58
729.516	26359.96
729.858	26284.93
730.199	26373.06
730.541	26344.59
730.882	26288.32
731.224	26276.12
731.565	26166.97
731.906	26174.88
732.248	26156.12
732.589	26108.66
732.93	25903.02
733.271	25928.56
733.612	26121.54
733.953	26017.82
734.294	25775.11
734.635	25873.87
734.976	25968.78
735.317	25814.89
735.658	25645.17
735.999	25766.98
736.339	25596.59
736.68	25758.39
737.021	25659.86
737.361	25548.23
737.702	25667.32
738.042	25566.08
738.383	25420.32
738.723	25517.04
739.063	25461.22
739.404	25421
739.744	25321.79
740.084	25232.08
740.424	25382.81
740.764	25281.57
741.104	25275.24
741.444	25231.17
741.784	25202.02
742.124	25182.36
742.464	25074.57
742.804	25021.91
743.143	24967.68
743.483	24996.38
743.823	24883.16
744.162	24932.65
744.502	24842.93
744.841	24890.39
745.181	24910.96
745.52	24769.94
745.86	24727.23
746.199	24825.08
746.538	24635.03
746.877	24790.73
747.216	24654.46
747.556	24729.04
747.895	24650.17
748.234	24448.82
748.573	24463.51
748.911	24430.06
749.25	24494.47
749.589	24385.32
749.928	24323.4
750.267	24437.3
750.605	24321.37
750.944	24211.54
751.283	24214.7
751.621	24267.36
751.96	24074.82
752.298	24003.63
752.636	24076.85
752.975	23983.07
753.313	23848.61
753.651	23963.86
753.989	23876.86
754.327	23775.62
754.666	23804.54
755.004	23809.29
755.342	23790.31
755.679	23732.46
756.017	23633.7
756.355	23732.91
756.693	23562.97
757.031	23552.12
757.368	23440.49
757.706	23421.28
758.044	23388.28
758.381	23322.75
758.719	23314.61
759.056	23359.36
759.394	23177.22
759.731	23054.96
760.068	23033.94
760.405	22950.1
760.743	22877.79
761.08	22997.11
