Data from hue_250_FLMS001491_00018.txt Node
Date: Tue Feb 07 16:00:37 GMT 2017
User: dcchb
Spectrometer: FLMS00149
Trigger mode: 0
Integration Time (sec): 2.000000E-2
Scans to average: 10
Electric dark correction enabled: true
Nonlinearity correction enabled: false
Boxcar width: 0
XAxis mode: Wavelengths
Number of Pixels in Spectrum: 2048
>>>>>Begin Spectral Data<<<<<
341.393	-31.36
341.776	-31.36
342.16	-31.36
342.543	-62.77
342.927	-42.43
343.31	-70.68
343.693	-62.54
344.077	-55.76
344.46	-37.91
344.843	-57.57
345.226	-33.84
345.61	-29.77
345.993	-41.3
346.376	-6.27
346.759	27.85
347.142	17.01
347.525	33.05
347.908	62.88
348.291	64.01
348.674	75.99
349.057	114.86
349.44	119.38
349.823	142.2
350.206	151.01
350.588	184.46
350.971	200.5
351.354	216.77
351.737	242.76
352.119	236.21
352.502	256.09
352.884	279.6
353.267	263.1
353.65	301.29
354.032	288.86
354.414	281.63
354.797	306.94
355.179	326.15
355.562	299.26
355.944	296.55
356.326	314.4
356.709	304.23
357.091	313.27
357.473	330.9
357.855	341.52
358.238	336.09
358.62	334.06
359.002	321.4
359.384	333.61
359.766	325.25
360.148	326.38
360.53	335.41
360.912	311.46
361.294	322.08
361.676	312.14
362.057	321.86
362.439	321.18
362.821	329.09
363.203	329.31
363.584	313.49
363.966	329.54
364.348	310.56
364.729	313.72
365.111	320.05
365.493	310.1
365.874	313.04
366.256	291.35
366.637	324.79
367.019	316.43
367.4	296.77
367.781	303.55
368.163	308.97
368.544	292.48
368.925	316.43
369.306	308.97
369.688	297.22
370.069	312.59
370.45	304.68
370.831	316.43
371.212	292.25
371.593	309.43
371.974	278.92
372.355	300.61
372.736	314.4
373.117	308.07
373.498	329.99
373.879	312.36
374.26	298.13
374.641	298.13
375.021	310.78
375.402	305.36
375.783	305.59
376.163	318.24
376.544	311.23
376.925	314.4
377.305	314.85
377.686	320.05
378.066	353.27
378.447	335.19
378.827	327.05
379.208	323.89
379.588	322.31
379.968	328.86
380.349	336.77
380.729	318.92
381.109	325.47
381.489	320.27
381.87	327.28
382.25	308.97
382.63	328.64
383.01	329.31
383.39	339.26
383.77	328.18
384.15	343.32
384.53	312.14
384.91	336.77
385.29	337.9
385.67	325.7
386.049	329.31
386.429	334.96
386.809	346.26
387.189	352.82
387.568	353.04
387.948	346.94
388.328	347.62
388.707	346.04
389.087	378.58
389.466	332.48
389.846	356.88
390.225	354.17
390.605	358.24
390.984	353.27
391.363	339.71
391.743	360.72
392.122	377.9
392.501	343.55
392.881	340.39
393.26	364.79
393.639	373.38
394.018	387.39
394.397	378.58
394.776	379.48
395.155	379.48
395.534	362.53
395.913	384.68
396.292	387.62
396.671	383.55
397.05	365.02
397.429	388.29
397.808	378.13
398.186	392.36
398.565	399.59
398.944	396.43
399.323	389.65
399.701	396.88
400.08	412.02
400.458	398.01
400.837	386.71
401.215	422.64
401.594	387.39
401.972	409.54
402.351	409.09
402.729	416.54
403.107	430.1
403.486	411.57
403.864	419.71
404.242	416.54
404.62	415.86
404.999	432.36
405.377	424.68
405.755	442.3
406.133	446.6
406.511	439.14
406.889	418.12
407.267	460.38
407.645	450.67
408.023	464.23
408.401	474.39
408.779	442.76
409.156	479.37
409.534	462.64
409.912	455.86
410.29	497.44
410.667	507.16
411.045	490.21
411.422	497.44
411.8	501.96
412.178	534.28
412.555	524.79
412.933	524.11
413.31	528.86
413.687	538.35
414.065	561.62
414.442	544
414.819	574.05
415.197	570.21
415.574	551.68
415.951	577.44
416.328	592.13
416.705	575.41
417.082	583.77
417.46	605.01
417.837	584.9
418.214	612.02
418.591	609.76
418.967	604.56
419.344	633.26
419.721	642.75
420.098	651.11
420.475	656.54
420.852	632.58
421.228	672.13
421.605	660.38
421.982	673.03
422.358	706.03
422.735	716.65
423.111	717.33
423.488	731.34
423.864	712.81
424.241	738.34
424.617	754.16
424.994	740.15
425.37	788.74
425.746	770.43
426.123	766.14
426.499	777.66
426.875	801.17
427.251	829.64
427.627	826.25
428.003	824.89
428.379	858.79
428.756	878
429.132	858.11
429.507	886.59
429.883	912.8
430.259	892.46
430.635	899.02
431.011	916.87
431.387	930.2
431.763	944.66
432.138	972.46
432.514	951.22
432.89	937.66
433.265	974.27
433.641	978.79
434.016	1008.84
434.392	985.57
434.767	1049.29
435.143	1044.55
435.518	1061.05
435.894	1075.06
436.269	1114.38
436.644	1123.87
437.02	1117.09
437.395	1128.39
437.77	1162.74
438.145	1148.05
438.52	1185.11
438.895	1211.1
439.271	1170.65
439.646	1231.44
440.021	1259.23
440.395	1258.33
440.77	1280.7
441.145	1261.72
441.52	1278.21
441.895	1324.77
442.27	1317.31
442.645	1325.67
443.019	1361.38
443.394	1360.92
443.769	1360.02
444.143	1383.07
444.518	1365.22
444.892	1381.72
445.267	1430.98
445.641	1410.19
446.016	1428.27
446.39	1422.62
446.764	1414.48
447.139	1437.76
447.513	1442.28
447.887	1479.57
448.262	1473.24
448.636	1480.7
449.01	1499.68
449.384	1542.39
449.758	1534.03
450.132	1525.21
450.506	1539
450.88	1568.38
451.254	1532.22
451.628	1560.92
452.002	1601.82
452.376	1597.75
452.75	1617.87
453.123	1628.04
453.497	1663.29
453.871	1677.07
454.244	1679.11
454.618	1706
454.992	1727.69
455.365	1741.93
455.739	1757.52
456.112	1779.44
456.486	1755.26
456.859	1812.89
457.232	1856.05
457.606	1833.23
457.979	1895.6
458.352	1902.61
458.725	1885.88
459.099	1906.45
459.472	1951.87
459.845	1941.47
460.218	1960.23
460.591	1971.98
460.964	2014.47
461.337	2028.93
461.71	2071.41
462.083	2103.96
462.456	2084.97
462.829	2105.99
463.201	2167.23
463.574	2135.59
463.947	2151.41
464.32	2251.07
464.692	2237.06
465.065	2258.75
465.438	2258.75
465.81	2301.24
466.183	2306.89
466.555	2354.34
466.928	2354.57
467.3	2377.4
467.672	2421.69
468.045	2458.3
468.417	2461.46
468.789	2498.3
469.161	2509.14
469.534	2559.54
469.906	2619.65
470.278	2630.04
470.65	2616.03
471.022	2698.97
471.394	2723.15
471.766	2714.11
472.138	2777.16
472.51	2792.07
472.882	2837.72
473.253	2895.57
473.625	2950.94
473.997	2962.69
474.369	2979.19
474.74	3004.05
475.112	3036.36
475.484	3094.21
475.855	3185.51
476.227	3150.48
476.598	3289.01
476.97	3246.3
477.341	3315.9
477.713	3415.11
478.084	3399.97
478.455	3459.17
478.827	3508.66
479.198	3557.7
479.569	3596.35
479.94	3644.25
480.311	3686.29
480.682	3769.67
481.053	3810.8
481.424	3881.08
481.795	3907.07
482.166	3937.81
482.537	4008.09
482.908	4067.97
483.279	4114.75
483.65	4156.11
484.021	4223.45
484.391	4280.85
484.762	4330.34
485.133	4302.99
485.503	4386.38
485.874	4461.86
486.244	4498.02
486.615	4570.33
486.985	4641.74
487.356	4677.9
487.726	4701.63
488.097	4810.78
488.467	4788.86
488.837	4906.37
489.207	4950.21
489.578	5018.68
489.948	5034.05
490.318	5048.06
490.688	5104.56
491.058	5194.04
491.428	5236.75
491.798	5251.22
492.168	5353.14
492.538	5363.31
492.908	5468.16
493.278	5512.68
493.648	5468.61
494.017	5523.98
494.387	5527.37
494.757	5573.24
495.126	5687.14
495.496	5661.38
495.866	5687.82
496.235	5778.89
496.605	5765.55
496.974	5828.6
497.344	5857.76
497.713	5909.28
498.082	5931.88
498.452	5943.18
498.821	5983.63
499.19	6025.21
499.559	6076.96
499.928	6033.12
500.298	6081.7
500.667	6167.58
501.036	6130.06
501.405	6174.81
501.774	6207.8
502.143	6238.76
502.512	6216.62
502.88	6288.93
503.249	6247.58
503.618	6293.9
503.987	6314.69
504.356	6377.29
504.724	6341.36
505.093	6388.82
505.462	6377.52
505.83	6445.08
506.199	6516.27
506.567	6536.38
506.936	6509.49
507.304	6569.6
507.672	6586.1
508.041	6641.01
508.409	6607.79
508.777	6729.15
509.145	6696.6
509.514	6693.67
509.882	6717.17
510.25	6753.55
510.618	6799.65
510.986	6717.39
511.354	6787
511.722	6853.66
512.09	6844.62
512.458	6869.93
512.826	6860.89
513.193	6955.81
513.561	6915.81
513.929	6993.54
514.297	6959.87
514.664	6996.71
515.032	6997.16
515.4	7077.84
515.767	7032.64
516.135	7056.14
516.502	7002.58
516.869	7133.2
517.237	7099.98
517.604	7114.45
517.972	7139.08
518.339	7146.08
518.706	7147.67
519.073	7217.27
519.44	7155.57
519.808	7212.75
520.175	7225.86
520.542	7322.58
520.909	7210.26
521.276	7242.8
521.643	7352.41
522.009	7328.9
522.376	7318.73
522.743	7391.95
523.11	7333.2
523.477	7468.79
523.843	7506.98
524.21	7546.75
524.577	7487.54
524.943	7478.5
525.31	7479.63
525.676	7612.74
526.043	7613.42
526.409	7609.35
526.776	7666.07
527.142	7678.05
527.508	7673.98
527.874	7685.28
528.241	7695.67
528.607	7626.75
528.973	7707.65
529.339	7691.83
529.705	7734.99
530.071	7764.15
530.437	7748.55
530.803	7783.58
531.169	7810.25
531.535	7735.9
531.901	7803.92
532.267	7741.55
532.632	7837.36
532.998	7782.9
533.364	7845.5
533.73	7806.4
534.095	7850.47
534.461	7876.46
534.826	7809.57
535.192	7830.81
535.557	7820.87
535.923	7793.52
536.288	7778.84
536.653	7850.02
537.019	7727.99
537.384	7840.98
537.749	7884.37
538.114	7844.37
538.479	7730.7
538.845	7787.65
539.21	7719.63
539.575	7794.2
539.94	7774.77
540.305	7787.42
540.67	7808.44
541.034	7758.27
541.399	7808.66
541.764	7770.02
542.129	7747.88
542.494	7724.37
542.858	7716.46
543.223	7757.37
543.587	7785.16
543.952	7774.54
544.316	7691.15
544.681	7673.3
545.045	7739.06
545.41	7760.08
545.774	7669.46
546.138	7686.86
546.503	7676.69
546.867	7699.29
547.231	7694.32
547.595	7656.58
547.959	7710.81
548.324	7656.35
548.688	7686.41
549.052	7578.84
549.416	7662.23
549.779	7656.35
550.143	7656.8
550.507	7683.24
550.871	7662.45
551.235	7551.04
551.599	7691.83
551.962	7605.05
552.326	7634.88
552.689	7601.44
553.053	7603.25
553.417	7601.44
553.78	7648.89
554.143	7569.35
554.507	7638.5
554.87	7615.68
555.234	7661.1
555.597	7644.83
555.96	7614.09
556.323	7607.99
556.686	7565.96
557.05	7583.59
557.413	7620.2
557.776	7612.29
558.139	7651.15
558.502	7612.74
558.865	7584.72
559.228	7696.58
559.59	7616.58
559.953	7632.4
560.316	7739.74
560.679	7672.62
561.041	7731.38
561.404	7719.18
561.767	7733.19
562.129	7689.8
562.492	7791.94
562.854	7798.5
563.217	7727.31
563.579	7783.35
563.941	7812.51
564.304	7837.82
564.666	7816.12
565.028	7848.21
565.39	7823.13
565.753	7881.66
566.115	7930.47
566.477	7875.78
566.839	7960.98
567.201	8003.69
567.563	7939.51
567.925	8008.21
568.287	7996
568.648	8008.43
569.01	8028.77
569.372	8118.04
569.734	7989.45
570.095	8086.17
570.457	8106.51
570.819	8104.48
571.18	8089.79
571.542	8146.28
571.903	8162.1
572.265	8174.53
572.626	8156
572.987	8163.91
573.349	8187.64
573.71	8189.22
574.071	8226.28
574.432	8246.85
574.794	8301.53
575.155	8357.35
575.516	8306.28
575.877	8347.18
576.238	8342.44
576.599	8358.93
576.96	8377.92
577.32	8413.85
577.681	8398.93
578.042	8475.31
578.403	8429.89
578.763	8466.5
579.124	8463.11
579.485	8508.76
579.845	8532.94
580.206	8518.93
580.566	8562.77
580.927	8554.41
581.287	8597.34
581.648	8564.58
582.008	8629.43
582.368	8544.01
582.728	8585.37
583.089	8601.86
583.449	8687.96
583.809	8671.92
584.169	8683.67
584.529	8685.7
584.889	8759.15
585.249	8647.51
585.609	8698.36
585.969	8758.47
586.329	8693.39
586.688	8731.8
587.048	8721.64
587.408	8739.49
587.768	8787.62
588.127	8762.99
588.487	8729.09
588.846	8802.76
589.206	8778.81
589.565	8774.97
589.925	8844.57
590.284	8847.28
590.643	8847.28
591.003	8869.43
591.362	8889.54
591.721	8817.23
592.08	8865.36
592.44	8913.27
592.799	8962.53
593.158	8917.34
593.517	8890.67
593.876	8918.92
594.235	8935.19
594.593	9001.85
594.952	8938.8
595.311	8916.88
595.67	9005.24
596.029	9022.42
596.387	8972.93
596.746	9059.93
597.104	8993.72
597.463	9008.41
597.822	9044.11
598.18	9014.73
598.538	8918.69
598.897	9027.16
599.255	8972.25
599.613	9092.02
599.972	9066.03
600.33	9109.65
600.688	9015.19
601.046	9053.83
601.404	9081.4
601.762	9056.77
602.12	9155.75
602.478	9074.62
602.836	9115.75
603.194	9122.75
603.552	9082.98
603.91	9085.47
604.268	9119.36
604.625	9101.74
604.983	9130.89
605.341	9096.09
605.698	9174.05
606.056	9180.15
606.413	9192.81
606.771	9162.53
607.128	9230.55
607.485	9148.06
607.843	9131.12
608.2	9196.65
608.557	9220.15
608.914	9135.18
609.272	9268.29
609.629	9202.07
609.986	9243.88
610.343	9197.1
610.7	9236.2
611.057	9290.21
611.414	9313.94
611.771	9271.23
612.127	9372.69
612.484	9276.42
612.841	9331.11
613.198	9281.39
613.554	9367.49
613.911	9378.34
614.267	9406.81
614.624	9321.62
614.98	9306.7
615.337	9386.93
615.693	9404.33
616.05	9373.37
616.406	9446.81
616.762	9394.61
617.118	9412.46
617.475	9337.66
617.831	9430.09
618.187	9452.24
618.543	9470.77
618.899	9483.87
619.255	9491.56
619.611	9470.32
619.967	9470.32
620.323	9521.16
620.678	9492.46
621.034	9398.68
621.39	9426.48
621.746	9445.91
622.101	9503.76
622.457	9399.36
622.812	9473.48
623.168	9449.75
623.523	9463.76
623.879	9577.88
624.234	9401.17
624.589	9506.47
624.945	9470.32
625.3	9479.81
625.655	9510.99
626.01	9480.49
626.365	9438.23
626.72	9489.98
627.075	9473.71
627.43	9398.23
627.785	9424.89
628.14	9449.98
628.495	9411.33
628.85	9408.85
629.205	9367.72
629.559	9449.3
629.914	9384.89
630.269	9395.52
630.623	9437.55
630.978	9372.24
631.332	9442.29
631.687	9366.14
632.041	9383.54
632.396	9418.34
632.75	9391.9
633.104	9340.83
633.459	9343.09
633.813	9265.58
634.167	9288.85
634.521	9310.77
634.875	9275.29
635.229	9328.85
635.583	9231
635.937	9280.49
636.291	9155.07
636.645	9182.87
636.999	9226.48
637.352	9242.75
637.706	9160.49
638.06	9226.25
638.413	9235.52
638.767	9200.72
639.121	9124.56
639.474	9148.74
639.828	9113.04
640.181	9122.98
640.534	9133.38
640.888	9101.51
641.241	9058.58
641.594	9061.74
641.947	9104.45
642.301	9156.2
642.654	9073.94
643.007	9094.28
643.36	9064
643.713	9117.33
644.066	9101.51
644.419	9017.9
644.771	9008.41
645.124	8880.73
645.477	8815.42
645.83	8755.76
646.182	8765.93
646.535	8774.97
646.888	8778.58
647.24	8748.75
647.593	8757.34
647.945	8738.13
648.298	8785.36
648.65	8719.6
649.002	8685.25
649.355	8703.78
649.707	8714.18
650.059	8752.37
650.411	8832.82
650.763	8923.44
651.115	8865.36
651.467	8959.82
651.819	8944
652.171	8848.19
652.523	8919.6
652.875	8855.64
653.227	8826.94
653.578	8887.96
653.93	8890.67
654.282	8829.88
654.633	8831.24
654.985	8885.25
655.337	8906.04
655.688	8916.66
656.039	8928.64
656.391	8825.81
656.742	8817
657.094	8837.11
657.445	8857.22
657.796	8905.81
658.147	8857.9
658.498	8920.5
658.849	8912.82
659.2	8833.72
659.551	8849.77
659.902	8907.84
660.253	8918.69
660.604	8930.67
660.955	8922.31
661.306	8864
661.656	8918.47
662.007	8854.74
662.358	8875.53
662.708	8890.67
663.059	8896.32
663.409	8896.09
663.76	8868.07
664.11	8929.31
664.461	8955.53
664.811	8888.18
665.161	8899.03
665.511	8885.02
665.862	8888.86
666.212	8916.88
666.562	8934.28
666.912	8850.22
667.262	8852.03
667.612	8866.72
667.962	8885.7
668.312	8899.71
668.662	8957.56
669.011	8952.14
669.361	8823.33
669.711	8859.26
670.06	8873.27
670.41	8909.43
670.76	8844.12
671.109	8871.46
671.459	8835.53
671.808	8887.96
672.157	8797.79
672.507	8843.44
672.856	8785.36
673.205	8769.09
673.554	8829.43
673.904	8806.38
674.253	8780.84
674.602	8824.46
674.951	8737.68
675.3	8628.76
675.649	8756.66
675.998	8738.58
676.346	8718.02
676.695	8820.62
677.044	8736.1
677.393	8697
677.741	8733.61
678.09	8696.1
678.438	8693.39
678.787	8685.93
679.135	8660.85
679.484	8652.03
679.832	8671.47
680.181	8607.51
680.529	8618.13
680.877	8606.16
681.225	8562.09
681.573	8630.11
681.922	8592.37
682.27	8518.25
682.618	8514.63
682.966	8517.57
683.314	8497.01
683.661	8483
684.009	8398.71
684.357	8452.04
684.705	8429.44
685.053	8388.76
685.4	8348.99
685.748	8341.76
686.095	8342.89
686.443	8375.66
686.79	8283.68
687.138	8359.38
687.485	8276.9
687.832	8282.78
688.18	8293.17
688.527	8206.17
688.874	8258.6
689.221	8166.4
689.568	8203.46
689.915	8204.59
690.262	8149.67
690.609	8191.25
690.956	8067.19
691.303	8126.85
691.65	8109.67
691.997	8039.39
692.344	8010.47
692.69	7914.42
693.037	7958.27
693.383	7923.92
693.73	7915.1
694.077	7793.3
694.423	7814.77
694.769	7765.5
695.116	7749.23
695.462	7825.84
695.808	7751.49
696.155	7777.71
696.501	7722.57
696.847	7709.46
697.193	7631.95
697.539	7678.72
697.885	7590.37
698.231	7548.78
698.577	7553.76
698.923	7556.69
699.269	7497.03
699.614	7441.89
699.96	7425.62
700.306	7425.85
700.651	7464.49
700.997	7389.92
701.342	7319.41
701.688	7298.85
702.033	7241.22
702.379	7309.69
702.724	7274.22
703.069	7258.85
703.415	7251.84
703.76	7212.07
704.105	7194.22
704.45	7079.19
704.795	7075.8
705.14	7060.21
705.485	7036.48
705.83	7069.7
706.175	7086.65
706.52	7014.79
706.865	7002.13
707.209	6988.57
707.554	6909.71
707.899	7003.49
708.243	6913.32
708.588	6916.94
708.932	6852.98
709.277	6858.41
709.621	6845.07
709.966	6792.87
710.31	6804.62
710.654	6728.02
710.998	6789.93
711.342	6790.61
711.687	6743.83
712.031	6701.35
712.375	6678.07
712.719	6679.88
713.063	6657.28
713.407	6701.58
713.75	6593.1
714.094	6664.74
714.438	6659.99
714.782	6651.18
715.125	6574.12
715.469	6648.47
715.812	6573.67
716.156	6549.49
716.499	6539.55
716.843	6556.95
717.186	6535.03
717.53	6565.31
717.873	6565.31
718.216	6511.07
718.559	6490.06
718.902	6446.44
719.246	6451.86
719.589	6376.84
719.932	6424.29
720.275	6458.87
720.617	6432.66
720.96	6370.06
721.303	6412.09
721.646	6401.02
721.989	6409.83
722.331	6411.87
722.674	6393.79
723.016	6398.76
723.359	6354.01
723.701	6352.21
724.044	6282.83
724.386	6306.78
724.729	6310.85
725.071	6295.03
725.413	6250.51
725.755	6300
726.097	6250.51
726.439	6235.37
726.782	6302.26
727.124	6316.5
727.465	6292.77
727.807	6254.13
728.149	6253.23
728.491	6258.42
728.833	6281.7
729.175	6274.69
729.516	6196.96
729.858	6241.93
730.199	6237.18
730.541	6227.92
730.882	6236.28
731.224	6229.95
731.565	6230.63
731.906	6198.54
732.248	6189.05
732.589	6207.35
732.93	6186.79
733.271	6151.76
733.612	6207.12
733.953	6220.23
734.294	6169.39
734.635	6199.22
734.976	6199.22
735.317	6180.01
735.658	6171.65
735.999	6133.68
736.339	6159.44
736.68	6200.35
737.021	6234.92
737.361	6183.4
737.702	6195.15
738.042	6226.11
738.383	6171.42
738.723	6155.83
739.063	6150.86
739.404	6208.03
739.744	6160.12
740.084	6210.29
740.424	6283.28
740.764	6223.85
741.104	6284.86
741.444	6260.23
741.784	6287.8
742.124	6227.01
742.464	6278.54
742.804	6248.25
743.143	6304.07
743.483	6272.43
743.823	6268.59
744.162	6293.9
744.502	6311.3
744.841	6345.65
745.181	6399.66
745.52	6369.83
745.86	6415.93
746.199	6362.83
746.538	6420
746.877	6510.62
747.216	6503.16
747.556	6506.78
747.895	6572.77
748.234	6571.64
748.573	6599.66
748.911	6699.99
749.25	6714.23
749.589	6779.09
749.928	6770.73
750.267	6854.34
750.605	6864.73
750.944	6851.18
751.283	6930.95
751.621	7047.78
751.96	7049.36
752.298	7106.08
752.636	7148.8
752.975	7259.75
753.313	7337.94
753.651	7401.22
753.989	7438.5
754.327	7516.02
754.666	7544.49
755.004	7645.51
755.342	7740.19
755.679	7812.96
756.017	7902.9
756.355	7983.8
756.693	8085.49
757.031	8169.33
757.368	8250.01
757.706	8303.57
758.044	8416.33
758.381	8566.61
758.719	8578.14
759.056	8680.51
759.394	8776.1
759.731	8810.9
760.068	9009.31
760.405	9097.44
760.743	9184
761.08	9282.3
761.417	9343.77
761.754	9536.98
762.091	9607.04
762.428	9639.13
762.765	9748.95
763.102	9918.44
763.438	9981.04
763.775	10040.02
764.112	10142.61
764.449	10284.76
764.785	10311.65
765.122	10411.31
765.458	10470.52
765.795	10626.44
766.131	10776.04
766.467	10824.86
766.804	10842.48
767.14	10948.02
767.476	10989.82
767.812	10977.85
768.148	11156.6
768.485	11117.96
768.821	11198.86
769.157	11362.02
769.492	11382.58
