Data from hue_350_FLMS001491_17.txt Node
Date: Mon Feb 06 15:37:40 GMT 2017
User: dcchb
Spectrometer: FLMS00149
Trigger mode: 0
Integration Time (sec): 2.000000E-2
Scans to average: 10
Electric dark correction enabled: true
Nonlinearity correction enabled: false
Boxcar width: 0
XAxis mode: Wavelengths
Number of Pixels in Spectrum: 2048
>>>>>Begin Spectral Data<<<<<
341.393	-3.93
341.776	-3.93
342.16	-3.93
342.543	-71.95
342.927	-55.9
343.31	-66.98
343.693	-74.66
344.077	-70.14
344.46	-68.11
344.843	-51.16
345.226	-36.92
345.61	-43.25
345.993	-14.32
346.376	-4.38
346.759	11.89
347.142	19.35
347.525	53.93
347.908	71.78
348.291	83.08
348.674	98.44
349.057	91.44
349.44	125.79
349.823	154.71
350.206	165.33
350.588	177.54
350.971	214.82
351.354	236.52
351.737	224.77
352.119	253.92
352.502	255.5
352.884	272.22
353.267	284.65
353.65	287.14
354.032	292.79
354.414	306.57
354.797	328.95
355.179	314.94
355.562	329.62
355.944	312.22
356.326	326.01
356.709	350.64
357.091	355.84
357.473	327.82
357.855	339.57
358.238	337.31
358.62	326.91
359.002	330.08
359.384	352
359.766	344.54
360.148	347.25
360.53	345.89
360.912	342.51
361.294	344.31
361.676	345.22
362.057	354.26
362.439	338.21
362.821	326.46
363.203	342.28
363.584	332.56
363.966	308.16
364.348	315.84
364.729	311.55
365.111	317.87
365.493	307.03
365.874	318.1
366.256	291.21
366.637	290.08
367.019	319.45
367.4	310.42
367.781	313.81
368.163	314.94
368.544	316.74
368.925	316.07
369.306	314.71
369.688	312.9
370.069	294.82
370.45	314.03
370.831	320.13
371.212	317.42
371.593	313.35
371.974	320.13
372.355	324.2
372.736	333.69
373.117	329.62
373.498	309.29
373.879	323.3
374.26	315.16
374.641	310.87
375.021	307.48
375.402	319.45
375.783	316.97
376.163	325.56
376.544	320.81
376.925	347.02
377.305	337.08
377.686	347.7
378.066	315.61
378.447	330.3
378.827	316.52
379.208	337.53
379.588	329.4
379.968	344.54
380.349	337.99
380.729	346.57
381.109	317.2
381.489	318.55
381.87	323.97
382.25	333.92
382.63	347.48
383.01	357.65
383.39	346.12
383.77	361.71
384.15	340.47
384.53	358.78
384.91	343.86
385.29	353.13
385.67	341.38
386.049	379.34
386.429	368.04
386.809	356.97
387.189	361.94
387.568	373.92
387.948	340.25
388.328	363.75
388.707	343.86
389.087	359.68
389.466	344.54
389.846	353.8
390.225	373.69
390.605	361.04
390.984	371.88
391.363	354.93
391.743	374.14
392.122	386.57
392.501	388.15
392.881	374.14
393.26	380.7
393.639	359.68
394.018	376.18
394.397	368.04
394.776	389.06
395.155	371.2
395.534	372.11
395.913	384.54
396.292	388.15
396.671	385.89
397.05	380.7
397.429	370.53
397.808	371.66
398.186	400.36
398.565	387.25
398.944	378.44
399.323	378.21
399.701	392
400.08	398.55
400.458	400.13
400.837	400.58
401.215	375.05
401.594	402.62
401.972	410.3
402.351	407.36
402.729	410.3
403.107	405.33
403.486	404.42
403.864	406.23
404.242	404.42
404.62	414.14
404.999	413.24
405.377	424.54
405.755	384.09
406.133	438.1
406.511	419.57
406.889	408.49
407.267	441.03
407.645	437.87
408.023	449.85
408.401	439
408.779	452.56
409.156	454.14
409.534	435.16
409.912	436.29
410.29	476.51
410.667	449.39
411.045	460.02
411.422	469.51
411.8	494.14
412.178	467.7
412.555	469.51
412.933	476.51
413.31	469.73
413.687	470.19
414.065	465.67
414.442	488.04
414.819	479.9
415.197	497.53
415.574	513.12
415.951	517.64
416.328	495.95
416.705	503.18
417.082	515.83
417.46	513.57
417.837	505.44
418.214	515.61
418.591	514.03
418.967	540.69
419.344	515.38
419.721	533.46
420.098	513.8
420.475	519.22
420.852	543.63
421.228	529.62
421.605	537.98
421.982	537.53
422.358	554.93
422.735	555.15
423.111	569.62
423.488	598.09
423.864	562.39
424.241	571.88
424.617	548.38
424.994	567.58
425.37	573.46
425.746	608.26
426.123	583.4
426.499	588.6
426.875	608.71
427.251	606.9
427.627	590.86
428.003	596.06
428.379	610.75
428.756	623.85
429.132	649.16
429.507	646.68
429.883	640.12
430.259	658.65
430.635	629.5
431.011	654.81
431.387	670.18
431.763	660.01
432.138	663.85
432.514	671.54
432.89	690.52
433.265	671.31
433.641	669.95
434.016	697.98
434.392	690.97
434.767	697.07
435.143	707.24
435.518	721.7
435.894	705.89
436.269	723.51
436.644	755.38
437.02	744.3
437.395	741.82
437.77	749.95
438.145	765.54
438.52	745.66
438.895	793.11
439.271	741.82
439.646	762.16
440.021	794.24
440.395	789.05
440.77	802.61
441.145	806
441.52	797.86
441.895	799.22
442.27	812.78
442.645	798.76
443.019	813.45
443.394	801.48
443.769	836.5
444.143	825.43
444.518	832.89
444.892	829.05
445.267	872.21
445.641	823.17
446.016	833.79
446.39	823.85
446.764	853.45
447.139	859.33
447.513	840.8
447.887	854.81
448.262	868.37
448.636	864.75
449.01	894.58
449.384	908.82
449.758	865.2
450.132	890.06
450.506	900.23
450.88	907.01
451.254	915.37
451.628	902.49
452.002	925.31
452.376	948.82
452.75	910.85
453.123	935.26
453.497	960.12
453.871	937.07
454.244	977.29
454.618	977.97
454.992	994.69
455.365	975.03
455.739	1005.31
456.112	1032.2
456.486	1026.78
456.859	1029.04
457.232	1017.29
457.606	1025.2
457.979	1028.14
458.352	1089.6
458.725	1057.06
459.099	1081.24
459.472	1109.94
459.845	1091.41
460.218	1111.07
460.591	1110.39
460.964	1144.97
461.337	1152.43
461.71	1152.88
462.083	1149.72
462.456	1190.84
462.829	1182.03
463.201	1187.91
463.574	1194.46
463.947	1205.99
464.32	1233.33
464.692	1222.71
465.065	1255.25
465.438	1271.75
465.81	1276.94
466.183	1284.4
466.555	1288.47
466.928	1312.65
467.3	1337.06
467.672	1331.86
468.045	1363.04
468.417	1378.86
468.789	1367.11
469.161	1379.99
469.534	1424.28
469.906	1435.81
470.278	1426.54
470.65	1478.75
471.022	1477.16
471.394	1515.58
471.766	1520.78
472.138	1525.75
472.51	1590.61
472.882	1600.55
473.253	1641
473.625	1643.71
473.997	1661.34
474.369	1668.35
474.74	1681.68
475.112	1698.85
475.484	1709.93
475.855	1788.34
476.227	1806.65
476.598	1856.36
476.97	1867.44
477.341	1905.18
477.713	1937.27
478.084	1933.42
478.455	1951.5
478.827	2031.73
479.198	2052.52
479.569	2055.45
479.94	2113.31
480.311	2127.09
480.682	2230.37
481.053	2253.19
481.424	2262.91
481.795	2316.01
482.166	2314.2
482.537	2328.22
482.908	2428.78
483.279	2432.39
483.65	2502.9
484.021	2556.68
484.391	2551.94
484.762	2557.59
485.133	2615.44
485.503	2633.97
485.874	2715.32
486.244	2727.53
486.615	2781.09
486.985	2815.21
487.356	2877.81
487.726	2900.63
488.097	2977.24
488.467	2955.77
488.837	3013.17
489.207	3060.4
489.578	3097.01
489.948	3142.66
490.318	3240.96
490.688	3233.5
491.058	3236.67
491.428	3330.22
491.798	3388.07
492.168	3421.75
492.538	3418.36
492.908	3419.03
493.278	3506.26
493.648	3523.21
494.017	3511.24
494.387	3626.49
494.757	3600.95
495.126	3692.93
495.496	3674.62
495.866	3706.71
496.235	3770.44
496.605	3785.8
496.974	3818.57
497.344	3852.02
497.713	3821.51
498.082	3867.61
498.452	3937.66
498.821	3947.38
499.19	3941.05
499.559	4027.61
499.928	4031
500.298	4038
500.667	4051.79
501.036	4066.93
501.405	4117.32
501.774	4079.36
502.143	4178.79
502.512	4210.88
502.88	4224.89
503.249	4250.65
503.618	4239.58
503.987	4268.28
504.356	4266.7
504.724	4375.39
505.093	4332.23
505.462	4378.78
505.83	4405.22
506.199	4428.05
506.567	4417.65
506.936	4417.65
507.304	4522.06
507.672	4520.02
508.041	4504.2
508.409	4555.05
508.777	4566.35
509.145	4574.94
509.514	4586.24
509.882	4619.45
510.25	4668.49
510.618	4657.87
510.986	4664.2
511.354	4731.54
511.722	4692.45
512.09	4739.23
512.458	4747.14
512.826	4828.94
513.193	4805.44
513.561	4784.87
513.929	4821.48
514.297	4829.17
514.664	4915.94
515.032	4917.07
515.4	4961.59
515.767	4969.05
516.135	4999.78
516.502	4961.14
516.869	5011.08
517.237	5035.04
517.604	5043.4
517.972	5045.88
518.339	5102.61
518.706	5127.69
519.073	5138.31
519.44	5160.23
519.808	5175.15
520.175	5148.71
520.542	5208.59
520.909	5275.26
521.276	5247.46
521.643	5271.42
522.009	5269.61
522.376	5324.75
522.743	5284.3
523.11	5356.84
523.477	5407.68
523.843	5451.3
524.21	5456.04
524.577	5502.14
524.943	5527.91
525.31	5534.68
525.676	5632.76
526.043	5562.25
526.409	5585.53
526.776	5689.94
527.142	5681.35
527.508	5714.34
527.874	5799.54
528.241	5793.66
528.607	5827.56
528.973	5858.07
529.339	5823.26
529.705	5902.13
530.071	5927.67
530.437	5983.49
530.803	5990.04
531.169	6019.19
531.535	6044.28
531.901	6086.76
532.267	6046.08
532.632	6097.83
532.998	6101.68
533.364	6207.66
533.73	6175.57
534.095	6226.64
534.461	6249.92
534.826	6298.73
535.192	6298.28
535.557	6389.8
535.923	6302.8
536.288	6343.03
536.653	6411.72
537.019	6411.27
537.384	6362.01
537.749	6391.16
538.114	6463.93
538.479	6502.12
538.845	6513.87
539.21	6545.96
539.575	6596.58
539.94	6656.46
540.305	6643.13
540.67	6600.19
541.034	6656.01
541.399	6649.91
541.764	6736.46
542.129	6756.57
542.494	6759.74
542.858	6779.17
543.223	6812.17
543.587	6847.42
543.952	6848.55
544.316	6904.14
544.681	6868.21
545.045	6952.95
545.41	6941.2
545.774	7019.17
546.138	7058.94
546.503	7052.84
546.867	7121.76
547.231	7097.36
547.595	7161.31
547.959	7194.53
548.324	7184.36
548.688	7286.05
549.052	7256.22
549.416	7261.19
549.779	7224.36
550.143	7343.68
550.507	7346.16
550.871	7389.78
551.235	7366.05
551.599	7401.3
551.962	7438.14
552.326	7480.17
552.689	7516.55
553.053	7480.85
553.417	7553.61
553.78	7582.54
554.143	7572.37
554.507	7634.52
554.87	7618.7
555.234	7729.88
555.597	7682.88
555.96	7669.77
556.323	7750.45
556.686	7739.37
557.05	7794.74
557.413	7778.24
557.776	7840.84
558.139	7871.12
558.502	7971.68
558.865	7894.4
559.228	7976.88
559.59	8009.65
559.953	8029.08
560.316	8118.35
560.679	8068.86
561.041	8121.51
561.404	8200.15
561.767	8199.47
562.129	8158.12
562.492	8249.64
562.854	8234.28
563.217	8266.14
563.579	8275.86
563.941	8266.36
564.304	8338.45
564.666	8392.01
565.028	8347.49
565.39	8401.28
565.753	8426.13
566.115	8460.71
566.477	8531.67
566.839	8525.11
567.201	8614.38
567.563	8613.47
567.925	8635.17
568.287	8660.03
568.648	8696.18
569.01	8747.48
569.372	8776.63
569.734	8794.71
570.095	8883.3
570.457	8932.79
570.819	8942.5
571.18	8968.27
571.542	9014.37
571.903	9026.57
572.265	9082.16
572.626	9112.44
572.987	9181.82
573.349	9154.93
573.71	9208.49
574.071	9268.15
574.432	9328.26
574.794	9448.25
575.155	9454.58
575.516	9530.06
575.877	9550.17
576.238	9619.55
576.599	9678.76
576.96	9726.44
577.32	9838.3
577.681	9948.13
578.042	10001.23
578.403	10075.81
578.763	10171.4
579.124	10273.54
579.485	10341.11
579.845	10520.77
580.206	10512.18
580.566	10599.41
580.927	10793.53
581.287	10947.88
581.648	11046.18
582.008	11166.63
582.368	11233.29
582.728	11507.64
583.089	11504.47
583.449	11615.66
583.809	11837.57
584.169	11978.36
584.529	12089.54
584.889	12413.15
585.249	12425.8
585.609	12618.34
585.969	12839.8
586.329	13010.87
586.688	13302.62
587.048	13441.14
587.408	13663.74
587.768	13934.92
588.127	14064.18
588.487	14293.55
588.846	14569.7
589.206	14842.91
589.565	15133.75
589.925	15337.14
590.284	15620.52
590.643	15803.79
591.003	16036.78
591.362	16353.38
591.721	16588.86
592.08	16928.51
592.44	17175.73
592.799	17461.38
593.158	17708.83
593.517	18020.23
593.876	18307.68
594.235	18518.52
594.593	18737.95
594.952	19126.42
595.311	19348.33
595.67	19732.73
596.029	20010.01
596.387	20355.31
596.746	20664.91
597.104	20765.02
597.463	21074.62
597.822	21448.84
598.18	21610.42
598.538	21995.5
598.897	22360.01
599.255	22478.65
599.613	23160.44
599.972	23177.61
600.33	23508.68
600.688	23763.58
601.046	24056.01
601.404	24428.43
601.762	24627.74
602.12	25036.32
602.478	25207.84
602.836	25434.05
603.194	25636.3
603.552	25923.75
603.91	26221.6
604.268	26467.02
604.625	26552.66
604.983	26969.38
605.341	27153.78
605.698	27538.85
606.056	27800.09
606.413	28027.88
606.771	28326.85
607.128	28619.73
607.485	28696.34
607.843	28941.53
608.2	29331.12
608.557	29526.14
608.914	29674.39
609.272	30079.58
609.629	30313.24
609.986	30527.47
610.343	30633.01
610.7	31055.82
611.057	31125.2
611.414	31329.71
611.771	31458.3
612.127	31776.25
612.484	31916.59
612.841	32349.12
613.198	32246.07
613.554	32472.73
613.911	32749.79
614.267	33005.6
614.624	33043.34
614.98	33322.2
615.337	33597.22
615.693	33567.39
616.05	33612.59
616.406	34082.18
616.762	34022.75
617.118	34219.58
617.475	34386.58
617.831	34596.75
618.187	34669.96
618.543	34892.56
618.899	35120.12
619.255	35223.17
619.611	35315.37
619.967	35558.53
620.323	35559.43
620.678	35628.81
621.034	35693.21
621.39	35916.94
621.746	35893.43
622.101	36473.76
622.457	36184.5
622.812	36379.75
623.168	36504.72
623.523	36533.42
623.879	36730.47
624.234	36599.18
624.589	36773.41
624.945	36946.74
625.3	37122.33
625.655	37055.21
626.01	37257.01
626.365	37209.56
626.72	37335.43
627.075	37349.44
627.43	37430.57
627.785	37389.67
628.14	37645.93
628.495	37582.43
628.85	37652.71
629.205	37555.09
629.559	37925.02
629.914	37846.6
630.269	37950.1
630.623	37827.17
630.978	37805.25
631.332	38070.78
631.687	38095.18
632.041	37969.99
632.396	38112.36
632.75	37972.02
633.104	38053.83
633.459	37943.1
633.813	38010.44
634.167	38098.35
634.521	38059.93
634.875	38193.04
635.229	38068.97
635.583	37983.55
635.937	38115.98
636.291	38095.18
636.645	38012.02
636.999	38003.44
637.352	38139.93
637.706	37940.61
638.06	38188.74
638.413	38070.1
638.767	38106.71
639.121	38003.44
639.474	37828.98
639.828	37960.27
640.181	38098.8
640.534	38025.81
640.888	38061.51
641.241	37812.48
641.594	37955.08
641.947	38074.17
642.301	37931.8
642.654	37979.03
643.007	37943.32
643.36	37951.46
643.713	37872.59
644.066	37961.4
644.419	37844.34
644.771	37717.79
645.124	37374.3
645.477	37298.37
645.83	36915.55
646.182	36923.01
646.535	36951.94
646.888	36898.38
647.24	36839.85
647.593	37004.59
647.945	36941.77
648.298	36739.97
648.65	36719.85
649.002	36640.99
649.355	36740.42
649.707	36683.7
650.059	36900.64
650.411	37179.5
650.763	37281.42
651.115	37701.75
651.467	37679.15
651.819	37546.95
652.171	37518.93
652.523	37439.61
652.875	37439.38
653.227	37434.86
653.578	37626.95
653.93	37431.93
654.282	37406.62
654.633	37237.35
654.985	37370.68
655.337	37368.2
655.688	37402.77
656.039	37484.58
656.391	37109.45
656.742	37218.15
657.094	37227.41
657.445	37456.11
657.796	37327.52
658.147	37265.6
658.498	37162.55
658.849	37270.12
659.2	37190.58
659.551	37156.23
659.902	37242.1
660.253	37124.36
660.604	37230.57
660.955	37060.64
661.306	37290.01
661.656	37090.24
662.007	37202.33
662.358	37298.82
662.708	37202.78
663.059	37147.41
663.409	36949.45
663.76	37067.42
664.11	37161.2
664.461	37128.66
664.811	37225.15
665.161	37243.68
665.511	37076.91
665.862	37116.45
666.212	37164.81
666.562	37151.93
666.912	37054.31
667.262	36869.45
667.612	37174.53
667.962	37007.98
668.312	36998.04
668.662	37167.07
669.011	37042.33
669.361	37037.36
669.711	37087.08
670.06	36915.78
670.41	36942.67
670.76	36904.03
671.109	37038.49
671.459	37023.8
671.808	36893.63
672.157	37075.78
672.507	36836.01
672.856	36872.39
673.205	36946.06
673.554	36882.34
673.904	36802.79
674.253	36788.1
674.602	37039.62
674.951	36304.27
675.3	36245.74
675.649	36680.31
675.998	36766.18
676.346	36690.7
676.695	36807.54
677.044	36505.62
677.393	36704.94
677.741	36689.12
678.09	36595.34
678.438	36501.1
678.787	36599.86
679.135	36659.52
679.484	36367.32
679.832	36582.68
680.181	36230.6
680.529	36389.92
680.877	36271.96
681.225	36211.62
681.573	36393.08
681.922	36218.85
682.27	35990.83
682.618	36133.2
682.966	35971.85
683.314	36135.01
683.661	35895.92
684.009	35790.84
684.357	35739.77
684.705	35577.96
685.053	35770.05
685.4	35570.96
685.748	35567.12
686.095	35606.21
686.443	35324.41
686.79	35365.31
687.138	35437.18
687.485	35428.14
687.832	35169.61
688.18	35168.71
688.527	35140.91
688.874	35045.32
689.221	35061.59
689.568	34856.17
689.915	34815.95
690.262	34837.87
690.609	34852.11
690.956	34709.06
691.303	34663.86
691.65	34395.17
691.997	34425.45
692.344	34216.19
692.69	34279.24
693.037	34175.06
693.383	33888.29
693.73	34170.99
694.077	33902.07
694.423	33872.7
694.769	33783.43
695.116	33701.4
695.462	33617.11
695.808	33653.27
696.155	33610.1
696.501	33358.13
696.847	33257.35
697.193	33154.3
697.539	33388.64
697.885	33029.1
698.231	32801.76
698.577	32978.26
698.923	32807.19
699.269	32726.74
699.614	32618.94
699.96	32519.06
700.306	32566.52
700.651	32325.39
700.997	32431.83
701.342	32294.43
701.688	32219.63
702.033	32070.71
702.379	32092.86
702.724	31944.39
703.069	32102.35
703.415	31710.72
703.76	31748.23
704.105	31871.62
704.45	31647.44
704.795	31473.21
705.14	31396.83
705.485	31354.57
705.83	31315.25
706.175	31255.14
706.52	31109.61
706.865	31058.53
707.209	31041.36
707.554	30922.27
707.899	31048.36
708.243	30705.77
708.588	30819.44
708.932	30596.17
709.277	30590.75
709.621	30587.59
709.966	30334.03
710.31	30598.88
710.654	30123.42
710.998	30292.68
711.342	30198.44
711.687	30060.37
712.031	29954.83
712.375	29902.18
712.719	30012.91
713.063	29865.8
713.407	30056.75
713.75	29847.04
714.094	29871.22
714.438	29715.74
714.782	29800.26
715.125	29659.93
715.469	29584.45
715.812	29400.95
716.156	29360.73
716.499	29283.89
716.843	29342.65
717.186	29253.84
717.53	29379.93
717.873	29339.71
718.216	29138.58
718.559	29093.61
718.902	28884.13
719.246	29075.08
719.589	28884.35
719.932	28751.93
720.275	28776.11
720.617	28795.09
720.96	28670.35
721.303	28631.03
721.646	28665.38
721.989	28357.36
722.331	28587.41
722.674	28440.07
723.016	28535.89
723.359	28430.13
723.701	28370.69
724.044	28231.49
724.386	28090.48
724.729	28123.7
725.071	28042.34
725.413	28179.29
725.755	28019.52
726.097	28026.52
726.439	27862.23
726.782	27947.43
727.124	27865.4
727.465	27752.63
727.807	27659.98
728.149	27661.33
728.491	27643.71
728.833	27741.56
729.175	27522.36
729.516	27469.25
729.858	27481.45
730.199	27593.54
730.541	27431.96
730.882	27408.91
731.224	27373.43
731.565	27332.3
731.906	27324.17
732.248	27385.18
732.589	27151.52
732.93	27080.56
733.271	27107.23
733.612	27184.74
733.953	27130.73
734.294	27003.72
734.635	27014.12
734.976	27093.67
735.317	26840.79
735.658	26931.41
735.999	26856.16
736.339	26822.03
736.68	26856.84
737.021	26768.02
737.361	26569.39
737.702	26733.9
738.042	26665.2
738.383	26550.86
738.723	26669.04
739.063	26599.67
739.404	26613.23
739.744	26450.75
740.084	26413.68
740.424	26348.6
740.764	26284.87
741.104	26271.09
741.444	26133.92
741.784	26072.45
742.124	26166.68
742.464	26140.24
742.804	26041.04
743.143	26034.48
743.483	26092.11
743.823	25997.2
744.162	25891.66
744.502	25999.23
744.841	25787.71
745.181	25934.6
745.52	25775.28
745.86	25813.47
746.199	25785.68
746.538	25748.39
746.877	25711.33
747.216	25582.97
747.556	25636.08
747.895	25603.08
748.234	25573.93
748.573	25520.83
748.911	25408.06
749.25	25463.65
749.589	25362.86
749.928	25321.74
750.267	25396.54
750.605	25246.03
750.944	25355.41
751.283	25073.15
751.621	25230.44
751.96	25059.37
752.298	25020.05
752.636	24918.13
752.975	24874.52
753.313	24784.35
753.651	24912.03
753.989	24742.54
754.327	24686.72
754.666	24622.77
755.004	24695.09
755.342	24581.64
755.679	24564.69
756.017	24418.71
756.355	24525.15
756.693	24371.7
757.031	24392.27
757.368	24278.6
757.706	24240.86
758.044	24150.92
758.381	24212.39
758.719	24048.32
759.056	24041.99
759.394	23976.69
759.731	23743.7
760.068	23853.3
760.405	23700.99
