Data from hue_160_FLMS001491_00002.txt Node
Date: Tue Feb 07 16:50:39 GMT 2017
User: dcchb
Spectrometer: FLMS00149
Trigger mode: 0
Integration Time (sec): 2.000000E-2
Scans to average: 10
Electric dark correction enabled: true
Nonlinearity correction enabled: false
Boxcar width: 0
XAxis mode: Wavelengths
Number of Pixels in Spectrum: 2048
>>>>>Begin Spectral Data<<<<<
341.393	-10.3
341.776	-10.3
342.16	-10.3
342.543	-83.97
342.927	-81.03
343.31	-81.93
343.693	-65.66
344.077	-74.7
344.46	-54.14
344.843	-68.6
345.226	-39
345.61	-20.24
345.993	-28.37
346.376	15.24
346.759	1.91
347.142	27.67
347.525	37.16
347.908	72.87
348.291	82.58
348.674	94.79
349.057	100.44
349.44	101.57
349.823	148.12
350.206	148.57
350.588	191.73
350.971	206.42
351.354	221.79
351.737	223.82
352.119	259.08
352.502	267.89
352.884	253.65
353.267	269.47
353.65	280.54
354.032	294.55
354.414	289.58
354.797	339.3
355.179	302.24
355.562	307.66
355.944	325.51
356.326	327.1
356.709	306.53
357.091	327.77
357.473	313.99
357.855	327.55
358.238	344.27
358.62	342.24
359.002	336.36
359.384	338.4
359.766	339.3
360.148	351.5
360.53	331.39
360.912	323.03
361.294	338.85
361.676	331.16
362.057	333.88
362.439	324.16
362.821	326.42
363.203	325.74
363.584	314.89
363.966	294.55
364.348	311.05
364.729	310.37
365.111	312.86
365.493	329.36
365.874	296.81
366.256	307.44
366.637	302.46
367.019	297.94
367.4	306.53
367.781	300.88
368.163	316.47
368.544	292.07
368.925	286.65
369.306	313.54
369.688	308.57
370.069	325.06
370.45	322.12
370.831	326.42
371.212	318.28
371.593	290.03
371.974	311.96
372.355	294.33
372.736	309.24
373.117	304.5
373.498	297.94
373.879	297.49
374.26	313.99
374.641	328
375.021	321.9
375.402	320.99
375.783	322.58
376.163	311.5
376.544	299.98
376.925	332.52
377.305	301.56
377.686	315.12
378.066	313.31
378.447	326.64
378.827	321.22
379.208	325.51
379.588	318.96
379.968	332.07
380.349	348.34
380.729	321.67
381.109	345.85
381.489	328.23
381.87	341.56
382.25	328.9
382.63	338.4
383.01	315.57
383.39	331.62
383.77	341.33
384.15	344.27
384.53	340.65
384.91	342.24
385.29	346.98
385.67	334.33
386.049	339.98
386.429	333.65
386.809	342.24
387.189	345.4
387.568	348.34
387.948	356.47
388.328	377.26
388.707	325.97
389.087	352.86
389.466	373.87
389.846	351.28
390.225	349.69
390.605	368.9
390.984	347.21
391.363	366.64
391.743	365.96
392.122	360.32
392.501	370.26
392.881	366.42
393.26	360.54
393.639	360.99
394.018	374.55
394.397	388.56
394.776	369.35
395.155	365.29
395.534	390.82
395.913	365.29
396.292	385.17
396.671	370.71
397.05	367.09
397.429	396.7
397.808	388.79
398.186	370.03
398.565	383.14
398.944	394.44
399.323	384.5
399.701	378.85
400.08	373.42
400.458	388.11
400.837	392.63
401.215	399.41
401.594	406.42
401.972	401.44
402.351	421.1
402.729	393.53
403.107	405.06
403.486	429.47
403.864	400.31
404.242	411.16
404.62	393.99
404.999	418.17
405.377	397.15
405.755	411.84
406.133	422.01
406.511	419.07
406.889	417.04
407.267	418.17
407.645	423.36
408.023	419.97
408.401	438.05
408.779	448.67
409.156	462.91
409.534	427.66
409.912	449.8
410.29	464.72
410.667	444.61
411.045	424.49
411.422	455.45
411.8	471.5
412.178	470.37
412.555	468.34
412.933	487.77
413.31	477.37
413.687	475.34
414.065	480.09
414.442	471.05
414.819	490.03
415.197	501.33
415.574	490.03
415.951	503.14
416.328	500.42
416.705	506.98
417.082	508.33
417.46	521.44
417.837	497.94
418.214	507.66
418.591	518.73
418.967	517.15
419.344	531.38
419.721	537.03
420.098	522.12
420.475	550.59
420.852	551.95
421.228	533.19
421.605	560.54
421.982	536.58
422.358	538.16
422.735	549.91
423.111	579.97
423.488	547.66
423.864	555.79
424.241	583.81
424.617	567.09
424.994	582.23
425.37	602.12
425.746	578.61
426.123	594.66
426.499	622
426.875	605.96
427.251	596.24
427.627	634.66
428.003	621.55
428.379	642.57
428.756	640.99
429.132	610.93
429.507	623.81
429.883	636.69
430.259	625.85
430.635	661.55
431.011	660.87
431.387	662.45
431.763	680.98
432.138	676.01
432.514	669.91
432.89	672.4
433.265	716.46
433.641	678.5
434.016	713.3
434.392	727.31
434.767	732.06
435.143	738.16
435.518	739.06
435.894	741.1
436.269	753.07
436.644	758.5
437.02	771.83
437.395	769.8
437.77	777.48
438.145	773.41
438.52	797.59
438.895	815.9
439.271	796.01
439.646	799.4
440.021	826.07
440.395	834.88
440.77	805.05
441.145	835.56
441.52	824.48
441.895	846.4
442.27	857.03
442.645	866.29
443.019	880.08
443.394	857.7
443.769	891.15
444.143	880.75
444.518	886.18
444.892	894.31
445.267	909.23
445.641	921.88
446.016	932.73
446.39	923.46
446.764	931.15
447.139	906.97
447.513	936.35
447.887	937.25
448.262	944.25
448.636	945.38
449.01	950.13
449.384	958.94
449.758	972.5
450.132	990.36
450.506	993.97
450.88	1004.37
451.254	991.71
451.628	1036.91
452.002	1046.17
452.376	1031.03
452.75	1024.03
453.123	1023.12
453.497	1049.34
453.871	1079.17
454.244	1084.59
454.618	1082.56
454.992	1116.45
455.365	1111.26
455.739	1106.51
456.112	1117.36
456.486	1164.81
456.859	1162.33
457.232	1198.26
457.606	1186.06
457.979	1197.13
458.352	1237.81
458.725	1249.78
459.099	1243.91
459.472	1253.63
459.845	1280.29
460.218	1282.33
460.591	1310.57
460.964	1315.32
461.337	1340.4
461.71	1374.98
462.083	1400.97
462.456	1413.17
462.829	1361.42
463.201	1439.16
463.574	1401.42
463.947	1459.27
464.32	1465.15
464.692	1511.92
465.065	1534.52
465.438	1572.71
465.81	1564.58
466.183	1580.4
466.555	1613.62
466.928	1652.26
467.3	1640.28
467.672	1667.63
468.045	1739.71
468.417	1754.4
468.789	1714.63
469.161	1774.97
469.534	1794.85
469.906	1855.87
470.278	1897.45
470.65	1902.65
471.022	1956.43
471.394	1991.01
471.766	2028.75
472.138	2071.46
472.51	2072.81
472.882	2158.23
473.253	2227.38
473.625	2206.37
473.997	2295.18
474.369	2306.03
474.74	2374.27
475.112	2388.06
475.484	2435.74
475.855	2530.65
476.227	2591.22
476.598	2649.52
476.97	2693.59
477.341	2753.7
477.713	2853.81
478.084	2876.86
478.455	2976.52
478.827	3036.86
479.198	3133.58
479.569	3171.77
479.94	3255.38
480.311	3383.51
480.682	3497.18
481.053	3542.6
481.424	3709.61
481.795	3735.14
482.166	3830.28
482.537	3908.92
482.908	4018.98
483.279	4071.86
483.65	4199.99
484.021	4322.92
484.391	4402.24
484.762	4504.16
485.133	4595.23
485.503	4739.41
485.874	4852.17
486.244	4960.42
486.615	5066.41
486.985	5164.93
487.356	5328.55
487.726	5407.64
488.097	5607.18
488.467	5670.68
488.837	5841.53
489.207	5913.16
489.578	6052.37
489.948	6216.43
490.318	6351.57
490.688	6461.62
491.058	6641.96
491.428	6766.47
491.798	6880.6
492.168	7023.64
492.538	7159.46
492.908	7270.19
493.278	7416.85
493.648	7495.72
494.017	7624.08
494.387	7713.12
494.757	7823.62
495.126	8002.83
495.496	8081.24
495.866	8135.7
496.235	8310.39
496.605	8455.24
496.974	8553.77
497.344	8655.01
497.713	8787.66
498.082	8818.85
498.452	9052.29
498.821	9160.99
499.19	9221.55
499.559	9333.86
499.928	9345.16
500.298	9424.03
500.667	9629.68
501.036	9586.51
501.405	9756.9
501.774	9840.97
502.143	9915.54
502.512	10009.78
502.88	10073.96
503.249	10152.83
503.618	10258.36
503.987	10263.78
504.356	10377.68
504.724	10448.19
505.093	10617.45
505.462	10525.92
505.83	10642.53
506.199	10757.78
506.567	10919.36
506.936	10908.96
507.304	10980.83
507.672	11120.48
508.041	11141.5
508.409	11165.68
508.777	11297.88
509.145	11373.59
509.514	11351.66
509.882	11457.42
510.25	11375.84
510.618	11551.89
510.986	11543.3
511.354	11632.56
511.722	11725.21
512.09	11838.21
512.458	11803.63
512.826	11831.43
513.193	11938.77
513.561	11986
513.929	12084.07
514.297	12114.13
514.664	12138.99
515.032	12144.86
515.4	12239.33
515.767	12261.7
516.135	12306.22
516.502	12198.42
516.869	12361.36
517.237	12415.14
517.604	12313.45
517.972	12431.64
518.339	12454.23
518.706	12428.92
519.073	12523.84
519.44	12628.69
519.808	12567
520.175	12578.3
520.542	12740.55
520.909	12757.96
521.276	12727.9
521.643	12724.74
522.009	12804.96
522.376	12819.87
522.743	12920.44
523.11	12961.11
523.477	13044.05
523.843	13012.64
524.21	13107.32
524.577	13090.38
524.943	13098.51
525.31	13138.06
525.676	13164.05
526.043	13128.79
526.409	13137.38
526.776	13208.34
527.142	13223.93
527.508	13309.35
527.874	13264.83
528.241	13202.01
528.607	13214.67
528.973	13396.36
529.339	13311.16
529.705	13356.81
530.071	13468.9
530.437	13363.36
530.803	13372.63
531.169	13356.58
531.535	13338.73
531.901	13314.33
532.267	13339.86
532.632	13271.16
532.998	13307.09
533.364	13318.39
533.73	13271.39
534.095	13360.43
534.461	13366.53
534.826	13300.31
535.192	13280.65
535.557	13321.33
535.923	13280.88
536.288	13300.54
536.653	13228.23
537.019	13157.04
537.384	13145.52
537.749	13062.81
538.114	13077.72
538.479	13052.86
538.845	13010.15
539.21	12962.02
539.575	13020.32
539.94	12896.26
540.305	13044.95
540.67	12880.21
541.034	12900.78
541.399	12777.62
541.764	12824.17
542.129	12769.71
542.494	12736.94
542.858	12782.36
543.223	12713.89
543.587	12713.21
543.952	12646.77
544.316	12531.97
544.681	12483.16
545.045	12597.51
545.41	12564.97
545.774	12420.34
546.138	12439.09
546.503	12458.75
546.867	12341.92
547.231	12399.55
547.595	12396.84
547.959	12320.9
548.324	12265.99
548.688	12296.5
549.052	12212.43
549.416	12135.37
549.779	12103.51
550.143	12044.3
550.507	12112.1
550.871	12000.24
551.235	12014.25
551.599	12070.74
551.962	12023.06
552.326	11983.51
552.689	11953.91
553.053	11817.87
553.417	11872.1
553.78	11938.99
554.143	11873.68
554.507	11812.9
554.87	11861.03
555.234	11900.8
555.597	11769.96
555.96	11753.01
556.323	11809.96
556.686	11741.49
557.05	11653.35
557.413	11761.82
557.776	11722.95
558.139	11735.16
558.502	11655.84
558.865	11678.89
559.228	11814.03
559.59	11736.29
559.953	11713.24
560.316	11663.75
560.679	11734.48
561.041	11689.06
561.404	11779.22
561.767	11816.06
562.129	11729.51
562.492	11719.79
562.854	11675.27
563.217	11644.76
563.579	11704.42
563.941	11605.44
564.304	11711.66
564.666	11769.51
565.028	11672.56
565.39	11714.59
565.753	11730.64
566.115	11717.08
566.477	11814.48
566.839	11745.33
567.201	11828.04
567.563	11765.89
567.925	11869.39
568.287	11839.79
568.648	11852.22
569.01	11881.37
569.372	11896.74
569.734	11884.08
570.095	11919.33
570.457	11861.03
570.819	11828.04
571.18	11856.06
571.542	11922.72
571.903	11970.41
572.265	11947.58
572.626	11941.71
572.987	11936.96
573.349	11979.44
573.71	11945.32
574.071	12040.01
574.432	11972.44
574.794	12030.52
575.155	11979.44
575.516	11983.96
575.877	12065.32
576.238	12030.29
576.599	12113
576.96	12043.17
577.32	11953
577.681	12132.21
578.042	12074.58
578.403	12028.48
578.763	12096.73
579.124	12044.3
579.485	12075.26
579.845	12093.11
580.206	12076.62
580.566	12108.03
580.927	12141.47
581.287	12113.68
581.648	12062.38
582.008	12109.84
582.368	12077.97
582.728	12087.01
583.089	11983.74
583.449	12085.66
583.809	12016.28
584.169	12069.39
584.529	11996.62
584.889	12016.28
585.249	12000.91
585.609	11858.32
585.969	11952.33
586.329	11967.47
586.688	11861.03
587.048	11986.45
587.408	11905.77
587.768	11919.56
588.127	11815.38
588.487	11886.34
588.846	11972.89
589.206	11980.57
589.565	11913.23
589.925	11920.01
590.284	11827.81
590.643	11915.27
591.003	11920.92
591.362	11900.58
591.721	11921.59
592.08	11855.61
592.44	11872.56
592.799	11964.76
593.158	11783.74
593.517	11866.68
593.876	11862.84
594.235	11854.93
594.593	11779.45
594.952	11805.44
595.311	11748.04
595.67	11814.03
596.029	11851.09
596.387	11872.56
596.746	11896.06
597.104	11803.63
597.463	11802.73
597.822	11791.2
598.18	11703.97
598.538	11753.01
598.897	11748.26
599.255	11694.93
599.613	11842.73
599.972	11790.07
600.33	11814.7
600.688	11776.96
601.046	11786.23
601.404	11783.97
601.762	11757.08
602.12	11817.19
602.478	11827.36
602.836	11805.66
603.194	11811.77
603.552	11781.48
603.91	11706.23
604.268	11761.6
604.625	11640.47
604.983	11735.16
605.341	11702.39
605.698	11787.13
606.056	11726.34
606.413	11696.29
606.771	11771.31
607.128	11818.32
607.485	11748.49
607.843	11762.5
608.2	11723.41
608.557	11823.06
608.914	11775.61
609.272	11817.87
609.629	11855.38
609.986	11822.61
610.343	11793.46
610.7	11861.93
611.057	11824.65
611.414	11841.14
611.771	11885.21
612.127	11923.63
612.484	11914.14
612.841	11879.33
613.198	11934.02
613.554	11952.33
613.911	11929.28
614.267	11985.77
614.624	11980.12
614.98	11981.7
615.337	11986.22
615.693	11958.2
616.05	11896.96
616.406	11942.61
616.762	12062.83
617.118	11986
617.475	11972.67
617.831	11915.94
618.187	12105.77
618.543	12092.89
618.899	12142.6
619.255	11991.2
619.611	12011.53
619.967	12079.1
620.323	12028.71
620.678	12097.18
621.034	12023.96
621.39	12077.07
621.746	12001.59
622.101	12155.26
622.457	12030.97
622.812	12105.77
623.168	12135.15
623.523	12173.34
623.879	12142.15
624.234	12038.65
624.589	12122.72
624.945	12098.99
625.3	12083.4
625.655	12070.52
626.01	12055.6
626.365	12086.33
626.72	12045.88
627.075	12138.54
627.43	12051.08
627.785	12039.56
628.14	12037.07
628.495	12071.19
628.85	12013.57
629.205	12022.61
629.559	12026
629.914	12017.41
630.269	12026.68
630.623	12000.24
630.978	11911.65
631.332	12025.77
631.687	12036.39
632.041	11953.68
632.396	11988.71
632.75	11930.18
633.104	11863.52
633.459	11786.91
633.813	11933.57
634.167	11868.71
634.521	11859.67
634.875	11955.94
635.229	11868.49
635.583	11887.47
635.937	11822.61
636.291	11764.31
636.645	11793.69
636.999	11778.55
637.352	11777.19
637.706	11670.75
638.06	11696.29
638.413	11801.14
638.767	11637.98
639.121	11636.63
639.474	11619
639.828	11585.56
640.181	11656.97
640.534	11681.83
640.888	11600.25
641.241	11581.72
641.594	11575.84
641.947	11572.22
642.301	11505.11
642.654	11608.83
643.007	11610.64
643.36	11588.95
643.713	11485.67
644.066	11574.48
644.419	11500.81
644.771	11527.48
645.124	11338.11
645.477	11369.52
645.83	11267.37
646.182	11275.96
646.535	11226.02
646.888	11204.1
647.24	11148.51
647.593	11209.97
647.945	11222.63
648.298	11107.83
648.65	11143.31
649.002	11087.72
649.355	11104.89
649.707	11138.11
650.059	11202.52
650.411	11318.9
650.763	11333.36
651.115	11391.44
651.467	11414.49
651.819	11390.31
652.171	11408.39
652.523	11378.78
652.875	11336.52
653.227	11310.08
653.578	11397.31
653.93	11449.29
654.282	11343.08
654.633	11346.47
654.985	11325.68
655.337	11376.07
655.688	11346.02
656.039	11421.04
656.391	11315.06
656.742	11302.4
657.094	11405.45
657.445	11428.05
657.796	11410.19
658.147	11359.8
658.498	11399.8
658.849	11421.04
659.2	11437.09
659.551	11341.5
659.902	11481.38
660.253	11468.05
660.604	11423.3
660.955	11370.2
661.306	11485.67
661.656	11482.73
662.007	11389.4
662.358	11472.34
662.708	11515.73
663.059	11464.88
663.409	11392.57
663.76	11421.49
664.11	11474.37
664.461	11455.62
664.811	11466.46
665.161	11464.43
665.511	11460.59
665.862	11462.62
666.212	11464.2
666.562	11491.1
666.912	11440.93
667.262	11435.5
667.612	11447.48
667.962	11554.15
668.312	11396.18
668.662	11496.07
669.011	11450.87
669.361	11493.13
669.711	11378.33
670.06	11409.97
670.41	11386.69
670.76	11344.21
671.109	11426.69
671.459	11331.33
671.808	11325.22
672.157	11398.22
672.507	11362.51
672.856	11382.62
673.205	11397.54
673.554	11470.98
673.904	11350.76
674.253	11380.59
674.602	11262.85
674.951	11252.23
675.3	11110.32
675.649	11300.59
675.998	11297.2
676.346	11250.42
676.695	11329.52
677.044	11238.22
677.393	11212.01
677.741	11187.15
678.09	11243.19
678.438	11136.08
678.787	11198.22
679.135	11139.69
679.484	11139.02
679.832	11200.48
680.181	11043.65
680.529	11096.08
680.877	11068.28
681.225	11079.36
681.573	11118
681.922	11032.13
682.27	10991.9
682.618	10995.74
682.966	10985.8
683.314	10991.45
683.661	10987.83
684.009	10933.82
684.357	10963.2
684.705	10887.04
685.053	10931.56
685.4	10874.16
685.748	10832.58
686.095	10793.71
686.443	10793.94
686.79	10748.97
687.138	10752.36
687.485	10742.19
687.832	10629.88
688.18	10720.49
688.527	10656.09
688.874	10619.25
689.221	10567.5
689.568	10559.14
689.915	10465.81
690.262	10491.12
690.609	10473.95
690.956	10369.77
691.303	10361.41
691.65	10374.29
691.997	10355.53
692.344	10271.69
692.69	10298.81
693.037	10185.82
693.383	10130.45
693.73	10207.06
694.077	10145.37
694.423	10081.42
694.769	10064.02
695.116	9996.22
695.462	9991.25
695.808	9945.6
696.155	10005.71
696.501	9905.83
696.847	9910.8
697.193	9851.14
697.539	9835.32
697.885	9765.04
698.231	9747.19
698.577	9736.34
698.923	9680.52
699.269	9685.27
699.614	9631.03
699.96	9648.66
700.306	9552.16
700.651	9487.76
700.997	9478.27
701.342	9461.77
701.688	9357.14
702.033	9414.54
702.379	9356.24
702.724	9342
703.069	9336.8
703.415	9216.81
703.76	9271.04
704.105	9178.39
704.45	9144.49
704.795	9119.63
705.14	9110.14
705.485	9084.15
705.83	9006.64
706.175	9049.13
706.52	9041.9
706.865	8932.97
707.209	8957.38
707.554	8893.42
707.899	8949.47
708.243	8850.26
708.588	8815.01
708.932	8819.98
709.277	8782.47
709.621	8790.6
709.966	8746.54
710.31	8743.37
710.654	8700.66
710.998	8675.58
711.342	8676.25
711.687	8641.68
712.031	8609.36
712.375	8587.67
712.719	8602.58
713.063	8564.85
713.407	8627.89
713.75	8542.47
714.094	8573.88
714.438	8490.05
714.782	8533.89
715.125	8514.68
715.469	8478.07
715.812	8419.99
716.156	8337.96
716.499	8410.73
716.843	8435.81
717.186	8327.34
717.53	8395.36
717.873	8366.43
718.216	8308.81
718.559	8265.87
718.902	8242.14
719.246	8275.14
719.589	8266.1
719.932	8218.41
720.275	8216.38
720.617	8135.48
720.96	8295.7
721.303	8182.26
721.646	8213.44
721.989	8150.17
722.331	8203.95
722.674	8147
723.016	8172.99
723.359	8179.54
723.701	8134.8
724.044	8132.54
724.386	8107.23
724.729	8120.11
725.071	8061.13
725.413	8070.4
725.755	8155.14
726.097	8078.53
726.439	8057.51
726.782	8002.6
727.124	8159.43
727.465	7995.82
727.807	8092.32
728.149	8026.33
728.491	8041.24
728.833	8027.46
729.175	8055.93
729.516	8013.22
729.858	8050.73
730.199	8067.01
730.541	8015.71
730.882	8005.54
731.224	8055.71
731.565	7945.65
731.906	7997.85
732.248	8035.59
732.589	7979.78
732.93	7983.17
733.271	7956.95
733.612	7971.87
733.953	8017.06
734.294	7996.27
734.635	8029.04
734.976	7971.87
735.317	7936.16
735.658	7914.02
735.999	8032.43
736.339	7951.08
736.68	7967.35
737.021	8009.15
737.361	8007.57
737.702	8038.76
738.042	8006.67
738.383	7979.78
738.723	8004.63
739.063	8054.35
739.404	8102.26
739.744	8073.11
740.084	8052.32
740.424	8036.05
740.764	8076.04
741.104	8091.19
741.444	8069.72
741.784	8045.76
742.124	8109.26
742.464	8162.37
742.804	8166.89
743.143	8166.66
743.483	8241.01
743.823	8214.8
744.162	8186.78
744.502	8331.63
744.841	8246.44
745.181	8363.04
745.52	8342.93
745.86	8416.15
746.199	8432.87
746.538	8475.81
746.877	8536.6
747.216	8568.01
747.556	8582.92
747.895	8648.01
748.234	8609.14
748.573	8682.13
748.911	8786.76
749.25	8864.27
749.589	8839.41
749.928	8946.98
750.267	9019.3
750.605	9099.29
750.944	9145.85
751.283	9210.48
751.621	9336.35
751.96	9317.82
752.298	9538.15
752.636	9586.97
752.975	9625.83
753.313	9689.34
753.651	9903.12
753.989	9897.92
754.327	10044.58
754.666	10084.58
755.004	10244.58
755.342	10422.88
755.679	10481.86
756.017	10614.06
756.355	10729.08
756.693	10829.19
757.031	11007.95
757.368	11142.4
757.706	11266.47
758.044	11397.54
758.381	11595.95
758.719	11733.35
759.056	11858.32
759.394	12015.6
