Data from hue_00_FLMS001491_47.txt Node
Date: Mon Feb 06 15:29:46 GMT 2017
User: dcchb
Spectrometer: FLMS00149
Trigger mode: 0
Integration Time (sec): 2.000000E-2
Scans to average: 10
Electric dark correction enabled: true
Nonlinearity correction enabled: false
Boxcar width: 0
XAxis mode: Wavelengths
Number of Pixels in Spectrum: 2048
>>>>>Begin Spectral Data<<<<<
341.393	0.65
341.776	0.65
342.16	0.65
342.543	-78.44
342.927	-90.42
343.31	-61.95
343.693	-68.5
344.077	-61.04
344.46	-52.23
344.843	-51.78
345.226	-35.51
345.61	-51.1
345.993	5.62
346.376	-5.9
346.759	-4.55
347.142	25.96
347.525	51.72
347.908	50.14
348.291	66.18
348.674	102.79
349.057	90.14
349.44	126.97
349.823	150.93
350.206	144.6
350.588	193.86
350.971	206.29
351.354	209.23
351.737	223.69
352.119	245.62
352.502	248.33
352.884	253.52
353.267	271.83
353.65	285.16
354.032	304.14
354.414	303.92
354.797	291.49
355.179	292.17
355.562	334.65
355.944	324.03
356.326	318.83
356.709	298.49
357.091	342.34
357.473	345.27
357.855	327.65
358.238	342.11
358.62	329
359.002	334.2
359.384	329
359.766	338.72
360.148	354.09
360.53	344.14
360.912	341.66
361.294	323.35
361.676	325.61
362.057	325.84
362.439	330.58
362.821	324.26
363.203	321.09
363.584	348.44
363.966	293.52
364.348	307.99
364.729	317.48
365.111	305.73
365.493	305.05
365.874	296.01
366.256	329
366.637	312.73
367.019	313.86
367.4	292.85
367.781	273.64
368.163	319.96
368.544	303.47
368.925	305.95
369.306	299.17
369.688	324.71
370.069	284.48
370.45	308.89
370.831	319.74
371.212	314.77
371.593	302.34
371.974	317.25
372.355	299.85
372.736	298.49
373.117	313.18
373.498	300.75
373.879	312.28
374.26	305.5
374.641	292.85
375.021	306.63
375.402	316.8
375.783	319.29
376.163	321.77
376.544	330.36
376.925	302.79
377.305	300.98
377.686	322
378.066	303.92
378.447	307.76
378.827	330.81
379.208	320.64
379.588	315.22
379.968	343.47
380.349	322.22
380.729	313.41
381.109	323.58
381.489	333.75
381.87	335.1
382.25	342.11
382.63	318.38
383.01	326.29
383.39	299.17
383.77	350.02
384.15	338.49
384.53	334.43
384.91	317.03
385.29	327.65
385.67	349.57
386.049	358.38
386.429	330.81
386.809	332.84
387.189	349.34
387.568	341.43
387.948	342.11
388.328	343.24
388.707	374.2
389.087	340.98
389.466	343.24
389.846	358.83
390.225	359.06
390.605	329.68
390.984	344.6
391.363	335.78
391.743	362.22
392.122	351.83
392.501	357.25
392.881	355.44
393.26	347.31
393.639	361.32
394.018	350.7
394.397	375.56
394.776	375.33
395.155	370.36
395.534	383.01
395.913	367.42
396.292	380.07
396.671	362.45
397.05	379.62
397.429	394.54
397.808	357.25
398.186	356.8
398.565	385.27
398.944	366.29
399.323	371.49
399.701	365.16
400.08	389.79
400.458	394.76
400.837	383.24
401.215	378.49
401.594	400.64
401.972	405.61
402.351	406.74
402.729	385.95
403.107	374.43
403.486	385.05
403.864	396.8
404.242	407.64
404.62	404.03
404.999	388.66
405.377	420.98
405.755	382.56
406.133	408.55
406.511	382.33
406.889	397.25
407.267	420.98
407.645	400.87
408.023	417.59
408.401	436.8
408.779	436.12
409.156	403.8
409.534	430.47
409.912	406.51
410.29	425.27
410.667	426.18
411.045	427.53
411.422	436.34
411.8	425.95
412.178	469.34
412.555	451.94
412.933	449.9
413.31	459.85
413.687	467.76
414.065	450.13
414.442	450.81
414.819	458.72
415.197	465.95
415.574	454.2
415.951	460.75
416.328	473.86
416.705	484.25
417.082	471.6
417.46	457.36
417.837	467.08
418.214	491.71
418.591	518.38
418.967	505.27
419.344	501.2
419.721	506.17
420.098	507.53
420.475	496.23
420.852	525.61
421.228	523.12
421.605	518.15
421.982	500.07
422.358	505.27
422.735	515.44
423.111	525.83
423.488	519.96
423.864	544.59
424.241	531.03
424.617	533.74
424.994	534.19
425.37	544.82
425.746	546.85
426.123	528.55
426.499	547.75
426.875	547.98
427.251	540.52
427.627	568.32
428.003	590.01
428.379	576.91
428.756	576.91
429.132	577.81
429.507	568.09
429.883	597.02
430.259	601.54
430.635	587.98
431.011	581.88
431.387	618.94
431.763	607.41
432.138	583.01
432.514	642.21
432.89	624.14
433.265	631.59
433.641	644.93
434.016	628.43
434.392	627.75
434.767	643.57
435.143	629.11
435.518	658.03
435.894	669.33
436.269	678.15
436.644	676.56
437.02	690.35
437.395	671.82
437.77	697.35
438.145	704.59
438.52	687.41
438.895	697.58
439.271	694.64
439.646	713.17
440.021	693.96
440.395	710.91
440.77	712.72
441.145	738.26
441.52	744.36
441.895	734.19
442.27	741.2
442.645	747.07
443.019	756.79
443.394	748.88
443.769	735.55
444.143	726.05
444.518	757.92
444.892	757.69
445.267	765.15
445.641	747.3
446.016	757.69
446.39	767.41
446.764	790.46
447.139	798.59
447.513	805.6
447.887	780.29
448.262	812.83
448.636	807.41
449.01	820.06
449.384	802.89
449.758	810.12
450.132	836.56
450.506	817.58
450.88	824.13
451.254	833.62
451.628	835.43
452.002	857.35
452.376	836.33
452.75	823.68
453.123	859.84
453.497	853.73
453.871	878.14
454.244	906.84
454.618	903.68
454.992	892.15
455.365	896.67
455.739	919.72
456.112	917.01
456.486	917.91
456.859	938.48
457.232	938.03
457.606	966.5
457.979	967.4
458.352	960.85
458.725	989.32
459.099	980.06
459.472	999.27
459.845	1020.96
460.218	1031.36
460.591	1011.24
460.964	1028.42
461.337	1048.98
461.71	1072.49
462.083	1058.47
462.456	1118.81
462.829	1085.59
463.201	1098.93
463.574	1119.94
463.947	1102.77
464.32	1110.68
464.692	1133.28
465.065	1142.09
465.438	1173.73
465.81	1181.41
466.183	1169.88
466.555	1185.48
466.928	1204.91
467.3	1198.81
467.672	1219.6
468.045	1222.31
468.417	1237
468.789	1287.17
469.161	1301.63
469.534	1317.23
469.906	1332.37
470.278	1303.89
470.65	1360.84
471.022	1356.09
471.394	1377.56
471.766	1392.93
472.138	1394.96
472.51	1394.96
472.882	1477
473.253	1460.05
473.625	1485.13
473.997	1542.98
474.369	1556.54
474.74	1552.7
475.112	1582.98
475.484	1601.06
475.855	1631.12
476.227	1611.23
476.598	1706.59
476.97	1730.55
477.341	1751.34
477.713	1763.99
478.084	1787.72
478.455	1827.04
478.827	1862.07
479.198	1879.24
479.569	1926.02
479.94	1951.33
480.311	2001.05
480.682	2017.09
481.053	2058.45
481.424	2114.49
481.795	2105.23
482.166	2149.75
482.537	2195.17
482.908	2232.23
483.279	2256.64
483.65	2304.09
484.021	2384.54
484.391	2369.63
484.762	2371.89
485.133	2434.94
485.503	2503.18
485.874	2481.04
486.244	2526.91
486.615	2592.45
486.985	2612.11
487.356	2647.13
487.726	2659.11
488.097	2713.57
488.467	2766.45
488.837	2831.08
489.207	2867.02
489.578	2909.05
489.948	2907.69
490.318	2931.19
490.688	3029.04
491.058	3003.51
491.428	3084.64
491.798	3124.18
492.168	3166.67
492.538	3171.64
492.908	3257.97
493.278	3265.42
493.648	3299.77
494.017	3334.12
494.387	3356.72
494.757	3404.18
495.126	3389.04
495.496	3432.42
495.866	3521.24
496.235	3492.31
496.605	3571.63
496.974	3543.83
497.344	3604.4
497.713	3596.71
498.082	3618.41
498.452	3657.5
498.821	3707.9
499.19	3737.5
499.559	3748.12
499.928	3818.63
500.298	3755.13
500.667	3795.58
501.036	3823.83
501.405	3823.6
501.774	3895.46
502.143	3880.55
502.512	3924.61
502.88	3935.01
503.249	3962.35
503.618	3985.86
503.987	4007.78
504.356	3988.57
504.724	4035.35
505.093	4045.74
505.462	4086.87
505.83	4103.37
506.199	4171.84
506.567	4167.09
506.936	4170.94
507.304	4212.29
507.672	4235.34
508.041	4210.26
508.409	4227.88
508.777	4269.92
509.145	4301.33
509.514	4237.15
509.882	4319.18
510.25	4386.3
510.618	4366.86
510.986	4371.38
511.354	4394.21
511.722	4404.83
512.09	4438.95
512.458	4401.89
512.826	4455.9
513.193	4496.8
513.561	4510.14
513.929	4540.42
514.297	4560.08
514.664	4610.02
515.032	4595.56
515.4	4582.45
515.767	4628.78
516.135	4596.24
516.502	4603.24
516.869	4696.35
517.237	4690.92
517.604	4709.45
517.972	4718.72
518.339	4747.64
518.706	4728.21
519.073	4781.31
519.44	4790.35
519.808	4862.44
520.175	4833.29
520.542	4841.2
520.909	4843.91
521.276	4885.04
521.643	4907.87
522.009	4941.54
522.376	4970.91
522.743	4958.26
523.11	5022.44
523.477	5064.7
523.843	5066.96
524.21	5119.39
524.577	5141.76
524.943	5111.25
525.31	5165.94
525.676	5176.56
526.043	5200.29
526.409	5253.62
526.776	5304.24
527.142	5348.53
527.508	5349.44
527.874	5388.08
528.241	5426.04
528.607	5412.26
528.973	5465.82
529.339	5461.07
529.705	5470.56
530.071	5510.56
530.437	5522.31
530.803	5556.44
531.169	5615.87
531.535	5597.56
531.901	5635.53
532.267	5649.09
532.632	5688.41
532.998	5736.54
533.364	5710.78
533.73	5775.87
534.095	5789.88
534.461	5828.29
534.826	5795.98
535.192	5864.45
535.557	5893.83
535.923	5923.43
536.288	5904.45
536.653	5999.14
537.019	5956.65
537.384	5948.74
537.749	6055.18
538.114	6042.52
538.479	6073.03
538.845	6045.24
539.21	6057.44
539.575	6083.88
539.94	6115.74
540.305	6160.71
540.67	6193.48
541.034	6246.59
541.399	6220.83
541.764	6228.96
542.129	6220.15
542.494	6361.16
542.858	6336.98
543.223	6305.12
543.587	6404.1
543.952	6414.94
544.316	6464.89
544.681	6450.2
545.045	6427.37
545.41	6450.2
545.774	6540.14
546.138	6538.33
546.503	6580.82
546.867	6577.65
547.231	6638.22
547.595	6610.19
547.959	6649.06
548.324	6693.13
548.688	6710.3
549.052	6767.25
549.416	6699.23
549.779	6738.78
550.143	6836.85
550.507	6826.91
550.871	6844.76
551.235	6846.57
551.599	6914.37
551.962	6926.34
552.326	6941.71
552.689	7002.05
553.053	7014.48
553.417	6979.22
553.78	7079.79
554.143	7037.98
554.507	7089.28
554.87	7119.56
555.234	7190.52
555.597	7103.74
555.96	7143.06
556.323	7177.18
556.686	7178.54
557.05	7257.18
557.413	7246.79
557.776	7223.06
558.139	7309.38
558.502	7316.39
558.865	7336.28
559.228	7394.13
559.59	7402.71
559.953	7338.54
560.316	7456.5
560.679	7466.22
561.041	7543.95
561.404	7531.75
561.767	7610.85
562.129	7554.8
562.492	7603.84
562.854	7633.9
563.217	7611.97
563.579	7642.03
563.941	7678.64
564.304	7770.16
564.666	7738.53
565.028	7825.3
565.39	7829.6
565.753	7883.15
566.115	7893.1
566.477	7861.69
566.839	7925.19
567.201	7954.11
567.563	7994.11
567.925	8044.28
568.287	8049.7
568.648	8062.13
569.01	8101.45
569.372	8146.2
569.734	8166.76
570.095	8173.54
570.457	8213.54
570.819	8299.64
571.18	8275.46
571.542	8310.26
571.903	8340.32
572.265	8391.39
572.626	8367.66
572.987	8496.92
573.349	8537.6
573.71	8588.45
574.071	8614.66
574.432	8673.87
574.794	8721.32
575.155	8767.42
575.516	8723.13
575.877	8897.82
576.238	8938.49
576.599	9004.03
576.96	9052.84
577.32	9093.07
577.681	9245.38
578.042	9208.32
578.403	9343.23
578.763	9440.4
579.124	9499.38
579.485	9675.42
579.845	9766.72
580.206	9832.03
580.566	9925.36
580.927	10014.17
581.287	10177.33
581.648	10255.52
582.008	10382.52
582.368	10570.54
582.728	10607.38
583.089	10814.83
583.449	10935.5
583.809	11083.52
584.169	11280.13
584.529	11351.54
584.889	11590.85
585.249	11677.63
585.609	11875.59
585.969	12124.17
586.329	12327.78
586.688	12497.72
587.048	12652.97
587.408	12882.12
587.768	13079.18
588.127	13221.55
588.487	13428.09
588.846	13748.31
589.206	13914.86
589.565	14135.19
589.925	14498.35
590.284	14689.53
590.643	14893.14
591.003	15208.16
591.362	15492.9
591.721	15640.69
592.08	15907.8
592.44	16198.42
592.799	16459.2
593.158	16703.26
593.517	17019.64
593.876	17306.86
594.235	17617.59
594.593	17757.24
594.952	18263.22
595.311	18391.35
595.67	18674.73
596.029	19154.95
596.387	19468.61
596.746	19639.68
597.104	19874.48
597.463	20175.26
597.822	20498.42
598.18	20730.95
598.538	21020.21
598.897	21359.86
599.255	21383.36
599.613	22051.14
599.972	22128.43
600.33	22470.57
600.688	22663.1
601.046	23036.43
601.404	23334.73
601.762	23538.79
602.12	23932.22
602.478	24158.21
602.836	24423.06
603.194	24645.43
603.552	24863.27
603.91	25050.84
604.268	25415.35
604.625	25487.89
604.983	25963.36
605.341	25973.07
605.698	26315.89
606.056	26723.11
606.413	26819.15
606.771	27241.52
607.128	27359.7
607.485	27486.03
607.843	27829.3
608.2	28060.7
608.557	28428.83
608.914	28565.77
609.272	28721.7
609.629	29033.78
609.986	29384.74
610.343	29356.26
610.7	29883.93
611.057	29888.23
611.414	30106.98
611.771	30223.13
612.127	30693.85
612.484	30907.86
612.841	30920.51
613.198	31093.62
613.554	31292.93
613.911	31560.5
614.267	31758.46
614.624	31766.14
614.98	31858.57
615.337	32323.64
615.693	32298.33
616.05	32403.41
616.406	32794.36
616.762	32776.51
617.118	32861.48
617.475	33059.89
617.831	33164.07
618.187	33469.15
618.543	33460.56
618.899	33844.73
619.255	33886.31
619.611	34051.96
619.967	34168.11
620.323	34440.42
620.678	34298.96
621.034	34358.39
621.39	34444.49
621.746	34558.84
622.101	35007.64
622.457	34750.92
622.812	34841.54
623.168	35140.74
623.523	35124.47
623.879	35427.74
624.234	35305.26
624.589	35386.84
624.945	35551.58
625.3	35592.26
625.655	35702.08
626.01	35756.32
626.365	35853.49
626.72	35825.24
627.075	35982.53
627.43	35950.66
627.785	35930.33
628.14	36165.57
628.495	36271.56
628.85	36207.61
629.205	36120.83
629.559	36468.39
629.914	36317.21
630.269	36419.58
630.623	36364.67
630.978	36370.09
631.332	36495.28
631.687	36659.12
632.041	36547.49
632.396	36424.32
632.75	36529.86
633.104	36633.36
633.459	36474.94
633.813	36648.27
634.167	36514.04
634.521	36683.75
634.875	36603.76
635.229	36627.03
635.583	36379.58
635.937	36629.74
636.291	36591.33
636.645	36638.56
636.999	36600.82
637.352	36763.3
637.706	36460.93
638.06	36688.05
638.413	36661.15
638.767	36545.68
639.121	36690.53
639.474	36403.99
639.828	36539.12
640.181	36564.66
640.534	36584.55
640.888	36532.57
641.241	36354.5
641.594	36485.11
641.947	36637.88
642.301	36473.81
642.654	36593.36
643.007	36549.75
643.36	36441.73
643.713	36328.96
644.066	36619.35
644.419	36359.02
644.771	36062.53
645.124	35710.67
645.477	35892.14
645.83	35482.2
646.182	35377.35
646.535	35453.5
646.888	35403.79
647.24	35299.16
647.593	35514.97
647.945	35315.65
648.298	35177.35
648.65	35310.23
649.002	35209.67
649.355	35313.62
649.707	35304.13
650.059	35473.62
650.411	35817.79
650.763	35875.41
651.115	36208.06
651.467	36156.99
651.819	36120.83
652.171	36098.68
652.523	36083.09
652.875	36126.48
653.227	35879.03
653.578	36098.23
653.93	36014.39
654.282	35953.38
654.633	35952.02
654.985	35957.67
655.337	35932.81
655.688	35926.94
656.039	35893.27
656.391	35659.37
656.742	35829.54
657.094	35751.35
657.445	35961.51
657.796	35907.95
658.147	35764.46
658.498	35624.57
658.849	35841.97
659.2	35791.57
659.551	35758.81
659.902	35835.64
660.253	35845.81
660.604	35877.45
660.955	35628.19
661.306	35824.11
661.656	35587.06
662.007	35821.85
662.358	35735.53
662.708	35712.48
663.059	35699.37
663.409	35446.72
663.76	35760.39
664.11	35680.62
664.461	35847.62
664.811	35633.61
665.161	35744.57
665.511	35526.27
665.862	35633.16
666.212	35689.43
666.562	35726.72
666.912	35606.49
667.262	35614.18
667.612	35684.68
667.962	35730.78
668.312	35687.62
668.662	35840.61
669.011	35707.28
669.361	35571.92
669.711	35623.89
670.06	35568.53
670.41	35504.57
670.76	35459.15
671.109	35672.93
671.459	35634.52
671.808	35473.39
672.157	35520.62
672.507	35279.5
672.856	35418.7
673.205	35404.01
673.554	35430.68
673.904	35455.54
674.253	35457.12
674.602	35349.78
674.951	34966.74
675.3	34803.8
675.649	35304.13
675.998	35237.46
676.346	35190.68
676.695	35296.44
677.044	35170.8
677.393	35209.89
677.741	35270.68
678.09	35092.16
678.438	35120.4
678.787	35090.8
679.135	35093.74
679.484	34813.07
679.832	35101.65
680.181	34897.13
680.529	35079.95
680.877	34844.48
681.225	34884.93
681.573	35100.97
681.922	34945.49
682.27	34705.27
682.618	34690.13
682.966	34574.88
683.314	34772.62
683.661	34565.16
684.009	34603.13
684.357	34458.5
684.705	34381.89
685.053	34443.81
685.4	34352.74
685.748	34315.23
686.095	34034.11
686.443	34099.19
686.79	33915.01
687.138	34182.8
687.485	34040.43
687.832	33969.93
688.18	33943.94
688.527	33727.22
688.874	33775.58
689.221	33562.93
689.568	33505.53
689.915	33524.06
690.262	33461.01
690.609	33410.39
690.956	33250.4
691.303	33194.13
691.65	33123.17
691.997	33124.75
692.344	32979.9
692.69	32959.56
693.037	32949.39
693.383	32640.47
693.73	32845.66
694.077	32656.97
694.423	32602.96
694.769	32562.05
695.116	32416.52
695.462	32405.45
695.808	32283.87
696.155	32374.94
696.501	32060.82
696.847	32157.54
697.193	31798.91
697.539	32047.94
697.885	31796.2
698.231	31747.84
698.577	31672.81
698.923	31504.23
699.269	31426.04
699.614	31292.48
699.96	31189.43
700.306	31264.46
700.651	31200.28
700.997	31049.78
701.342	30889.78
701.688	30890.68
702.033	30942.21
702.379	30824.47
702.724	30760.97
703.069	30779.95
703.415	30458.38
703.76	30562.11
704.105	30427.19
704.45	30401.43
704.795	30251.38
705.14	30201.21
705.485	30108.11
705.83	30001.67
706.175	30059.52
706.52	29966.42
706.865	29913.08
707.209	29875.8
707.554	29585.18
707.899	29779.98
708.243	29436.26
708.588	29583.15
708.932	29425.41
709.277	29304.74
709.621	29334.12
709.966	29232.2
710.31	29235.59
710.654	29018.64
710.998	29062.94
711.342	29055.7
711.687	28904.52
712.031	28841.47
712.375	28753.57
712.719	28822.04
713.063	28714.02
713.407	28760.8
713.75	28557.41
714.094	28662.72
714.438	28505.66
714.782	28480.13
715.125	28396.06
715.469	28437.64
715.812	28218.89
716.156	28174.15
716.499	28260.47
716.843	28246.23
717.186	28005.34
717.53	28151.55
717.873	28064.09
718.216	27886.47
718.559	27854.61
718.902	27669.98
719.246	27748.85
719.589	27651
719.932	27624.56
720.275	27534.16
720.617	27565.12
720.96	27472.47
721.303	27510.21
721.646	27418.91
721.989	27314.51
722.331	27364
722.674	27077.9
723.016	27308.18
723.359	27249.65
723.701	27223.44
724.044	27052.59
724.386	26904.58
724.729	27054.18
725.071	26882.2
725.413	27049.88
725.755	26917
726.097	26888.98
726.439	26743.9
726.782	26695.32
727.124	26830.45
727.465	26720.63
727.807	26652.15
728.149	26717.69
728.491	26571.93
728.833	26631.36
729.175	26473.4
729.516	26352.27
729.858	26436.79
730.199	26458.03
730.541	26362.44
730.882	26281.54
731.224	26396.34
731.565	26107.76
731.906	26116.35
732.248	26241.99
732.589	26096.23
732.93	25922
733.271	26128.1
733.612	25987.31
733.953	26010.36
734.294	25816.69
734.635	25877.71
734.976	25852.85
735.317	25722.69
735.658	25743.02
735.999	25681.78
736.339	25666.42
736.68	25743.93
737.021	25549.36
737.361	25505.29
737.702	25573.31
738.042	25521.11
738.383	25434.78
738.723	25509.81
739.063	25491.73
739.404	25495.8
739.744	25363.37
740.084	25342.13
740.424	25418.29
740.764	25265.07
741.104	25350.04
741.444	25313.66
741.784	25171.97
742.124	25127.9
742.464	25094
742.804	25086.54
743.143	25028.69
743.483	25080.89
743.823	24835.93
744.162	24856.95
744.502	24958.64
744.841	24866.66
745.181	24824.18
745.52	24727.91
745.86	24790.05
746.199	24764.52
746.538	24763.84
746.877	24698.31
747.216	24827.57
747.556	24715.48
747.895	24649.27
748.234	24614.92
748.573	24567.46
748.911	24457.18
749.25	24510.29
749.589	24411.53
749.928	24349.84
750.267	24427.13
750.605	24220.35
750.944	24323.17
751.283	24102.84
751.621	24224.19
751.96	24082.5
752.298	24157.75
752.636	24023.75
752.975	23951.43
753.313	23846.58
753.651	23972
753.989	23862.85
754.327	23841.38
754.666	23710.08
755.004	23727.03
755.342	23693.36
755.679	23717.77
756.017	23580.82
756.355	23520.03
756.693	23544.21
757.031	23598.67
757.368	23375.63
757.706	23341.96
758.044	23300.83
758.381	23357.78
758.719	23174.5
759.056	23286.59
759.394	23120.27
759.731	22965.24
760.068	22985.58
760.405	22841.63
760.743	22793.5
