Data from hue_28_FLMS001491_00089.txt Node
Date: Tue Feb 07 17:17:56 GMT 2017
User: dcchb
Spectrometer: FLMS00149
Trigger mode: 0
Integration Time (sec): 2.000000E-2
Scans to average: 10
Electric dark correction enabled: true
Nonlinearity correction enabled: false
Boxcar width: 0
XAxis mode: Wavelengths
Number of Pixels in Spectrum: 2048
>>>>>Begin Spectral Data<<<<<
341.393	-21.91
341.776	-21.91
342.16	-21.91
342.543	-63.04
342.927	-62.13
343.31	-68.68
343.693	-76.14
344.077	-69.81
344.46	-42.24
344.843	-58.06
345.226	-37.05
345.61	-32.98
345.993	-14
346.376	5.89
346.759	7.25
347.142	27.36
347.525	40.01
347.908	48.6
348.291	88.15
348.674	89.28
349.057	92.44
349.44	109.39
349.823	142.84
350.206	160.24
350.588	224.64
350.971	223.96
351.354	220.57
351.737	229.61
352.119	266.45
352.502	252.89
352.884	276.17
353.267	294.92
353.65	280.23
354.032	310.51
354.414	312.77
354.797	302.61
355.179	327.92
355.562	334.47
355.944	341.7
356.326	345.32
356.709	334.47
357.091	352.77
357.473	323.85
357.855	332.43
358.238	325.43
358.62	364.07
359.002	344.64
359.384	348.93
359.766	340.8
360.148	356.84
360.53	339.21
360.912	315.03
361.294	356.39
361.676	339.21
362.057	327.24
362.439	339.67
362.821	327.69
363.203	319.55
363.584	321.81
363.966	342.83
364.348	343.06
364.729	305.99
365.111	303.06
365.493	303.73
365.874	331.76
366.256	310.97
366.637	332.21
367.019	303.06
367.4	341.02
367.781	322.94
368.163	316.39
368.544	298.99
368.925	316.39
369.306	320.68
369.688	304.86
370.069	327.92
370.45	309.84
370.831	329.27
371.212	315.49
371.593	336.95
371.974	329.95
372.355	329.5
372.736	317.97
373.117	318.42
373.498	331.53
373.879	331.08
374.26	338.76
374.641	320.46
375.021	322.94
375.402	322.72
375.783	302.38
376.163	335.82
376.544	338.08
376.925	321.14
377.305	333.11
377.686	330.4
378.066	306.67
378.447	330.85
378.827	321.59
379.208	328.37
379.588	329.05
379.968	319.78
380.349	343.96
380.729	348.25
381.109	334.69
381.489	343.51
381.87	335.37
382.25	347.35
382.63	331.08
383.01	348.93
383.39	354.13
383.77	354.36
384.15	349.61
384.53	330.85
384.91	329.27
385.29	371.08
385.67	331.98
386.049	360.46
386.429	347.35
386.809	365.43
387.189	341.25
387.568	357.29
387.948	354.13
388.328	360
388.707	342.15
389.087	367.46
389.466	351.42
389.846	367.69
390.225	378.76
390.605	369.04
390.984	338.08
391.363	344.19
391.743	366.78
392.122	358.42
392.501	367.91
392.881	358.42
393.26	388.25
393.639	390.96
394.018	367.91
394.397	381.25
394.776	387.35
395.155	375.82
395.534	402.26
395.913	379.44
396.292	393.45
396.671	381.02
397.05	391.87
397.429	381.47
397.808	399.78
398.186	391.42
398.565	371.76
398.944	397.52
399.323	400.46
399.701	414.01
400.08	403.85
400.458	399.78
400.837	383.73
401.215	410.4
401.594	409.72
401.972	431.42
402.351	395.71
402.729	395.48
403.107	403.85
403.486	413.11
403.864	431.19
404.242	423.96
404.62	414.24
404.999	421.92
405.377	408.14
405.755	419.44
406.133	418.99
406.511	435.48
406.889	433.45
407.267	434.58
407.645	431.87
408.023	446.1
408.401	421.47
408.779	451.53
409.156	451.75
409.534	438.87
409.912	438.19
410.29	438.87
410.667	459.21
411.045	421.7
411.422	458.99
411.8	444.75
412.178	473.9
412.555	474.13
412.933	467.35
413.31	458.76
413.687	471.19
414.065	469.15
414.442	488.59
414.819	480.45
415.197	506.89
415.574	489.04
415.951	493.33
416.328	485.65
416.705	500.11
417.082	498.98
417.46	508.02
417.837	516.61
418.214	506.67
418.591	507.57
418.967	512.77
419.344	516.16
419.721	520.23
420.098	510.06
420.475	542.37
420.852	515.71
421.228	534.46
421.605	510.28
421.982	530.62
422.358	538.08
422.735	542.6
423.111	543.28
423.488	527.46
423.864	542.15
424.241	557.29
424.617	571.07
424.994	563.16
425.37	568.59
425.746	573.56
426.123	544.63
426.499	563.84
426.875	566.55
427.251	565.42
427.627	593.22
428.003	603.61
428.379	591.86
428.756	598.19
429.132	598.19
429.507	618.98
429.883	596.38
430.259	600
430.635	638.87
431.011	611.98
431.387	648.81
431.763	614.24
432.138	636.61
432.514	643.39
432.89	654.46
433.265	656.27
433.641	649.26
434.016	653.56
434.392	667.34
434.767	690.17
435.143	700.11
435.518	685.42
435.894	689.49
436.269	701.24
436.644	685.19
437.02	704.85
437.395	725.19
437.77	713.44
438.145	734.68
438.52	718.41
438.895	728.81
439.271	703.72
439.646	761.8
440.021	752.54
440.395	731.75
440.77	763.16
441.145	755.93
441.52	757.96
441.895	785.3
442.27	759.09
442.645	774.68
443.019	783.72
443.394	774.46
443.769	812.87
444.143	816.72
444.518	808.58
444.892	791.86
445.267	807
445.641	813.78
446.016	814.91
446.39	799.77
446.764	820.56
447.139	825.98
447.513	821.69
447.887	835.02
448.262	838.41
448.636	838.64
449.01	853.1
449.384	866.43
449.758	877.05
450.132	851.74
450.506	868.92
450.88	868.92
451.254	876.38
451.628	901.46
452.002	915.24
452.376	920.89
452.75	904.4
453.123	910.72
453.497	920.22
453.871	936.94
454.244	948.46
454.618	929.03
454.992	962.47
455.365	967.67
455.739	981.23
456.112	977.84
456.486	1026.88
456.859	1017.39
457.232	1011.74
457.606	1014
457.979	1049.25
458.352	1012.19
458.725	1058.52
459.099	1061.46
459.472	1049.48
459.845	1079.53
460.218	1089.7
460.591	1108.69
460.964	1086.09
461.337	1108.46
461.71	1114.56
462.083	1131.96
462.456	1140.78
462.829	1141.68
463.201	1170.15
463.574	1186.42
463.947	1190.49
464.32	1234.11
464.692	1239.08
465.065	1222.81
465.438	1253.99
465.81	1258.74
466.183	1268.23
466.555	1321.34
466.928	1312.52
467.3	1331.28
467.672	1329.7
468.045	1380.77
468.417	1381.67
468.789	1405.85
469.161	1410.6
469.534	1417.38
469.906	1458.28
470.278	1457.6
470.65	1484.27
471.022	1503.93
471.394	1560.2
471.766	1567.2
472.138	1549.13
472.51	1585.06
472.882	1599.52
473.253	1639.75
473.625	1653.53
473.997	1704.38
474.369	1699.4
474.74	1738.95
475.112	1722.68
475.484	1784.37
475.855	1838.61
476.227	1845.62
476.598	1905.5
476.97	1925.39
477.341	1960.87
477.713	1978.04
478.084	2002.45
478.455	2077.93
478.827	2076.12
479.198	2141.2
479.569	2170.13
479.94	2244.02
480.311	2233.85
480.682	2303
481.053	2355.21
481.424	2422.1
481.795	2423.91
482.166	2453.06
482.537	2541.64
482.908	2578.25
483.279	2625.03
483.65	2660.06
484.021	2681.53
484.391	2715.65
484.762	2789.32
485.133	2832.26
485.503	2877.45
485.874	2960.39
486.244	2992.03
486.615	3068.18
486.985	3116.54
487.356	3159.48
487.726	3147.73
488.097	3265.92
488.467	3311.79
488.837	3376.87
489.207	3380.94
489.578	3464.78
489.948	3542.97
490.318	3603.54
490.688	3620.26
491.058	3668.17
491.428	3716.07
491.798	3789.52
492.168	3850.31
492.538	3909.06
492.908	3932.79
493.278	4016.18
493.648	4001.04
494.017	4101.15
494.387	4158.55
494.757	4180.02
495.126	4234.48
495.496	4290.97
495.866	4296.62
496.235	4307.7
496.605	4409.62
496.974	4418.66
497.344	4497.97
497.713	4515.6
498.082	4566.67
498.452	4672.43
498.821	4683.96
499.19	4643.28
499.559	4682.15
499.928	4715.82
500.298	4796.5
500.667	4796.5
501.036	4828.14
501.405	4899.55
501.774	4912.88
502.143	4970.73
502.512	4974.12
502.88	5003.95
503.249	5084.85
503.618	5089.37
503.987	5173.89
504.356	5147.68
504.724	5186.77
505.093	5220.89
505.462	5250.72
505.83	5284.85
506.199	5351.29
506.567	5342.92
506.936	5331.85
507.304	5442.13
507.672	5444.39
508.041	5457.05
508.409	5496.14
508.777	5570.26
509.145	5596.25
509.514	5603.71
509.882	5600.32
510.25	5656.36
510.618	5633.99
510.986	5687.55
511.354	5779.75
511.722	5747.89
512.09	5763.25
512.458	5804.83
512.826	5828.56
513.193	5847.32
513.561	5916.02
513.929	5917.82
514.297	5958.28
514.664	6027.2
515.032	6025.84
515.4	6079.18
515.767	6115.11
516.135	6130.25
516.502	6128.67
516.869	6184.26
517.237	6178.61
517.604	6147.88
517.972	6247.08
518.339	6245.05
518.706	6281.2
519.073	6341.32
519.44	6330.47
519.808	6402.33
520.175	6364.59
520.542	6440.97
520.909	6500.63
521.276	6523.91
521.643	6518.03
522.009	6591.48
522.376	6583.8
522.743	6604.36
523.11	6651.36
523.477	6728.42
523.843	6773.17
524.21	6790.57
524.577	6819.27
524.943	6800.51
525.31	6913.96
525.676	7007.29
526.043	6986.72
526.409	7016.1
526.776	7060.85
527.142	7098.58
527.508	7110.11
527.874	7179.71
528.241	7230.56
528.607	7222.42
528.973	7311.46
529.339	7348.97
529.705	7415.41
530.071	7460.83
530.437	7419.03
530.803	7503.32
531.169	7574.5
531.535	7512.81
531.901	7524.79
532.267	7577.89
532.632	7638.91
532.998	7680.72
533.364	7727.49
533.73	7735.63
534.095	7797.1
534.461	7812.92
534.826	7890.43
535.192	7822.63
535.557	7967.04
535.923	7910.99
536.288	7940.82
536.653	8007.04
537.019	8047.26
537.384	8071.89
537.749	8072.8
538.114	8142.62
538.479	8146.92
538.845	8175.62
539.21	8244.32
539.575	8239.8
539.94	8304.88
540.305	8332.9
540.67	8306.01
541.034	8398.21
541.399	8381.94
541.764	8450.19
542.129	8498.77
542.494	8458.77
542.858	8537.19
543.223	8561.14
543.587	8593.46
543.952	8630.75
544.316	8694.47
544.681	8680.01
545.045	8772.21
545.41	8771.53
545.774	8804.3
546.138	8855.15
546.503	8899.89
546.867	8901.02
547.231	8937.86
547.595	8953.9
547.959	8961.36
548.324	8965.43
548.688	9028.03
549.052	9080
549.416	9077.74
549.779	9062.6
550.143	9163.16
550.507	9194.57
550.871	9221.01
551.235	9168.81
551.599	9277.74
551.962	9307.57
552.326	9288.58
552.689	9411.74
553.053	9401.57
553.417	9447
553.78	9522.7
554.143	9448.35
554.507	9552.08
554.87	9547.56
555.234	9599.99
555.597	9621.46
555.96	9558.63
556.323	9657.84
556.686	9634.34
557.05	9734.9
557.413	9740.32
557.776	9770.6
558.139	9845.4
558.502	9826.2
558.865	9891.28
559.228	9989.81
559.59	10000.43
559.953	9988.45
560.316	10078.17
560.679	10081.56
561.041	10104.38
561.404	10128.11
561.767	10192.74
562.129	10210.82
562.492	10283.13
562.854	10282.91
563.217	10313.42
563.579	10407.88
563.941	10425.95
564.304	10438.38
564.666	10528.1
565.028	10505.73
565.39	10519.51
565.753	10612.16
566.115	10707.53
566.477	10658.49
566.839	10723.57
567.201	10747.3
567.563	10780.3
567.925	10761.09
568.287	10870.69
568.648	10899.16
569.01	10971.03
569.372	10960.18
569.734	10975.77
570.095	11112.94
570.457	11121.3
570.819	11172.6
571.18	11213.5
571.542	11227.97
571.903	11277.91
572.265	11335.76
572.626	11325.59
572.987	11475.42
573.349	11520.16
573.71	11519.94
574.071	11600.16
574.432	11669.76
574.794	11822.98
575.155	11750.89
575.516	11803.55
575.877	11915.41
576.238	11987.27
576.599	12030.66
576.96	12067.49
577.32	12241.27
577.681	12258.67
578.042	12411.21
578.403	12467.93
578.763	12626.12
579.124	12783.86
579.485	12838.32
579.845	12982.95
580.206	13050.97
580.566	13161.48
580.927	13324.18
581.287	13408.25
581.648	13543.84
582.008	13651.41
582.368	13790.16
582.728	13980.66
583.089	14102.24
583.449	14393.99
583.809	14425.4
584.169	14634.88
584.529	14823.58
584.889	15123.23
585.249	15210.24
585.609	15438.25
585.969	15589.66
586.329	15727.96
586.688	16023.77
587.048	16334.05
587.408	16363.88
587.768	16694.72
588.127	16860.36
588.487	17071.43
588.846	17494.92
589.206	17620.34
589.565	17943.27
589.925	18235.24
590.284	18392.07
590.643	18751.16
591.003	19059.85
591.362	19291.48
591.721	19545.04
592.08	19750.91
592.44	20170.33
592.799	20434.51
593.158	20648.74
593.517	20900.48
593.876	21189.74
594.235	21528.49
594.593	21738.65
594.952	22253.67
595.311	22307.45
595.67	22717.61
596.029	23101.33
596.387	23380.64
596.746	23745.38
597.104	23960.06
597.463	24315.98
597.822	24598.46
598.18	24761.4
598.538	25114.83
598.897	25559.12
599.255	25587.82
599.613	26248.36
599.972	26275.71
600.33	26766.32
600.688	26771.06
601.046	27149.58
601.404	27503.92
601.762	27825.95
602.12	28247.86
602.478	28444.92
602.836	28675.19
603.194	28891.91
603.552	29194.5
603.91	29394.5
604.268	29758.33
604.625	29913.58
604.983	30317.18
605.341	30349.05
605.698	30730.51
606.056	31119.42
606.413	31178.86
606.771	31614.55
607.128	31851.83
607.485	31898.61
607.843	32174.08
608.2	32586.73
608.557	32734.97
608.914	32997.11
609.272	33339.93
609.629	33353.94
609.986	33933.36
610.343	33767.94
610.7	34243.41
611.057	34363.18
611.414	34550.97
611.771	34762.49
612.127	34991.41
612.484	35224.17
612.841	35396.15
613.198	35507.56
613.554	35698.96
613.911	36083.36
614.267	36291.72
614.624	36286.29
614.98	36578.49
615.337	36836.11
615.693	36927.63
616.05	36945.26
616.406	37414.17
616.762	37343.89
617.118	37575.52
617.475	37674.5
617.831	37773.03
618.187	37928.28
618.543	38193.59
618.899	38453.01
619.255	38539.11
619.611	38538.66
619.967	38806.45
620.323	38929.61
620.678	38838.54
621.034	38848.48
621.39	39047.57
621.746	39182.71
622.101	39597.39
622.457	39429.94
622.812	39596.26
623.168	39812.3
623.523	39769.14
623.879	39958.29
624.234	39726.65
624.589	40089.58
624.945	40030.15
625.3	40160.54
625.655	40329.35
626.01	40312.63
626.365	40515.11
626.72	40474.88
627.075	40472.17
627.43	40596.46
627.785	40551.04
628.14	40673.52
628.495	40916
628.85	40769.79
629.205	40752.61
629.559	41049.78
629.914	40898.15
630.269	41002.55
630.623	40944.25
630.978	40958.49
631.332	41035.32
631.687	41291.81
632.041	41115.77
632.396	41323.45
632.75	41133.17
633.104	41337.91
633.459	41023.12
633.813	41179.72
634.167	41157.35
634.521	41130.91
634.875	41297.23
635.229	41171.13
635.583	41096.33
635.937	41148.76
636.291	41147.18
636.645	41183.34
636.999	41224.01
637.352	41277.8
637.706	40958.26
638.06	41206.84
638.413	41147.86
638.767	41041.19
639.121	41201.64
639.474	41054.98
639.828	41050.01
640.181	41014.53
640.534	41252.94
640.888	40982.44
641.241	40854.99
641.594	41010.69
641.947	41042.55
642.301	41029.44
642.654	41116.9
643.007	41155.99
643.36	40910.12
643.713	40972.5
644.066	41166.16
644.419	40942.67
644.771	40718.49
645.124	40311.95
645.477	40218.84
645.83	40095.01
646.182	39934.78
646.535	39859.31
646.888	39946.53
647.24	39725.07
647.593	39981.79
647.945	39960.77
648.298	39676.03
648.65	39835.8
649.002	39669.71
649.355	39862.24
649.707	39789.02
650.059	39916.93
650.411	40499.97
650.763	40419.06
651.115	40911.25
651.467	40694.09
651.819	40737.02
652.171	40644.6
652.523	40533.86
652.875	40622.9
653.227	40408.44
653.578	40615.44
653.93	40656.12
654.282	40433.3
654.633	40330.71
654.985	40286.64
655.337	40380.65
655.688	40423.81
656.039	40574.77
656.391	40156.92
656.742	40430.82
657.094	40400.08
657.445	40399.86
657.796	40365.73
658.147	40237.83
658.498	40229.69
658.849	40442.11
659.2	40166.19
659.551	40232.63
659.902	40482.79
660.253	40201.44
660.604	40482.57
660.955	40113.76
661.306	40283.7
661.656	40251.61
662.007	40332.74
662.358	40385.17
662.708	40304.04
663.059	40227.66
663.409	40138.85
663.76	40433.75
664.11	40360.31
664.461	40304.04
664.811	40274.66
665.161	40287.32
665.511	40129.81
665.862	40234.66
666.212	40335.22
666.562	40299.29
666.912	40210.93
667.262	40203.25
667.612	40282.12
667.962	40245.51
668.312	40235.57
668.662	40293.64
669.011	40236.47
669.361	40239.18
669.711	40126.87
670.06	40035.12
670.41	40076.47
670.76	40032.41
671.109	40148.79
671.459	40038.51
671.808	39938.4
672.157	39984.95
672.507	39796.26
672.856	39973.65
673.205	39836.71
673.554	40003.48
673.904	39806.65
674.253	39982.92
674.602	39987.21
674.951	39309.49
675.3	39284.18
675.649	39924.84
675.998	39881
676.346	39833.54
676.695	39902.02
677.044	39551.74
677.393	39791.28
677.741	39795.13
678.09	39775.92
678.438	39590.16
678.787	39672.19
679.135	39592.42
679.484	39434.23
679.832	39531.63
680.181	39288.25
680.529	39377.28
680.877	39301.35
681.225	39237.4
681.573	39549.71
681.922	39310.17
682.27	39096.16
682.618	39285.53
682.966	39039.21
683.314	39071.76
683.661	39142.49
684.009	38811.2
684.357	38777.3
684.705	38747.92
685.053	38811.65
685.4	38738.43
685.748	38721.03
686.095	38443.52
686.443	38441.72
686.79	38402.39
687.138	38509.96
687.485	38421.38
687.832	38316.07
688.18	38261.83
688.527	38093.48
688.874	38135.96
689.221	38078.11
689.568	37993.14
689.915	37889.19
690.262	37837.66
690.609	37749.98
690.956	37632.24
691.303	37586.37
691.65	37458.46
691.997	37472.93
692.344	37361.07
692.69	37130.56
693.037	37237.23
693.383	36960.85
693.73	37152.03
694.077	36839.27
694.423	36885.15
694.769	36703.46
695.116	36759.95
695.462	36629.33
695.808	36448.55
696.155	36593.4
696.501	36271.6
696.847	36206.07
697.193	36086.52
697.539	36064.38
697.885	35911.16
698.231	35804.04
698.577	35922.23
698.923	35877.26
699.269	35638.63
699.614	35413.77
699.96	35378.07
700.306	35288.13
700.651	35262.36
700.997	35126.32
701.342	35002.48
701.688	35050.84
702.033	34847.91
702.379	34926.1
702.724	34747.58
703.069	34887.91
703.415	34366.34
703.76	34475.04
704.105	34577.64
704.45	34380.13
704.795	34174.93
705.14	34118.89
705.485	34255.84
705.83	34012.91
706.175	33934.49
706.52	33792.35
706.865	33739.47
707.209	33828.05
707.554	33630.32
707.899	33755.96
708.243	33492.69
708.588	33503.54
708.932	33304.22
709.277	33276.2
709.621	33108.97
709.966	32993.72
710.31	33103.1
710.654	33011.12
710.998	32940.62
711.342	33009.99
711.687	32680.28
712.031	32681.19
712.375	32550.8
712.719	32597.8
713.063	32490.23
713.407	32571.81
713.75	32511.02
714.094	32311.48
714.438	32214.99
714.782	32400.52
715.125	32167.76
715.469	32251.37
715.812	31992.17
716.156	31781.78
716.499	31864.94
716.843	31843.47
717.186	31727.32
717.53	31875.11
717.873	31903.58
718.216	31727.54
718.559	31543.59
718.902	31423.14
719.246	31556.02
719.589	31375.69
719.932	31191.74
720.275	31203.26
720.617	31206.88
720.96	31165.75
721.303	31003.72
721.646	31102.02
721.989	30943.38
722.331	31042.36
722.674	30917.39
723.016	30994
723.359	30902.25
723.701	30897.96
724.044	30686.44
724.386	30567.12
724.729	30759.43
725.071	30686.21
725.413	30602.83
725.755	30589.04
726.097	30429.5
726.439	30409.84
726.782	30355.83
727.124	30533
727.465	30224.08
727.807	30383.4
728.149	30252.78
728.491	30133.01
728.833	30246
729.175	30020.69
729.516	29890.08
729.858	30054.37
730.199	30037.64
730.541	29867.93
730.882	29775.73
731.224	30028.38
731.565	29731.66
731.906	29871.77
732.248	29874.48
732.589	29637.65
732.93	29593.13
733.271	29615.28
733.612	29561.95
733.953	29612.12
734.294	29435.85
734.635	29429.07
734.976	29417.32
735.317	29336.87
735.658	29279.02
735.999	29222.75
736.339	29266.36
736.68	29378.68
737.021	29218.23
737.361	29123.99
737.702	29253.93
738.042	29072.47
738.383	29018.91
738.723	29122.41
739.063	28944.34
739.404	29009.87
739.744	28712.93
740.084	28819.37
740.424	28772.59
740.764	28695.76
741.104	28821.4
741.444	28678.36
741.784	28704.12
742.124	28599.71
742.464	28555.87
742.804	28478.14
743.143	28487.63
743.483	28525.82
743.823	28312.72
744.162	28295.32
744.502	28376.9
744.841	28196.11
745.181	28335.77
745.52	28274.98
745.86	28167.41
746.199	28171.25
746.538	28212.61
746.877	28154.08
747.216	28233.62
747.556	28136.68
747.895	28027.07
748.234	27991.82
748.573	27841.09
748.911	27952.73
749.25	27874.99
749.589	27734.43
749.928	27758.61
750.267	27757.7
750.605	27736.46
750.944	27790.47
751.283	27638.38
751.621	27738.04
751.96	27553.19
752.298	27577.37
752.636	27599.29
752.975	27325.4
753.313	27250.37
753.651	27517.71
753.989	27243.37
754.327	27183.03
754.666	27127.21
755.004	27109.13
755.342	27221.22
755.679	27133.09
756.017	26923.83
756.355	27013.99
756.693	26943.03
757.031	27027.78
757.368	26741.46
757.706	26844.05
758.044	26765.41
758.381	26779.42
758.719	26626.43
759.056	26644.74
759.394	26564.06
