Data from hue_26_FLMS001491_00082.txt Node
Date: Tue Feb 07 17:14:41 GMT 2017
User: dcchb
Spectrometer: FLMS00149
Trigger mode: 0
Integration Time (sec): 2.000000E-2
Scans to average: 10
Electric dark correction enabled: true
Nonlinearity correction enabled: false
Boxcar width: 0
XAxis mode: Wavelengths
Number of Pixels in Spectrum: 2048
>>>>>Begin Spectral Data<<<<<
341.393	-23.54
341.776	-23.54
342.16	-23.54
342.543	-69.87
342.927	-87.95
343.31	-68.74
343.693	-91.57
344.077	-75.97
344.46	-57.22
344.843	-66.03
345.226	-24.22
345.61	-20.38
345.993	0.86
346.376	-13.6
346.759	9
347.142	30.69
347.525	53.52
347.908	60.75
348.291	71.37
348.674	89.67
349.057	101.88
349.44	121.31
349.823	145.49
350.206	154.08
350.588	210.35
350.971	199.95
351.354	225.26
351.737	230.46
352.119	231.82
352.502	259.16
352.884	271.81
353.267	275.88
353.65	330.57
354.032	302.1
354.414	311.36
354.797	318.82
355.179	324.47
355.562	347.97
355.944	300.74
356.326	334.64
356.709	333.06
357.091	334.86
357.473	352.94
357.855	331.02
358.238	335.54
358.62	332.83
359.002	350.68
359.384	329.21
359.766	307.97
360.148	337.35
360.53	347.75
360.912	361.98
361.294	328.31
361.676	346.39
362.057	331.25
362.439	319.95
362.821	336.45
363.203	343.45
363.584	332.38
363.966	305.94
364.348	301.42
364.729	346.39
365.111	317.69
365.493	319.27
365.874	300.74
366.256	318.82
366.637	309.78
367.019	320.18
367.4	312.04
367.781	319.5
368.163	290.57
368.544	320.63
368.925	302.32
369.306	329.67
369.688	310.46
370.069	307.29
370.45	327.18
370.831	337.35
371.212	331.7
371.593	319.95
371.974	319.27
372.355	326.5
372.736	311.81
373.117	307.75
373.498	319.95
373.879	328.31
374.26	321.31
374.641	317.92
375.021	297.8
375.402	317.69
375.783	324.92
376.163	331.47
376.544	318.37
376.925	318.14
377.305	315.43
377.686	332.38
378.066	327.86
378.447	314.98
378.827	329.67
379.208	331.02
379.588	333.51
379.968	334.41
380.349	332.6
380.729	326.95
381.109	319.95
381.489	329.21
381.87	322.89
382.25	333.28
382.63	347.52
383.01	331.02
383.39	346.39
383.77	348.88
384.15	359.04
384.53	328.31
384.91	320.63
385.29	349.78
385.67	337.35
386.049	360.63
386.429	346.39
386.809	349.78
387.189	361.53
387.568	353.39
387.948	339.84
388.328	358.14
388.707	350.91
389.087	373.96
389.466	367.41
389.846	361.76
390.225	367.41
390.605	354.07
390.984	355.88
391.363	360.17
391.743	364.24
392.122	357.91
392.501	362.43
392.881	368.31
393.26	365.82
393.639	361.76
394.018	350.68
394.397	373.96
394.776	383
395.155	379.38
395.534	368.31
395.913	379.83
396.292	385.48
396.671	388.87
397.05	392.49
397.429	388.42
397.808	387.52
398.186	397.69
398.565	392.49
398.944	369.44
399.323	397.69
399.701	377.8
400.08	390.23
400.458	404.69
400.837	376.9
401.215	398.59
401.594	403.79
401.972	402.43
402.351	386.84
402.729	389.1
403.107	404.47
403.486	409.66
403.864	406.05
404.242	389.1
404.62	397.91
404.999	417.35
405.377	398.14
405.755	441.75
406.133	413.51
406.511	406.5
406.889	418.03
407.267	442.43
407.645	440.62
408.023	452.6
408.401	414.86
408.779	425.48
409.156	446.95
409.534	430.45
409.912	431.58
410.29	431.36
410.667	439.72
411.045	447.18
411.422	429.1
411.8	459.83
412.178	458.48
412.555	480.85
412.933	445.14
413.31	452.38
413.687	463.67
414.065	451.02
414.442	473.84
414.819	454.41
415.197	480.17
415.574	489.89
415.951	478.82
416.328	480.62
416.705	499.38
417.082	476.1
417.46	507.29
417.837	514.97
418.214	486.95
418.591	492.83
418.967	489.21
419.344	510.9
419.721	505.71
420.098	501.87
420.475	511.13
420.852	503.67
421.228	515.88
421.605	504.13
421.982	523.79
422.358	540.06
422.735	493.73
423.111	530.34
423.488	516.78
423.864	539.38
424.241	532.82
424.617	529.66
424.994	531.47
425.37	544.12
425.746	568.98
426.123	553.84
426.499	540.96
426.875	556.33
427.251	554.07
427.627	570.34
428.003	562.43
428.379	595.2
428.756	583.67
429.132	590
429.507	580.28
429.883	595.42
430.259	583.67
430.635	606.72
431.011	592.03
431.387	612.14
431.763	628.42
432.138	621.41
432.514	612.14
432.89	626.61
433.265	609.89
433.641	645.36
434.016	615.53
434.392	640.62
434.767	647.62
435.143	645.36
435.518	667.28
435.894	700.5
436.269	671.8
436.644	674.74
437.02	664.57
437.395	658.92
437.77	685.59
438.145	683.33
438.52	671.13
438.895	700.73
439.271	696.66
439.646	702.31
440.021	707.28
440.395	723.1
440.77	707.74
441.145	713.61
441.52	724.68
441.895	720.62
442.27	741.86
442.645	738.47
443.019	747.06
443.394	722.65
443.769	758.81
444.143	752.93
444.518	749.09
444.892	755.87
445.267	762.2
445.641	777.56
446.016	761.97
446.39	790.67
446.764	789.54
447.139	777.11
447.513	793.84
447.887	794.51
448.262	782.08
448.636	805.13
449.01	823.44
449.384	824.34
449.758	804.23
450.132	825.02
450.506	829.54
450.88	823.21
451.254	836.32
451.628	858.47
452.002	830.67
452.376	864.12
452.75	871.12
453.123	867.51
453.497	869.31
453.871	898.47
454.244	888.75
454.618	907.5
454.992	890.56
455.365	885.58
455.739	901.18
456.112	932.36
456.486	954.06
456.859	931.91
457.232	956.77
457.606	909.99
457.979	968.07
458.352	987.28
458.725	977.79
459.099	982.98
459.472	975.3
459.845	1010.1
460.218	1012.13
460.591	1024.34
460.964	1034.51
461.337	1051.91
461.71	1088.06
462.083	1063.21
462.456	1074.28
462.829	1124.22
463.201	1099.36
463.574	1100.95
463.947	1114.96
464.32	1122.87
464.692	1165.35
465.065	1174.16
465.438	1175.52
465.81	1196.99
466.183	1199.47
466.555	1236.76
466.928	1230.21
467.3	1227.04
467.672	1255.74
468.045	1266.14
468.417	1291.45
468.789	1282.86
469.161	1304.78
469.534	1326.93
469.906	1332.8
470.278	1368.74
470.65	1371.9
471.022	1391.56
471.394	1424.55
471.766	1432.24
472.138	1465.91
472.51	1505.91
472.882	1496.64
473.253	1514.95
473.625	1529.63
473.997	1594.04
474.369	1592.23
474.74	1603.31
475.112	1640.82
475.484	1662.29
475.855	1719.69
476.227	1711.33
476.598	1753.81
476.97	1805.11
477.341	1813.92
477.713	1830.19
478.084	1862.73
478.455	1929.62
478.827	1935.5
479.198	1962.39
479.569	2017.76
479.94	2046.68
480.311	2071.99
480.682	2131.88
481.053	2217.07
481.424	2199
481.795	2269.5
482.166	2274.47
482.537	2317.64
482.908	2400.35
483.279	2441.7
483.65	2468.59
484.021	2499.1
484.391	2529.16
484.762	2603.96
485.133	2636.27
485.503	2681.47
485.874	2742.03
486.244	2787.45
486.615	2845.08
486.985	2858.64
487.356	2940.67
487.726	2946.32
488.097	3053.44
488.467	3072.65
488.837	3144.06
489.207	3182.25
489.578	3194.45
489.948	3257.5
490.318	3312.41
490.688	3348.8
491.058	3414.78
491.428	3503.14
491.798	3479.19
492.168	3584.72
492.538	3673.76
492.908	3634.89
493.278	3704.04
493.648	3749.92
494.017	3818.84
494.387	3829.69
494.757	3879.63
495.126	3920.31
495.496	3967.76
495.866	3997.59
496.235	4081.66
496.605	4080.75
496.974	4097.7
497.344	4179.28
497.713	4196.23
498.082	4250.24
498.452	4285.95
498.821	4289.79
499.19	4350.58
499.559	4366.85
499.928	4388.77
500.298	4415.21
500.667	4504.92
501.036	4476
501.405	4497.47
501.774	4519.84
502.143	4615.43
502.512	4619.5
502.88	4666.95
503.249	4632.83
503.618	4716.44
503.987	4721.64
504.356	4718.48
504.724	4794.41
505.093	4828.53
505.462	4850.45
505.83	4910.34
506.199	4901.75
506.567	4986.04
506.936	4944.46
507.304	4978.81
507.672	5024.01
508.041	5026.72
508.409	5110.78
508.777	5100.16
509.145	5148.3
509.514	5146.94
509.882	5202.98
510.25	5136.77
510.618	5204.34
510.986	5262.87
511.354	5278.24
511.722	5299.93
512.09	5395.97
512.458	5354.62
512.826	5404.79
513.193	5389.87
513.561	5418.12
513.929	5416.99
514.297	5500.83
514.664	5560.49
515.032	5558.46
515.4	5600.04
515.767	5598.45
516.135	5615.63
516.502	5645.46
516.869	5680.03
517.237	5675.29
517.604	5662.63
517.972	5738.34
518.339	5781.73
518.706	5771.56
519.073	5782.63
519.44	5802.29
519.808	5851.33
520.175	5859.01
520.542	5876.41
520.909	5956.41
521.276	5962.96
521.643	5986.92
522.009	6042.74
522.376	6030.76
522.743	6061.72
523.11	6171.55
523.477	6160.93
523.843	6236.18
524.21	6224.2
524.577	6291.09
524.943	6282.05
525.31	6366.34
525.676	6368.6
526.043	6370.41
526.409	6451.99
526.776	6484.76
527.142	6467.13
527.508	6574.93
527.874	6540.12
528.241	6624.42
528.607	6622.61
528.973	6695.6
529.339	6649.73
529.705	6715.49
530.071	6802.94
530.437	6760.01
530.803	6852.88
531.169	6931.3
531.535	6903.28
531.901	6911.87
532.267	6949.61
532.632	6984.63
532.998	7003.39
533.364	7043.16
533.73	7040.9
534.095	7070.28
534.461	7142.59
534.826	7186.66
535.192	7158.64
535.557	7242.71
535.923	7214.01
536.288	7296.04
536.653	7337.84
537.019	7334.45
537.384	7365.64
537.749	7369.03
538.114	7406.54
538.479	7434.34
538.845	7449.71
539.21	7519.76
539.575	7519.76
539.94	7578.29
540.305	7597.72
540.67	7653.99
541.034	7698.06
541.399	7678.85
541.764	7732.86
542.129	7739.42
542.494	7795.91
542.858	7805.63
543.223	7785.74
543.587	7854.44
543.952	7885.17
544.316	7926.98
544.681	7861.22
545.045	7984.61
545.41	8040.42
545.774	8029.58
546.138	8018.05
546.503	8148.44
546.867	8064.15
547.231	8154.55
547.595	8230.25
547.959	8177.14
548.324	8277.48
548.688	8270.47
549.052	8284.94
549.416	8344.82
549.779	8355.67
550.143	8346.18
550.507	8444.93
550.871	8450.81
551.235	8446.52
551.599	8515.21
551.962	8491.94
552.326	8547.76
552.689	8625.27
553.053	8567.87
553.417	8594.08
553.78	8682.44
554.143	8633.4
554.507	8677.7
554.87	8723.12
555.234	8827.75
555.597	8784.36
555.96	8792.04
556.323	8814.64
556.686	8849.44
557.05	8928.76
557.413	8940.29
557.776	8956.33
558.139	9017.35
558.502	9027.29
558.865	9081.98
559.228	9112.49
559.59	9134.86
559.953	9171.24
560.316	9210.56
560.679	9262.31
561.041	9304.12
561.404	9292.59
561.767	9352.25
562.129	9283.33
562.492	9418.47
562.854	9494.85
563.217	9395.42
563.579	9429.77
563.941	9567.39
564.304	9507.05
564.666	9572.59
565.028	9558.35
565.39	9649.87
565.753	9689.87
566.115	9771.45
566.477	9782.53
566.839	9801.73
567.201	9871.56
567.563	9898.91
567.925	9959.24
568.287	9956.76
568.648	9963.54
569.01	10020.49
569.372	10083.08
569.734	10030.43
570.095	10116.3
570.457	10210.08
570.819	10234.49
571.18	10192.68
571.542	10339.12
571.903	10329.86
572.265	10413.7
572.626	10394.26
572.987	10484.65
573.349	10594.48
573.71	10649.85
574.071	10702.73
574.432	10718.09
574.794	10815.27
575.155	10892.1
575.516	10882.16
575.877	10928.71
576.238	10995.6
576.599	11141.36
576.96	11194.47
577.32	11240.11
577.681	11388.58
578.042	11389.49
578.403	11525.98
578.763	11633.78
579.124	11701.34
579.485	11872.41
579.845	11980.66
580.206	12062.47
580.566	12148.79
580.927	12317.15
581.287	12444.38
581.648	12557.59
582.008	12707.65
582.368	12946.74
582.728	13092.04
583.089	13143.57
583.449	13284.13
583.809	13492.03
584.169	13658.81
584.529	13801.4
584.889	14085.46
585.249	14162.3
585.609	14312.35
585.969	14610.87
586.329	14805.22
586.688	15047.92
587.048	15227.58
587.408	15432.09
587.768	15712.76
588.127	15921.35
588.487	16023.72
588.846	16461.67
589.206	16613.76
589.565	16859.4
589.925	17148.89
590.284	17390.91
590.643	17707.29
591.003	17957.68
591.362	18302.53
591.721	18497.1
592.08	18839.24
592.44	19147.7
592.799	19354.93
593.158	19649.16
593.517	19977.96
593.876	20181.8
594.235	20483.26
594.593	20704.27
594.952	21149.01
595.311	21387.87
595.67	21614.76
596.029	22127.29
596.387	22452.25
596.746	22800.71
597.104	22889.75
597.463	23202.96
597.822	23654.7
598.18	23754.59
598.538	24029.61
598.897	24529.26
599.255	24636.15
599.613	25311.16
599.972	25457.14
600.33	25769.22
600.688	25972.16
601.046	26396.55
601.404	26623.44
601.762	26893.04
602.12	27287.6
602.478	27565.33
602.836	27884.42
603.194	28049.62
603.552	28241.7
603.91	28407.12
604.268	28854.79
604.625	28977.27
604.983	29405.74
605.341	29591.5
605.698	29948.77
606.056	30153.97
606.413	30381.98
606.771	30814.06
607.128	31010.89
607.485	31031.68
607.843	31247.95
608.2	31738.33
608.557	32016.06
608.914	32021.94
609.272	32488.59
609.629	32852.65
609.986	32985.08
610.343	33059.43
610.7	33440.66
611.057	33557.49
611.414	33717.26
611.771	33957.26
612.127	34239.74
612.484	34417.36
612.841	34684.92
613.198	34808.08
613.554	34995.42
613.911	35201.97
614.267	35424.11
614.624	35493.49
614.98	35727.83
615.337	36090.08
615.693	36257.08
616.05	36232.9
616.406	36583.85
616.762	36704.3
617.118	36680.12
617.475	36920.12
617.831	37048.02
618.187	37321.46
618.543	37427.67
618.899	37531.85
619.255	37797.16
619.611	37791.51
619.967	38045.74
620.323	38238.5
620.678	38185.62
621.034	38271.72
621.39	38291.38
621.746	38225.85
622.101	38742.44
622.457	38761.42
622.812	38923.45
623.168	39077.12
623.523	39071.25
623.879	39411.58
624.234	39050
624.589	39515.53
624.945	39428.75
625.3	39602.98
625.655	39617.22
626.01	39803.66
626.365	39900.38
626.72	39843.2
627.075	39899.25
627.43	39934.73
627.785	39879.59
628.14	40075.51
628.495	40206.36
628.85	40168.84
629.205	40092.01
629.559	40308.95
629.914	40259.01
630.269	40434.6
630.623	40297.88
630.978	40372
631.332	40494.49
631.687	40607.25
632.041	40620.36
632.396	40671.88
632.75	40542.62
633.104	40664.88
633.459	40545.78
633.813	40704.65
634.167	40582.39
634.521	40674.59
634.875	40677.08
635.229	40583.75
635.583	40545.56
635.937	40539.46
636.291	40690.87
636.645	40567.93
636.999	40574.94
637.352	40667.81
637.706	40546.46
638.06	40678.66
638.413	40461.94
638.767	40524.54
639.121	40645.44
639.474	40375.17
639.828	40558.21
640.181	40594.37
640.534	40585.11
640.888	40447.48
641.241	40343.3
641.594	40357.54
641.947	40631.43
642.301	40338.33
642.654	40560.7
643.007	40488.38
643.36	40465.56
643.713	40412.68
644.066	40433.7
644.419	40322.74
644.771	40118.45
645.124	39699.7
645.477	39779.93
645.83	39535.87
646.182	39352.37
646.535	39310.79
646.888	39429.66
647.24	39108.53
647.593	39477.56
647.945	39220.62
648.298	39289.09
648.65	39069.21
649.002	39092.94
649.355	39235.31
649.707	39215.65
650.059	39311.92
650.411	39865.35
650.763	39797.1
651.115	40255.85
651.467	40047.49
651.819	40141.73
652.171	40104.67
652.523	39935.18
652.875	39919.81
653.227	39849.76
653.578	40065.8
653.93	39867.16
654.282	39924.78
654.633	39795.07
654.985	39962.97
655.337	39980.38
655.688	39947.16
656.039	40049.3
656.391	39709.87
656.742	39682.3
657.094	39850.66
657.445	40031
657.796	39864.45
658.147	39792.81
658.498	39836.42
658.849	39866.25
659.2	39805.01
659.551	39644.79
659.902	39872.58
660.253	39708.52
660.604	39789.65
660.955	39701.06
661.306	39791.45
661.656	39691.34
662.007	39830.32
662.358	39697.44
662.708	39722.75
663.059	39810.44
663.409	39492.48
663.76	39833.49
664.11	39752.36
664.461	39748.07
664.811	39737.9
665.161	39762.75
665.511	39688.41
665.862	39587.17
666.212	39826.93
666.562	39741.74
666.912	39706.03
667.262	39563.66
667.612	39755.75
667.962	39699.93
668.312	39578.8
668.662	39739.7
669.011	39515.08
669.361	39632.59
669.711	39630.1
670.06	39555.53
670.41	39532.7
670.76	39475.98
671.109	39599.59
671.459	39525.7
671.808	39512.82
672.157	39455.42
672.507	39349.66
672.856	39273.5
673.205	39394.63
673.554	39396.66
673.904	39289.32
674.253	39590.78
674.602	39380.62
674.951	38968.65
675.3	38849.11
675.649	39314.4
675.998	39268.76
676.346	39206.84
676.695	39325.03
677.044	39114.86
677.393	39224.46
677.741	39287.74
678.09	39063.34
678.438	38944.47
678.787	39056.33
679.135	39136.78
679.484	38788.77
679.832	39012.27
680.181	38713.29
680.529	38931.59
680.877	38796.45
681.225	38687.3
681.573	38943.57
681.922	38677.36
682.27	38637.81
682.618	38567.31
682.966	38554.42
683.314	38464.71
683.661	38515.1
684.009	38345.39
684.357	38349.01
684.705	38212.51
685.053	38253.42
685.4	38240.53
685.748	38128.67
686.095	38073.31
686.443	37983.59
686.79	37909.24
687.138	37896.59
687.485	37812.97
687.832	37746.31
688.18	37791.51
688.527	37502.02
688.874	37473.1
689.221	37408.92
689.568	37511.06
689.915	37388.58
690.262	37309.49
690.609	37178.64
690.956	37189.04
691.303	37313.1
691.65	36930.29
691.997	36974.8
692.344	36754.02
692.69	36691.2
693.037	36676.96
693.383	36485.55
693.73	36732.33
694.077	36353.13
694.423	36463.86
694.769	36140.93
695.116	36074.26
695.462	36152.45
695.808	36042.17
696.155	36061.38
696.501	35818.9
696.847	35846.02
697.193	35641.96
697.539	35798.79
697.885	35509.98
698.231	35300.5
698.577	35400.83
698.923	35246.49
699.269	35070
699.614	34961.3
699.96	34872.26
700.306	34764.24
700.651	34754.3
700.997	34623.68
701.342	34549.56
701.688	34577.35
702.033	34404.02
702.379	34482.89
702.724	34301.88
703.069	34475.44
703.415	34031.83
703.76	34124.94
704.105	34039.29
704.45	34024.83
704.795	33742.8
705.14	33700.54
705.485	33554.1
705.83	33511.62
706.175	33588.9
706.52	33408.8
706.865	33320.21
707.209	33179.88
707.554	33143.04
707.899	33232.76
708.243	33135.36
708.588	32874.12
708.932	32849.26
709.277	32834.57
709.621	32836.16
709.966	32594.58
710.31	32670.96
710.654	32478.2
710.998	32509.39
711.342	32534.47
711.687	32385.55
712.031	32202.27
712.375	32067.14
712.719	32193.24
713.063	32119.57
713.407	32225.32
713.75	32060.13
714.094	31892.23
714.438	31811.78
714.782	31969.74
715.125	31727.94
715.469	31748.95
715.812	31495.85
716.156	31451.33
716.499	31415.85
716.843	31529.75
717.186	31220.38
717.53	31529.3
717.873	31425.57
718.216	31271
718.559	31198.91
718.902	31013.38
719.246	31057.67
719.589	31090.89
719.932	30891.35
720.275	30995.53
720.617	30922.08
720.96	30756.66
721.303	30728.87
721.646	30728.64
721.989	30558.25
722.331	30656.33
722.674	30499.72
723.016	30549.66
723.359	30551.7
723.701	30619.72
724.044	30316.9
724.386	30179.05
724.729	30429.89
725.071	30082.78
725.413	30183.34
725.755	30145.15
726.097	30000.07
726.439	29921.88
726.782	29982.9
727.124	29925.95
727.465	29873.52
727.807	29791.49
728.149	29838.5
728.491	29749.68
728.833	29787.65
729.175	29548.11
729.516	29542.68
729.858	29539.75
730.199	29622
730.541	29456.81
730.882	29552.85
731.224	29583.59
731.565	29310.37
731.906	29331.84
732.248	29439.64
732.589	29287.32
732.93	29113.99
733.271	29325.29
733.612	29327.55
733.953	29197.61
734.294	29039.65
734.635	29085.75
734.976	28958.29
735.317	28986.54
735.658	28898.86
735.999	28874.23
736.339	28803.95
736.68	28943.15
737.021	28813.21
737.361	28593.78
737.702	28710.84
738.042	28581.8
738.383	28546.1
738.723	28742.7
739.063	28512.2
739.404	28524.86
739.744	28519.21
740.084	28251.87
740.424	28436.27
740.764	28365.77
741.104	28405.99
741.444	28197.63
741.784	28227.46
742.124	28290.29
742.464	28128.26
742.804	28154.92
743.143	28008.03
743.483	28034.02
743.823	27996.51
744.162	27945.44
744.502	27991.99
744.841	27905.66
745.181	28009.62
745.52	27775.5
745.86	27817.76
746.199	27820.47
746.538	27756.52
746.877	27885.33
747.216	27759.91
747.556	27641.72
747.895	27642.62
748.234	27566.92
748.573	27482.62
748.911	27513.81
749.25	27485.79
749.589	27255.74
749.928	27399.69
750.267	27400.14
750.605	27223.87
750.944	27272.69
751.283	27110.43
751.621	27150.66
751.96	27036.53
752.298	27036.08
752.636	27032.47
752.975	26900.95
753.313	26877.22
753.651	26901.62
753.989	26741.85
754.327	26625.02
754.666	26699.37
755.004	26692.14
755.342	26557
755.679	26620.73
756.017	26343.22
756.355	26387.51
756.693	26337.12
757.031	26330.11
757.368	26105.26
757.706	26225.48
758.044	26114.75
758.381	26148.42
758.719	26001.99
759.056	26159.72
759.394	25948.88
759.731	25833.18
760.068	25794.76
