Data from hue_240_FLMS001491_00052.txt Node
Date: Tue Feb 07 16:35:39 GMT 2017
User: dcchb
Spectrometer: FLMS00149
Trigger mode: 0
Integration Time (sec): 2.000000E-2
Scans to average: 10
Electric dark correction enabled: true
Nonlinearity correction enabled: false
Boxcar width: 0
XAxis mode: Wavelengths
Number of Pixels in Spectrum: 2048
>>>>>Begin Spectral Data<<<<<
341.393	12.34
341.776	12.34
342.16	12.34
342.543	-64.94
342.927	-66.52
343.31	-72.4
343.693	-82.12
344.077	-81.89
344.46	-52.51
344.843	-44.6
345.226	-32.17
345.61	-29.91
345.993	-21.78
346.376	-10.03
346.759	15.96
347.142	34.94
347.525	44.43
347.908	47.15
348.291	78.33
348.674	93.02
349.057	113.58
349.44	141.38
349.823	150.19
350.206	164.66
350.588	201.94
350.971	214.15
351.354	197.2
351.737	220.02
352.119	227.71
352.502	257.54
352.884	276.52
353.267	264.32
353.65	273.35
354.032	300.47
354.414	301.15
354.797	302.73
355.179	314.71
355.562	321.94
355.944	311.09
356.326	331.66
356.709	335.73
357.091	361.71
357.473	327.14
357.855	336.86
358.238	335.05
358.62	338.89
359.002	342.96
359.384	330.08
359.766	329.4
360.148	319.45
360.53	337.53
360.912	330.53
361.294	324.88
361.676	343.86
362.057	335.27
362.439	335.27
362.821	321.94
363.203	314.03
363.584	322.39
363.966	342.05
364.348	327.82
364.729	326.46
365.111	306.57
365.493	326.69
365.874	322.62
366.256	302.96
366.637	298.66
367.019	322.17
367.4	314.71
367.781	312.22
368.163	322.17
368.544	322.17
368.925	324.2
369.306	318.32
369.688	316.29
370.069	298.21
370.45	298.89
370.831	304.54
371.212	307.48
371.593	313.58
371.974	316.97
372.355	306.57
372.736	342.28
373.117	318.1
373.498	313.81
373.879	313.81
374.26	329.17
374.641	336.63
375.021	318.55
375.402	310.87
375.783	304.99
376.163	310.87
376.544	332.56
376.925	330.08
377.305	304.31
377.686	321.94
378.066	321.71
378.447	328.72
378.827	303.18
379.208	314.48
379.588	316.52
379.968	325.56
380.349	309.29
380.729	338.89
381.109	325.1
381.489	330.08
381.87	334.82
382.25	350.19
382.63	342.73
383.01	346.8
383.39	326.91
383.77	338.21
384.15	339.34
384.53	324.43
384.91	356.97
385.29	353.58
385.67	339.12
386.049	344.09
386.429	353.13
386.809	357.42
387.189	354.03
387.568	347.02
387.948	363.75
388.328	359.45
388.707	349.06
389.087	352.22
389.466	350.19
389.846	375.95
390.225	356.06
390.605	366.69
390.984	359.68
391.363	388.38
391.743	373.92
392.122	383.63
392.501	363.07
392.881	379.34
393.26	373.92
393.639	392.45
394.018	353.13
394.397	376.63
394.776	377.31
395.155	368.49
395.534	397.19
395.913	393.8
396.292	395.84
396.671	372.33
397.05	399.23
397.429	385.22
397.808	397.87
398.186	383.41
398.565	403.75
398.944	416.4
399.323	411.66
399.701	408.27
400.08	410.3
400.458	406.68
400.837	417.08
401.215	403.52
401.594	410.07
401.972	441.03
402.351	419.34
402.729	424.76
403.107	444.88
403.486	427.93
403.864	437.64
404.242	432.67
404.62	426.34
404.999	441.49
405.377	448.27
405.755	450.75
406.133	462.5
406.511	446.46
406.889	430.19
407.267	433.35
407.645	457.53
408.023	434.71
408.401	478.77
408.779	473.12
409.156	479.68
409.534	480.35
409.912	480.58
410.29	509.28
410.667	497.53
411.045	467.02
411.422	516.29
411.8	508.38
412.178	493.24
412.555	533.23
412.933	528.49
413.31	539.79
413.687	556.06
414.065	551.77
414.442	559.67
414.819	567.13
415.197	546.12
415.574	558.32
415.951	582.72
416.328	585.66
416.705	589.05
417.082	586.79
417.46	598.54
417.837	601.26
418.214	587.24
418.591	621.59
418.967	605.55
419.344	621.37
419.721	611.2
420.098	637.64
420.475	652.1
420.852	622.5
421.228	649.16
421.605	669.73
421.982	669.5
422.358	673.57
422.735	655.72
423.111	704.3
423.488	711.08
423.864	713.57
424.241	729.16
424.617	741.82
424.994	744.3
425.37	745.21
425.746	763.96
426.123	762.38
426.499	766.9
426.875	784.53
427.251	797.41
427.627	807.35
428.003	820.23
428.379	834.7
428.756	817.97
429.132	827.92
429.507	853
429.883	854.13
430.259	882.15
430.635	879.44
431.011	870.85
431.387	880.8
431.763	901.13
432.138	896.61
432.514	918.31
432.89	927.8
433.265	949.49
433.641	951.53
434.016	978.42
434.392	984.3
434.767	1014.58
435.143	998.99
435.518	1020.23
435.894	1067.23
436.269	1061.13
436.644	1080.34
437.02	1067.68
437.395	1111.75
437.77	1109.72
438.145	1127.12
438.52	1137.51
438.895	1146.78
439.271	1153.33
439.646	1176.38
440.021	1194.01
440.395	1200.34
440.77	1184.06
441.145	1231.07
441.52	1254.57
441.895	1229.49
442.27	1253.67
442.645	1239.66
443.019	1269.71
443.394	1253.44
443.769	1334.34
444.143	1303.16
444.518	1311.29
444.892	1307
445.267	1313.78
445.641	1365.76
446.016	1324.17
446.39	1375.92
446.764	1378.86
447.139	1349.48
447.513	1388.35
447.887	1407.79
448.262	1399.43
448.636	1419.54
449.01	1439.43
449.384	1434
449.758	1445.3
450.132	1479.88
450.506	1465.64
450.88	1449.82
451.254	1485.98
451.628	1524.17
452.002	1518.29
452.376	1532.08
452.75	1544.28
453.123	1565.75
453.497	1568.01
453.871	1577.05
454.244	1593.55
454.618	1586.99
454.992	1615.24
455.365	1602.13
455.739	1683.26
456.112	1677.61
456.486	1718.97
456.859	1731.4
457.232	1732.3
457.606	1751.96
457.979	1753.99
458.352	1789.02
458.725	1819.53
459.099	1833.99
459.472	1843.26
459.845	1868.57
460.218	1910.15
460.591	1911.73
460.964	1902.01
461.337	1936.59
461.71	1966.64
462.083	1996.47
462.456	1986.53
462.829	1991.28
463.201	2035.34
463.574	2043.7
463.947	2057.26
464.32	2102.46
464.692	2114.44
465.065	2101.78
465.438	2181.55
465.81	2191.95
466.183	2173.87
466.555	2234.21
466.928	2223.81
467.3	2268.78
467.672	2290.93
468.045	2356.69
468.417	2329.57
468.789	2332.28
469.161	2385.39
469.534	2414.99
469.906	2493.63
470.278	2452.73
470.65	2511.26
471.022	2522.11
471.394	2548.1
471.766	2593.52
472.138	2656.57
472.51	2701.09
472.882	2712.39
473.253	2730.46
473.625	2766.85
473.997	2801.42
474.369	2790.58
474.74	2861.08
475.112	2901.31
475.484	2917.8
475.855	2983.11
476.227	2982.89
476.598	3079.38
476.97	3080.29
477.341	3121.42
477.713	3222.88
478.084	3180.85
478.455	3259.49
478.827	3318.7
479.198	3375.65
479.569	3409.09
479.94	3481.86
480.311	3489.77
480.682	3527.28
481.053	3619.71
481.424	3646.6
481.795	3686.82
482.166	3761.62
482.537	3789.19
482.908	3816.99
483.279	3902.19
483.65	3955.74
484.021	3982.64
484.391	4033.93
484.762	4086.81
485.133	4106.47
485.503	4170.88
485.874	4219.24
486.244	4237.32
486.615	4302.85
486.985	4371.78
487.356	4453.13
487.726	4488.38
488.097	4578.33
488.467	4523.41
488.837	4626.01
489.207	4666.46
489.578	4744.2
489.948	4774.03
490.318	4832.33
490.688	4787.36
491.058	4953.46
491.428	4956.17
491.798	4970.86
492.168	5090.18
492.538	5071.19
492.908	5137.41
493.278	5186.22
493.648	5184.41
494.017	5221.02
494.387	5292.21
494.757	5348.93
495.126	5402.49
495.496	5407.46
495.866	5402.49
496.235	5464.63
496.605	5542.14
496.974	5491.52
497.344	5594.34
497.713	5592.31
498.082	5606.77
498.452	5656.26
498.821	5647.45
499.19	5682.93
499.559	5771.51
499.928	5722.25
500.298	5775.81
500.667	5802.02
501.036	5822.81
501.405	5856.26
501.774	5863.49
502.143	5952.3
502.512	5926.77
502.88	6006.54
503.249	5996.82
503.618	6011.06
503.987	5960.66
504.356	6089.92
504.724	6077.5
505.093	6088.34
505.462	6093.31
505.83	6133.09
506.199	6163.37
506.567	6195.01
506.936	6218.51
507.304	6216.93
507.672	6263.71
508.041	6309.13
508.409	6334.89
508.777	6371.95
509.145	6348.45
509.514	6338.73
509.882	6390.71
510.25	6378.73
510.618	6449.46
510.986	6387.32
511.354	6456.02
511.722	6515.68
512.09	6544.15
512.458	6537.14
512.826	6585.5
513.193	6552.74
513.561	6563.58
513.929	6630.25
514.297	6667.31
514.664	6698.95
515.032	6651.94
515.4	6742.11
515.767	6717.48
516.135	6731.72
516.502	6651.94
516.869	6686.07
517.237	6740.53
517.604	6733.07
517.972	6843.8
518.339	6813.75
518.706	6795.22
519.073	6815.33
519.44	6830.02
519.808	6881.77
520.175	6839.96
520.542	6934.65
520.909	6955.89
521.276	6909.11
521.643	6973.52
522.009	6985.95
522.376	7025.04
522.743	7052.61
523.11	7061.42
523.477	7058.49
523.843	7115.21
524.21	7161.08
524.577	7160.18
524.943	7197.69
525.31	7171.03
525.676	7230.23
526.043	7220.52
526.409	7267.97
526.776	7292.6
527.142	7308.65
527.508	7246.28
527.874	7301.19
528.241	7345.48
528.607	7300.29
528.973	7347.52
529.339	7344.81
529.705	7394.52
530.071	7409.21
530.437	7429.55
530.803	7438.36
531.169	7394.07
531.535	7418.48
531.901	7359.5
532.267	7477.01
532.632	7491.7
532.998	7467.06
533.364	7498.02
533.73	7479.94
534.095	7510
534.461	7515.88
534.826	7512.03
535.192	7540.96
535.557	7517.01
535.923	7435.65
536.288	7442.21
536.653	7425.93
537.019	7432.71
537.384	7505.03
537.749	7464.8
538.114	7453.96
538.479	7420.51
538.845	7460.51
539.21	7449.44
539.575	7455.76
539.94	7387.97
540.305	7490.11
540.67	7455.99
541.034	7456.89
541.399	7474.75
541.764	7497.57
542.129	7461.41
542.494	7425.48
542.858	7406.27
543.223	7478.81
543.587	7487.4
543.952	7404.47
544.316	7421.42
544.681	7488.31
545.045	7430.91
545.41	7394.07
545.774	7446.5
546.138	7419.83
546.503	7419.83
546.867	7376.22
547.231	7470.45
547.595	7429.32
547.959	7371.7
548.324	7406.27
548.688	7361.3
549.052	7392.04
549.416	7364.24
549.779	7376.9
550.143	7339.84
550.507	7361.53
550.871	7375.54
551.235	7362.21
551.599	7415.77
551.962	7409.44
552.326	7367.86
552.689	7343
553.053	7359.04
553.417	7375.31
553.78	7479.72
554.143	7357.24
554.507	7411.7
554.87	7415.54
555.234	7432.49
555.597	7361.98
555.96	7439.72
556.323	7415.77
556.686	7407.4
557.05	7440.62
557.413	7449.21
557.776	7431.81
558.139	7440.85
558.502	7457.8
558.865	7487.18
559.228	7512.26
559.59	7562.2
559.953	7551.36
560.316	7601.3
560.679	7518.81
561.041	7589.09
561.404	7593.16
561.767	7633.84
562.129	7639.94
562.492	7721.97
562.854	7655.76
563.217	7669.09
563.579	7695.98
563.941	7729.2
564.304	7726.27
564.666	7684.91
565.028	7785.93
565.39	7744.8
565.753	7818.92
566.115	7854.85
566.477	7868.63
566.839	7846.26
567.201	7923.32
567.563	7851.01
567.925	7942.31
568.287	7939.59
568.648	7915.64
569.01	7978.69
569.372	8019.59
569.734	7938.46
570.095	7991.8
570.457	8030.44
570.819	8022.98
571.18	8074.96
571.542	8126.48
571.903	8116.99
572.265	8123.32
572.626	8161.28
572.987	8208.74
573.349	8195.86
573.71	8210.09
574.071	8243.54
574.432	8287.61
574.794	8273.82
575.155	8307.72
575.516	8203.99
575.877	8366.93
576.238	8355.85
576.599	8381.16
576.96	8342.97
577.32	8340.49
577.681	8395.85
578.042	8395.63
578.403	8431.33
578.763	8433.59
579.124	8413.25
579.485	8494.83
579.845	8550.2
580.206	8503.19
580.566	8533.48
580.927	8552.91
581.287	8577.54
581.648	8573.7
582.008	8552.91
582.368	8621.61
582.728	8589.52
583.089	8665.9
583.449	8629.29
583.809	8664.09
584.169	8689.18
584.529	8662.29
584.889	8693.02
585.249	8652.8
585.609	8673.36
585.969	8690.53
586.329	8735.5
586.688	8756.97
587.048	8723.3
587.408	8762.85
587.768	8787.93
588.127	8713.36
588.487	8674.26
588.846	8860.7
589.206	8760.14
589.565	8718.78
589.925	8808.27
590.284	8822.51
590.643	8787.93
591.003	8861.6
591.362	8881.94
591.721	8883.3
592.08	8803.53
592.44	8790.19
592.799	8880.59
593.158	8907.93
593.517	8883.07
593.876	8826.12
594.235	8825.45
594.593	8895.5
594.952	8970.3
595.311	8840.13
595.67	8939.12
596.029	8972.33
596.387	8957.42
596.746	8985.44
597.104	8888.04
597.463	8917.87
597.822	9012.11
598.18	8890.53
598.538	8922.17
598.897	8991.77
599.255	8935.95
599.613	9063.18
599.972	8987.93
600.33	9060.02
600.688	8970.07
601.046	9039.68
601.404	9121.71
601.762	9070.64
602.12	9092.33
602.478	9050.75
602.836	9056.4
603.194	8996.51
603.552	9042.16
603.91	8997.87
604.268	9083.29
604.625	8954.48
604.983	9067.02
605.341	9092.78
605.698	9096.63
606.056	9133.91
606.413	9111.31
606.771	9163.06
607.128	9142.5
607.485	9116.51
607.843	9094.14
608.2	9107.7
608.557	9171.65
608.914	9112.22
609.272	9159.67
609.629	9239.22
609.986	9181.37
610.343	9179.33
610.7	9252.78
611.057	9238.99
611.414	9161.26
611.771	9304.76
612.127	9298.65
612.484	9298.2
612.841	9290.07
613.198	9264.76
613.554	9325.09
613.911	9332.1
614.267	9333.91
614.624	9269.73
614.98	9315.38
615.337	9383.85
615.693	9305.21
616.05	9365.09
616.406	9429.27
616.762	9327.58
617.118	9328.48
617.475	9377.52
617.831	9427.01
618.187	9428.59
618.543	9388.14
618.899	9425.88
619.255	9424.75
619.611	9363.74
619.967	9447.8
620.323	9501.59
620.678	9395.6
621.034	9446.9
621.39	9402.38
621.746	9422.04
622.101	9501.13
622.457	9490.06
622.812	9447.8
623.168	9471.98
623.523	9444.86
623.879	9492.55
624.234	9403.28
624.589	9436.28
624.945	9425.66
625.3	9438.09
625.655	9461.81
626.01	9424.53
626.365	9443.06
626.72	9462.04
627.075	9443.06
627.43	9503.39
627.785	9401.48
628.14	9427.01
628.495	9355.83
628.85	9357.86
629.205	9406.9
629.559	9453.45
629.914	9383.17
630.269	9420.23
630.623	9306.34
630.978	9348.14
631.332	9374.13
631.687	9365.54
632.041	9346.56
632.396	9336.17
632.75	9333.46
633.104	9370.97
633.459	9297.52
633.813	9279.9
634.167	9246.23
634.521	9314.25
634.875	9285.55
635.229	9251.42
635.583	9244.87
635.937	9198.54
636.291	9244.19
636.645	9228.37
636.999	9171.88
637.352	9257.52
637.706	9149.51
638.06	9138.43
638.413	9105.44
638.767	9187.7
639.121	9177.53
639.474	9074.48
639.828	9124.87
640.181	9080.81
640.534	9146.34
640.888	9114.25
641.241	9067.47
641.594	9139.79
641.947	9118.77
642.301	9083.52
642.654	9047.13
643.007	9035.84
643.36	9008.27
643.713	8962.62
644.066	9086.23
644.419	8975.27
644.771	8913.13
645.124	8855.5
645.477	8799.01
645.83	8776.63
646.182	8689.18
646.535	8709.06
646.888	8720.36
647.24	8699.12
647.593	8688.95
647.945	8691.66
648.298	8652.34
648.65	8652.12
649.002	8601.95
649.355	8693.7
649.707	8662.74
650.059	8709.52
650.411	8760.36
650.763	8879
651.115	8895.73
651.467	8842.62
651.819	8899.34
652.171	8894.6
652.523	8840.13
652.875	8784.09
653.227	8804.2
653.578	8809.18
653.93	8786.12
654.282	8763.53
654.633	8781.38
654.985	8820.47
655.337	8822.51
655.688	8799.46
656.039	8794.03
656.391	8766.92
656.742	8757.88
657.094	8784.99
657.445	8852.79
657.796	8866.12
658.147	8791.32
658.498	8786.8
658.849	8830.87
659.2	8727.37
659.551	8779.8
659.902	8788.16
660.253	8795.39
660.604	8796.52
660.955	8761.72
661.306	8775.96
661.656	8752
662.007	8774.83
662.358	8789.97
662.708	8780.25
663.059	8833.36
663.409	8726.47
663.76	8773.24
664.11	8801.94
664.461	8755.39
664.811	8804.2
665.161	8753.13
665.511	8787.71
665.862	8781.15
666.212	8767.14
666.562	8769.4
666.912	8763.3
667.262	8721.27
667.612	8749.29
667.962	8786.35
668.312	8753.58
668.662	8781.38
669.011	8758.56
669.361	8727.14
669.711	8708.39
670.06	8791.1
670.41	8714.94
670.76	8776.86
671.109	8784.99
671.459	8758.33
671.808	8699.12
672.157	8714.26
672.507	8700.93
672.856	8720.59
673.205	8687.37
673.554	8767.59
673.904	8658.22
674.253	8659.8
674.602	8653.02
674.951	8567.15
675.3	8502.52
675.649	8603.53
675.998	8650.31
676.346	8703.42
676.695	8656.64
677.044	8569.86
677.393	8577.09
677.741	8625.68
678.09	8615.28
678.438	8576.19
678.787	8608.73
679.135	8574.15
679.484	8507.71
679.832	8540.03
680.181	8485.12
680.529	8464.55
680.877	8471.33
681.225	8506.58
681.573	8513.59
681.922	8429.98
682.27	8498.45
682.618	8436.98
682.966	8429.52
683.314	8436.08
683.661	8406.47
684.009	8368.73
684.357	8319.92
684.705	8371.22
685.053	8334.39
685.4	8380.94
685.748	8318.11
686.095	8224.78
686.443	8279.25
686.79	8197.21
687.138	8249.87
687.485	8238.79
687.832	8144.79
688.18	8191.56
688.527	8155.18
688.874	8140.04
689.221	8094.84
689.568	8066.37
689.915	8054.84
690.262	8105.69
690.609	8008.29
690.956	7976.65
691.303	7985.02
691.65	7968.75
691.997	7979.82
692.344	7927.84
692.69	7943.21
693.037	7908.41
693.383	7842.65
693.73	7846.71
694.077	7771.01
694.423	7811.46
694.769	7714.74
695.116	7690.79
695.462	7724.01
695.808	7710.45
696.155	7692.37
696.501	7670.9
696.847	7665.7
697.193	7540.28
697.539	7654.18
697.885	7572.15
698.231	7501.86
698.577	7490.34
698.923	7478.14
699.269	7454.41
699.614	7426.16
699.96	7399.72
700.306	7405.14
700.651	7371.47
700.997	7382.55
701.342	7351.36
701.688	7275.66
702.033	7264.36
702.379	7295.54
702.724	7247.86
703.069	7206.73
703.415	7149.78
703.76	7187.3
704.105	7141.2
704.45	7138.71
704.795	7116.34
705.14	7108.43
705.485	7081.31
705.83	7030.24
706.175	7032.72
706.52	6927.64
706.865	7013.06
707.209	7005.83
707.554	6951.37
707.899	7011.26
708.243	6955.66
708.588	6925.38
708.932	6851.71
709.277	6845.84
709.621	6811.26
709.966	6834.76
710.31	6873.18
710.654	6786.4
710.998	6776.46
711.342	6777.14
711.687	6747.76
712.031	6718.16
712.375	6760.87
712.719	6720.87
713.063	6696.69
713.407	6755.67
713.75	6635.9
714.094	6633.87
714.438	6609.01
714.782	6610.59
715.125	6635.9
715.469	6628.89
715.812	6604.49
716.156	6559.52
716.499	6581.44
716.843	6518.61
717.186	6555.9
717.53	6596.58
717.873	6592.51
718.216	6542.57
718.559	6552.06
718.902	6489.46
719.246	6555
719.589	6482
719.932	6456.69
720.275	6429.35
720.617	6447.43
720.96	6466.86
721.303	6440.88
721.646	6471.16
721.989	6384.15
722.331	6479.29
722.674	6441.1
723.016	6406.53
723.359	6382.8
723.701	6439.07
724.044	6352.29
724.386	6370.37
724.729	6348.67
725.071	6355.23
725.413	6381.89
725.755	6333.53
726.097	6299.18
726.439	6306.64
726.782	6251.28
727.124	6282.69
727.465	6322.69
727.807	6263.25
728.149	6318.62
728.491	6239.07
728.833	6289.24
729.175	6313.2
729.516	6225.74
729.858	6237.04
730.199	6287.43
730.541	6222.8
730.882	6249.47
731.224	6300.54
731.565	6262.8
731.906	6246.3
732.248	6273.65
732.589	6263.48
732.93	6170.83
733.271	6165.85
733.612	6223.03
733.953	6226.42
734.294	6283.59
734.635	6183.48
734.976	6235.91
735.317	6170.37
735.658	6211.5
735.999	6189.13
736.339	6225.06
736.68	6244.27
737.021	6170.83
737.361	6209.7
737.702	6255.12
738.042	6205.18
738.383	6185.29
738.723	6232.07
739.063	6243.59
739.404	6227.1
739.744	6253.08
740.084	6200.2
740.424	6248.79
740.764	6216.02
741.104	6249.92
741.444	6226.64
741.784	6269.81
742.124	6310.03
742.464	6277.26
742.804	6224.61
743.143	6220.77
743.483	6283.37
743.823	6242.91
744.162	6313.65
744.502	6334.89
744.841	6327.88
745.181	6385.28
745.52	6389.35
745.86	6428.67
746.199	6448.11
746.538	6392.06
746.877	6527.88
747.216	6415.34
747.556	6494.66
747.895	6535.79
748.234	6576.01
748.573	6574.21
748.911	6573.75
749.25	6597.26
749.589	6603.13
749.928	6668.21
750.267	6756.35
750.605	6795.44
750.944	6797.7
751.283	6813.07
751.621	6890.36
751.96	6915.44
752.298	6920.86
752.636	7063.91
752.975	7046.74
753.313	7146.39
753.651	7216.9
753.989	7230.91
754.327	7307.97
754.666	7241.53
755.004	7409.44
755.342	7473.84
755.679	7519.94
756.017	7620.05
756.355	7714.06
756.693	7721.75
757.031	7839.26
757.368	7861.86
757.706	7976.2
758.044	8079.48
758.381	8165.35
758.719	8227.72
759.056	8317.44
759.394	8388.17
759.731	8484.89
760.068	8575.96
760.405	8585.23
760.743	8690.31
761.08	8924.65
761.417	8889.4
761.754	9036.29
762.091	9066.12
762.428	9171.65
762.765	9250.29
763.102	9392.66
763.438	9455.49
763.775	9534.35
764.112	9574.58
764.449	9788.58
764.785	9799.43
765.122	9827
765.458	9962.82
765.795	10015.25
766.131	10088.92
766.467	10203.71
766.804	10302.92
767.14	10260.89
767.476	10420.43
767.812	10483.71
768.148	10505.18
768.485	10556.7
768.821	10517.6
769.157	10656.58
769.492	10721.44
