Data from hue_210_FLMS001491_00062.txt Node
Date: Tue Feb 07 16:41:32 GMT 2017
User: dcchb
Spectrometer: FLMS00149
Trigger mode: 0
Integration Time (sec): 2.000000E-2
Scans to average: 10
Electric dark correction enabled: true
Nonlinearity correction enabled: false
Boxcar width: 0
XAxis mode: Wavelengths
Number of Pixels in Spectrum: 2048
>>>>>Begin Spectral Data<<<<<
341.393	-5.83
341.776	-5.83
342.16	-5.83
342.543	-53.29
342.927	-76.34
343.31	-90.35
343.693	-70.69
344.077	-58.71
344.46	-58.71
344.843	-43.35
345.226	-68.88
345.61	-22.56
345.993	-3.12
346.376	-14.42
346.759	6.6
347.142	15.86
347.525	64.9
347.908	65.58
348.291	63.54
348.674	99.02
349.057	115.29
349.44	117.78
349.823	133.82
350.206	152.35
350.588	195.29
350.971	200.26
351.354	221.28
351.737	221.96
352.119	241.17
352.502	268.06
352.884	262.18
353.267	294.5
353.65	291.33
354.032	301.5
354.414	278.91
354.797	318.9
355.179	331.56
355.562	334.04
355.944	300.37
356.326	325.68
356.709	328.85
357.091	339.69
357.473	347.6
357.855	343.99
358.238	322.75
358.62	330.88
359.002	335.63
359.384	325.46
359.766	332.91
360.148	334.04
360.53	335.17
360.912	346.47
361.294	325.01
361.676	342.18
362.057	320.71
362.439	323.65
362.821	318.9
363.203	307.38
363.584	318
363.966	321.39
364.348	313.25
364.729	327.27
365.111	311.67
365.493	315.51
365.874	340.15
366.256	292.24
366.637	309.41
367.019	330.88
367.4	317.55
367.781	310.09
368.163	326.14
368.544	297.21
368.925	300.83
369.306	321.39
369.688	310.09
370.069	316.19
370.45	322.75
370.831	307.38
371.212	304.89
371.593	295.85
371.974	309.86
372.355	303.09
372.736	320.03
373.117	331.11
373.498	299.47
373.879	308.28
374.26	325.23
374.641	285.23
375.021	322.97
375.402	335.17
375.783	333.59
376.163	319.81
376.544	341.05
376.925	334.5
377.305	335.17
377.686	338.79
378.066	336.53
378.447	334.04
378.827	334.04
379.208	328.17
379.588	349.86
379.968	341.95
380.349	321.62
380.729	326.81
381.109	325.23
381.489	308.73
381.87	351.22
382.25	337.21
382.63	331.79
383.01	340.6
383.39	316.64
383.77	336.76
384.15	353.48
384.53	346.7
384.91	330.43
385.29	334.95
385.67	362.52
386.049	356.19
386.429	359.13
386.809	361.84
387.189	360.03
387.568	339.69
387.948	369.3
388.328	365.91
388.707	358.68
389.087	342.63
389.466	362.97
389.846	378.56
390.225	348.06
390.605	392.12
390.984	371.56
391.363	369.07
391.743	371.78
392.122	382.41
392.501	367.72
392.881	370.88
393.26	364.33
393.639	363.87
394.018	389.18
394.397	388.28
394.776	374.04
395.155	382.63
395.534	401.61
395.913	386.92
396.292	392.12
396.671	404.55
397.05	403.65
397.429	382.86
397.808	403.87
398.186	386.92
398.565	398.68
398.944	410.2
399.323	415.62
399.701	425.12
400.08	423.08
400.458	430.77
400.837	427.15
401.215	440.71
401.594	433.93
401.972	433.7
402.351	458.11
402.729	461.95
403.107	435.96
403.486	423.76
403.864	439.13
404.242	447.26
404.62	433.03
404.999	447.71
405.377	458.79
405.755	461.73
406.133	464.89
406.511	489.52
406.889	484.1
407.267	498.56
407.645	501.95
408.023	502.4
408.401	495.17
408.779	520.48
409.156	531.33
409.534	513.48
409.912	521.16
410.29	534.04
410.667	554.83
411.045	575.85
411.422	557.77
411.8	539.69
412.178	574.26
412.555	577.2
412.933	595.05
413.31	606.13
413.687	606.81
414.065	611.33
414.442	629.63
414.819	625.56
415.197	644.32
415.574	645.22
415.951	659.23
416.328	670.08
416.705	691.78
417.082	667.14
417.46	709.18
417.837	719.35
418.214	691.32
418.591	699.68
418.967	705.33
419.344	741.27
419.721	740.14
420.098	732.9
420.475	797.08
420.852	752.56
421.228	786.69
421.605	807.93
421.982	817.87
422.358	831.21
422.735	823.98
423.111	849.06
423.488	885.89
423.864	869.4
424.241	887.48
424.617	901.26
424.994	902.17
425.37	937.19
425.746	955.27
426.123	958.66
426.499	951.66
426.875	977.64
427.251	983.97
427.627	1014.48
428.003	1002.73
428.379	1053.57
428.756	1055.61
429.132	1066.91
429.507	1088.38
429.883	1091.99
430.259	1091.31
430.635	1107.58
431.011	1140.58
431.387	1165.21
431.763	1164.31
432.138	1170.41
432.514	1199.56
432.89	1226.22
433.265	1238.65
433.641	1288.14
434.016	1271.65
434.392	1309.39
434.767	1289.05
435.143	1338.09
435.518	1386.67
435.894	1423.73
436.269	1390.97
436.644	1427.35
437.02	1447.69
437.395	1478.87
437.77	1487.01
438.145	1529.72
438.52	1545.31
438.895	1547.35
439.271	1590.28
439.646	1626.44
440.021	1648.59
440.395	1667.8
440.77	1689.49
441.145	1674.57
441.52	1707.57
441.895	1780.79
442.27	1801.35
442.645	1763.84
443.019	1808.36
443.394	1841.35
443.769	1859.88
444.143	1863.5
444.518	1873.89
444.892	1893.78
445.267	1892.42
445.641	1946.88
446.016	1924.06
446.39	1948.24
446.764	1981.46
447.139	1950.05
447.513	1998.18
447.887	1992.08
448.262	2009.48
448.636	2063.04
449.01	2063.04
449.384	2077.5
449.758	2119.31
450.132	2123.83
450.506	2139.42
450.88	2165.18
451.254	2171.28
451.628	2175.58
452.002	2226.65
452.376	2211.51
452.75	2216.93
453.123	2253.99
453.497	2293.32
453.871	2287.21
454.244	2374.67
454.618	2382.58
454.992	2396.14
455.365	2393.88
455.739	2449.92
456.112	2482.91
456.486	2505.06
456.859	2519.98
457.232	2536.92
457.606	2535.79
457.979	2579.64
458.352	2647.88
458.725	2660.31
459.099	2683.14
459.472	2731.72
459.845	2758.39
460.218	2765.17
460.591	2824.37
460.964	2811.04
461.337	2871.61
461.71	2936.46
462.083	2996.35
462.456	2986.18
462.829	2952.96
463.201	3041.32
463.574	3037.02
463.947	3082
464.32	3138.94
464.692	3195.89
465.065	3172.39
465.438	3256.68
465.81	3269.56
466.183	3282.22
466.555	3350.24
466.928	3418.03
467.3	3358.6
467.672	3465.49
468.045	3512.72
468.417	3558.14
468.789	3546.62
469.161	3588.42
469.534	3644.92
469.906	3729.21
470.278	3721.98
470.65	3766.05
471.022	3856.44
471.394	3902.54
471.766	3946.38
472.138	4000.62
472.51	4043.33
472.882	4141.18
473.253	4109.31
473.625	4224.34
473.997	4304.11
474.369	4300.04
474.74	4346.14
475.112	4406.93
475.484	4461.85
475.855	4571.67
476.227	4577.78
476.598	4672.24
476.97	4726.92
477.341	4841.72
477.713	4849.18
478.084	4911.1
478.455	5001.72
478.827	5047.14
479.198	5212.79
479.569	5222.28
479.94	5361.26
480.311	5328.26
480.682	5480.8
481.053	5576.39
481.424	5666.11
481.795	5666.11
482.166	5738.87
482.537	5808.7
482.908	5906.1
483.279	5969.38
483.65	6074.01
484.021	6155.81
484.391	6216.83
484.762	6292.08
485.133	6330.05
485.503	6455.01
485.874	6497.27
486.244	6565.07
486.615	6679.19
486.985	6758.73
487.356	6862.46
487.726	6906.53
488.097	7043.02
488.467	7035.56
488.837	7205.28
489.207	7222
489.578	7345.16
489.948	7382.9
490.318	7414.76
490.688	7485.27
491.058	7619.73
491.428	7709.67
491.798	7786.05
492.168	7904.24
492.538	7878.03
492.908	7979.72
493.278	8058.81
493.648	8032.37
494.017	8134.07
494.387	8177.91
494.757	8275.98
495.126	8372.93
495.496	8328.86
495.866	8335.19
496.235	8420.61
496.605	8467.16
496.974	8531.8
497.344	8550.78
497.713	8640.27
498.082	8625.35
498.452	8707.84
498.821	8779.02
499.19	8722.98
499.559	8818.57
499.928	8818.12
500.298	8866.02
500.667	8941.5
501.036	8955.06
501.405	9041.61
501.774	8956.42
502.143	9046.36
502.512	9137.66
502.88	9165
503.249	9137.66
503.618	9134.27
503.987	9282.06
504.356	9252.91
504.724	9276.18
505.093	9322.28
505.462	9325.9
505.83	9301.49
506.199	9427.59
506.567	9551.66
506.936	9507.14
507.304	9556.85
507.672	9583.52
508.041	9550.75
508.409	9581.94
508.777	9614.7
509.145	9694.25
509.514	9652.44
509.882	9706
510.25	9721.82
510.618	9795.27
510.986	9723.85
511.354	9786.9
511.722	9821.03
512.09	9825.77
512.458	9863.74
512.826	9972.66
513.193	9941.48
513.561	9900.57
513.929	9967.69
514.297	10011.98
514.664	10017.18
515.032	10010.17
515.4	10038.2
515.767	10107.12
516.135	10147.35
516.502	9977.86
516.869	10138.98
517.237	10150.06
517.604	10128.14
517.972	10154.35
518.339	10218.53
518.706	10121.81
519.073	10166.78
519.44	10224.86
519.808	10288.59
520.175	10180.79
520.542	10222.15
520.909	10319.09
521.276	10193.67
521.643	10322.71
522.009	10317.51
522.376	10369.49
522.743	10352.31
523.11	10445.87
523.477	10444.51
523.843	10453.55
524.21	10498.52
524.577	10496.72
524.943	10489.03
525.31	10505.98
525.676	10552.31
526.043	10542.14
526.409	10499.43
526.776	10580.56
527.142	10570.84
527.508	10654.68
527.874	10596.83
528.241	10602.7
528.607	10629.37
528.973	10661.23
529.339	10635.47
529.705	10642.7
530.071	10689.7
530.437	10643.38
530.803	10669.82
531.169	10625.75
531.535	10644.73
531.901	10578.75
532.267	10601.57
532.632	10659.42
532.998	10649.48
533.364	10621.01
533.73	10595.92
534.095	10566.77
534.461	10535.58
534.826	10563.61
535.192	10503.95
535.557	10535.58
535.923	10489.71
536.288	10484.96
536.653	10451.29
537.019	10415.36
537.384	10333.56
537.749	10390.05
538.114	10354.57
538.479	10352.09
538.845	10335.14
539.21	10300.56
539.575	10279.09
539.94	10316.38
540.305	10245.42
540.67	10262.15
541.034	10186.67
541.399	10175.14
541.764	10143.28
542.129	10101.02
542.494	10137.63
542.858	10064.64
543.223	10098.31
543.587	10070.29
543.952	9997.29
544.316	9996.62
544.681	9967.92
545.045	9948.03
545.41	9939.67
545.774	9941.7
546.138	9839.56
546.503	9788.71
546.867	9783.97
547.231	9769.5
547.595	9826.45
547.959	9764.98
548.324	9694.25
548.688	9713.01
549.052	9655.38
549.416	9729.28
549.779	9638.21
550.143	9630.75
550.507	9666.68
550.871	9562.73
551.235	9542.84
551.599	9519.34
551.962	9528.38
552.326	9487.7
552.689	9484.76
553.053	9408.61
553.417	9330.42
553.78	9493.13
554.143	9385.56
554.507	9386.46
554.87	9326.8
555.234	9388.72
555.597	9304.88
555.96	9311.89
556.323	9259.23
556.686	9235.05
557.05	9306.69
557.413	9291.32
557.776	9270.08
558.139	9262.85
558.502	9284.54
558.865	9169.07
559.228	9257.88
559.59	9272.57
559.953	9228.73
560.316	9304.2
560.679	9253.36
561.041	9232.34
561.404	9169.97
561.767	9299.46
562.129	9257.2
562.492	9276.18
562.854	9275.73
563.217	9147.82
563.579	9244.32
563.941	9274.83
564.304	9248.84
564.666	9231.66
565.028	9329.74
565.39	9296.97
565.753	9297.65
566.115	9308.72
566.477	9348.95
566.839	9337.88
567.201	9369.29
567.563	9310.31
567.925	9359.8
568.287	9351.89
568.648	9375.84
569.01	9395.05
569.372	9383.3
569.734	9432.11
570.095	9434.37
570.457	9449.29
570.819	9432.79
571.18	9376.07
571.542	9516.4
571.903	9444.77
572.265	9482.96
572.626	9468.72
572.987	9494.26
573.349	9525.89
573.71	9555.5
574.071	9531.77
574.432	9485.44
574.794	9640.47
575.155	9651.77
575.516	9581.03
575.877	9626.68
576.238	9607.25
576.599	9637.76
576.96	9613.35
577.32	9687.25
577.681	9680.01
578.042	9645.89
578.403	9649.51
578.763	9591.88
579.124	9713.23
579.485	9759.11
579.845	9756.85
580.206	9719.79
580.566	9651.54
580.927	9733.8
581.287	9758.88
581.648	9793.68
582.008	9794.14
582.368	9767.7
582.728	9783.29
583.089	9792.1
583.449	9794.36
583.809	9877.97
584.169	9813.34
584.529	9811.99
584.889	9866.68
585.249	9880.91
585.609	9839.56
585.969	9875.49
586.329	9830.52
586.688	9830.29
587.048	9842.04
587.408	9819.22
587.768	9834.36
588.127	9869.39
588.487	9842.5
588.846	9903.51
589.206	9856.28
589.565	9915.49
589.925	9948.93
590.284	9900.57
590.643	9859.22
591.003	9891.53
591.362	10006.11
591.721	9895.6
592.08	9935.15
592.44	9946
592.799	9938.76
593.158	9938.09
593.517	10038.65
593.876	9997.75
594.235	9957.07
594.593	9888.37
594.952	9938.31
595.311	9919.78
595.67	9955.03
596.029	10014.92
596.387	9959.33
596.746	9979.44
597.104	9987.12
597.463	9910.06
597.822	9984.19
598.18	9921.14
598.538	9967.92
598.897	10025.99
599.255	9901.48
599.613	10033.45
599.972	9970.18
600.33	10005.2
600.688	9978.31
601.046	10034.81
601.404	10047.69
601.762	9984.19
602.12	10058.08
602.478	10038.42
602.836	10051.53
603.194	9958.88
603.552	10004.98
603.91	9978.76
604.268	10029.84
604.625	10008.37
604.983	10008.59
605.341	9973.57
605.698	9967.92
606.056	10078.42
606.413	10048.59
606.771	9987.35
607.128	10132.88
607.485	10021.02
607.843	10046.56
608.2	10085.88
608.557	10087.91
608.914	10104.18
609.272	10108.7
609.629	10205.42
609.986	10158.65
610.343	10076.39
610.7	10193.22
611.057	10104.41
611.414	10153
611.771	10104.18
612.127	10237.97
612.484	10199.32
612.841	10221.24
613.198	10208.81
613.554	10117.06
613.911	10222.37
614.267	10243.39
614.624	10280
614.98	10235.48
615.337	10266.89
615.693	10258.76
616.05	10254.24
616.406	10273.67
616.762	10266.21
617.118	10268.47
617.475	10287.68
617.831	10240.9
618.187	10239.1
618.543	10327
618.899	10392.99
619.255	10299.66
619.611	10331.07
619.967	10381.46
620.323	10355.7
620.678	10359.54
621.034	10387.79
621.39	10293.11
621.746	10306.89
622.101	10408.58
622.457	10287.46
622.812	10358.64
623.168	10373.55
623.523	10373.1
623.879	10379.2
624.234	10389.83
624.589	10361.13
624.945	10346.66
625.3	10345.99
625.655	10282.71
626.01	10341.92
626.365	10390.28
626.72	10299.21
627.075	10321.13
627.43	10286.78
627.785	10325.87
628.14	10309.38
628.495	10343.27
628.85	10318.42
629.205	10287.91
629.559	10321.8
629.914	10309.38
630.269	10294.69
630.623	10262.6
630.978	10246.78
631.332	10242.26
631.687	10214.69
632.041	10171.98
632.396	10211.98
632.75	10204.52
633.104	10170.17
633.459	10180.34
633.813	10157.74
634.167	10123.62
634.521	10116.61
634.875	10129.04
635.229	10104.18
635.583	10072.09
635.937	10107.8
636.291	10026.45
636.645	10065.54
636.999	10028.93
637.352	10079.1
637.706	9936.5
638.06	10090.62
638.413	10008.37
638.767	9998.2
639.121	10000.68
639.474	9959.1
639.828	9940.8
640.181	9938.76
640.534	9998.65
640.888	9921.59
641.241	9844.3
641.594	9926.79
641.947	9983.51
642.301	9899.9
642.654	9900.12
643.007	9899.44
643.36	9894.7
643.713	9846.56
644.066	9866
644.419	9851.76
644.771	9711.65
645.124	9692.67
645.477	9669.17
645.83	9555.72
646.182	9579.23
646.535	9535.38
646.888	9609.28
647.24	9532.45
647.593	9632.78
647.945	9497.19
648.298	9540.81
648.65	9530.87
649.002	9542.39
649.355	9526.57
649.707	9555.05
650.059	9619.68
650.411	9717.75
650.763	9690.64
651.115	9752.33
651.467	9708.94
651.819	9721.82
652.171	9785.1
652.523	9721.59
652.875	9756.85
653.227	9621.48
653.578	9791.42
653.93	9722.72
654.282	9704.65
654.633	9667.81
654.985	9800.69
655.337	9653.8
655.688	9751.2
656.039	9736.06
656.391	9614.93
656.742	9754.36
657.094	9697.19
657.445	9690.86
657.796	9693.35
658.147	9846.11
658.498	9707.81
658.849	9730.18
659.2	9760.01
659.551	9701.48
659.902	9751.42
660.253	9738.09
660.604	9806.56
660.955	9707.81
661.306	9738.77
661.656	9721.59
662.007	9773.34
662.358	9763.63
662.708	9733.8
663.059	9825.09
663.409	9688.6
663.76	9765.66
664.11	9698.32
664.461	9788.71
664.811	9802.27
665.161	9716.85
665.511	9782.84
665.862	9773.57
666.212	9687.7
666.562	9764.08
666.912	9774.02
667.262	9742.16
667.612	9750.29
667.962	9804.76
668.312	9764.98
668.662	9748.71
669.011	9722.5
669.361	9660.35
669.711	9762.5
670.06	9763.85
670.41	9664.87
670.76	9704.42
671.109	9756.17
671.459	9722.5
671.808	9702.16
672.157	9750.52
672.507	9661.26
672.856	9684.76
673.205	9727.24
673.554	9713.46
673.904	9601.82
674.253	9750.97
674.602	9709.62
674.951	9540.81
675.3	9491.54
675.649	9613.8
675.998	9586.91
676.346	9559.79
676.695	9564.99
677.044	9573.35
677.393	9546.68
677.741	9585.55
678.09	9579.45
678.438	9548.04
678.787	9502.17
679.135	9517.76
679.484	9441.15
679.832	9523.18
680.181	9399.34
680.529	9476.18
680.877	9402.51
681.225	9438.21
681.573	9445.44
681.922	9384.43
682.27	9403.86
682.618	9357.08
682.966	9334.49
683.314	9332.68
683.661	9337.2
684.009	9292.91
684.357	9306.01
684.705	9204.77
685.053	9254.04
685.4	9258.78
685.748	9169.29
686.095	9211.55
686.443	9113.25
686.79	9168.39
687.138	9085.23
687.485	9082.06
687.832	9078.67
688.18	9023.76
688.527	9001.84
688.874	8990.99
689.221	8944.44
689.568	8965.68
689.915	8941.73
690.262	8875.06
690.609	8882.29
690.956	8873.71
691.303	8821.51
691.65	8786.25
691.997	8787.16
692.344	8757.78
692.69	8716.65
693.037	8723.2
693.383	8551
693.73	8656.99
694.077	8657.89
694.423	8624.9
694.769	8618.8
695.116	8548.97
695.462	8581.29
695.808	8478.92
696.155	8537.9
696.501	8427.39
696.847	8409.54
697.193	8312.59
697.539	8347.39
697.885	8339.03
698.231	8320.5
698.577	8237.34
698.923	8213.39
699.269	8168.19
699.614	8187.17
699.96	8129.55
700.306	8101.07
700.651	7983.34
700.997	8036.22
701.342	8003
701.688	8028.98
702.033	8012.71
702.379	7905.15
702.724	7889.55
703.069	7928.65
703.415	7892.94
703.76	7847.75
704.105	7811.14
704.45	7793.06
704.795	7716.68
705.14	7719.61
705.485	7730.46
705.83	7598.26
706.175	7667.86
706.52	7643.23
706.865	7622.89
707.209	7579.05
707.554	7597.36
707.899	7639.84
708.243	7465.16
708.588	7498.38
708.932	7445.72
709.277	7490.47
709.621	7467.42
709.966	7404.82
710.31	7410.24
710.654	7346.74
710.998	7346.29
711.342	7359.17
711.687	7332.28
712.031	7262.68
712.375	7278.95
712.719	7327.53
713.063	7228.1
713.407	7303.35
713.75	7210.93
714.094	7212.06
714.438	7153.98
714.782	7192.85
715.125	7163.47
715.469	7183.36
715.812	7107.2
716.156	7096.8
716.499	7123.7
716.843	7121.21
717.186	7058.16
717.53	7116.92
717.873	7082.57
718.216	7057.94
718.559	7033.76
718.902	7062.91
719.246	7000.99
719.589	6991.04
719.932	7031.5
720.275	6999.41
720.617	7021.1
720.96	6986.07
721.303	6929.13
721.646	6952.4
721.989	6927.09
722.331	6902.46
722.674	6987.2
723.016	6923.7
723.359	6912.18
723.701	6942.01
724.044	6864.49
724.386	6867.66
724.729	6886.87
725.071	6870.37
725.413	6898.17
725.755	6860.65
726.097	6846.42
726.439	6863.82
726.782	6803.93
727.124	6928.45
727.465	6824.95
727.807	6790.15
728.149	6773.88
728.491	6834.89
728.833	6819.07
729.175	6769.58
729.516	6796.02
729.858	6792.18
730.199	6778.17
730.541	6770.26
730.882	6796.93
731.224	6803.03
731.565	6761.9
731.906	6798.28
732.248	6775.46
732.589	6721.67
732.93	6721
733.271	6783.14
733.612	6789.47
733.953	6812.52
734.294	6744.5
734.635	6745.4
734.976	6780.43
735.317	6758.96
735.658	6783.14
735.999	6778.17
736.339	6798.06
736.68	6833.08
737.021	6749.24
737.361	6774.33
737.702	6844.16
738.042	6832.86
738.383	6761.67
738.723	6876.25
739.063	6829.92
739.404	6876.7
739.744	6836.47
740.084	6798.51
740.424	6836.02
740.764	6809.81
741.104	6953.98
741.444	6853.42
741.784	6878.73
742.124	6944.72
742.464	6875.79
742.804	6939.07
743.143	6921.22
743.483	6996.02
743.823	6942.91
744.162	6998.5
744.502	7046.64
744.841	6987.2
745.181	7125.5
745.52	7082.34
745.86	7139.29
746.199	7180.87
746.538	7210.93
746.877	7260.64
747.216	7282.56
747.556	7320.3
747.895	7373.86
748.234	7369.79
748.573	7421.32
748.911	7486.17
749.25	7530.47
749.589	7536.34
749.928	7644.81
750.267	7700.86
750.605	7847.52
750.944	7880.97
751.283	7893.85
751.621	7971.81
751.96	8094.29
752.298	8113.73
752.636	8285.02
752.975	8337.9
753.313	8396.88
753.651	8558.69
753.989	8545.58
754.327	8756.65
754.666	8833.71
755.004	8944.89
755.342	9056.3
755.679	9176.75
756.017	9272.34
756.355	9465.78
756.693	9534.48
757.031	9723.4
757.368	9772.44
757.706	9949.16
758.044	10123.84
758.381	10274.8
758.719	10366.78
759.056	10578.75
759.394	10687.22
759.731	10835.24
760.068	10962.01
760.405	11162.23
760.743	11248.33
761.08	11442.23
761.417	11645.61
761.754	11724.03
762.091	11987.75
762.428	12105.26
762.765	12298.93
763.102	12441.75
763.438	12724.45
763.775	12835.41
764.112	13039.47
764.449	13184.78
764.785	13295.29
765.122	13393.36
765.458	13496.64
