Data from hue_70_FLMS001491_8.txt Node
Date: Mon Feb 06 15:20:00 GMT 2017
User: dcchb
Spectrometer: FLMS00149
Trigger mode: 0
Integration Time (sec): 2.000000E-2
Scans to average: 10
Electric dark correction enabled: true
Nonlinearity correction enabled: false
Boxcar width: 0
XAxis mode: Wavelengths
Number of Pixels in Spectrum: 2048
>>>>>Begin Spectral Data<<<<<
341.393	-4.25
341.776	-4.25
342.16	-4.25
342.543	-70.69
342.927	-54.87
343.31	-63.68
343.693	-62.1
344.077	-68.66
344.46	-69.56
344.843	-47.19
345.226	-32.95
345.61	-33.86
345.993	-15.32
346.376	0.04
346.759	6.14
347.142	18.57
347.525	29.87
347.908	70.32
348.291	57.22
348.674	74.62
349.057	136.54
349.44	139.25
349.823	122.07
350.206	155.29
350.588	197.33
350.971	220.15
351.354	212.24
351.737	252.47
352.119	239.13
352.502	248.85
352.884	270.77
353.267	284.78
353.65	285.23
354.032	298.34
354.414	315.29
354.797	326.36
355.179	323.42
355.562	327.27
355.944	328.62
356.326	313.71
356.709	343.76
357.091	321.84
357.473	350.54
357.855	329.75
358.238	341.73
358.62	319.81
359.002	333.37
359.384	328.17
359.766	338.56
360.148	344.89
360.53	355.29
360.912	356.64
361.294	350.54
361.676	329.53
362.057	339.69
362.439	313.25
362.821	321.62
363.203	331.79
363.584	334.27
363.966	299.47
364.348	322.75
364.729	326.59
365.111	309.86
365.493	321.39
365.874	296.31
366.256	318.68
366.637	323.65
367.019	314.61
367.4	329.07
367.781	307.38
368.163	323.42
368.544	305.35
368.925	310.99
369.306	317.77
369.688	324.78
370.069	323.2
370.45	310.77
370.831	326.59
371.212	311.22
371.593	320.71
371.974	315.29
372.355	290.66
372.736	298.34
373.117	343.08
373.498	330.43
373.879	330.88
374.26	306.02
374.641	329.3
375.021	326.81
375.402	317.1
375.783	324.1
376.163	315.06
376.544	334.27
376.925	340.6
377.305	325.91
377.686	323.88
378.066	314.61
378.447	337.21
378.827	332.46
379.208	325.01
379.588	353.25
379.968	328.62
380.349	336.3
380.729	327.04
381.109	322.97
381.489	331.56
381.87	342.63
382.25	337.66
382.63	313.25
383.01	328.4
383.39	320.03
383.77	325.68
384.15	344.21
384.53	334.5
384.91	347.15
385.29	367.72
385.67	342.18
386.049	348.96
386.429	337.89
386.809	367.94
387.189	345.34
387.568	363.87
387.948	343.31
388.328	348.73
388.707	347.15
389.087	348.96
389.466	350.54
389.846	355.06
390.225	363.65
390.605	364.1
390.984	357.77
391.363	363.65
391.743	356.64
392.122	376.3
392.501	352.12
392.881	351.67
393.26	350.99
393.639	356.19
394.018	371.11
394.397	363.87
394.776	375.63
395.155	375.17
395.534	371.56
395.913	365
396.292	403.87
396.671	359.58
397.05	385.57
397.429	390.77
397.808	356.64
398.186	389.86
398.565	387.15
398.944	380.15
399.323	377.89
399.701	385.12
400.08	406.13
400.458	408.62
400.837	405.23
401.215	377.89
401.594	391.9
401.972	392.35
402.351	405.91
402.729	390.31
403.107	387.83
403.486	399.13
403.864	399.13
404.242	403.87
404.62	408.39
404.999	412.01
405.377	406.59
405.755	396.42
406.133	426.02
406.511	412.91
406.889	426.25
407.267	415.4
407.645	417.88
408.023	418.34
408.401	420.6
408.779	414.04
409.156	425.57
409.534	447.71
409.912	449.3
410.29	464.44
410.667	464.21
411.045	449.97
411.422	452.46
411.8	449.75
412.178	462.63
412.555	469.86
412.933	458.56
413.31	454.49
413.687	460.14
414.065	471.22
414.442	437.54
414.819	477.77
415.197	475.06
415.574	487.04
415.951	484.1
416.328	492.46
416.705	481.16
417.082	473.48
417.46	485
417.837	488.62
418.214	484.1
418.591	511.67
418.967	496.07
419.344	506.02
419.721	485.23
420.098	519.8
420.475	508.5
420.852	508.73
421.228	504.21
421.605	511.67
421.982	532.68
422.358	520.25
422.735	515.96
423.111	528.39
423.488	535.85
423.864	535.85
424.241	547.82
424.617	544.43
424.994	542.85
425.37	558.45
425.746	532.23
426.123	540.82
426.499	546.24
426.875	538.79
427.251	556.19
427.627	554.83
428.003	557.54
428.379	573.36
428.756	575.17
429.132	565.45
429.507	577.43
429.883	606.58
430.259	611.55
430.635	620.37
431.011	588.73
431.387	624.88
431.763	608.16
432.138	617.88
432.514	618.33
432.89	619.24
433.265	630.31
433.641	632.12
434.016	646.35
434.392	643.87
434.767	651.32
435.143	646.58
435.518	672.57
435.894	653.13
436.269	668.27
436.644	668.95
437.02	686.13
437.395	689.97
437.77	720.02
438.145	705.33
438.52	695.62
438.895	698.78
439.271	711.66
439.646	729.29
440.021	718.22
440.395	711.66
440.77	722.06
441.145	737.88
441.52	766.8
441.895	733.36
442.27	735.84
442.645	752.56
443.019	770.87
443.394	757.31
443.769	732.9
444.143	719.12
444.518	776.07
444.892	776.97
445.267	757.08
445.641	772
446.016	820.36
446.39	787.59
446.764	781.26
447.139	814.48
447.513	796.86
447.887	801.6
448.262	804.99
448.636	795.05
449.01	838.89
449.384	838.66
449.758	834.37
450.132	846.57
450.506	851.77
450.88	828.72
451.254	856.97
451.628	861.71
452.002	867.59
452.376	869.85
452.75	887.02
453.123	876.18
453.497	889.06
453.871	896.74
454.244	895.39
454.618	910.53
454.992	914.14
455.365	945.55
455.739	957.08
456.112	977.64
456.486	962.73
456.859	987.14
457.232	1006.34
457.606	971.54
457.979	997.98
458.352	1019.68
458.725	1047.25
459.099	1042.95
459.472	1055.38
459.845	1050.41
460.218	1073.01
460.591	1077.3
460.964	1068.94
461.337	1128.15
461.71	1106.68
462.083	1136.06
462.456	1132.89
462.829	1133.35
463.201	1158.66
463.574	1182.38
463.947	1197.75
464.32	1201.59
464.692	1229.39
465.065	1221.93
465.438	1251.76
465.81	1275.26
466.183	1275.49
466.555	1302.83
466.928	1341.7
467.3	1334.47
467.672	1362.27
468.045	1409.72
468.417	1401.36
468.789	1412.21
469.161	1435.03
469.534	1444.07
469.906	1505.54
470.278	1492.21
470.65	1526.1
471.022	1555.71
471.394	1582.37
471.766	1614.69
472.138	1661.69
472.51	1699.43
472.882	1720.22
473.253	1765.65
473.625	1846.77
473.997	1860.56
474.369	1829.82
474.74	1895.59
475.112	1915.92
475.484	1970.39
475.855	2046.77
476.227	2064.39
476.598	2156.82
476.97	2148.91
477.341	2249.47
477.713	2280.43
478.084	2320.21
478.455	2389.36
478.827	2460.32
479.198	2567.66
479.569	2593.19
479.94	2698.73
480.311	2750.93
480.682	2825.28
481.053	2943.47
481.424	3015.1
481.795	3040.41
482.166	3156.34
482.537	3213.97
482.908	3295.77
483.279	3419.84
483.65	3498.71
484.021	3592.04
484.391	3693.73
484.762	3803.56
485.133	3884.23
485.503	3997.9
485.874	4095.98
486.244	4191.57
486.615	4324.67
486.985	4447.38
487.356	4545.23
487.726	4639.02
488.097	4786.13
488.467	4922.62
488.837	5079
489.207	5140.02
489.578	5314.48
489.948	5411.88
490.318	5608.03
490.688	5667.24
491.058	5860.68
491.428	5956.5
491.798	6062.71
492.168	6288.01
492.538	6314.9
492.908	6494.11
493.278	6718.74
493.648	6773.65
494.017	6885.29
494.387	7056.13
494.757	7200.76
495.126	7370.92
495.496	7433.75
495.866	7531.82
496.235	7720.29
496.605	7899.04
496.974	7998.7
497.344	8197.79
497.713	8297.23
498.082	8405.92
498.452	8597.1
498.821	8709.64
499.19	8746.93
499.559	8915.51
499.928	9108.96
500.298	9248.39
500.667	9404.99
501.036	9383.52
501.405	9535.16
501.774	9682.5
502.143	9762.72
502.512	9958.88
502.88	10063.96
503.249	10117.06
503.618	10290.62
503.987	10411.29
504.356	10509.6
504.724	10696.94
505.093	10773.09
505.462	10851.96
505.83	10950.71
506.199	11136.92
506.567	11307.09
506.936	11331.95
507.304	11478.38
507.672	11599.06
508.041	11715.67
508.409	11794.31
508.777	11946.39
509.145	12095.32
509.514	12141.42
509.882	12213.05
510.25	12403.78
510.618	12505.7
510.986	12636.09
511.354	12742.76
511.722	12816.88
512.09	12996.08
512.458	12972.58
512.826	13177.55
513.193	13258.68
513.561	13288.96
513.929	13535.28
514.297	13565.34
514.664	13679.23
515.032	13686.69
515.4	13878.32
515.767	13981.6
516.135	14077.86
516.502	13987.47
516.869	14293.23
517.237	14326.9
517.604	14325.99
517.972	14512.2
518.339	14566.67
518.706	14635.14
519.073	14681.69
519.44	14849.37
519.808	15014.11
520.175	14896.6
520.542	15236.03
520.909	15248.45
521.276	15308.11
521.643	15414.33
522.009	15543.81
522.376	15632.85
522.743	15706.07
523.11	15892.96
523.477	16029.68
523.843	16113.97
524.21	16241.2
524.577	16364.58
524.943	16368.2
525.31	16410.46
525.676	16574.07
526.043	16684.58
526.409	16721.18
526.776	16879.6
527.142	16945.13
527.508	17140.61
527.874	17161.85
528.241	17199.82
528.607	17263.54
528.973	17417.21
529.339	17407.27
529.705	17632.8
530.071	17765.22
530.437	17742.17
530.803	17751.21
531.169	17938.33
531.535	17826.47
531.901	17948.72
532.267	17979.46
532.632	18128.38
532.998	18135.84
533.364	18112.33
533.73	18167.93
534.095	18284.76
534.461	18310.75
534.826	18378.32
535.192	18428.71
535.557	18487.24
535.923	18434.59
536.288	18577.41
536.653	18625.09
537.019	18517.97
537.384	18672.09
537.749	18734.92
538.114	18751.19
538.479	18694.69
538.845	18803.16
539.21	18737.63
539.575	18825.99
539.94	18862.37
540.305	18980.79
540.67	18909.38
541.034	18984.85
541.399	18924.74
541.764	19046.1
542.129	19031.18
542.494	19100.56
542.858	19062.37
543.223	19172.19
543.587	19260.33
543.952	19112.53
544.316	19213.1
544.681	19187.79
545.045	19197.96
545.41	19324.51
545.774	19364.5
546.138	19314.79
546.503	19364.05
546.867	19275.92
547.231	19443.15
547.595	19540.55
547.959	19395.69
548.324	19350.95
548.688	19492.64
549.052	19562.01
549.416	19527.66
549.779	19529.7
550.143	19580.77
550.507	19647.89
550.871	19695.34
551.235	19697.6
551.599	19849.69
551.962	19802.46
552.326	19742.12
552.689	19850.59
553.053	19793.87
553.417	19710.94
553.78	20004.94
554.143	19883.14
554.507	19912.97
554.87	20004.49
555.234	20141.89
555.597	20044.94
555.96	20078.61
556.323	20061.89
556.686	20195.22
557.05	20322.22
557.413	20274.76
557.776	20301.88
558.139	20406.51
558.502	20372.39
558.865	20428.66
559.228	20590.01
559.59	20572.83
559.953	20502.1
560.316	20786.16
560.679	20786.84
561.041	20828.87
561.404	20924.24
561.767	21045.59
562.129	20860.28
562.492	21057.57
562.854	21002.43
563.217	21088.08
563.579	21149.77
563.941	21271.35
564.304	21296.21
564.666	21367.39
565.028	21401.97
565.39	21481.96
565.753	21585.01
566.115	21615.07
566.477	21694.84
566.839	21694.61
567.201	21819.13
567.563	21854.61
567.925	22011.89
568.287	21949.3
568.648	21889.86
569.01	22140.93
569.372	22145.67
569.734	22101.83
570.095	22214.83
570.457	22355.61
570.819	22284.88
571.18	22337.99
571.542	22431.09
571.903	22522.39
572.265	22568.26
572.626	22644.64
572.987	22583.86
573.349	22742.04
573.71	22754.47
574.071	22803.28
574.432	22829.27
574.794	22997.63
575.155	22992.21
575.516	22835.37
575.877	23001.02
576.238	22959.44
576.599	23121.24
576.96	23017.97
577.32	23130.51
577.681	23107.68
578.042	23204.18
578.403	23234.46
578.763	23256.83
579.124	23250.73
579.485	23418.18
579.845	23394.46
580.206	23401.23
580.566	23403.49
580.927	23395.13
581.287	23438.3
581.648	23452.53
582.008	23586.09
582.368	23451.63
582.728	23452.08
583.089	23379.31
583.449	23518.29
583.809	23425.19
584.169	23499.31
584.529	23413.44
584.889	23581.12
585.249	23488.92
585.609	23414.57
585.969	23498.63
586.329	23479.2
586.688	23474.68
587.048	23520.78
587.408	23430.61
587.768	23419.77
588.127	23480.1
588.487	23450.05
588.846	23511.51
589.206	23322.37
589.565	23392.65
589.925	23520.1
590.284	23454.11
590.643	23488.69
591.003	23489.82
591.362	23565.3
591.721	23451.4
592.08	23508.35
592.44	23562.36
592.799	23650.49
593.158	23546.54
593.517	23563.49
593.876	23539.54
594.235	23499.76
594.593	23505.86
594.952	23653.21
595.311	23572.53
595.67	23615.01
596.029	23702.92
596.387	23718.74
596.746	23771.17
597.104	23617.5
597.463	23639.19
597.822	23618.86
598.18	23563.94
598.538	23616.37
598.897	23686.2
599.255	23403.72
599.613	23824.73
599.972	23694.33
600.33	23762.81
600.688	23632.64
601.046	23715.8
601.404	23890.71
601.762	23751.96
602.12	23804.84
602.478	23892.52
602.836	23855.01
603.194	23722.81
603.552	23732.53
603.91	23786.99
604.268	23852.75
604.625	23743.82
604.983	23852.52
605.341	23753.09
605.698	23880.54
606.056	23903.37
606.413	23984.72
606.771	24062.69
607.128	23882.58
607.485	23992.63
607.843	23937.04
608.2	24155.57
608.557	24180.65
608.914	24070.6
609.272	24224.94
609.629	24347.88
609.986	24356.46
610.343	24194.21
610.7	24429.68
611.057	24437.14
611.414	24412.51
611.771	24348.55
612.127	24499.51
612.484	24579.28
612.841	24535.89
613.198	24468.33
613.554	24508.1
613.911	24712.84
614.267	24636.91
614.624	24572.96
614.98	24535.89
615.337	24819.5
615.693	24789.9
616.05	24653.41
616.406	24919.16
616.762	24786.51
617.118	24822.67
617.475	24754.19
617.831	24883.23
618.187	24864.93
618.543	25039.38
618.899	25069.44
619.255	25025.37
619.611	25090.23
619.967	25106.27
620.323	25120.29
620.678	25131.81
621.034	24947.18
621.39	25033.73
621.746	24989.44
622.101	25295.2
622.457	25130.91
622.812	25138.59
623.168	25188.53
623.523	25297.46
623.879	25195.76
624.234	25147.63
624.589	25335.2
624.945	25267.85
625.3	25279.38
625.655	25282.09
626.01	25267.4
626.365	25238.7
626.72	25387.85
627.075	25256.33
627.43	25266.95
627.785	25153.51
628.14	25221.07
628.495	25268.08
628.85	25240.06
629.205	25290.45
629.559	25405.48
629.914	25320.05
630.269	25247.29
630.623	25272.15
630.978	25177.23
631.332	25251.13
631.687	25309.43
632.041	25238.93
632.396	25322.54
632.75	25103.79
633.104	25115.09
633.459	25152.15
633.813	25082.32
634.167	25071.02
634.521	25102.66
634.875	25109.66
635.229	24997.58
635.583	24889.11
635.937	24992.83
636.291	24922.1
636.645	24892.72
636.999	24801.42
637.352	24971.14
637.706	24802.1
638.06	24897.69
638.413	24767.3
638.767	24766.4
639.121	24971.82
639.474	24621.09
639.828	24677.59
640.181	24746.06
640.534	24909.22
640.888	24637.59
641.241	24461.77
641.594	24632.39
641.947	24673.97
642.301	24647.3
642.654	24650.92
643.007	24654.99
643.36	24612.05
643.713	24528.89
644.066	24460.87
644.419	24478.49
644.771	24276.69
645.124	24130.71
645.477	24045.74
645.83	24023.37
646.182	23852.97
646.535	23852.97
646.888	23824.05
647.24	23758.74
647.593	23860.43
647.945	23786.31
648.298	23684.62
648.65	23643.49
649.002	23577.28
649.355	23695.46
649.707	23600.55
650.059	23699.98
650.411	24069.92
650.763	24069.01
651.115	24404.37
651.467	24386.29
651.819	24173.19
652.171	24207.54
652.523	24132.29
652.875	24161.44
653.227	24044.83
653.578	24165.51
653.93	24221.55
654.282	23953.54
654.633	24022.01
654.985	24117.15
655.337	24101.33
655.688	24008.68
656.039	24217.26
656.391	24008.45
656.742	24033.99
657.094	24054.55
657.445	24184.72
657.796	24121.67
658.147	24137.49
658.498	23948.11
658.849	24044.38
659.2	24034.66
659.551	24018.62
659.902	23991.5
660.253	24068.56
660.604	24131.39
660.955	24033.31
661.306	24120.76
661.656	24108.79
662.007	24042.35
662.358	23953.99
662.708	24037.38
663.059	24012.07
663.409	23937.72
663.76	24142.01
664.11	24078.73
664.461	24089.35
664.811	23986.76
665.161	24078.05
665.511	23969.13
665.862	24085.96
666.212	24081.9
666.562	24074.44
666.912	23996.93
667.262	23945.63
667.612	23952.86
667.962	24076.25
668.312	23925.06
668.662	24097.26
669.011	24010.03
669.361	23991.28
669.711	23985.85
670.06	23992.63
670.41	23918.06
670.76	23834.44
671.109	23994.44
671.459	23897.95
671.808	23936.81
672.157	24024.04
672.507	23709.93
672.856	23876.7
673.205	23858.85
673.554	23898.85
673.904	23790.83
674.253	23919.87
674.602	23874.67
674.951	23466.32
675.3	23497.73
675.649	23736.59
675.998	23739.31
676.346	23723.49
676.695	23831.96
677.044	23609.59
677.393	23726.65
677.741	23698.63
678.09	23631.51
678.438	23532.98
678.787	23553.77
679.135	23639.42
679.484	23493.44
679.832	23560.78
680.181	23304.74
680.529	23474.23
680.877	23412.08
681.225	23325.53
681.573	23470.16
681.922	23345.42
682.27	23217.74
682.618	23247.79
682.966	23270.39
683.314	23094.8
683.661	23170.96
684.009	23071.75
684.357	22985.65
684.705	22945.43
685.053	22919.21
685.4	22934.13
685.748	22886.9
686.095	22793.79
686.443	22836.28
686.79	22801.48
687.138	22808.26
687.485	22702.04
687.832	22614.81
688.18	22669.05
688.527	22502.95
688.874	22465.44
689.221	22463.63
689.568	22340.92
689.915	22392
690.262	22360.13
690.609	22255.28
690.956	22240.36
691.303	22103.42
691.65	22007.37
691.997	22032.68
692.344	21890.99
692.69	21821.16
693.037	21886.92
693.383	21668.85
693.73	21739.36
694.077	21623.2
694.423	21633.82
694.769	21641.06
695.116	21482.87
695.462	21513.6
695.808	21388.86
696.155	21419.37
696.501	21239.48
696.847	21172.59
697.193	21141.41
697.539	21110.22
697.885	20993.39
698.231	20854.86
698.577	20777.58
698.923	20876.33
699.269	20736.45
699.614	20552.04
699.96	20597.01
700.306	20509.33
700.651	20463.01
700.997	20350.02
701.342	20298.72
701.688	20279.96
702.033	20180.53
702.379	20148.89
702.724	20161.55
703.069	20154.99
703.415	19969.69
703.76	19938.73
704.105	20001.1
704.45	19969.46
704.795	19753.65
705.14	19694.89
705.485	19777.83
705.83	19606.76
706.175	19632.52
706.52	19542.58
706.865	19501
707.209	19375.8
707.554	19345.97
707.899	19402.7
708.243	19260.55
708.588	19128.8
708.932	19071.63
709.277	19015.59
709.621	19058.52
709.966	18919.09
710.31	18962.26
710.654	18826.44
710.998	18924.06
711.342	18909.38
711.687	18717.97
712.031	18709.83
712.375	18689.04
712.719	18593.23
713.063	18595.71
713.407	18656.27
713.75	18496.28
714.094	18428.26
714.438	18506.22
714.782	18381.48
715.125	18400.46
715.469	18416.51
715.812	18281.14
716.156	18224.87
716.499	18277.3
716.843	18219.22
717.186	18116.4
717.53	18264.19
717.873	18191.2
718.216	18171.54
718.559	18058.32
718.902	17959.34
719.246	18075.5
719.589	17833.7
719.932	17941.49
720.275	17905.56
720.617	17870.98
720.96	17815.85
721.303	17881.38
721.646	17839.8
721.989	17764.55
722.331	17852.68
722.674	17741.72
723.016	17762.06
723.359	17721.61
723.701	17608.39
724.044	17572.01
724.386	17567.94
724.729	17623.99
725.071	17545.8
725.413	17525.01
725.755	17489.3
726.097	17450.21
726.439	17420.6
726.782	17395.07
727.124	17515.97
727.465	17332.69
727.807	17409.75
728.149	17328.17
728.491	17348.74
728.833	17363.88
729.175	17207.27
729.516	17173.6
729.858	17239.59
730.199	17316.65
730.541	17258.57
730.882	17109.65
731.224	17181.96
731.565	17186.26
731.906	17175.18
732.248	17170.44
732.589	17049.99
732.93	17064.45
733.271	17063.55
733.612	17121.63
733.953	17142.64
734.294	16981.52
734.635	16942.2
734.976	16997.79
735.317	16862.65
735.658	17005.02
735.999	16964.79
736.339	16939.03
736.68	17045.24
737.021	16905.13
737.361	16831.24
737.702	16981.29
738.042	16894.06
738.383	16929.09
738.723	17002.53
739.063	16853.38
739.404	16848.86
739.744	16877.56
740.084	16812.03
740.424	16926.6
740.764	16924.12
741.104	17020.39
741.444	16848.86
741.784	16748.75
742.124	16837.57
742.464	16871.24
742.804	16821.29
743.143	16867.4
743.483	16890.45
743.823	16809.09
744.162	16794.63
744.502	16880.05
744.841	16840.05
745.181	16885.7
745.52	16819.71
745.86	16961.18
746.199	16899.49
746.538	16998.92
746.877	17121.17
747.216	17105.36
747.556	17157.78
747.895	17093.83
748.234	17058.12
748.573	17136.77
748.911	17200.95
749.25	17176.09
749.589	17196.2
749.928	17250.44
750.267	17386.03
750.605	17271
750.944	17431.67
751.283	17312.58
751.621	17484.33
751.96	17431
752.298	17461.5
752.636	17668.96
752.975	17570.88
753.313	17603.2
753.651	17777.43
753.989	17620.6
754.327	17788.05
754.666	17710.54
755.004	17863.3
755.342	18002.05
755.679	18051.77
756.017	18121.83
756.355	18164.99
756.693	18131.09
