Data from hue_340_FLMS001491_63.txt Node
Date: Mon Feb 06 15:43:26 GMT 2017
User: dcchb
Spectrometer: FLMS00149
Trigger mode: 0
Integration Time (sec): 2.000000E-2
Scans to average: 10
Electric dark correction enabled: true
Nonlinearity correction enabled: false
Boxcar width: 0
XAxis mode: Wavelengths
Number of Pixels in Spectrum: 2048
>>>>>Begin Spectral Data<<<<<
341.393	-14
341.776	-14
342.16	-14
342.543	-65.07
342.927	-61.91
343.31	-50.38
343.693	-49.02
344.077	-74.33
344.46	-57.39
344.843	-57.84
345.226	-39.98
345.61	-39.08
345.993	-35.01
346.376	-14.67
346.759	11.09
347.142	37.08
347.525	51.54
347.908	40.69
348.291	70.52
348.674	87.7
349.057	119.11
349.44	129.73
349.823	137.86
350.206	164.08
350.588	198.65
350.971	219.67
351.354	222.83
351.737	265.77
352.119	253.79
352.502	280.01
352.884	266.45
353.267	278.65
353.65	280.68
354.032	287.69
354.414	305.32
354.797	317.29
355.179	302.38
355.562	314.36
355.944	313.9
356.326	317.52
356.709	317.29
357.091	318.2
357.473	341.47
357.855	331.3
358.238	312.32
358.62	341.93
359.002	337.86
359.384	329.95
359.766	332.66
360.148	337.86
360.53	331.98
360.912	343.73
361.294	350.06
361.676	320.46
362.057	317.97
362.439	339.89
362.821	326.79
363.203	331.76
363.584	309.38
363.966	330.4
364.348	320.23
364.729	331.53
365.111	303.06
365.493	307.58
365.874	306.45
366.256	311.42
366.637	323.17
367.019	322.27
367.4	321.59
367.781	310.06
368.163	302.61
368.544	310.51
368.925	307.58
369.306	307.58
369.688	313.23
370.069	310.74
370.45	300.57
370.831	310.74
371.212	309.61
371.593	318.88
371.974	296.73
372.355	294.24
372.736	315.71
373.117	309.61
373.498	300.8
373.879	295.15
374.26	309.84
374.641	320.23
375.021	299.89
375.402	297.41
375.783	306.22
376.163	331.3
376.544	317.52
376.925	334.69
377.305	308.03
377.686	331.3
378.066	301.48
378.447	328.59
378.827	325.66
379.208	335.15
379.588	311.19
379.968	324.3
380.349	333.11
380.729	334.47
381.109	323.62
381.489	337.41
381.87	340.57
382.25	313
382.63	326.11
383.01	312.32
383.39	339.21
383.77	318.88
384.15	334.92
384.53	332.89
384.91	320.23
385.29	350.74
385.67	319.78
386.049	365.88
386.429	349.16
386.809	338.31
387.189	351.42
387.568	336.05
387.948	335.6
388.328	343.96
388.707	358.65
389.087	341.93
389.466	343.73
389.846	345.54
390.225	379.44
390.605	341.02
390.984	359.33
391.363	366.78
391.743	339.44
392.122	353
392.501	342.6
392.881	368.37
393.26	348.93
393.639	352.55
394.018	361.59
394.397	359.33
394.776	352.32
395.155	362.49
395.534	375.6
395.913	353.45
396.292	380.57
396.671	367.69
397.05	384.18
397.429	377.86
397.808	356.84
398.186	382.83
398.565	372.89
398.944	376.05
399.323	378.99
399.701	367.01
400.08	387.57
400.458	414.01
400.837	388.48
401.215	390.06
401.594	399.1
401.972	403.62
402.351	381.47
402.729	404.07
403.107	383.05
403.486	414.92
403.864	389.61
404.242	383.05
404.62	404.52
404.999	421.92
405.377	396.39
405.755	406.33
406.133	408.59
406.511	433.45
406.889	423.51
407.267	415.14
407.645	440
408.023	435.26
408.401	436.84
408.779	422.83
409.156	434.58
409.534	438.65
409.912	401.36
410.29	431.87
410.667	438.87
411.045	450.62
411.422	446.33
411.8	444.3
412.178	449.72
412.555	450.17
412.933	453.79
413.31	463.05
413.687	480.68
414.065	474.58
414.442	478.87
414.819	475.48
415.197	506.22
415.574	496.5
415.951	500.11
416.328	498.53
416.705	493.11
417.082	505.76
417.46	521.36
417.837	530.17
418.214	507.35
418.591	532.88
418.967	533.56
419.344	537.85
419.721	539.66
420.098	542.82
420.475	550.96
420.852	543.05
421.228	545.08
421.605	564.29
421.982	572.88
422.358	563.62
422.735	566.33
423.111	568.36
423.488	562.71
423.864	575.37
424.241	585.08
424.617	576.27
424.994	597.74
425.37	580.56
425.746	596.38
426.123	604.74
426.499	602.71
426.875	626.66
427.251	605.42
427.627	631.18
428.003	623.73
428.379	662.37
428.756	613.78
429.132	636.61
429.507	644.97
429.883	660.11
430.259	673.89
430.635	691.97
431.011	672.76
431.387	689.26
431.763	706.44
432.138	687.91
432.514	693.78
432.89	714.57
433.265	698.53
433.641	721.8
434.016	737.4
434.392	744.18
434.767	740.79
435.143	720
435.518	727
435.894	752.08
436.269	766.77
436.644	751.18
437.02	770.39
437.395	766.32
437.77	756.83
438.145	778.52
438.52	782.14
438.895	785.08
439.271	806.77
439.646	810.39
440.021	816.72
440.395	808.81
440.77	841.57
441.145	823.04
441.52	830.5
441.895	839.31
442.27	843.16
442.645	837.51
443.019	861.01
443.394	837.73
443.769	843.83
444.143	857.84
444.518	883.38
444.892	869.37
445.267	876.15
445.641	866.43
446.016	894.23
446.39	895.81
446.764	870.95
447.139	877.96
447.513	895.13
447.887	910.95
448.262	882.7
448.636	901.01
449.01	936.03
449.384	917.96
449.758	929.71
450.132	950.05
450.506	943.04
450.88	947.56
451.254	925.19
451.628	947.33
452.002	954.57
452.376	946.88
452.75	936.03
453.123	969.71
453.497	983.27
453.871	979.2
454.244	1006.54
454.618	1004.51
454.992	989.37
455.365	978.97
455.739	1023.04
456.112	1023.04
456.486	1020.78
456.859	1023.26
457.232	1065.07
457.606	1046.77
457.979	1058.29
458.352	1083.83
458.725	1108.91
459.099	1092.19
459.472	1121.34
459.845	1116.59
460.218	1112.53
460.591	1132.64
460.964	1103.26
461.337	1110.72
461.71	1138.29
462.083	1145.97
462.456	1155.92
462.829	1172.41
463.201	1162.7
463.574	1208.57
463.947	1193.66
464.32	1222.35
464.692	1244.05
465.065	1239.98
465.438	1237.95
465.81	1283.82
466.183	1285.18
466.555	1291.96
466.928	1296.48
467.3	1297.61
467.672	1303.93
468.045	1330.6
468.417	1342.35
468.789	1368.11
469.161	1326.31
469.534	1379.41
469.906	1404.5
470.278	1410.82
470.65	1444.5
471.022	1458.28
471.394	1441.33
471.766	1476.81
472.138	1496.47
472.51	1534.89
472.882	1538.73
473.253	1549.58
473.625	1542.8
473.997	1585.96
474.369	1613.53
474.74	1625.96
475.112	1635.23
475.484	1663.02
475.855	1684.26
476.227	1686.98
476.598	1753.64
476.97	1738.27
477.341	1784.15
477.713	1808.78
478.084	1814.88
478.455	1850.81
478.827	1903.69
479.198	1912.28
479.569	1925.61
479.94	1962.67
480.311	2002.9
480.682	2033.86
481.053	2046.97
481.424	2076.12
481.795	2074.76
482.166	2137.59
482.537	2133.97
482.908	2194.76
483.279	2194.31
483.65	2232.95
484.021	2274.3
484.391	2270.46
484.762	2308.43
485.133	2336.9
485.503	2370.12
485.874	2404.92
486.244	2448.99
486.615	2472.49
486.985	2472.27
487.356	2550.68
487.726	2546.16
488.097	2590.91
488.467	2566.5
488.837	2647.4
489.207	2677.68
489.578	2737.12
489.948	2767.17
490.318	2778.92
490.688	2795.87
491.058	2811.92
491.428	2829.54
491.798	2858.7
492.168	2927.85
492.538	2899.6
492.908	2966.26
493.278	3003.55
493.648	2989.99
494.017	3065.92
494.387	3074.74
494.757	3116.99
495.126	3131.23
495.496	3107.73
495.866	3201.74
496.235	3140.04
496.605	3209.42
496.974	3230.66
497.344	3255.52
497.713	3272.02
498.082	3232.47
498.452	3283.09
498.821	3326.48
499.19	3347.72
499.559	3411
499.928	3412.35
500.298	3382.75
500.667	3433.6
501.036	3425.01
501.405	3445.12
501.774	3481.96
502.143	3499.81
502.512	3498.45
502.88	3537.1
503.249	3532.35
503.618	3563.31
503.987	3605.57
504.356	3598.34
504.724	3619.81
505.093	3636.08
505.462	3607.38
505.83	3680.14
506.199	3655.06
506.567	3665.91
506.936	3719.01
507.304	3726.92
507.672	3706.58
508.041	3769.86
508.409	3784.1
508.777	3777.99
509.145	3841.72
509.514	3800.14
509.882	3786.58
510.25	3817.09
510.618	3820.03
510.986	3879.23
511.354	3893.25
511.722	3902.06
512.09	3936.41
512.458	3939.35
512.826	3929.85
513.193	3954.03
513.561	3917.65
513.929	3963.53
514.297	3980.47
514.664	4011.43
515.032	4007.59
515.4	4067.7
515.767	4060.47
516.135	4062.51
516.502	4058.44
516.869	4098.44
517.237	4116.06
517.604	4105.89
517.972	4104.31
518.339	4159.23
518.706	4141.83
519.073	4157.64
519.44	4224.76
519.808	4193.58
520.175	4164.65
520.542	4234.48
520.909	4253.69
521.276	4262.05
521.643	4210.07
522.009	4280.81
522.376	4285.78
522.743	4321.03
523.11	4385.66
523.477	4363.74
523.843	4383.85
524.21	4396.96
524.577	4449.39
524.943	4434.7
525.31	4448.94
525.676	4510.18
526.043	4537.3
526.409	4561.02
526.776	4568.26
527.142	4588.82
527.508	4623.17
527.874	4667.69
528.241	4677.18
528.607	4725.54
528.973	4704.98
529.339	4734.58
529.705	4750.17
530.071	4803.96
530.437	4802.83
530.803	4801.02
531.169	4863.16
531.535	4849.83
531.901	4812.09
532.267	4888.47
532.632	4890.96
532.998	4908.13
533.364	4910.17
533.73	4970.5
534.095	4968.92
534.461	5028.13
534.826	5037.4
535.192	4972.54
535.557	5028.81
535.923	5113.55
536.288	5118.75
536.653	5125.98
537.019	5107.9
537.384	5130.27
537.749	5124.63
538.114	5230.61
538.479	5223.38
538.845	5232.64
539.21	5245.98
539.575	5261.8
539.94	5253.89
540.305	5344.96
540.67	5303.83
541.034	5394.9
541.399	5390.15
541.764	5424.96
542.129	5400.32
542.494	5374.34
542.858	5467.89
543.223	5458.85
543.587	5503.37
543.952	5478.06
544.316	5484.84
544.681	5542.92
545.045	5569.36
545.41	5616.82
545.774	5587.66
546.138	5630.37
546.503	5637.83
546.867	5673.54
547.231	5695.23
547.595	5725.97
547.959	5780.2
548.324	5728.68
548.688	5803.25
549.052	5782.91
549.416	5832.63
549.779	5830.37
550.143	5818.17
550.507	5843.93
550.871	5870.14
551.235	5907.88
551.599	5893.42
551.962	5987.88
552.326	5912.4
552.689	6030.82
553.053	6024.26
553.417	6000.31
553.78	6105.16
554.143	5999.86
554.507	6033.98
554.87	6152.62
555.234	6191.26
555.597	6082.11
555.96	6176.12
556.323	6173.41
556.686	6184.26
557.05	6254.76
557.413	6245.73
557.776	6227.2
558.139	6293.18
558.502	6247.08
558.865	6300.87
559.228	6334.99
559.59	6354.88
559.953	6370.24
560.316	6424.25
560.679	6442.78
561.041	6485.95
561.404	6467.41
561.767	6531.14
562.129	6473.06
562.492	6595.77
562.854	6592.84
563.217	6551.93
563.579	6664.47
563.941	6615.43
564.304	6631.93
564.666	6690.46
565.028	6767.75
565.39	6717.13
565.753	6762.32
566.115	6761.42
566.477	6755.09
566.839	6755.99
567.201	6861.53
567.563	6867.86
567.925	6875.09
568.287	6891.36
568.648	6941.07
569.01	6869.89
569.372	6975.88
569.734	7007.97
570.095	7014.29
570.457	7088.64
570.819	7127.28
571.18	7112.82
571.542	7180.39
571.903	7187.17
572.265	7226.04
572.626	7239.37
572.987	7372.48
573.349	7338.35
573.71	7402.31
574.071	7410.89
574.432	7467.39
574.794	7611.57
575.155	7531.79
575.516	7630.77
575.877	7676.42
576.238	7722.75
576.599	7823.54
576.96	7869.41
577.32	7887.72
577.681	7980.37
578.042	8045.68
578.403	8146.47
578.763	8112.8
579.124	8255.62
579.485	8367.7
579.845	8481.83
580.206	8555.5
580.566	8621.03
580.927	8743.29
581.287	8875.04
581.648	8930.17
582.008	9094.01
582.368	9178.3
582.728	9303.27
583.089	9451.74
583.449	9560.67
583.809	9684.96
584.169	9885.63
584.529	10021.67
584.889	10227.09
585.249	10387.54
585.609	10551.6
585.969	10717.47
586.329	10895.32
586.688	11091.7
587.048	11340.96
587.408	11442.65
587.768	11626.15
588.127	11878.35
588.487	12061.39
588.846	12452.79
589.206	12556.52
589.565	12727.82
589.925	12989.96
590.284	13183.85
590.643	13439.43
591.003	13768.01
591.362	13991.51
591.721	14218.62
592.08	14605.28
592.44	14824.03
592.799	15057.47
593.158	15271.7
593.517	15632.82
593.876	15894.74
594.235	16087.05
594.593	16417.21
594.952	16692.68
595.311	16865.56
595.67	17249.5
596.029	17656.05
596.387	17967
596.746	18251.29
597.104	18336.48
597.463	18623.93
597.822	19025.73
598.18	19221.2
598.538	19541.87
598.897	19886.72
599.255	20022.09
599.613	20532.81
599.972	20652.8
600.33	21048.5
600.688	21191.77
601.046	21580.69
601.404	21916.95
601.762	22105.42
602.12	22548.12
602.478	22771.62
602.836	22989.92
603.194	23173.42
603.552	23446.86
603.91	23601.43
604.268	24003.45
604.625	24284.35
604.983	24454.74
605.341	24596.2
605.698	24996.19
606.056	25145.79
606.413	25459.68
606.771	25648.15
607.128	26018.77
607.485	26088.59
607.843	26310.73
608.2	26669.14
608.557	26977.38
608.914	27066.87
609.272	27281.78
609.629	27535.79
609.986	27921.31
610.343	27968.54
610.7	28417.8
611.057	28556.33
611.414	28651.01
611.771	28816.43
612.127	29193.6
612.484	29303.2
612.841	29563.53
613.198	29730.08
613.554	29717.2
613.911	30071.09
614.267	30196.51
614.624	30303.17
614.98	30595.14
615.337	30827
615.693	30828.13
616.05	30919.43
616.406	31340.43
616.762	31466.76
617.118	31541.11
617.475	31641.89
617.831	31894.54
618.187	31939.74
618.543	32155.33
618.899	32420.86
619.255	32465.15
619.611	32544.24
619.967	32870.56
620.323	33064
620.678	32900.39
621.034	32874.18
621.39	33054.51
621.746	33227.16
622.101	33659.24
622.457	33489.53
622.812	33491.79
623.168	33749.64
623.523	33812.68
623.879	34111.43
624.234	34071.89
624.589	34137.42
624.945	34177.87
625.3	34182.17
625.655	34360.92
626.01	34433.91
626.365	34442.5
626.72	34494.25
627.075	34579.22
627.43	34718.88
627.785	34683.85
628.14	34791.87
628.495	34884.52
628.85	34818.99
629.205	34813.56
629.559	35096.49
629.914	34958.19
630.269	35075.48
630.623	35097.62
630.978	35049.04
631.332	35219.88
631.687	35284.06
632.041	35223.04
632.396	35418.97
632.75	35286.77
633.104	35293.1
633.459	35342.59
633.813	35306.43
634.167	35286.32
634.521	35357.73
634.875	35366.09
635.229	35404.51
635.583	35378.29
635.937	35204.29
636.291	35283.83
636.645	35339.65
636.999	35303.94
637.352	35473.88
637.706	35256.49
638.06	35367.9
638.413	35273.44
638.767	35218.07
639.121	35419.42
639.474	35200.67
639.828	35290.39
640.181	35233.21
640.534	35369.48
640.888	35296.26
641.241	35165.19
641.594	35260.78
641.947	35333.77
642.301	35230.5
642.654	35283.61
643.007	35506.2
643.36	35327.67
643.713	35282.25
644.066	35395.69
644.419	35220.56
644.771	34948.02
645.124	34700.34
645.477	34612.89
645.83	34386.23
646.182	34430.07
646.535	34295.61
646.888	34232.33
647.24	34218.32
647.593	34414.93
647.945	34244.54
648.298	34116.86
648.65	34191.66
649.002	34021.49
649.355	34213.13
649.707	34266.23
650.059	34381.71
650.411	34704.86
650.763	34792.09
651.115	35064.4
651.467	34997.51
651.819	34868.48
652.171	34909.38
652.523	34775.82
652.875	34840.91
653.227	34620.35
653.578	34837.52
653.93	34705.54
654.282	34700.57
654.633	34670.97
654.985	34765.88
655.337	34607.01
655.688	34668.93
656.039	34771.76
656.391	34593
656.742	34546.68
657.094	34655.37
657.445	34720.91
657.796	34623.74
658.147	34649.5
658.498	34531.31
658.849	34647.46
659.2	34561.14
659.551	34573.12
659.902	34633.23
660.253	34551.2
660.604	34705.09
660.955	34519.11
661.306	34500.58
661.656	34424.19
662.007	34622.61
662.358	34590.52
662.708	34575.15
663.059	34485.89
663.409	34256.51
663.76	34556.39
664.11	34514.81
664.461	34473.46
664.811	34528.6
665.161	34597.52
665.511	34517.3
665.862	34510.75
666.212	34612.21
666.562	34467.13
666.912	34458.09
667.262	34373.12
667.612	34483.85
667.962	34579.44
668.312	34430.3
668.662	34593.68
669.011	34519.33
669.361	34475.72
669.711	34345.78
670.06	34397.3
670.41	34315.04
670.76	34250.19
671.109	34389.62
671.459	34326.57
671.808	34229.62
672.157	34395.04
672.507	34110.53
672.856	34070.53
673.205	34173.58
673.554	34306.23
673.904	34179.68
674.253	34371.09
674.602	34171.09
674.951	33801.16
675.3	33565.23
675.649	34145.33
675.998	34142.17
676.346	34032.57
676.695	34126.12
677.044	34041.83
677.393	34110.98
677.741	34176.74
678.09	33993.47
678.438	33976.75
678.787	34085.9
679.135	34085.22
679.484	33774.27
679.832	33918.67
680.181	33736.53
680.529	33830.54
680.877	33751.44
681.225	33647.04
681.573	33939.69
681.922	33653.37
682.27	33529.08
682.618	33658.11
682.966	33467.61
683.314	33613.14
683.661	33369.76
684.009	33250.67
684.357	33270.33
684.705	33226.71
685.053	33399.59
685.4	33240.72
685.748	32953.72
686.095	33052.7
686.443	33027.39
686.79	32955.53
687.138	33027.39
687.485	32971.8
687.832	32873.95
688.18	32753.73
688.527	32693.39
688.874	32630.57
689.221	32573.39
689.568	32469.67
689.915	32337.69
690.262	32439.84
690.609	32388.32
690.956	32316
691.303	32206.62
691.65	32080.53
691.997	32127.3
692.344	31939.29
692.69	31848.44
693.037	31926.63
693.383	31618.62
693.73	31803.7
694.077	31544.04
694.423	31599.18
694.769	31369.58
695.116	31464.95
695.462	31318.29
695.808	31271.28
696.155	31336.14
696.501	31085.98
696.847	31112.87
697.193	30839.88
697.539	31076.71
697.885	30816.15
698.231	30695.7
698.577	30706.1
698.923	30578.65
699.269	30554.24
699.614	30322.61
699.96	30382.27
700.306	30286
700.651	30115.38
700.997	30054.59
701.342	29997.87
701.688	30038.32
702.033	29766.46
702.379	29829.51
702.724	29750.64
703.069	29817.31
703.415	29366.7
703.76	29521.95
704.105	29497.09
704.45	29374.38
704.795	29349.3
705.14	29074.73
705.485	29253.26
705.83	29077.22
706.175	29208.74
706.52	29066.59
706.865	28910.89
707.209	28781.86
707.554	28779.14
707.899	28783.21
708.243	28616.89
708.588	28662.31
708.932	28533.73
709.277	28479.04
709.621	28355.2
709.966	28299.61
710.31	28322.66
710.654	28170.8
710.998	28135.77
711.342	28228.42
711.687	28141.42
712.031	27943.69
712.375	27812.62
712.719	27873.86
713.063	27884.48
713.407	27934.19
713.75	27825.5
714.094	27819.85
714.438	27609.23
714.782	27602.23
715.125	27508.44
715.469	27474.32
715.812	27319.97
716.156	27265.51
716.499	27244.5
716.843	27395.45
717.186	27172.41
717.53	27249.47
717.873	27174.89
718.216	27141.45
718.559	27000.21
718.902	26960.44
719.246	27015.35
719.589	26838.18
719.932	26695.81
720.275	26743.27
720.617	26639.77
720.96	26564.29
721.303	26616.26
721.646	26604.51
721.989	26480.22
722.331	26671.86
722.674	26514.12
723.016	26510.28
723.359	26427.12
723.701	26445.19
724.044	26276.61
724.386	26128.14
724.729	26212.21
725.071	26079.78
725.413	26133.56
725.755	26026.67
726.097	26042.49
726.439	26002.27
726.782	25908.49
727.124	25905.1
727.465	25841.82
727.807	25790.07
728.149	25811.31
728.491	25712.78
728.833	25848.83
729.175	25707.81
729.516	25654.48
729.858	25593.47
730.199	25588.04
730.541	25507.82
730.882	25512.34
731.224	25637.08
731.565	25403.19
731.906	25432.79
732.248	25401.15
732.589	25263.76
732.93	25188.05
733.271	25206.36
733.612	25243.87
733.953	25174.27
734.294	25074.84
734.635	25020.37
734.976	25070.09
735.317	25081.39
735.658	24956.42
735.999	25038.23
736.339	24890.21
736.68	24985.57
737.021	24751
737.361	24676.88
737.702	24813.82
738.042	24750.78
738.383	24696.54
738.723	24719.14
739.063	24587.62
739.404	24767.72
739.744	24664.22
740.084	24494.96
740.424	24665.81
740.764	24495.19
741.104	24672.81
741.444	24383.78
741.784	24290.45
742.124	24378.81
742.464	24296.1
742.804	24225.59
743.143	24222.43
743.483	24227.85
743.823	24175.2
744.162	24073.73
744.502	24193.5
744.841	24076.22
745.181	24123.22
745.52	24005.48
745.86	24010.91
746.199	24008.2
746.538	23941.08
746.877	24070.57
747.216	23859.05
747.556	23840.74
747.895	23838.71
748.234	23837.13
748.573	23729.79
748.911	23654.53
749.25	23697.02
749.589	23486.63
749.928	23537.02
750.267	23561.2
750.605	23447.53
750.944	23447.53
751.283	23362.79
751.621	23451.6
751.96	23303.36
752.298	23295.22
752.636	23278.27
752.975	23140.2
753.313	23043.25
753.651	23237.14
753.989	22971.39
754.327	22920.54
754.666	22892.97
755.004	22880.77
755.342	22935.46
755.679	22824.5
756.017	22729.59
756.355	22789.7
756.693	22611.4
757.031	22739.76
757.368	22463.6
757.706	22462.47
758.044	22335.92
758.381	22402.59
758.719	22343.38
759.056	22358.3
759.394	22262.48
759.731	22203.5
760.068	22160.56
760.405	22020.23
760.743	22029.49
761.08	22059.1
