Data from hue_260_FLMS001491_00059.txt Node
Date: Tue Feb 07 15:59:13 GMT 2017
User: dcchb
Spectrometer: FLMS00149
Trigger mode: 0
Integration Time (sec): 2.000000E-2
Scans to average: 10
Electric dark correction enabled: true
Nonlinearity correction enabled: false
Boxcar width: 0
XAxis mode: Wavelengths
Number of Pixels in Spectrum: 2048
>>>>>Begin Spectral Data<<<<<
341.393	-17.39
341.776	-17.39
342.16	-17.39
342.543	-60.78
342.927	-74.79
343.31	-62.81
343.693	-66.2
344.077	-36.37
344.46	-53.77
344.843	-51.51
345.226	-39.31
345.61	-30.72
345.993	-6.31
346.376	-23.71
346.759	15.83
347.142	30.3
347.525	38.21
347.908	59.45
348.291	68.49
348.674	83.63
349.057	74.81
349.44	125.43
349.823	145.55
350.206	138.32
350.588	196.39
350.971	209.95
351.354	223.74
351.737	213.79
352.119	236.17
352.502	256.5
352.884	256.96
353.267	296.5
353.65	273
354.032	289.95
354.414	293.57
354.797	303.73
355.179	290.4
355.562	317.97
355.944	324.3
356.326	307.8
356.709	325.88
357.091	319.55
357.473	330.17
357.855	328.37
358.238	327.46
358.62	329.05
359.002	335.6
359.384	316.84
359.766	316.62
360.148	330.4
360.53	330.63
360.912	335.37
361.294	308.25
361.676	325.88
362.057	342.6
362.439	344.64
362.821	316.39
363.203	334.69
363.584	311.64
363.966	316.62
364.348	310.06
364.729	311.87
365.111	306.9
365.493	310.97
365.874	324.98
366.256	313.68
366.637	311.42
367.019	292.89
367.4	304.86
367.781	295.15
368.163	297.86
368.544	296.5
368.925	310.51
369.306	326.79
369.688	321.59
370.069	302.83
370.45	316.16
370.831	292.44
371.212	306.22
371.593	322.27
371.974	312.1
372.355	315.49
372.736	303.73
373.117	305.99
373.498	302.38
373.879	305.77
374.26	322.94
374.641	312.55
375.021	298.54
375.402	322.04
375.783	300.12
376.163	292.21
376.544	315.26
376.925	306.45
377.305	324.75
377.686	314.81
378.066	319.1
378.447	318.88
378.827	326.79
379.208	321.81
379.588	317.75
379.968	325.88
380.349	330.4
380.729	320.91
381.109	323.85
381.489	333.11
381.87	325.2
382.25	343.06
382.63	319.1
383.01	333.56
383.39	329.27
383.77	342.83
384.15	347.12
384.53	311.19
384.91	346.45
385.29	354.58
385.67	342.38
386.049	341.02
386.429	333.79
386.809	333.34
387.189	344.41
387.568	346.45
387.948	352.1
388.328	372.66
388.707	345.99
389.087	350.06
389.466	360.23
389.846	358.2
390.225	361.59
390.605	368.37
390.984	359.55
391.363	365.65
391.743	356.16
392.122	379.67
392.501	370.85
392.881	378.99
393.26	391.19
393.639	380.12
394.018	381.7
394.397	367.24
394.776	364.07
395.155	394.35
395.534	395.03
395.913	397.52
396.292	384.64
396.671	393.22
397.05	400.23
397.429	379.67
397.808	392.32
398.186	401.59
398.565	388.25
398.944	397.97
399.323	396.16
399.701	407.91
400.08	400.68
400.458	408.14
400.837	420.79
401.215	409.95
401.594	405.88
401.972	433
402.351	415.6
402.729	407.01
403.107	424.86
403.486	416.5
403.864	434.35
404.242	431.42
404.62	451.98
404.999	440.45
405.377	448.14
405.755	468.02
406.133	446.33
406.511	454.01
406.889	469.38
407.267	453.34
407.645	464.41
408.023	474.58
408.401	475.26
408.779	463.73
409.156	486.78
409.534	497.63
409.912	491.53
410.29	501.47
410.667	500.34
411.045	508.48
411.422	526.33
411.8	523.62
412.178	521.13
412.555	552.32
412.933	553.22
413.31	564.07
413.687	584.18
414.065	563.16
414.442	581.02
414.819	572.88
415.197	596.38
415.574	593.9
415.951	581.47
416.328	594.8
416.705	601.58
417.082	620.11
417.46	637.06
417.837	643.16
418.214	653.56
418.591	644.97
418.967	640.22
419.344	652.2
419.721	670.96
420.098	664.86
420.475	673.22
420.852	694.69
421.228	693.33
421.605	695.36
421.982	705.98
422.358	743.72
422.735	729.94
423.111	746.89
423.488	744.4
423.864	769.26
424.241	780.33
424.617	785.53
424.994	792.08
425.37	818.07
425.746	811.74
426.123	825.53
426.499	834.57
426.875	856.04
427.251	862.82
427.627	904.17
428.003	909.37
428.379	887.22
428.756	879.99
429.132	908.01
429.507	937.62
429.883	927.22
430.259	943.49
430.635	954.11
431.011	941.01
431.387	986.65
431.763	986.2
432.138	976.94
432.514	1014.9
432.89	1018.07
433.265	1030.95
433.641	1038.18
434.016	1075.01
434.392	1076.37
434.767	1098.29
435.143	1110.27
435.518	1144.84
435.894	1144.62
436.269	1178.51
436.644	1206.99
437.02	1209.47
437.395	1230.04
437.77	1213.09
438.145	1247.89
438.52	1270.49
438.895	1278.62
439.271	1307.55
439.646	1340.54
440.021	1325.85
440.395	1335.12
440.77	1331.5
441.145	1388.9
441.52	1397.04
441.895	1397.04
442.27	1400.43
442.645	1380.77
443.019	1425.74
443.394	1426.64
443.769	1433.2
444.143	1454.44
444.518	1485.85
444.892	1472.97
445.267	1521.33
445.641	1497.6
446.016	1538.96
446.39	1548.22
446.764	1544.83
447.139	1540.54
447.513	1580.76
447.887	1563.59
448.262	1563.81
448.636	1569.46
449.01	1602.01
449.384	1614.89
449.758	1630.93
450.132	1659.86
450.506	1637.49
450.88	1688.33
451.254	1682.23
451.628	1698.73
452.002	1698.27
452.376	1743.7
452.75	1731.27
453.123	1743.92
453.497	1768.33
453.871	1786.86
454.244	1806.29
454.618	1833.64
454.992	1870.7
455.365	1834.09
455.739	1904.82
456.112	1905.05
456.486	1901.43
456.859	1968.55
457.232	1946.4
457.606	1936.01
457.979	1982.11
458.352	2035.89
458.725	2033.63
459.099	2036.8
459.472	2093.52
459.845	2119.73
460.218	2129
460.591	2146.62
460.964	2114.53
461.337	2163.35
461.71	2244.02
462.083	2250.58
462.456	2265.04
462.829	2256.23
463.201	2292.38
463.574	2283.8
463.947	2315.89
464.32	2377.13
464.692	2387.52
465.065	2401.98
465.438	2408.99
465.81	2451.02
466.183	2473.85
466.555	2515.88
466.928	2541.19
467.3	2500.06
467.672	2562.21
468.045	2626.39
468.417	2654.63
468.789	2664.8
469.161	2693.28
469.534	2754.52
469.906	2775.08
470.278	2803.33
470.65	2801.07
471.022	2879.71
471.394	2901.18
471.766	2912.48
472.138	2995.87
472.51	3008.3
472.882	3056.2
473.253	3080.61
473.625	3105.47
473.997	3199.03
474.369	3191.57
474.74	3218.46
475.112	3254.62
475.484	3285.58
475.855	3373.48
476.227	3380.72
476.598	3459.58
476.97	3475.4
477.341	3555.85
477.713	3592.91
478.084	3632.69
478.455	3667.26
478.827	3702.74
479.198	3815.51
479.569	3848.05
479.94	3934.83
480.311	3897.54
480.682	4039
481.053	4101.38
481.424	4114.26
481.795	4128.95
482.166	4189.51
482.537	4263.4
482.908	4361.26
483.279	4413.68
483.65	4461.14
484.021	4490.97
484.391	4534.81
484.762	4538.43
485.133	4601.48
485.503	4638.08
485.874	4742.26
486.244	4768.02
486.615	4876.72
486.985	4949.71
487.356	4993.33
487.726	5020.22
488.097	5060.22
488.467	5170.05
488.837	5230.16
489.207	5270.84
489.578	5298.86
489.948	5331.17
490.318	5420.66
490.688	5407.1
491.058	5524.16
491.428	5529.59
491.798	5561.45
492.168	5722.12
492.538	5692.75
492.908	5754.21
493.278	5837.15
493.648	5805.96
494.017	5904.27
494.387	5913.53
494.757	5982.46
495.126	6009.12
495.496	6079.4
495.866	6037.82
496.235	6148.1
496.605	6130.7
496.974	6176.12
497.344	6265.39
497.713	6201.21
498.082	6299.96
498.452	6338.83
498.821	6374.54
499.19	6287.98
499.559	6409.11
499.928	6378.15
500.298	6472.84
500.667	6469.22
501.036	6528.2
501.405	6530.46
501.774	6518.71
502.143	6612.04
502.512	6603
502.88	6645.72
503.249	6654.08
503.618	6634.64
503.987	6693.17
504.356	6742.44
504.724	6770.01
505.093	6795.54
505.462	6782.21
505.83	6847.07
506.199	6877.35
506.567	6905.6
506.936	6939.94
507.304	6974.29
507.672	6931.36
508.041	6994.41
508.409	7022.88
508.777	7079.83
509.145	7030.56
509.514	7049.77
509.882	7121.18
510.25	7142.43
510.618	7156.89
510.986	7169.77
511.354	7226.72
511.722	7192.37
512.09	7243.89
512.458	7250.9
512.826	7335.87
513.193	7280.27
513.561	7305.81
513.929	7328.63
514.297	7416.99
514.664	7443.66
515.032	7385.13
515.4	7406.37
515.767	7454.96
516.135	7485.92
516.502	7461.51
516.869	7512.13
517.237	7520.95
517.604	7489.08
517.972	7563.21
518.339	7484.56
518.706	7601.4
519.073	7587.61
519.44	7545.58
519.808	7674.84
520.175	7640.72
520.542	7648.63
520.909	7630.1
521.276	7622.86
521.643	7735.86
522.009	7735.18
522.376	7758.45
522.743	7718.46
523.11	7814.27
523.477	7883.65
523.843	7865.34
524.21	7914.61
524.577	7925
524.943	7945.57
525.31	7887.26
525.676	7953.93
526.043	8021.27
526.409	8063.98
526.776	8049.52
527.142	7987.83
527.508	8012.68
527.874	8056.75
528.241	8108.28
528.607	8064.66
528.973	8146.47
529.339	8079.35
529.705	8163.64
530.071	8142.62
530.437	8161.83
530.803	8158.9
531.169	8175.39
531.535	8198.89
531.901	8173.13
532.267	8244.54
532.632	8238.44
532.998	8247.03
533.364	8249.29
533.73	8290.19
534.095	8243.41
534.461	8323.64
534.826	8253.36
535.192	8294.26
535.557	8312.11
535.923	8239.57
536.288	8270.53
536.653	8277.99
537.019	8171.1
537.384	8306.91
537.749	8240.48
538.114	8236.18
538.479	8215.84
538.845	8226.69
539.21	8189.18
539.575	8235.5
539.94	8235.28
540.305	8263.07
540.67	8206.35
541.034	8183.3
541.399	8257.42
541.764	8291.77
542.129	8276.63
542.494	8218.56
542.858	8205.9
543.223	8202.28
543.587	8181.95
543.952	8203.19
544.316	8177.43
544.681	8218.56
545.045	8228.05
545.41	8218.56
545.774	8188.95
546.138	8143.75
546.503	8239.8
546.867	8187.37
547.231	8206.58
547.595	8180.59
547.959	8227.82
548.324	8134.04
548.688	8176.52
549.052	8109.86
549.416	8138.56
549.779	8154.15
550.143	8172.91
550.507	8176.3
550.871	8153.25
551.235	8111.89
551.599	8091.33
551.962	8155.96
552.326	8165.45
552.689	8101.72
553.053	8067.37
553.417	8094.94
553.78	8132.23
554.143	8161.16
554.507	8067.37
554.87	8174.71
555.234	8171.32
555.597	8163.19
555.96	8151.21
556.323	8170.65
556.686	8158.67
557.05	8232.34
557.413	8117.54
557.776	8130.42
558.139	8210.42
558.502	8190.53
558.865	8198.44
559.228	8273.02
559.59	8200.7
559.953	8258.55
560.316	8308.95
560.679	8217.43
561.041	8231.44
561.404	8363.41
561.767	8335.16
562.129	8331.55
562.492	8423.97
562.854	8382.84
563.217	8339.23
563.579	8361.15
563.941	8410.41
564.304	8402.05
564.666	8447.93
565.028	8510.98
565.39	8491.09
565.753	8547.13
566.115	8514.14
566.477	8577.42
566.839	8523.63
567.201	8567.02
567.563	8563.4
567.925	8622.84
568.287	8649.73
568.648	8700.12
569.01	8679.79
569.372	8684.08
569.734	8737.86
570.095	8764.08
570.457	8793.23
570.819	8833.23
571.18	8819.9
571.542	8837.07
571.903	8783.74
572.265	8863.74
572.626	8901.25
572.987	8851.76
573.349	8896.73
573.71	8943.96
574.071	8935.6
574.432	9006.11
574.794	9026.44
575.155	8941.93
575.516	9009.72
575.877	9101.24
576.238	9082.49
576.599	9191.64
576.96	9204.97
577.32	9150.28
577.681	9147.34
578.042	9132.43
578.403	9253.56
578.763	9237.51
579.124	9260.34
579.485	9288.58
579.845	9292.43
580.206	9284.06
580.566	9399.77
580.927	9273.44
581.287	9317.51
581.648	9343.05
582.008	9382.37
582.368	9392.08
582.728	9497.17
583.089	9411.97
583.449	9405.64
583.809	9462.82
584.169	9421.01
584.529	9464.17
584.889	9545.53
585.249	9541.23
585.609	9500.56
585.969	9625.07
586.329	9538.29
586.688	9585.3
587.048	9515.92
587.408	9541.91
587.768	9579.42
588.127	9604.73
588.487	9550.27
588.846	9686.77
589.206	9604.06
589.565	9608.35
589.925	9664.17
590.284	9668.23
590.643	9706.2
591.003	9702.36
591.362	9776.71
591.721	9754.56
592.08	9731.06
592.44	9737.61
592.799	9841.34
593.158	9807.89
593.517	9824.39
593.876	9841.34
594.235	9862.35
594.593	9835.69
594.952	9819.87
595.311	9848.57
595.67	9866.65
596.029	9934.22
596.387	9927.44
596.746	9888.57
597.104	9868.68
597.463	9860.09
597.822	10001.79
598.18	9823.26
598.538	9906.65
598.897	9970.37
599.255	9835.01
599.613	9969.7
599.972	9927.89
600.33	9965.85
600.688	10001.79
601.046	9953.88
601.404	10013.54
601.762	10047.43
602.12	10034.55
602.478	10097.6
602.836	10024.61
603.194	10003.37
603.552	10064.38
603.91	10018.96
604.268	9992.97
604.625	9988
604.983	10055.57
605.341	10009.92
605.698	10039.52
606.056	10169.24
606.413	10058.28
606.771	10082.01
607.128	10117.04
607.485	10040.43
607.843	10108
608.2	10173.76
608.557	10203.81
608.914	10172.4
609.272	10150.26
609.629	10178.5
609.986	10231.16
610.343	10208.79
610.7	10213.53
611.057	10232.29
611.414	10292.62
611.771	10245.62
612.127	10312.74
612.484	10312.74
612.841	10295.11
613.198	10300.31
613.554	10278.84
613.911	10362.23
614.267	10322.23
614.624	10306.86
614.98	10306.64
615.337	10396.58
615.693	10360.42
616.05	10328.33
616.406	10373.07
616.762	10404.71
617.118	10362
617.475	10378.27
617.831	10407.2
618.187	10389.8
618.543	10407.42
618.899	10456.69
619.255	10460.3
619.611	10548.21
619.967	10439.29
620.323	10452.62
620.678	10444.94
621.034	10387.54
621.39	10409.91
621.746	10383.92
622.101	10567.87
622.457	10489.91
622.812	10423.92
623.168	10427.76
623.523	10458.95
623.879	10498.04
624.234	10418.95
624.589	10460.53
624.945	10476.12
625.3	10461.66
625.655	10476.57
626.01	10448.55
626.365	10430.02
626.72	10506.4
627.075	10438.84
627.43	10460.76
627.785	10425.5
628.14	10461.89
628.495	10436.8
628.85	10453.07
629.205	10439.51
629.559	10459.63
629.914	10373.3
630.269	10450.13
630.623	10345.5
630.978	10330.82
631.332	10329.69
631.687	10372.85
632.041	10355.9
632.396	10339.18
632.75	10373.07
633.104	10292.62
633.459	10259.63
633.813	10304.6
634.167	10296.01
634.521	10250.37
634.875	10286.75
635.229	10225.96
635.583	10164.94
635.937	10216.47
636.291	10212.85
636.645	10164.49
636.999	10167.43
637.352	10226.19
637.706	10123.14
638.06	10181.44
638.413	10129.47
638.767	10141.44
639.121	10120.88
639.474	9965.85
639.828	10077.49
640.181	10047.43
640.534	10120.43
640.888	10040.2
641.241	10015.8
641.594	9998.4
641.947	10083.36
642.301	10007.43
642.654	10056.25
643.007	10010.82
643.36	9998.62
643.713	9972.18
644.066	9957.94
644.419	9917.27
644.771	9891.73
645.124	9787.33
645.477	9840.21
645.83	9763.6
646.182	9633.89
646.535	9658.52
646.888	9724.73
647.24	9651.06
647.593	9721.34
647.945	9627.33
648.298	9610.83
648.65	9550.95
649.002	9523.15
649.355	9649.25
649.707	9603.38
650.059	9659.42
650.411	9746.88
650.763	9732.19
651.115	9865.52
651.467	9799.76
651.819	9816.93
652.171	9846.76
652.523	9823.71
652.875	9851.51
653.227	9809.02
653.578	9841.56
653.93	9859.19
654.282	9761.34
654.633	9792.98
654.985	9791.62
655.337	9769.47
655.688	9830.72
656.039	9816.93
656.391	9762.24
656.742	9729.93
657.094	9794.33
657.445	9741.9
657.796	9709.59
658.147	9757.27
658.498	9792.07
658.849	9806.99
659.2	9802.92
659.551	9735.8
659.902	9739.87
660.253	9805.63
660.604	9763.83
660.955	9727.67
661.306	9771.06
661.656	9733.77
662.007	9822.13
662.358	9757.5
662.708	9776.03
663.059	9834.11
663.409	9747.1
663.76	9775.8
664.11	9815.12
664.461	9769.93
664.811	9812.86
665.161	9830.49
665.511	9737.39
665.862	9731.51
666.212	9848.57
666.562	9808.12
666.912	9820.09
667.262	9753.88
667.612	9802.69
667.962	9801.56
668.312	9758.18
668.662	9749.59
669.011	9848.79
669.361	9779.64
669.711	9740.1
670.06	9765.41
670.41	9768.34
670.76	9696.93
671.109	9855.35
671.459	9691.51
671.808	9708.01
672.157	9738.97
672.507	9725.18
672.856	9708.46
673.205	9691.28
673.554	9683.6
673.904	9612.19
674.253	9720.89
674.602	9728.8
674.951	9572.19
675.3	9521.8
675.649	9699.42
675.998	9663.49
676.346	9661.68
676.695	9631.4
677.044	9580.78
677.393	9592.76
677.741	9586.2
678.09	9592.76
678.438	9573.55
678.787	9578.75
679.135	9558.86
679.484	9487.67
679.832	9509.82
680.181	9481.35
680.529	9577.84
680.877	9419.88
681.225	9530.84
681.573	9546.2
681.922	9420.78
682.27	9384.85
682.618	9457.39
682.966	9352.99
683.314	9415.59
683.661	9341.46
684.009	9274.35
684.357	9418.07
684.705	9346.44
685.053	9299.2
685.4	9271.86
685.748	9282.48
686.095	9188.02
686.443	9162.26
686.79	9157.06
687.138	9169.26
687.485	9188.02
687.832	9095.82
688.18	9076.39
688.527	9061.24
688.874	9011.75
689.221	9046.78
689.568	9035.93
689.915	8942.38
690.262	8945.32
690.609	8885.88
690.956	8834.81
691.303	8910.97
691.65	8817.18
691.997	8761.37
692.344	8756.17
692.69	8701.93
693.037	8735.15
693.383	8692.67
693.73	8656.28
694.077	8658.32
694.423	8589.17
694.769	8603.63
695.116	8616.51
695.462	8551.65
695.808	8505.55
696.155	8534.48
696.501	8448.38
696.847	8417.42
697.193	8433.01
697.539	8466.68
697.885	8346.01
698.231	8334.94
698.577	8292.9
698.923	8239.12
699.269	8248.16
699.614	8168.39
699.96	8154.38
700.306	8180.36
700.651	8100.37
700.997	8126.81
701.342	8106.24
701.688	8073.7
702.033	7972.01
702.379	8037.77
702.724	7963.19
703.069	7984.21
703.415	7894.27
703.76	7906.7
704.105	7892.24
704.45	7831.45
704.795	7810.88
705.14	7772.92
705.485	7791.22
705.83	7748.74
706.175	7830.32
706.52	7740.38
706.865	7680.94
707.209	7702.41
707.554	7706.93
707.899	7654.28
708.243	7609.31
708.588	7628.06
708.932	7591.9
709.277	7573.83
709.621	7492.25
709.966	7469.65
710.31	7530.21
710.654	7444.56
710.998	7430.78
711.342	7426.03
711.687	7424.45
712.031	7412.02
712.375	7337.45
712.719	7319.82
713.063	7327.05
713.407	7393.27
713.75	7336.54
714.094	7316.43
714.438	7275.53
714.782	7241.63
715.125	7217.23
715.469	7251.57
715.812	7210.45
716.156	7210.67
716.499	7215.42
716.843	7245.02
717.186	7154.63
717.53	7163.67
717.873	7173.16
718.216	7127.51
718.559	7116.89
718.902	7070.11
719.246	7024.01
719.589	7068.3
719.932	7095.65
720.275	7008.64
720.617	7045.93
720.96	7029.43
721.303	7020.17
721.646	7000.06
721.989	6980.17
722.331	7042.31
722.674	6972.49
723.016	7032.82
723.359	7021.98
723.701	7057.46
724.044	6952.37
724.386	6900.62
724.729	7002.54
725.071	6981.07
725.413	6960.06
725.755	6895.43
726.097	6887.97
726.439	6838.48
726.782	6866.05
727.124	6972.94
727.465	6844.13
727.807	6892.71
728.149	6892.94
728.491	6813.39
728.833	6892.49
729.175	6888.87
729.516	6889.1
729.858	6837.57
730.199	6881.42
730.541	6900.17
730.882	6837.12
731.224	6847.07
731.565	6853.85
731.906	6845.94
732.248	6814.75
732.589	6837.35
732.93	6767.75
733.271	6775.2
733.612	6841.64
733.953	6831.25
734.294	6801.42
734.635	6788.76
734.976	6806.61
735.317	6800.97
735.658	6786.95
735.999	6769.78
736.339	6798.93
736.68	6797.8
737.021	6773.62
737.361	6792.15
737.702	6829.21
738.042	6763.68
738.383	6811.36
738.723	6828.99
739.063	6803.9
739.404	6843.68
739.744	6818.37
740.084	6855.43
740.424	6920.74
740.764	6764.58
741.104	6850.91
741.444	6869.89
741.784	6853.85
742.124	6869.66
742.464	6882.55
742.804	6938.81
743.143	6923.9
743.483	6948.53
743.823	6899.27
744.162	6912.15
744.502	6986.5
744.841	6941.07
745.181	7043.44
745.52	6996.21
745.86	7119.37
746.199	7123.89
746.538	7154.85
746.877	7183.1
747.216	7192.14
747.556	7147.17
747.895	7227.85
748.234	7277.34
748.573	7230.33
748.911	7287.96
749.25	7352.59
749.589	7391.01
749.928	7446.82
750.267	7478.91
750.605	7551.68
750.944	7646.59
751.283	7675.29
751.621	7674.16
751.96	7807.49
752.298	7848.4
752.636	7932.91
752.975	7995.74
753.313	7994.38
753.651	8099.91
753.989	8193.92
754.327	8235.05
754.666	8255.39
755.004	8417.19
755.342	8513.46
755.679	8571.09
756.017	8652.67
756.355	8818.54
756.693	8890.18
757.031	9016.27
757.368	9097.18
757.706	9226.89
758.044	9287.45
758.381	9412.42
758.719	9536.03
759.056	9668.69
759.394	9762.7
759.731	9842.69
760.068	9970.83
760.405	10077.94
760.743	10131.5
761.08	10357.26
761.417	10435.45
761.754	10577.82
762.091	10696
762.428	10816.68
762.765	10864.59
763.102	11077.24
763.438	11183.22
763.775	11211.7
764.112	11466.15
764.449	11507.51
764.785	11590.67
765.122	11683.1
765.458	11834.05
765.795	11978
766.131	12124.22
766.467	12168.73
766.804	12311.33
767.14	12336.41
