Data from hue_00_FLMS001491_28.txt Node
Date: Mon Feb 06 15:29:29 GMT 2017
User: dcchb
Spectrometer: FLMS00149
Trigger mode: 0
Integration Time (sec): 2.000000E-2
Scans to average: 10
Electric dark correction enabled: true
Nonlinearity correction enabled: false
Boxcar width: 0
XAxis mode: Wavelengths
Number of Pixels in Spectrum: 2048
>>>>>Begin Spectral Data<<<<<
341.393	-18.14
341.776	-18.14
342.16	-18.14
342.543	-67.85
342.927	-57.91
343.31	-72.82
343.693	-73.5
344.077	-71.24
344.46	-51.35
344.843	-65.82
345.226	-22.43
345.61	-17.91
345.993	-22.2
346.376	-7.06
346.759	-3.9
347.142	32.26
347.525	30.9
347.908	54.63
348.291	72.03
348.674	107.51
349.057	110.9
349.44	117.91
349.823	117.68
350.206	155.42
350.588	182.31
350.971	207.62
351.354	236.1
351.737	255.53
352.119	255.76
352.502	253.04
352.884	283.33
353.267	272.25
353.65	280.84
354.032	307.51
354.414	305.02
354.797	305.25
355.179	315.19
355.562	325.36
355.944	321.97
356.326	335.3
356.709	328.3
357.091	314.06
357.473	333.95
357.855	347.05
358.238	328.52
358.62	329.43
359.002	341.63
359.384	340.5
359.766	333.04
360.148	323.78
360.53	344.34
360.912	335.75
361.294	338.47
361.676	337.56
362.057	319.48
362.439	334.85
362.821	313.16
363.203	353.15
363.584	329.2
363.966	316.09
364.348	315.19
364.729	309.99
365.111	318.58
365.493	308.18
365.874	312.93
366.256	303.21
366.637	316.55
367.019	315.64
367.4	316.09
367.781	311.35
368.163	304.79
368.544	308.64
368.925	307.73
369.306	313.38
369.688	295.53
370.069	309.31
370.45	321.97
370.831	318.81
371.212	292.59
371.593	295.98
371.974	317.68
372.355	317.68
372.736	296.66
373.117	305.02
373.498	305.47
373.879	331.23
374.26	324.91
374.641	324.23
375.021	305.02
375.402	317
375.783	295.53
376.163	316.32
376.544	324.68
376.925	319.03
377.305	326.49
377.686	303.44
378.066	327.84
378.447	328.07
378.827	335.98
379.208	324.91
379.588	346.38
379.968	317.68
380.349	325.81
380.729	333.95
381.109	312.25
381.489	317
381.87	343.21
382.25	341.63
382.63	333.27
383.01	357
383.39	336.43
383.77	356.54
384.15	337.11
384.53	330.56
384.91	339.14
385.29	349.09
385.67	337.11
386.049	345.02
386.429	339.82
386.809	324.45
387.189	342.31
387.568	355.19
387.948	334.4
388.328	352.02
388.707	353.61
389.087	358.35
389.466	356.77
389.846	337.56
390.225	374.17
390.605	366.71
390.984	339.14
391.363	343.44
391.743	338.47
392.122	351.12
392.501	359.93
392.881	371.23
393.26	367.84
393.639	373.27
394.018	357.9
394.397	363.1
394.776	358.8
395.155	350.44
395.534	368.07
395.913	349.09
396.292	361.74
396.671	369.65
397.05	363.32
397.429	362.65
397.808	383.66
398.186	379.59
398.565	405.58
398.944	396.09
399.323	405.36
399.701	373.04
400.08	394.06
400.458	390.44
400.837	385.02
401.215	402.64
401.594	403.77
401.972	399.48
402.351	420.72
402.729	380.95
403.107	385.7
403.486	398.58
403.864	401.97
404.242	406.71
404.62	408.29
404.999	413.04
405.377	419.82
405.755	410.1
406.133	409.2
406.511	406.49
406.889	415.07
407.267	426.15
407.645	442.64
408.023	424.11
408.401	422.53
408.779	440.38
409.156	442.42
409.534	419.59
409.912	451.91
410.29	450.78
410.667	448.52
411.045	457.33
411.422	446.49
411.8	441.74
412.178	460.5
412.555	469.99
412.933	465.02
413.31	475.41
413.687	471.12
414.065	478.35
414.442	443.32
414.819	473.6
415.197	469.76
415.574	468.18
415.951	474.73
416.328	491
416.705	497.78
417.082	494.17
417.46	503.43
417.837	497.11
418.214	493.04
418.591	489.87
418.967	502.3
419.344	516.31
419.721	508.4
420.098	513.15
420.475	505.92
420.852	519.48
421.228	517.9
421.605	510.44
421.982	511.12
422.358	552.7
422.735	524
423.111	539.59
423.488	545.69
423.864	538.01
424.241	540.95
424.617	558.35
424.994	559.02
425.37	551.57
425.746	559.02
426.123	573.94
426.499	573.94
426.875	578.69
427.251	598.8
427.627	596.99
428.003	582.75
428.379	609.42
428.756	590.44
429.132	599.7
429.507	624.11
429.883	622.53
430.259	610.55
430.635	622.98
431.011	618.01
431.387	650.55
431.763	641.73
432.138	660.49
432.514	649.19
432.89	634.73
433.265	648.51
433.641	662.07
434.016	663.43
434.392	676.76
434.767	703.2
435.143	659.81
435.518	694.39
435.894	674.5
436.269	706.14
436.644	686.93
437.02	695.97
437.395	704.11
437.77	727.16
438.145	743.2
438.52	721.96
438.895	729.42
439.271	736.87
439.646	742.07
440.021	752.01
440.395	749.08
440.77	732.81
441.145	770.54
441.52	752.47
441.895	767.83
442.27	775.06
442.645	780.49
443.019	791.11
443.394	775.29
443.769	800.15
444.143	815.74
444.518	796.31
444.892	791.34
445.267	804.44
445.641	821.16
446.016	801.96
446.39	812.58
446.764	824.78
447.139	805.12
447.513	817.78
447.887	799.92
448.262	835.85
448.636	834.5
449.01	827.49
449.384	840.83
449.758	837.44
450.132	863.2
450.506	843.99
450.88	868.4
451.254	844.67
451.628	878.56
452.002	888.51
452.376	873.14
452.75	916.08
453.123	901.61
453.497	900.03
453.871	890.09
454.244	920.15
454.618	928.51
454.992	936.19
455.365	935.29
455.739	981.16
456.112	977.32
456.486	969.18
456.859	974.61
457.232	955.62
457.606	978.22
457.979	990.65
458.352	1017.54
458.725	1013.93
459.099	1035.85
459.472	1055.96
459.845	1024.55
460.218	1060.25
460.591	1076.3
460.964	1048.28
461.337	1067.26
461.71	1099.58
462.083	1125.34
462.456	1130.08
462.829	1110.2
463.201	1158.11
463.574	1150.2
463.947	1150.65
464.32	1157.2
464.692	1193.36
465.065	1187.71
465.438	1213.7
465.81	1208.27
466.183	1222.51
466.555	1244.43
466.928	1248.95
467.3	1249.85
467.672	1296.86
468.045	1316.97
468.417	1334.37
468.789	1348.38
469.161	1322.39
469.534	1352.22
469.906	1378.44
470.278	1387.03
470.65	1407.14
471.022	1464.31
471.394	1452.56
471.766	1451.66
472.138	1479.68
472.51	1512.45
472.882	1529.39
473.253	1538.21
473.625	1589.28
473.997	1582.95
474.369	1570.75
474.74	1637.64
475.112	1654.82
475.484	1694.81
475.855	1719.9
476.227	1724.64
476.598	1773.23
476.97	1763.74
477.341	1834.7
477.713	1857.97
478.084	1882.83
478.455	1920.12
478.827	1951.08
479.198	1992.43
479.569	1990.63
479.94	2067.69
480.311	2072.88
480.682	2105.2
481.053	2163.73
481.424	2183.39
481.795	2234.24
482.166	2271.07
482.537	2279.43
482.908	2325.08
483.279	2364.85
483.65	2418.41
484.021	2435.81
484.391	2488.47
484.762	2507.45
485.133	2548.35
485.503	2592.42
485.874	2625.86
486.244	2663.83
486.615	2728.23
486.985	2708.35
487.356	2805.29
487.726	2842.13
488.097	2904.5
488.467	2883.71
488.837	2939.53
489.207	2972.07
489.578	3016.36
489.948	3064.27
490.318	3090.94
490.688	3141.56
491.058	3150.82
491.428	3234.21
491.798	3209.8
492.168	3304.49
492.538	3339.52
492.908	3349.69
493.278	3412.06
493.648	3416.58
494.017	3461.32
494.387	3481.89
494.757	3538.83
495.126	3577.7
495.496	3596.01
495.866	3626.29
496.235	3694.99
496.605	3688.43
496.974	3747.64
497.344	3755.78
497.713	3784.25
498.082	3815.66
498.452	3882.55
498.821	3859.05
499.19	3861.08
499.559	3913.29
499.928	3936.34
500.298	3983.34
500.667	4003.68
501.036	4005.71
501.405	4009.1
501.774	4066.28
502.143	4107.63
502.512	4088.88
502.88	4115.09
503.249	4172.94
503.618	4183.79
503.987	4170.68
504.356	4224.01
504.724	4221.3
505.093	4261.53
505.462	4304.92
505.83	4282.54
506.199	4337.91
506.567	4386.27
506.936	4370
507.304	4366.83
507.672	4414.52
508.041	4440.73
508.409	4524.57
508.777	4539.71
509.145	4530.9
509.514	4519.82
509.882	4589.2
510.25	4567.96
510.618	4586.94
510.986	4623.78
511.354	4609.09
511.722	4662.19
512.09	4644.57
512.458	4735.86
512.826	4712.36
513.193	4748.52
513.561	4750.33
513.929	4777.67
514.297	4859.7
514.664	4836.2
515.032	4802.08
515.4	4838.01
515.767	4864
516.135	4884.79
516.502	4881.4
516.869	4961.85
517.237	4983.32
517.604	4915.97
517.972	5019.02
518.339	5067.15
518.706	4996.87
519.073	4997.78
519.44	5086.14
519.808	5121.16
520.175	5117.78
520.542	5152.35
520.909	5170.2
521.276	5148.51
521.643	5187.38
522.009	5223.76
522.376	5271.44
522.743	5268.73
523.11	5278.67
523.477	5257.88
523.843	5378.33
524.21	5406.13
524.577	5466.24
524.943	5510.31
525.31	5496.52
525.676	5528.39
526.043	5540.59
526.409	5555.05
526.776	5577.42
527.142	5657.87
527.508	5638.44
527.874	5729.74
528.241	5741.26
528.607	5723.18
528.973	5778.32
529.339	5768.15
529.705	5782.84
530.071	5861.03
530.437	5933.57
530.803	5909.62
531.169	5959.56
531.535	5947.13
531.901	5984.87
532.267	5931.76
532.632	5987.81
532.998	6016.28
533.364	6089.95
533.73	6061.25
534.095	6113.91
534.461	6143.96
534.826	6182.38
535.192	6234.36
535.557	6234.81
535.923	6237.75
536.288	6289.95
536.653	6297.63
537.019	6334.24
537.384	6307.57
537.749	6392.77
538.114	6338.08
538.479	6415.37
538.845	6440
539.21	6442.49
539.575	6499.43
539.94	6531.75
540.305	6529.94
540.67	6540.11
541.034	6614.91
541.399	6612.43
541.764	6660.11
542.129	6683.38
542.494	6689.94
542.858	6737.17
543.223	6709.37
543.587	6779.2
543.952	6783.95
544.316	6832.08
544.681	6835.24
545.045	6849.03
545.41	6905.3
545.774	6894.68
546.138	6955.24
546.503	6947.11
546.867	6919.08
547.231	7044.5
547.595	7052.19
547.959	7049.02
548.324	7054.22
548.688	7077.5
549.052	7118.63
549.416	7129.7
549.779	7204.27
550.143	7197.95
550.507	7248.57
550.871	7247.21
551.235	7268.45
551.599	7362.46
551.962	7393.65
552.326	7402.23
552.689	7422.8
553.053	7443.14
553.417	7363.59
553.78	7479.97
554.143	7456.24
554.507	7498.5
554.87	7469.8
555.234	7637.26
555.597	7572.17
555.96	7566.3
556.323	7630.03
556.686	7641.55
557.05	7744.15
557.413	7727.88
557.776	7753.86
558.139	7772.85
558.502	7810.59
558.865	7824.6
559.228	7843.58
559.59	7920.87
559.953	7920.41
560.316	8032.5
560.679	7954.99
561.041	7973.97
561.404	8049.9
561.767	8108.2
562.129	7996.8
562.492	8095.55
562.854	8145.27
563.217	8127.64
563.579	8131.03
563.941	8222.55
564.304	8197.47
564.666	8298.03
565.028	8320.63
565.39	8304.36
565.753	8381.19
566.115	8418.71
566.477	8398.59
566.839	8424.58
567.201	8494.18
567.563	8550.91
567.925	8568.08
568.287	8563.11
568.648	8569.66
569.01	8648.76
569.372	8739.15
569.734	8694.63
570.095	8773.95
570.457	8784.12
570.819	8830.67
571.18	8803.33
571.542	8869.31
571.903	8920.61
572.265	8881.97
572.626	8949.76
572.987	9070.21
573.349	9077.22
573.71	9143.88
574.071	9219.36
574.432	9329.42
574.794	9368.51
575.155	9407.38
575.516	9406.93
575.877	9486.25
576.238	9561.73
576.599	9614.61
576.96	9647.6
577.32	9719.46
577.681	9785.9
578.042	9909.97
578.403	9950.87
578.763	10010.3
579.124	10171.65
579.485	10244.65
579.845	10321.25
580.206	10422.49
580.566	10488.03
580.927	10634.01
581.287	10819.77
581.648	10847.57
582.008	11000.11
582.368	11096.83
582.728	11264.05
583.089	11448.46
583.449	11546.31
583.809	11638.51
584.169	11909.23
584.529	11995.11
584.889	12196.46
585.249	12415.66
585.609	12497.92
585.969	12706.95
586.329	12887.97
586.688	13163.44
587.048	13353.04
587.408	13515.75
587.768	13733.14
588.127	13951.89
588.487	14193.02
588.846	14519.11
589.206	14586.45
589.565	14827.58
589.925	15207.45
590.284	15326.77
590.643	15642.02
591.003	15840.2
591.362	16235
591.721	16396.35
592.08	16633.18
592.44	17063.22
592.799	17281.3
593.158	17507.73
593.517	17816.42
593.876	18150.43
594.235	18385.22
594.593	18576.63
594.952	18943.17
595.311	19155.82
595.67	19555.14
596.029	19900.66
596.387	20175.23
596.746	20524.38
597.104	20698.83
597.463	20939.73
597.822	21384.92
598.18	21490.68
598.538	21835.98
598.897	22305.57
599.255	22276.42
599.613	22960.47
599.972	23077.75
600.33	23390.51
600.688	23656.04
601.046	23943.95
601.404	24284.5
601.762	24528.79
602.12	24987.76
602.478	25136.23
602.836	25333.29
603.194	25586.84
603.552	25849.43
603.91	25938.7
604.268	26351.79
604.625	26608.51
604.983	27015.96
605.341	27083.53
605.698	27471.54
606.056	27729.61
606.413	27945.2
606.771	28237.62
607.128	28485.07
607.485	28562.58
607.843	28732.75
608.2	29220.19
608.557	29462.45
608.914	29533.63
609.272	29863.34
609.629	30075.31
609.986	30385.13
610.343	30359.37
610.7	30911.9
611.057	31029.18
611.414	31216.07
611.771	31341.49
612.127	31614.48
612.484	31786.68
612.841	31972.89
613.198	32108.7
613.554	32194.35
613.911	32599.99
614.267	32653.55
614.624	32869.36
614.98	33145.74
615.337	33409.01
615.693	33383.47
616.05	33520.87
616.406	33896.23
616.762	33844.25
617.118	34091.48
617.475	34225.71
617.831	34444.46
618.187	34591.12
618.543	34740.95
618.899	35056.87
619.255	35058.46
619.611	35199.92
619.967	35306.36
620.323	35506.35
620.678	35482.17
621.034	35606.69
621.39	35725.33
621.746	35658.21
622.101	36248.03
622.457	35956.06
622.812	36206
623.168	36362.83
623.523	36381.81
623.879	36674.01
624.234	36396.5
624.589	36633.1
624.945	36783.61
625.3	36797.85
625.655	36846.21
626.01	36991.97
626.365	37235.35
626.72	37085.75
627.075	37186.08
627.43	37329.13
627.785	37204.16
628.14	37446.87
628.495	37505.4
628.85	37555.11
629.205	37373.42
629.559	37683.47
629.914	37556.24
630.269	37637.82
630.623	37578.84
630.978	37593.76
631.332	37669.24
631.687	37844.82
632.041	37590.82
632.396	37875.78
632.75	37708.33
633.104	37811.6
633.459	37566.41
633.813	37804.83
634.167	37652.51
634.521	37694.55
634.875	37808.21
635.229	37705.17
635.583	37756.92
635.937	37798.05
636.291	37778.61
636.645	37798.72
636.999	37709.69
637.352	37931.83
637.706	37679.4
638.06	37975.22
638.413	37884.15
638.767	37867.65
639.121	37798.27
639.474	37552.85
639.828	37677.14
640.181	37775
640.534	37812.96
640.888	37699.74
641.241	37528
641.594	37638.73
641.947	37787.2
642.301	37714.66
642.654	37738.61
643.007	37697.94
643.36	37614.55
643.713	37619.75
644.066	37671.27
644.419	37606.19
644.771	37384.27
645.124	37047.78
645.477	36899.54
645.83	36827.45
646.182	36707.68
646.535	36591.98
646.888	36612.77
647.24	36452.54
647.593	36646.66
647.945	36560.34
648.298	36540.45
648.65	36382.04
649.002	36177.52
649.355	36415.71
649.707	36336.62
650.059	36618.87
650.411	36832.2
650.763	36993.77
651.115	37434.44
651.467	37260.21
651.819	37216.37
652.171	37244.16
652.523	37110.61
652.875	37125.75
653.227	36964.4
653.578	37215.46
653.93	37206.65
654.282	37011.4
654.633	36855.25
654.985	37100.44
655.337	36997.16
655.688	37055.92
656.039	37173.66
656.391	36834.68
656.742	37012.98
657.094	36880.56
657.445	37050.27
657.796	36968.46
658.147	36855.02
658.498	36898.18
658.849	36980.21
659.2	36937.05
659.551	36826.55
659.902	36956.03
660.253	36921.68
660.604	36929.59
660.955	36796.94
661.306	36915.81
661.656	36786.55
662.007	36745.87
662.358	36895.02
662.708	36768.47
663.059	36766.89
663.409	36764.85
663.76	36844.4
664.11	36782.25
664.461	36836.26
664.811	36864.96
665.161	36843.95
665.511	36848.69
665.862	36950.84
666.212	37060.21
666.562	36958.29
666.912	36943.15
667.262	36811.63
667.612	36706.77
667.962	36746.32
668.312	36731.41
668.662	37011.63
669.011	36965.53
669.361	36687.34
669.711	36686.21
670.06	36697.96
670.41	36585.87
670.76	36721.69
671.109	36735.02
671.459	36537.97
671.808	36679.43
672.157	36641.47
672.507	36449.15
672.856	36539.1
673.205	36445.54
673.554	36650.51
673.904	36523.28
674.253	36765.08
674.602	36530.73
674.951	35948.6
675.3	35786.12
675.649	36451.41
675.998	36413
676.346	36495.26
676.695	36584.97
677.044	36257.07
677.393	36283.96
677.741	36233.79
678.09	36130.07
678.438	36156.73
678.787	36229.73
679.135	36234.25
679.484	35914.48
679.832	36198.09
680.181	35793.8
680.529	36097.07
680.877	36020.24
681.225	35847.14
681.573	36029.05
681.922	35984.31
682.27	35752.9
682.618	35766.69
682.966	35667.93
683.314	35819.57
683.661	35627.48
684.009	35517.88
684.357	35401.5
684.705	35370.09
685.053	35558.33
685.4	35454.15
685.748	35144.1
686.095	35247.38
686.443	35234.05
686.79	35078.8
687.138	35243.54
687.485	35178
687.832	34976.2
688.18	34916.77
688.527	34794.06
688.874	34907.27
689.221	34823.43
689.568	34669.31
689.915	34555.42
690.262	34465.93
690.609	34378.02
690.956	34374.18
691.303	34303.45
691.65	34106.39
691.997	34171.93
692.344	33945.72
692.69	33851.71
693.037	33892.39
693.383	33673.86
693.73	33781.88
694.077	33560.42
694.423	33585.5
694.769	33498.27
695.116	33286.07
695.462	33298.28
695.808	33183.48
696.155	33198.62
696.501	33132.63
696.847	33148.9
697.193	32779.87
697.539	32884.5
697.885	32658.29
698.231	32666.66
698.577	32733.77
698.923	32669.37
699.269	32529.48
699.614	32360.22
699.96	32339.43
700.306	32289.26
700.651	32069.16
700.997	31988.71
701.342	32070.96
701.688	32019.89
702.033	31918.65
702.379	31750.52
702.724	31707.36
703.069	31847.24
703.415	31430.98
703.76	31376.75
704.105	31454.03
704.45	31409.74
704.795	31172.46
705.14	31072.35
705.485	31066.7
705.83	30898.11
706.175	31004.33
706.52	30935.18
706.865	30764.33
707.209	30728.18
707.554	30679.14
707.899	30823.99
708.243	30425.58
708.588	30431.91
708.932	30379.48
709.277	30287.73
709.621	30291.35
709.966	30137.23
710.31	30152.37
710.654	29808.65
710.998	29903.56
711.342	29844.58
711.687	30054.07
712.031	29761.65
712.375	29615.21
712.719	29652.5
713.063	29652.27
713.407	29754.87
713.75	29532.27
714.094	29469.68
714.438	29359.85
714.782	29384.26
715.125	29299.06
715.469	29273.98
715.812	29144.04
716.156	29076.92
716.499	29027.43
716.843	28957.15
717.186	28852.29
717.53	29052.96
717.873	28942.46
718.216	28840.54
718.559	28839.64
718.902	28554.9
719.246	28630.38
719.589	28538.63
719.932	28419.54
720.275	28448.91
720.617	28369.59
720.96	28351.06
721.303	28453.66
721.646	28423.83
721.989	28203.27
722.331	28273.1
722.674	28261.8
723.016	28213.66
723.359	28147.45
723.701	28163.72
724.044	27885.76
724.386	27893.45
724.729	27875.14
725.071	27798.99
725.413	27893.45
725.755	27754.92
726.097	27696.62
726.439	27622.27
726.782	27521.25
727.124	27710.63
727.465	27563.06
727.807	27560.35
728.149	27446.68
728.491	27500.69
728.833	27356.51
729.175	27340.02
729.516	27282.62
729.858	27241.71
730.199	27248.94
730.541	27182.28
730.882	27138.89
731.224	27248.27
731.565	27013.02
731.906	27064.32
732.248	27111.1
732.589	26803.53
732.93	26880.37
733.271	26855.51
733.612	26926.24
733.953	26926.92
734.294	26818.9
734.635	26665.68
734.976	26750.2
735.317	26527.16
735.658	26535.07
735.999	26588.4
736.339	26624.1
736.68	26569.41
737.021	26511.34
737.361	26379.14
737.702	26571.9
738.042	26316.31
738.383	26283.55
738.723	26401.06
739.063	26223.89
739.404	26216.88
739.744	26193.15
740.084	26122.19
740.424	26177.11
740.764	26064.79
741.104	26028.64
741.444	25873.39
741.784	25904.12
742.124	25968.07
742.464	25906.83
742.804	25799.94
743.143	25746.39
743.483	25730.57
743.823	25542.32
744.162	25638.37
744.502	25653.05
744.841	25580.97
745.181	25548.2
745.52	25459.16
745.86	25580.29
746.199	25440.4
746.538	25540.51
746.877	25423.91
747.216	25440.4
747.556	25354.53
747.895	25445.38
748.234	25342.78
748.573	25268.21
748.911	25227.53
749.25	25152.73
749.589	25050.81
749.928	25093.75
750.267	25146.85
750.605	25057.82
750.944	24883.13
751.283	24905.73
751.621	24923.81
751.96	24675.45
752.298	24868.89
752.636	24799.74
752.975	24725.4
753.313	24512.75
753.651	24800.65
753.989	24504.84
754.327	24451.05
754.666	24394.56
755.004	24392.97
755.342	24435.91
755.679	24434.78
756.017	24226.43
756.355	24322.69
756.693	24220.32
757.031	24131.96
757.368	24020.33
757.706	24085.41
758.044	23921.12
758.381	23996.37
758.719	23852.88
759.056	23860.56
759.394	23732.2
759.731	23649.94
760.068	23536.95
760.405	23500.79
760.743	23491.53
761.08	23496.05
