Data from hue_34_FLMS001491_00055.txt Node
Date: Tue Feb 07 17:25:50 GMT 2017
User: dcchb
Spectrometer: FLMS00149
Trigger mode: 0
Integration Time (sec): 2.000000E-2
Scans to average: 10
Electric dark correction enabled: true
Nonlinearity correction enabled: false
Boxcar width: 0
XAxis mode: Wavelengths
Number of Pixels in Spectrum: 2048
>>>>>Begin Spectral Data<<<<<
341.393	8.12
341.776	8.12
342.16	8.12
342.543	-65.78
342.927	-58.54
343.31	-61.93
343.693	-63.74
344.077	-69.62
344.46	-67.58
344.843	-59.45
345.226	-47.24
345.61	-21.71
345.993	-26.45
346.376	-17.19
346.759	-9.96
347.142	20.55
347.525	34.11
347.908	73.88
348.291	88.35
348.674	108.01
349.057	119.98
349.44	142.36
349.823	135.35
350.206	162.02
350.588	212.86
350.971	220.32
351.354	225.06
351.737	234.1
352.119	263.26
352.502	252.41
352.884	278.62
353.267	275.01
353.65	287.21
354.032	303.48
354.414	307.77
354.797	310.26
355.179	329.47
355.562	331.73
355.944	345.06
356.326	338.28
356.709	349.36
357.091	349.13
357.473	341.22
357.855	342.8
358.238	352.29
358.62	348
359.002	342.58
359.384	325.4
359.766	330.6
360.148	357.04
360.53	344.84
360.912	326.53
361.294	319.75
361.676	332.18
362.057	329.92
362.439	347.1
362.821	343.25
363.203	337.6
363.584	321.56
363.966	321.33
364.348	333.54
364.729	316.14
365.111	324.5
365.493	329.02
365.874	331.05
366.256	306.64
366.637	323.14
367.019	317.27
367.4	309.36
367.781	314.33
368.163	313.88
368.544	323.59
368.925	306.42
369.306	330.82
369.688	322.46
370.069	305.97
370.45	308.45
370.831	312.07
371.212	314.33
371.593	323.59
371.974	312.52
372.355	328.79
372.736	330.37
373.117	307.77
373.498	317.72
373.879	328.56
374.26	309.58
374.641	308.9
375.021	313.2
375.402	316.59
375.783	321.79
376.163	345.51
376.544	319.3
376.925	325.63
377.305	329.24
377.686	327.89
378.066	339.19
378.447	328.11
378.827	346.42
379.208	347.1
379.588	343.25
379.968	334.67
380.349	333.08
380.729	336.25
381.109	338.96
381.489	338.73
381.87	351.39
382.25	335.8
382.63	330.82
383.01	381.67
383.39	339.86
383.77	337.38
384.15	354.55
384.53	358.17
384.91	315.01
385.29	347.32
385.67	368.79
386.049	369.24
386.429	352.07
386.809	330.15
387.189	357.04
387.568	349.58
387.948	350.03
388.328	352.07
388.707	357.49
389.087	350.94
389.466	346.42
389.846	362.24
390.225	357.26
390.605	356.13
390.984	362.69
391.363	367.89
391.743	385.51
392.122	384.38
392.501	381.44
392.881	391.61
393.26	363.59
393.639	366.08
394.018	370.37
394.397	369.69
394.776	400.2
395.155	383.48
395.534	390.03
395.913	378.51
396.292	385.51
396.671	384.61
397.05	367.66
397.429	392.74
397.808	376.7
398.186	369.47
398.565	385.96
398.944	398.39
399.323	401.33
399.701	401.11
400.08	370.15
400.458	371.05
400.837	378.28
401.215	402.91
401.594	420.31
401.972	399.98
402.351	409.01
402.729	388.45
403.107	421.44
403.486	411.73
403.864	413.08
404.242	397.72
404.62	405.62
404.999	423.48
405.377	431.61
405.755	431.61
406.133	415.57
406.511	432.52
406.889	432.97
407.267	450.6
407.645	415.57
408.023	444.49
408.401	436.36
408.779	441.1
409.156	445.4
409.534	443.14
409.912	446.53
410.29	447.88
410.667	457.6
411.045	458.5
411.422	470.26
411.8	445.17
412.178	468
412.555	468.45
412.933	468
413.31	474.55
413.687	496.24
414.065	490.14
414.442	480.2
414.819	475.91
415.197	464.61
415.574	492.4
415.951	483.36
416.328	499.63
416.705	507.77
417.082	470.26
417.46	492.63
417.837	489.01
418.214	521.1
418.591	500.09
418.967	510.25
419.344	518.16
419.721	528.56
420.098	514.55
420.475	501.22
420.852	529.69
421.228	519.52
421.605	536.24
421.982	545.73
422.358	545.96
422.735	530.37
423.111	540.99
423.488	538.5
423.864	553.64
424.241	549.8
424.617	561.55
424.994	552.29
425.37	563.59
425.746	575.56
426.123	565.62
426.499	573.3
426.875	590.48
427.251	592.06
427.627	576.92
428.003	599.74
428.379	598.16
428.756	588.22
429.132	599.97
429.507	601.1
429.883	590.03
430.259	626.64
430.635	614.43
431.011	612.85
431.387	667.31
431.763	641.55
432.138	651.04
432.514	644.71
432.89	643.58
433.265	668.89
433.641	670.93
434.016	661.66
434.392	684.94
434.767	666.41
435.143	697.37
435.518	656.47
435.894	693.75
436.269	695.33
436.644	706.63
437.02	710.02
437.395	697.59
437.77	730.59
438.145	724.49
438.52	702.79
438.895	732.4
439.271	730.14
439.646	738.5
440.021	752.96
440.395	746.86
440.77	754.77
441.145	767.2
441.52	761.77
441.895	777.37
442.27	777.37
442.645	768.1
443.019	773.75
443.394	785.5
443.769	785.05
444.143	756.35
444.518	797.48
444.892	779.63
445.267	827.99
445.641	803.58
446.016	809.46
446.39	788.67
446.764	805.16
447.139	804.03
447.513	822.34
447.887	829.79
448.262	830.47
448.636	833.86
449.01	849.23
449.384	846.29
449.758	844.71
450.132	863.24
450.506	875.67
450.88	855.56
451.254	880.87
451.628	889
452.002	897.82
452.376	889.68
452.75	897.36
453.123	908.89
453.497	916.8
453.871	932.62
454.244	942.33
454.618	908.44
454.992	924.03
455.365	945.95
455.739	972.39
456.112	988.66
456.486	974.65
456.859	999.96
457.232	1013.29
457.606	996.57
457.979	1022.78
458.352	1030.47
458.725	1045.83
459.099	1032.28
459.472	1063.46
459.845	1095.32
460.218	1080.41
460.591	1110.24
460.964	1106.17
461.337	1123.35
461.71	1143.91
462.083	1138.49
462.456	1167.41
462.829	1163.12
463.201	1160.18
463.574	1181.42
463.947	1194.76
464.32	1206.73
464.692	1248.54
465.065	1242.89
465.438	1286.05
465.81	1263.46
466.183	1316.34
466.555	1325.6
466.928	1326.5
467.3	1308.88
467.672	1373.96
468.045	1363.79
468.417	1392.27
468.789	1419.84
469.161	1418.25
469.534	1437.24
469.906	1474.07
470.278	1495.77
470.65	1528.76
471.022	1548.19
471.394	1555.65
471.766	1559.27
472.138	1579.61
472.51	1654.63
472.882	1677.46
473.253	1695.08
473.625	1717.23
473.997	1771.69
474.369	1771.01
474.74	1777.79
475.112	1841.52
475.484	1898.92
475.855	1941.18
476.227	1970.33
476.598	1986.15
476.97	2058.01
477.341	2103.21
477.713	2164.67
478.084	2173.04
478.455	2263.66
478.827	2283.09
479.198	2356.53
479.569	2396.53
479.94	2466.59
480.311	2480.6
480.682	2560.82
481.053	2600.82
481.424	2713.81
481.795	2724.21
482.166	2830.87
482.537	2872.23
482.908	2984.31
483.279	3021.15
483.65	3099.57
484.021	3167.59
484.391	3223.86
484.762	3320.12
485.133	3356.96
485.503	3438.54
485.874	3532.55
486.244	3619.55
486.615	3696.61
486.985	3793.33
487.356	3861.13
487.726	3900.45
488.097	4035.59
488.467	4063.83
488.837	4232.42
489.207	4258.4
489.578	4414.79
489.948	4424.95
490.318	4565.29
490.688	4580.88
491.058	4667.66
491.428	4848.22
491.798	4876.24
492.168	5036.01
492.538	5038.27
492.908	5196.69
493.278	5292.5
493.648	5336.79
494.017	5374.31
494.387	5504.93
494.757	5562.33
495.126	5635.09
495.496	5729.33
495.866	5811.81
496.235	5930.23
496.605	5960.73
496.974	6085.02
497.344	6142.65
497.713	6193.5
498.082	6318.92
498.452	6355.52
498.821	6410.44
499.19	6466.26
499.559	6616.76
499.928	6695.63
500.298	6727.04
500.667	6761.16
501.036	6826.47
501.405	6874.61
501.774	6941.05
502.143	7020.37
502.512	7095.39
502.88	7188.95
503.249	7236.86
503.618	7273.24
503.987	7332.67
504.356	7403.63
504.724	7459.68
505.093	7482.95
505.462	7548.71
505.83	7635.49
506.199	7748.71
506.567	7789.16
506.936	7783.28
507.304	7960.45
507.672	7971.3
508.041	7990.28
508.409	8108.25
508.777	8144.18
509.145	8221.92
509.514	8274.34
509.882	8267.79
510.25	8315.25
510.618	8427.56
510.986	8448.35
511.354	8505.52
511.722	8620.1
512.09	8669.14
512.458	8668.68
512.826	8763.37
513.193	8834.78
513.561	8827.32
513.929	8856.25
514.297	8985.51
514.664	9001.33
515.032	9027.09
515.4	9163.36
515.767	9178.5
516.135	9282
516.502	9202.46
516.869	9396.57
517.237	9378.95
517.604	9366.75
517.972	9476.57
518.339	9569.68
518.706	9539.62
519.073	9604.48
519.44	9642.22
519.808	9745.27
520.175	9683.12
520.542	9852.38
520.909	9839.28
521.276	9877.92
521.643	9981.64
522.009	10007.63
522.376	10117.01
522.743	10107.74
523.11	10235.2
523.477	10294.63
523.843	10355.42
524.21	10485.59
524.577	10451.46
524.943	10610.1
525.31	10569.88
525.676	10685.58
526.043	10770.78
526.409	10796.99
526.776	10887.16
527.142	10950.66
527.508	11042.18
527.874	11018.45
528.241	11130.09
528.607	11190.65
528.973	11207.83
529.339	11236.3
529.705	11421.15
530.071	11425
530.437	11501.6
530.803	11515.62
531.169	11626.12
531.535	11630.87
531.901	11648.95
532.267	11739.34
532.632	11823.86
532.998	11812.78
533.364	11951.08
533.73	11995.15
534.095	12057.3
534.461	12099.78
534.826	12171.87
535.192	12145.66
535.557	12319.44
535.923	12252.09
536.288	12378.87
536.653	12425.2
537.019	12383.84
537.384	12463.39
537.749	12532.99
538.114	12566.66
538.479	12588.13
538.845	12665.87
539.21	12697.96
539.575	12810.04
539.94	12828.12
540.305	12839.65
540.67	12874.68
541.034	12944.96
541.399	12958.52
541.764	13007.55
542.129	12983.6
542.494	13161.67
542.858	13240.32
543.223	13261.78
543.587	13349.69
543.952	13220.66
544.316	13389.01
544.681	13472.63
545.045	13445.73
545.41	13569.8
545.774	13656.35
546.138	13563.25
546.503	13664.71
546.867	13698.16
547.231	13822.67
547.595	13732.51
547.959	13880.3
548.324	13850.7
548.688	13977.02
549.052	14000.75
549.416	14060.63
549.779	14105.38
550.143	14050.46
550.507	14200.06
550.871	14237.35
551.235	14228.99
551.599	14381.08
551.962	14452.26
552.326	14385.82
552.689	14482.32
553.053	14447.52
553.417	14535.2
553.78	14652.03
554.143	14678.47
554.507	14745.81
554.87	14778.13
555.234	14894.51
555.597	14824.91
555.96	14957.33
556.323	14957.78
556.686	14921.18
557.05	15124.79
557.413	15119.36
557.776	15184.67
558.139	15262.41
558.502	15226.93
558.865	15221.73
559.228	15428.28
559.59	15423.08
559.953	15468.28
560.316	15633.47
560.679	15587.82
561.041	15694.26
561.404	15726.35
561.767	15937.42
562.129	15749.18
562.492	16037.53
562.854	15901.94
563.217	15966.57
563.579	16060.58
563.941	16107.81
564.304	16152.78
564.666	16204.76
565.028	16237.07
565.39	16273.68
565.753	16357.52
566.115	16517.74
566.477	16489.04
566.839	16574.01
567.201	16672.54
567.563	16710.05
567.925	16802.93
568.287	16917.51
568.648	16856.27
569.01	16964.96
569.372	17125.19
569.734	17014
570.095	17156.37
570.457	17277.95
570.819	17244.05
571.18	17261.45
571.542	17476.14
571.903	17402.24
572.265	17496.93
572.626	17659.63
572.987	17657.37
573.349	17715.9
573.71	17818.73
574.071	17964.71
574.432	18041.77
574.794	18217.81
575.155	18267.75
575.516	18263.91
575.877	18430.91
576.238	18541.87
576.599	18656.44
576.96	18699.38
577.32	18770.34
577.681	18922.88
578.042	19146.83
578.403	19204
578.763	19321.96
579.124	19418.46
579.485	19585.23
579.845	19720.15
580.206	19871.55
580.566	19942.51
580.927	20096.86
581.287	20358.09
581.648	20331.65
582.008	20697.75
582.368	20671.08
582.728	20911.07
583.089	21096.61
583.449	21391.74
583.809	21508.8
584.169	21627.67
584.529	21857.26
584.889	22156.69
585.249	22224.71
585.609	22373.41
585.969	22710.35
586.329	22880.06
586.688	23195.31
587.048	23391.46
587.408	23422.42
587.768	23684.79
588.127	23916.42
588.487	24123.87
588.846	24618.77
589.206	24548.27
589.565	24785.77
589.925	25145.31
590.284	25305.31
590.643	25641.35
591.003	25914.56
591.362	26207.88
591.721	26425.73
592.08	26653.3
592.44	26930.35
592.799	27117.69
593.158	27319.95
593.517	27644.46
593.876	27861.4
594.235	28147.49
594.593	28334.83
594.952	28629.29
595.311	28716.97
595.67	29000.81
596.029	29489.15
596.387	29605.54
596.746	29893.21
597.104	30009.59
597.463	30134.11
597.822	30688.9
598.18	30772.06
598.538	30969.12
598.897	31451.81
599.255	31246.62
599.613	31861.97
599.972	31891.35
600.33	32173.83
600.688	32268.52
601.046	32632.8
601.404	32952.79
601.762	32908.27
602.12	33322.05
602.478	33524.3
602.836	33665.99
603.194	33714.81
603.552	33956.83
603.91	34035.02
604.268	34443.37
604.625	34516.82
604.983	34854.89
605.341	34808.79
605.698	35179.85
606.056	35303.92
606.413	35507.98
606.771	35639.73
607.128	35912.71
607.485	35832.49
607.843	36005.59
608.2	36458.01
608.557	36708.4
608.914	36513.6
609.272	36956.53
609.629	37066.36
609.986	37343.18
610.343	37290.53
610.7	37730.29
611.057	37718.32
611.414	37809.61
611.771	38022.26
612.127	38270.62
612.484	38532.76
612.841	38581.12
613.198	38601.68
613.554	38649.82
613.911	38949.7
614.267	39013.65
614.624	39210.93
614.98	39280.76
615.337	39484.15
615.693	39413.41
616.05	39530.92
616.406	39893.17
616.762	39700.64
617.118	39945.6
617.475	39982.21
617.831	40030.8
618.187	40153.05
618.543	40241.64
618.899	40587.85
619.255	40537.9
619.611	40635.3
619.967	40779.93
620.323	40913.71
620.678	40892.7
621.034	40852.47
621.39	41000.04
621.746	40982.19
622.101	41531.78
622.457	41181.5
622.812	41356.86
623.168	41569.06
623.523	41556.86
623.879	41575.62
624.234	41569.06
624.589	41645.22
624.945	41816.97
625.3	41777.87
625.655	41723.41
626.01	41929.73
626.365	42005.21
626.72	41906.45
627.075	41858.55
627.43	41924.76
627.785	41905.78
628.14	42064.64
628.495	42098.54
628.85	42068.71
629.205	42060.35
629.559	42284.98
629.914	42077.07
630.269	42057.41
630.623	42091.08
630.978	42193.45
631.332	42320
631.687	42317.97
632.041	42167.46
632.396	42280.68
632.75	42247.01
633.104	42318.42
633.459	42195.03
633.813	42215.15
634.167	42249.72
634.521	42280.91
634.875	42220.57
635.229	42270.51
635.583	42181.7
635.937	42101.48
636.291	42076.39
636.645	42089.5
636.999	42066.9
637.352	42202.49
637.706	41995.94
638.06	42086.34
638.413	42001.59
638.767	42037.07
639.121	42145.77
639.474	41814.48
639.828	41896.96
640.181	42121.36
640.534	42125.43
640.888	41989.84
641.241	41793.46
641.594	41856.29
641.947	41989.39
642.301	41730.87
642.654	41955.04
643.007	41950.97
643.36	41855.83
643.713	41613.58
644.066	41961.59
644.419	41661.26
644.771	41470.76
645.124	41087.72
645.477	41141.95
645.83	40774.06
646.182	40696.54
646.535	40617.22
646.888	40718.69
647.24	40526.38
647.593	40705.36
647.945	40632.14
648.298	40479.83
648.65	40551.91
649.002	40349.43
649.355	40481.86
649.707	40555.3
650.059	40519.82
650.411	41003.88
650.763	41106.7
651.115	41591.43
651.467	41321.61
651.819	41373.14
652.171	41258.34
652.523	41176.76
652.875	41203.2
653.227	41016.31
653.578	41337.88
653.93	41205.46
654.282	41119.36
654.633	41039.13
654.985	41051.34
655.337	41134.72
655.688	41104.22
656.039	41078.68
656.391	40969.08
656.742	41050.43
657.094	40870.55
657.445	41036.42
657.796	41012.24
658.147	40909.19
658.498	40867.61
658.849	41030.77
659.2	40979.7
659.551	40744.9
659.902	40940.38
660.253	40906.71
660.604	40892.02
660.955	40714.17
661.306	40932.47
661.656	40852.25
662.007	40836.43
662.358	40806.6
662.708	40861.28
663.059	40819.7
663.409	40539.94
663.76	40764.79
664.11	40869.65
664.461	40873.49
664.811	40748.07
665.161	40853.6
665.511	40675.3
665.862	40725.02
666.212	40744
666.562	40844.56
666.912	40649.31
667.262	40729.54
667.612	40584.68
667.962	40842.08
668.312	40668.52
668.662	40843.88
669.011	40685.02
669.361	40700.84
669.711	40641.4
670.06	40820.38
670.41	40691.8
670.76	40504.23
671.109	40666.94
671.459	40488.19
671.808	40649.99
672.157	40781.74
672.507	40309.43
672.856	40389.66
673.205	40539.71
673.554	40677.79
673.904	40440.73
674.253	40628.3
674.602	40581.74
674.951	39939.27
675.3	39694.76
675.649	40275.31
675.998	40359.6
676.346	40240.51
676.695	40408.64
677.044	40175.43
677.393	40315.31
677.741	40400.05
678.09	40129.1
678.438	40038.48
678.787	40193.51
679.135	40097.24
679.484	39848.2
679.832	40158.03
680.181	39855.44
680.529	40021.08
680.877	39873.97
681.225	39885.04
681.573	40042.32
681.922	39786.51
682.27	39572.05
682.618	39714.87
682.966	39601.43
683.314	39652.28
683.661	39567.76
684.009	39318.95
684.357	39294.32
684.705	39297.26
685.053	39366.41
685.4	39241.89
685.748	39090.26
686.095	39073.99
686.443	38932.3
686.79	38997.15
687.138	38974.33
687.485	38857.95
687.832	38776.82
688.18	38838.06
688.527	38667.67
688.874	38542.93
689.221	38575.69
689.568	38485.98
689.915	38419.99
690.262	38236.04
690.609	38265.87
690.956	38176.84
691.303	38112.2
691.65	37839.44
691.997	37887.8
692.344	37723.06
692.69	37666.34
693.037	37653.69
693.383	37462.5
693.73	37368.49
694.077	37267.71
694.423	37345.44
694.769	37096.19
695.116	37118.33
695.462	36999.92
695.808	37008.96
696.155	37060.25
696.501	36708.4
696.847	36720.15
697.193	36536.43
697.539	36693.71
697.885	36497.33
698.231	36377.33
698.577	36408.07
698.923	36225.02
699.269	36163.33
699.614	35988.87
699.96	35868.42
700.306	35988.64
700.651	35721.53
700.997	35776.9
701.342	35670.91
701.688	35489.22
702.033	35377.59
702.379	35305.95
702.724	35278.38
703.069	35302.79
703.415	34922.91
703.76	34986.86
704.105	34979.41
704.45	34895.34
704.795	34768.79
705.14	34723.37
705.485	34517.04
705.83	34539.64
706.175	34503.03
706.52	34467.1
706.865	34323.38
707.209	34259.2
707.554	33998.64
707.899	34190.5
708.243	33970.84
708.588	33970.84
708.932	33867.57
709.277	33770.4
709.621	33674.35
709.966	33518.88
710.31	33597.52
710.654	33272.11
710.998	33301.48
711.342	33277.75
711.687	33243.63
712.031	33114.14
712.375	33132.45
712.719	33068.72
713.063	32922.06
713.407	32995.73
713.75	32904.21
714.094	32892
714.438	32700.37
714.782	32796.64
715.125	32523.2
715.469	32556.42
715.812	32431.68
716.156	32261.51
716.499	32315.75
716.843	32383.99
717.186	32192.59
717.53	32301.74
717.873	32240.72
718.216	32143.77
718.559	31992.82
718.902	31819.04
719.246	32023.55
719.589	31861.97
719.932	31654.97
720.275	31735.2
720.617	31638.02
720.96	31583.56
721.303	31540.85
721.646	31586.73
721.989	31255.44
722.331	31501.98
722.674	31436.45
723.016	31421.31
723.359	31274.87
723.701	31216.79
724.044	31073.29
724.386	30911.94
724.729	31196.23
725.071	31078.04
725.413	31000.75
725.755	30918.49
726.097	30809.8
726.439	30742.23
726.782	30758.95
727.124	30876.24
727.465	30735.9
727.807	30744.94
728.149	30591.95
728.491	30487.77
728.833	30569.13
729.175	30370.94
729.516	30421.33
729.858	30386.08
730.199	30461.78
730.541	30376.14
730.882	30276.03
731.224	30301.11
731.565	30124.39
731.906	30185.86
732.248	30159.87
732.589	30104.28
732.93	29978.18
733.271	29928.46
733.612	30051.4
733.953	29876.71
734.294	29821.57
734.635	29714.01
734.976	29680.11
735.317	29593.33
735.658	29621.35
735.999	29657.51
736.339	29500.23
736.68	29532.77
737.021	29470.4
737.361	29416.61
737.702	29526.89
738.042	29356.5
738.383	29376.16
738.723	29261.82
739.063	29286.9
739.404	29245.54
739.744	29283.06
740.084	29136.62
740.424	29082.39
740.764	29054.59
741.104	29115.15
741.444	28908.38
741.784	28987.47
742.124	28905.67
742.464	28948.83
742.804	28830.41
743.143	28860.24
743.483	28743.18
743.823	28728.72
744.162	28641.04
744.502	28687.14
744.841	28457.54
745.181	28697.99
745.52	28521.72
745.86	28652.57
746.199	28470.42
746.538	28460.25
746.877	28555.62
747.216	28490.54
747.556	28300.03
747.895	28235.18
748.234	28162.18
748.573	28073.6
748.911	28083.77
749.25	28142.75
749.589	27957.44
749.928	28009.87
750.267	28017.1
750.605	27912.7
750.944	27723.55
751.283	27680.61
751.621	27808.07
751.96	27747.96
752.298	27691.01
752.636	27551.35
752.975	27464.57
753.313	27354.52
753.651	27460.73
753.989	27267.52
754.327	27358.14
754.666	27160.63
755.004	27333.28
755.342	27225.48
755.679	27145.71
756.017	26956.11
756.355	27021.65
756.693	26894.65
757.031	26969.67
757.368	26823.01
757.706	26773.52
