Data from hue_20_FLMS001491_5.txt Node
Date: Mon Feb 06 15:33:32 GMT 2017
User: dcchb
Spectrometer: FLMS00149
Trigger mode: 0
Integration Time (sec): 2.000000E-2
Scans to average: 10
Electric dark correction enabled: true
Nonlinearity correction enabled: false
Boxcar width: 0
XAxis mode: Wavelengths
Number of Pixels in Spectrum: 2048
>>>>>Begin Spectral Data<<<<<
341.393	-11.1
341.776	-11.1
342.16	-11.1
342.543	-52.46
342.927	-62.4
343.31	-73.02
343.693	-69.86
344.077	-56.52
344.46	-54.72
344.843	-66.69
345.226	-53.13
345.61	-24.89
345.993	-12.68
346.376	-1.16
346.759	9.24
347.142	17.82
347.525	49.46
347.908	43.13
348.291	72.74
348.674	98.5
349.057	121.78
349.44	123.13
349.823	139.4
350.206	164.04
350.588	206.07
350.971	207.88
351.354	222.34
351.737	235.67
352.119	240.87
352.502	272.28
352.884	269.34
353.267	269.57
353.65	282.45
354.032	313.86
354.414	305.05
354.797	293.52
355.179	306.86
355.562	335.78
355.944	320.19
356.326	308.44
356.709	323.58
357.091	315.9
357.473	339.17
357.855	340.3
358.238	336.23
358.62	334.88
359.002	328.55
359.384	341.21
359.766	331.94
360.148	353.86
360.53	341.43
360.912	322.68
361.294	340.3
361.676	343.92
362.057	333.07
362.439	319.96
362.821	328.1
363.203	356.57
363.584	328.55
363.966	319.29
364.348	323.35
364.729	325.84
365.111	324.26
365.493	309.12
365.874	307.53
366.256	317.48
366.637	316.57
367.019	326.74
367.4	301.21
367.781	294.43
368.163	293.3
368.544	303.47
368.925	297.82
369.306	312.28
369.688	307.08
370.069	289.68
370.45	303.92
370.831	331.04
371.212	307.53
371.593	305.27
371.974	307.53
372.355	310.47
372.736	324.93
373.117	316.12
373.498	293.52
373.879	327.65
374.26	312.28
374.641	322.9
375.021	314.99
375.402	331.71
375.783	325.61
376.163	317.93
376.544	349.12
376.925	314.77
377.305	294.65
377.686	325.61
378.066	297.59
378.447	337.36
378.827	336.69
379.208	306.63
379.588	313.18
379.968	329.23
380.349	330.58
380.729	318.61
381.109	342.11
381.489	334.65
381.87	321.77
382.25	323.35
382.63	333.52
383.01	320.19
383.39	340.53
383.77	355.89
384.15	373.07
384.53	348.44
384.91	338.95
385.29	331.04
385.67	332.17
386.049	336.01
386.429	342.34
386.809	331.26
387.189	369.23
387.568	346.4
387.948	350.25
388.328	349.34
388.707	354.09
389.087	346.4
389.466	333.97
389.846	360.87
390.225	368.55
390.605	358.83
390.984	362
391.363	366.52
391.743	364.93
392.122	344.82
392.501	353.63
392.881	358.38
393.26	347.99
393.639	363.58
394.018	355.89
394.397	377.36
394.776	369.91
395.155	349.12
395.534	372.84
395.913	371.71
396.292	372.62
396.671	383.01
397.05	379.4
397.429	371.04
397.808	378.49
398.186	365.39
398.565	375.78
398.944	372.62
399.323	357.02
399.701	380.98
400.08	369.68
400.458	376.69
400.837	386.4
401.215	370.13
401.594	394.31
401.972	374.88
402.351	401.32
402.729	397.48
403.107	402
403.486	405.16
403.864	396.12
404.242	392.5
404.62	405.61
404.999	394.54
405.377	395.22
405.755	424.37
406.133	399.28
406.511	389.34
406.889	415.78
407.267	421.88
407.645	411.26
408.023	418.04
408.401	421.66
408.779	412.62
409.156	425.95
409.534	422.33
409.912	444.48
410.29	431.6
410.667	432.28
411.045	437.7
411.422	410.58
411.8	435.21
412.178	449
412.555	440.41
412.933	436.8
413.31	436.57
413.687	469.79
414.065	457.36
414.442	425.72
414.819	461.2
415.197	476.12
415.574	459.85
415.951	446.97
416.328	457.59
416.705	466.4
417.082	489.68
417.46	482.22
417.837	487.19
418.214	474.99
418.591	471.37
418.967	474.76
419.344	493.74
419.721	476.34
420.098	481.77
420.475	486.06
420.852	496.46
421.228	510.69
421.605	488.55
421.982	492.84
422.358	512.95
422.735	493.74
423.111	514.08
423.488	509.34
423.864	496.68
424.241	513.4
424.617	523.57
424.994	529.68
425.37	508.43
425.746	527.87
426.123	519.51
426.499	541.43
426.875	543.91
427.251	555.89
427.627	524.7
428.003	539.39
428.379	534.65
428.756	559.73
429.132	553.63
429.507	557.02
429.883	546.4
430.259	563.35
430.635	584.14
431.011	565.38
431.387	588.2
431.763	596.34
432.138	578.04
432.514	587.07
432.89	600.18
433.265	594.53
433.641	585.95
434.016	604.25
434.392	616
434.767	627.07
435.143	597.02
435.518	627.75
435.894	610.35
436.269	635.66
436.644	625.27
437.02	640.86
437.395	642.21
437.77	646.28
438.145	655.77
438.52	645.38
438.895	650.58
439.271	645.6
439.646	672.72
440.021	688.09
440.395	663.68
440.77	682.89
441.145	710.46
441.52	686.51
441.895	691.03
442.27	673.17
442.645	697.35
443.019	702.55
443.394	708.88
443.769	712.95
444.143	726.05
444.518	725.83
444.892	721.76
445.267	730.8
445.641	758.82
446.016	735.32
446.39	722.89
446.764	749.56
447.139	718.14
447.513	727.18
447.887	732.61
448.262	732.38
448.636	754.53
449.01	761.08
449.384	748.88
449.758	770.12
450.132	770.8
450.506	766.05
450.88	766.28
451.254	767.41
451.628	763.57
452.002	805.37
452.376	799.72
452.75	809.44
453.123	803.11
453.497	797.69
453.871	830.01
454.244	823.68
454.618	827.07
454.992	845.15
455.365	833.62
455.739	866.39
456.112	852.83
456.486	890.8
456.859	861.42
457.232	886.05
457.606	880.4
457.979	900.74
458.352	885.82
458.725	902.32
459.099	935.54
459.472	959.49
459.845	969.89
460.218	942.77
460.591	940.06
460.964	940.51
461.337	951.13
461.71	967.18
462.083	1006.5
462.456	968.99
462.829	1032.04
463.201	1018.25
463.574	992.26
463.947	1019.83
464.32	1053.28
464.692	1074.75
465.065	1046.95
465.438	1077.01
465.81	1082.2
466.183	1086.72
466.555	1102.32
466.928	1097.34
467.3	1120.17
467.672	1121.07
468.045	1150.68
468.417	1208.75
468.789	1180.28
469.161	1186.61
469.534	1225.7
469.906	1228.64
470.278	1253.95
470.65	1241.07
471.022	1295.76
471.394	1333.04
471.766	1331.91
472.138	1329.43
472.51	1347.73
472.882	1375.75
473.253	1389.09
473.625	1386.6
473.997	1453.94
474.369	1461.85
474.74	1470.89
475.112	1482.87
475.484	1490.33
475.855	1539.37
476.227	1536.88
476.598	1582.08
476.97	1601.51
477.341	1641.51
477.713	1649.65
478.084	1654.39
478.455	1696.88
478.827	1734.84
479.198	1771.68
479.569	1804.44
479.94	1826.14
480.311	1850.77
480.682	1886.48
481.053	1954.95
481.424	1950.43
481.795	2008.73
482.166	2032.23
482.537	2072.46
482.908	2092.12
483.279	2145.23
483.65	2139.8
484.021	2188.39
484.391	2228.61
484.762	2286.24
485.133	2309.52
485.503	2342.06
485.874	2370.53
486.244	2403.3
486.615	2500.7
486.985	2544.09
487.356	2552.67
487.726	2590.86
488.097	2641.48
488.467	2686.23
488.837	2702.27
489.207	2760.8
489.578	2780.46
489.948	2893
490.318	2867.47
490.688	2894.58
491.058	2936.84
491.428	2997.63
491.798	2981.36
492.168	3056.39
492.538	3065.2
492.908	3149.49
493.278	3167.12
493.648	3195.59
494.017	3227.91
494.387	3288.92
494.757	3288.7
495.126	3356.95
495.496	3338.19
495.866	3383.39
496.235	3413.22
496.605	3450.73
496.974	3466.55
497.344	3488.92
497.713	3532.53
498.082	3601.46
498.452	3627.67
498.821	3617.05
499.19	3620.89
499.559	3662.02
499.928	3671.51
500.298	3703.83
500.667	3757.61
501.036	3730.27
501.405	3796.71
501.774	3781.57
502.143	3858.4
502.512	3914.9
502.88	3881.23
503.249	3901.79
503.618	3979.3
503.987	3987.66
504.356	3981.79
504.724	3960.32
505.093	4028.11
505.462	4026.98
505.83	4051.62
506.199	4084.84
506.567	4109.92
506.936	4117.15
507.304	4187.21
507.672	4237.37
508.041	4245.28
508.409	4245.28
508.777	4280.54
509.145	4312.85
509.514	4305.4
509.882	4311.04
510.25	4345.62
510.618	4314.43
510.986	4415.22
511.354	4433.53
511.722	4457.26
512.09	4529.12
512.458	4502.23
512.826	4503.13
513.193	4510.14
513.561	4537.48
513.929	4578.16
514.297	4601.43
514.664	4603.69
515.032	4600.3
515.4	4639.85
515.767	4695.67
516.135	4702.67
516.502	4659.74
516.869	4735.21
517.237	4680.98
517.604	4742.67
517.972	4756.46
518.339	4801.65
518.706	4763.01
519.073	4807.53
519.44	4857.25
519.808	4893.18
520.175	4845.72
520.542	4946.06
520.909	4979.73
521.276	4926.62
521.643	4980.86
522.009	4983.57
522.376	5059.5
522.743	5028.09
523.11	5071.25
523.477	5120.06
523.843	5148.76
524.21	5187.18
524.577	5228.08
524.943	5195.32
525.31	5249.33
525.676	5303.79
526.043	5350.11
526.409	5328.42
526.776	5315.31
527.142	5399.38
527.508	5403.45
527.874	5470.34
528.241	5509.43
528.607	5481.41
528.973	5533.39
529.339	5545.81
529.705	5627.17
530.071	5627.85
530.437	5612.71
530.803	5695.64
531.169	5716.21
531.535	5739.26
531.901	5766.37
532.267	5780.61
532.632	5782.19
532.998	5816.54
533.364	5867.84
533.73	5886.82
534.095	5897.67
534.461	5890.21
534.826	5948.29
535.192	5989.19
535.557	6019.47
535.923	5985.58
536.288	6120.49
536.653	6062.19
537.019	6066.25
537.384	6052.24
537.749	6136.31
538.114	6146.93
538.479	6161.84
538.845	6181.5
539.21	6216.31
539.575	6195.29
539.94	6234.84
540.305	6257.43
540.67	6281.61
541.034	6317.32
541.399	6371.1
541.764	6329.75
542.129	6463.53
542.494	6433.25
542.858	6431.22
543.223	6475.28
543.587	6485.45
543.952	6520.03
544.316	6562.06
544.681	6535.39
545.045	6590.53
545.41	6634.15
545.774	6663.98
546.138	6594.15
546.503	6678.67
546.867	6692
547.231	6750.53
547.595	6746.24
547.959	6776.97
548.324	6723.18
548.688	6783.75
549.052	6795.27
549.416	6869.85
549.779	6873.01
550.143	6908.26
550.507	6977.42
550.871	6918.66
551.235	6988.04
551.599	6989.62
551.962	7026.68
552.326	7065.77
552.689	7142.83
553.053	7082.05
553.417	7156.39
553.78	7202.49
554.143	7173.34
554.507	7202.95
554.87	7244.75
555.234	7248.82
555.597	7207.47
555.96	7249.72
556.323	7334.02
556.686	7326.11
557.05	7377.4
557.413	7444.75
557.776	7408.14
558.139	7409.72
558.502	7435.48
558.865	7507.34
559.228	7503.5
559.59	7541.69
559.953	7529.94
560.316	7646.55
560.679	7647
561.041	7682.03
561.404	7701.92
561.767	7739.2
562.129	7714.35
562.492	7779.88
562.854	7837.51
563.217	7774.91
563.579	7838.64
563.941	7906.88
564.304	7907.11
564.666	7981.23
565.028	7958.18
565.39	8001.8
565.753	8003.83
566.115	8088.8
566.477	8100.55
566.839	8122.7
567.201	8160.66
567.563	8169.93
567.925	8180.32
568.287	8219.42
568.648	8258.06
569.01	8264.61
569.372	8338.28
569.734	8380.99
570.095	8356.81
570.457	8495.57
570.819	8417.38
571.18	8485.4
571.542	8555.9
571.903	8584.15
572.265	8646.98
572.626	8640.2
572.987	8682.23
573.349	8770.36
573.71	8762
574.071	8813.07
574.432	8879.29
574.794	8925.61
575.155	8941.88
575.516	8963.35
575.877	9059.62
576.238	9130.35
576.599	9164.7
576.96	9200.63
577.32	9267.3
577.681	9302.55
578.042	9451.25
578.403	9514.98
578.763	9586.16
579.124	9620.51
579.485	9807.62
579.845	9916.77
580.206	9896.66
580.566	10024.57
580.927	10066.83
581.287	10221.4
581.648	10328.29
582.008	10447.15
582.368	10567.15
582.728	10727.6
583.089	10818.44
583.449	10957.2
583.809	11098.44
584.169	11304.31
584.529	11430.63
584.889	11582.27
585.249	11771.19
585.609	11914.01
585.969	12113.1
586.329	12299.54
586.688	12512.19
587.048	12597.15
587.408	12873.76
587.768	12995.79
588.127	13372.5
588.487	13423.57
588.846	13734.07
589.206	13830.12
589.565	14033.28
589.925	14362.08
590.284	14646.59
590.643	14798.68
591.003	15132.68
591.362	15433.01
591.721	15639.79
592.08	15915.26
592.44	16239.54
592.799	16472.31
593.158	16677.73
593.517	16963.59
593.876	17259.63
594.235	17516.57
594.593	17783.01
594.952	18038.14
595.311	18303.22
595.67	18714.28
596.029	19025.46
596.387	19290.76
596.746	19651.88
597.104	19803.29
597.463	20057.98
597.822	20416.61
598.18	20634.01
598.538	21000.55
598.897	21417.49
599.255	21459.07
599.613	22121.2
599.972	22056.34
600.33	22528.19
600.688	22696.1
601.046	23015.19
601.404	23437.32
601.762	23719.35
602.12	24043.86
602.478	24281.59
602.836	24617.18
603.194	24602.71
603.552	25004.06
603.91	25177.61
604.268	25501.9
604.625	25799.07
604.983	26061.89
605.341	26217.14
605.698	26630.91
606.056	26851.02
606.413	26963.78
606.771	27339.37
607.128	27677.89
607.485	27727.6
607.843	28005.56
608.2	28445.33
608.557	28688.71
608.914	28733.23
609.272	29111.07
609.629	29307.45
609.986	29634.67
610.343	29759.42
610.7	30026.3
611.057	30209.8
611.414	30442.56
611.771	30671.48
612.127	30873.74
612.484	31090.45
612.841	31407.06
613.198	31465.81
613.554	31660.61
613.911	32014.72
614.267	32117.32
614.624	32234.15
614.98	32462.85
615.337	32839.56
615.693	32845.44
616.05	32922.72
616.406	33305.31
616.762	33256.27
617.118	33492.2
617.475	33502.14
617.831	33784.85
618.187	33882.02
618.543	34116.59
618.899	34281.56
619.255	34378.73
619.611	34541.44
619.967	34676.35
620.323	34874.99
620.678	34880.41
621.034	34898.26
621.39	35111.36
621.746	35148.43
622.101	35667.73
622.457	35382.32
622.812	35414.18
623.168	35712.25
623.523	35831.8
623.879	35932.59
624.234	35756.32
624.589	35987.05
624.945	36123.99
625.3	36284.67
625.655	36220.49
626.01	36420.26
626.365	36607.37
626.72	36530.76
627.075	36662.28
627.43	36642.4
627.785	36649.86
628.14	36776.18
628.495	36861.15
628.85	36852.11
629.205	36965.55
629.559	37133.68
629.914	36959.9
630.269	37128.04
630.623	37116.51
630.978	37061.14
631.332	37280.8
631.687	37284.64
632.041	37223.4
632.396	37255.04
632.75	37162.38
633.104	37347.01
633.459	37223.4
633.813	37169.62
634.167	37322.15
634.521	37273.12
634.875	37344.53
635.229	37467.46
635.583	37203.51
635.937	37327.13
636.291	37197.86
636.645	37347.69
636.999	37168.49
637.352	37280.12
637.706	37142.05
638.06	37437.18
638.413	37395.82
638.767	37302.27
639.121	37359.67
639.474	37177.98
639.828	37258.43
640.181	37325.32
640.534	37343.17
640.888	37250.52
641.241	36980.47
641.594	37115.61
641.947	37318.09
642.301	37204.64
642.654	37303.62
643.007	37197.64
643.36	37173.01
643.713	37181.82
644.066	37289.84
644.419	37064.53
644.771	36866.57
645.124	36486.47
645.477	36632.45
645.83	36233.6
646.182	36225.69
646.535	36167.61
646.888	36247.15
647.24	36033.15
647.593	36126.71
647.945	36243.31
648.298	35989.99
648.65	35891.01
649.002	35918.8
649.355	35993.15
649.707	35913.15
650.059	36265.01
650.411	36505
650.763	36655.73
651.115	36975.5
651.467	36947.25
651.819	36787.93
652.171	36777.54
652.523	36808.95
652.875	36717.65
653.227	36673.58
653.578	37014.14
653.93	36763.52
654.282	36724.88
654.633	36498.22
654.985	36625.68
655.337	36603.3
655.688	36511.1
656.039	36754.71
656.391	36400.37
656.742	36594.04
657.094	36495.51
657.445	36797.87
657.796	36538.9
658.147	36571.67
658.498	36461.61
658.849	36599.01
659.2	36484.44
659.551	36504.77
659.902	36570.99
660.253	36448.96
660.604	36441.05
660.955	36335.06
661.306	36456.64
661.656	36362.86
662.007	36478.11
662.358	36387.26
662.708	36433.59
663.059	36298.9
663.409	36306.36
663.76	36421.16
664.11	36422.74
664.461	36430.65
664.811	36438.34
665.161	36427.04
665.511	36338.23
665.862	36435.17
666.212	36496.87
666.562	36561.95
666.912	36220.26
667.262	36291.9
667.612	36287.61
667.962	36313.59
668.312	36267.72
668.662	36522.18
669.011	36384.33
669.361	36320.15
669.711	36276.08
670.06	36198.34
670.41	36224.1
670.76	36207.38
671.109	36299.36
671.459	36265.23
671.808	36149.76
672.157	36228.85
672.507	36054.39
672.856	36104.33
673.205	36222.75
673.554	36145.24
673.904	36171.22
674.253	36301.62
674.602	36156.76
674.951	35711.12
675.3	35428.87
675.649	36024.34
675.998	36060.49
676.346	36015.52
676.695	36001.74
677.044	35797.67
677.393	35847.62
677.741	36055.97
678.09	35844
678.438	35882.19
678.787	35988.18
679.135	35940.5
679.484	35549.32
679.832	35745.7
680.181	35607.62
680.529	35651.01
680.877	35686.27
681.225	35448.76
681.573	35775.98
681.922	35415.09
682.27	35395.2
682.618	35404.01
682.966	35349.32
683.314	35360.62
683.661	35299.61
684.009	35095.77
684.357	35121.08
684.705	34971.71
685.053	35025.94
685.4	35002.22
685.748	34936.45
686.095	34805.84
686.443	34632.96
686.79	34666.63
687.138	34644.48
687.485	34727.19
687.832	34587.08
688.18	34606.29
688.527	34380.54
688.874	34418.95
689.221	34360.65
689.568	34292.18
689.915	34198.85
690.262	34129.02
690.609	34093.09
690.956	33905.07
691.303	34023.71
691.65	33823.94
691.997	33698.75
692.344	33689.93
692.69	33561.12
693.037	33648.58
693.383	33367.91
693.73	33559.99
694.077	33239.1
694.423	33300.11
694.769	33210.62
695.116	33083.85
695.462	33027.58
695.808	32974.47
696.155	32931.31
696.501	32693.12
696.847	32803.63
697.193	32500.81
697.539	32653.35
697.885	32440.7
698.231	32249.97
698.577	32364.09
698.923	32219.92
699.269	32122.06
699.614	31990.99
699.96	31951.67
700.306	31916.42
700.651	31905.35
700.997	31641.17
701.342	31756.42
701.688	31574.51
702.033	31590.33
702.379	31555.53
702.724	31395.3
703.069	31374.29
703.415	31125.03
703.76	31141.75
704.105	31136.55
704.45	31006.84
704.795	30670.8
705.14	30897.92
705.485	30745.15
705.83	30598.26
706.175	30737.02
706.52	30500.41
706.865	30362.34
707.209	30475.1
707.554	30252.74
707.899	30402.11
708.243	30198.95
708.588	30146.3
708.932	29959.64
709.277	29891.39
709.621	29991.95
709.966	29756.03
710.31	29917.38
710.654	29528.01
710.998	29711.28
711.342	29693.43
711.687	29519.42
712.031	29412.98
712.375	29372.08
712.719	29273.1
713.063	29276.26
713.407	29420.22
713.75	29188.13
714.094	29286.89
714.438	29137.06
714.782	29102.48
715.125	29002.37
715.469	28917.86
715.812	28780.46
716.156	28676.28
716.499	28803.51
716.843	28739.1
717.186	28687.13
717.53	28768.93
717.873	28739.1
718.216	28537.07
718.559	28476.29
718.902	28241.04
719.246	28294.6
719.589	28299.11
719.932	28218.66
720.275	28121.94
720.617	28076.97
720.96	28021.83
721.303	28035.62
721.646	28029.07
721.989	27847.83
722.331	28026.35
722.674	27996.52
723.016	27855.28
723.359	27700.49
723.701	27729.41
724.044	27558.34
724.386	27454.62
724.729	27625.69
725.071	27455.97
725.413	27485.12
725.755	27516.31
726.097	27423.88
726.439	27309.76
726.782	27193.38
727.124	27357.22
727.465	27094.85
727.807	27395.64
728.149	27272.47
728.491	27118.35
728.833	27053.95
729.175	27014.63
729.516	26959.94
729.858	26812.37
730.199	26890.79
730.541	26878.36
730.882	26809.89
731.224	26906.61
731.565	26702.77
731.906	26669.33
732.248	26696.22
732.589	26569.67
732.93	26578.26
733.271	26591.59
733.612	26553.17
733.953	26584.36
734.294	26377.13
734.635	26370.8
734.976	26467.98
735.317	26289.45
735.658	26288.55
735.999	26298.26
736.339	26303.23
736.68	26296.68
737.021	26213.07
737.361	26230.24
737.702	26253.97
738.042	26078.38
738.383	26044.03
738.723	26100.75
739.063	25997.03
739.404	26052.85
739.744	25880.87
740.084	25865.51
740.424	25845.62
740.764	25865.96
741.104	25813.53
741.444	25691.5
741.784	25712.29
742.124	25708.67
742.464	25569.92
742.804	25543.93
743.143	25584.61
743.483	25575.34
743.823	25413.99
744.162	25449.92
744.502	25436.59
744.841	25392.75
745.181	25482.69
745.52	25210.83
745.86	25322.47
746.199	25279.99
746.538	25231.62
746.877	25144.17
747.216	25233.21
747.556	25085.19
747.895	25122.48
748.234	25082.93
748.573	24965.87
748.911	24972.65
749.25	24888.13
749.589	24869.15
749.928	24990.73
750.267	24888.36
750.605	24769.94
750.944	24843.39
751.283	24629.83
751.621	24688.36
751.96	24522.94
752.298	24558.2
752.636	24542.15
752.975	24522.72
753.313	24464.41
753.651	24427.35
753.989	24357.52
754.327	24253.35
754.666	24229.39
755.004	24230.52
755.342	24266.68
755.679	24137.64
756.017	24122.05
756.355	24101.03
756.693	24006.8
757.031	24033.92
757.368	23898.78
757.706	23861.04
758.044	23796.41
758.381	23823.75
758.719	23726.58
759.056	23769.74
759.394	23598.67
759.731	23447.49
760.068	23458.79
760.405	23328.62
760.743	23302.86
761.08	23364.1
