Data from hue_100_FLMS001491_00007.txt Node
Date: Tue Feb 07 17:02:34 GMT 2017
User: dcchb
Spectrometer: FLMS00149
Trigger mode: 0
Integration Time (sec): 2.000000E-2
Scans to average: 10
Electric dark correction enabled: true
Nonlinearity correction enabled: false
Boxcar width: 0
XAxis mode: Wavelengths
Number of Pixels in Spectrum: 2048
>>>>>Begin Spectral Data<<<<<
341.393	-5.28
341.776	-5.28
342.16	-5.28
342.543	-52.96
342.927	-71.95
343.31	-73.76
343.693	-63.36
344.077	-51.83
344.46	-51.38
344.843	-49.12
345.226	-37.15
345.61	-25.39
345.993	-22.68
346.376	1.05
346.759	0.14
347.142	25
347.525	33.36
347.908	54.38
348.291	61.83
348.674	97.99
349.057	100.93
349.44	123.3
349.823	146.13
350.206	152
350.588	205.79
350.971	208.27
351.354	225.22
351.737	241.49
352.119	267.25
352.502	254.37
352.884	288.72
353.267	286.91
353.65	299.57
354.032	304.99
354.414	299.57
354.797	328.49
355.179	321.71
355.562	334.37
355.944	350.64
356.326	338.21
356.709	334.37
357.091	329.62
357.473	349.51
357.855	340.02
358.238	371.43
358.62	335.05
359.002	352.9
359.384	328.49
359.766	331.43
360.148	369.85
360.53	342.05
360.912	363.75
361.294	346.57
361.676	348.83
362.057	335.05
362.439	326.46
362.821	329.62
363.203	316.97
363.584	326.91
363.966	344.99
364.348	330.08
364.729	316.29
365.111	344.09
365.493	338.44
365.874	339.12
366.256	331.21
366.637	311.77
367.019	333.24
367.4	327.14
367.781	314.71
368.163	335.05
368.544	309.06
368.925	338.21
369.306	328.49
369.688	321.71
370.069	320.13
370.45	312.68
370.831	323.52
371.212	314.48
371.593	321.04
371.974	308.83
372.355	315.61
372.736	318.32
373.117	319.45
373.498	316.52
373.879	309.06
374.26	324.88
374.641	313.58
375.021	298.89
375.402	323.75
375.783	350.41
376.163	306.35
376.544	318.78
376.925	334.6
377.305	340.02
377.686	341.15
378.066	338.66
378.447	337.76
378.827	357.65
379.208	353.58
379.588	333.01
379.968	342.51
380.349	319.45
380.729	353.8
381.109	339.12
381.489	367.36
381.87	365.78
382.25	358.78
382.63	332.79
383.01	361.49
383.39	346.12
383.77	318.55
384.15	366.01
384.53	366.91
384.91	366.69
385.29	354.03
385.67	369.62
386.049	361.49
386.429	352.22
386.809	366.23
387.189	376.4
387.568	368.49
387.948	364.2
388.328	406.23
388.707	374.59
389.087	391.09
389.466	371.43
389.846	375.72
390.225	354.71
390.605	391.77
390.984	371.88
391.363	383.63
391.743	400.13
392.122	394.03
392.501	388.83
392.881	386.12
393.26	376.85
393.639	413.92
394.018	414.14
394.397	402.62
394.776	392
395.155	392.22
395.534	385.67
395.913	424.99
396.292	410.75
396.671	385.67
397.05	404.88
397.429	402.16
397.808	422.73
398.186	413.46
398.565	405.33
398.944	424.99
399.323	427.93
399.701	417.31
400.08	411.66
400.458	420.92
400.837	417.53
401.215	426.8
401.594	426.8
401.972	444.65
402.351	434.48
402.729	430.41
403.107	429.28
403.486	457.76
403.864	455.5
404.242	456.17
404.62	454.82
404.999	438.55
405.377	443.75
405.755	443.07
406.133	448.94
406.511	470.19
406.889	471.09
407.267	481.94
407.645	464.31
408.023	470.86
408.401	452.33
408.779	486.68
409.156	505.66
409.534	495.27
409.912	468.83
410.29	483.74
410.667	495.04
411.045	469.73
411.422	506.34
411.8	514.25
412.178	511.09
412.555	534.14
412.933	510.18
413.31	516.51
413.687	512.44
414.065	525.78
414.442	548.83
414.819	550.41
415.197	521.71
415.574	561.03
415.951	547.92
416.328	545.44
416.705	544.08
417.082	566.23
417.46	564.65
417.837	571.88
418.214	567.13
418.591	568.94
418.967	573.46
419.344	577.75
419.721	581.37
420.098	575.27
420.475	588.83
420.852	591.99
421.228	590.41
421.605	591.31
421.982	596.28
422.358	592.44
422.735	615.04
423.111	612.1
423.488	630.63
423.864	613.01
424.241	640.35
424.617	640.8
424.994	635.38
425.37	632.22
425.746	677.41
426.123	645.32
426.499	671.31
426.875	675.6
427.251	665.66
427.627	671.99
428.003	709.5
428.379	683.97
428.756	704.08
429.132	678.32
429.507	704.08
429.883	702.72
430.259	720.35
430.635	706.79
431.011	733
431.387	737.3
431.763	726.68
432.138	754.7
432.514	767.8
432.89	756.96
433.265	768.71
433.641	772.55
434.016	780.23
434.392	798.76
434.767	794.02
435.143	802.83
435.518	820.01
435.894	816.62
436.269	820.01
436.644	843.73
437.02	865.66
437.395	869.27
437.77	833.34
438.145	867.01
438.52	865.2
438.895	884.64
439.271	882.38
439.646	902.04
440.021	879.21
440.395	891.42
440.77	902.49
441.145	933
441.52	932.09
441.895	910.63
442.27	931.42
442.645	916.95
443.019	973
443.394	967.35
443.769	966.9
444.143	984.07
444.518	957.4
444.892	982.04
445.267	977.97
445.641	998.08
446.016	1001.7
446.39	1017.97
446.764	987.69
447.139	1011.41
447.513	1019.78
447.887	1007.8
448.262	1013
448.636	1027.91
449.01	1050.96
449.384	1053.22
449.758	1083.05
450.132	1084.41
450.506	1083.73
450.88	1108.59
451.254	1092.54
451.628	1087.34
452.002	1143.39
452.376	1127.12
452.75	1110.17
453.123	1173.22
453.497	1161.01
453.871	1155.37
454.244	1210.73
454.618	1213.44
454.992	1217.74
455.365	1231.52
455.739	1248.02
456.112	1254.57
456.486	1260.9
456.859	1256.15
457.232	1305.19
457.606	1331.63
457.979	1323.5
458.352	1367.34
458.725	1369.37
459.099	1367.11
459.472	1387.68
459.845	1397.62
460.218	1392.2
460.591	1439.88
460.964	1462.93
461.337	1476.26
461.71	1488.01
462.083	1521.01
462.456	1511.51
462.829	1512.42
463.201	1518.75
463.574	1563.04
463.947	1599.42
464.32	1643.26
464.692	1651.62
465.065	1640.32
465.438	1702.7
465.81	1721
466.183	1760.09
466.555	1791.96
466.928	1789.7
467.3	1817.27
467.672	1779.08
468.045	1853.88
468.417	1887.32
468.789	1899.98
469.161	1949.69
469.534	1998.73
469.906	2036.02
470.278	2022.46
470.65	2103.14
471.022	2128.9
471.394	2186.75
471.766	2198.05
472.138	2215.9
472.51	2273.3
472.882	2350.81
473.253	2390.36
473.625	2449.12
473.997	2491.15
474.369	2488.21
474.74	2534.09
475.112	2632.39
475.484	2702.22
475.855	2751.03
476.227	2783.8
476.598	2863.79
476.97	2913.28
477.341	3030.57
477.713	3059.27
478.084	3130.91
478.455	3255.2
478.827	3313.5
479.198	3425.81
479.569	3438.47
479.94	3569.31
480.311	3686.6
480.682	3718.24
481.053	3885.24
481.424	3944.9
481.795	4056.53
482.166	4132.24
482.537	4286.81
482.908	4407.26
483.279	4475.28
483.65	4551.21
484.021	4697.87
484.391	4862.39
484.762	4906.45
485.133	4996.17
485.503	5177.41
485.874	5344.41
486.244	5426.67
486.615	5553.44
486.985	5643.61
487.356	5841.57
487.726	5903.49
488.097	6152.75
488.467	6211.5
488.837	6427.09
489.207	6446.53
489.578	6726.52
489.948	6780.3
490.318	6977.36
490.688	7053.74
491.058	7303
491.428	7437.23
491.798	7558.36
492.168	7766.26
492.538	7844.23
492.908	8053.26
493.278	8174.84
493.648	8301.39
494.017	8434.72
494.387	8586.36
494.757	8759.68
495.126	8803.07
495.496	9006.91
495.866	9083.07
496.235	9228.15
496.605	9393.57
496.974	9478.99
497.344	9691.19
497.713	9773.67
498.082	9954.46
498.452	10061.12
498.821	10181.57
499.19	10203.04
499.559	10467.89
499.928	10504.05
500.298	10666.08
500.667	10783.36
501.036	10820.2
501.405	10963.92
501.774	11016.12
502.143	11307.41
502.512	11291.82
502.88	11502.21
503.249	11497.24
503.618	11597.8
503.987	11653.85
504.356	11772.71
504.724	11813.84
505.093	11932.48
505.462	12045.7
505.83	12088.86
506.199	12227.16
506.567	12461.51
506.936	12446.14
507.304	12615.85
507.672	12753.7
508.041	12896.75
508.409	12836.19
508.777	12993.7
509.145	13076.63
509.514	12995.96
509.882	13161.38
510.25	13214.26
510.618	13256.97
510.986	13356.85
511.354	13453.8
511.722	13496.28
512.09	13656.96
512.458	13601.37
512.826	13724.53
513.193	13807.91
513.561	13864.18
513.929	14011.75
514.297	14084.29
514.664	14109.6
515.032	14249.94
515.4	14204.51
515.767	14388.24
516.135	14406.09
516.502	14330.39
516.869	14566.99
517.237	14563.83
517.604	14526.54
517.972	14540.32
518.339	14708.23
518.706	14608.8
519.073	14686.53
519.44	14773.54
519.808	14931.05
520.175	14842.24
520.542	14996.13
520.909	15050.14
521.276	15020.31
521.643	15089.69
522.009	15163.81
522.376	15281.32
522.743	15262.56
523.11	15337.14
523.477	15493.52
523.843	15553.86
524.21	15621.65
524.577	15662.33
524.943	15664.14
525.31	15690.12
525.676	15825.26
526.043	15846.96
526.409	15721.08
526.776	15933.73
527.142	15990
527.508	15959.27
527.874	16001.08
528.241	16063.22
528.607	16118.81
528.973	16186.16
529.339	16026.39
529.705	16171.92
530.071	16271.58
530.437	16243.1
530.803	16260.28
531.169	16345.7
531.535	16195.65
531.901	16242.2
532.267	16265.7
532.632	16332.14
532.998	16304.35
533.364	16325.81
533.73	16333.95
534.095	16382.76
534.461	16260.73
534.826	16310.67
535.192	16282.88
535.557	16415.53
535.923	16275.42
536.288	16302.99
536.653	16316.1
537.019	16325.81
537.384	16239.94
537.749	16324.91
538.114	16230.22
538.479	16270.22
538.845	16343.44
539.21	16141.64
539.575	16149.32
539.94	16192.71
540.305	16163.78
540.67	16125.37
541.034	16119.72
541.399	16111.36
541.764	16173.28
542.129	16145.48
542.494	16074.75
542.858	16091.24
543.223	15977.12
543.587	16010.79
543.952	15928.76
544.316	15949.78
544.681	15865.49
545.045	15954.3
545.41	15917.24
545.774	15863.9
546.138	15838.14
546.503	15783.23
546.867	15768.77
547.231	15851.48
547.595	15773.51
547.959	15778.03
548.324	15710.91
548.688	15639.05
549.052	15625.27
549.416	15674.76
549.779	15597.47
550.143	15520.19
550.507	15650.35
550.871	15603.57
551.235	15503.69
551.599	15576.45
551.962	15512.73
552.326	15447.19
552.689	15453.07
553.053	15397.93
553.417	15348.89
553.78	15526.29
554.143	15347.08
554.507	15413.75
554.87	15452.16
555.234	15589.56
555.597	15383.01
555.96	15355.9
556.323	15380.98
556.686	15433.18
557.05	15452.39
557.413	15428.44
557.776	15354.31
558.139	15425.05
558.502	15391.37
558.865	15380.3
559.228	15514.99
559.59	15375.33
559.953	15513.41
560.316	15541.88
560.679	15470.92
561.041	15508.43
561.404	15578.26
561.767	15536.46
562.129	15419.17
562.492	15655.55
562.854	15486.29
563.217	15577.81
563.579	15525.16
563.941	15555.44
564.304	15606.74
564.666	15755.21
565.028	15688.54
565.39	15702.78
565.753	15702.1
566.115	15734.19
566.477	15839.27
566.839	15780.74
567.201	15828.88
567.563	15721.54
567.925	15846.73
568.287	15762.66
568.648	15834.08
569.01	15845.6
569.372	15981.87
569.734	15881.76
570.095	16008.99
570.457	16021.87
570.819	16074.75
571.18	15992.94
571.542	16075.88
571.903	16170.56
572.265	16116.78
572.626	16067.97
572.987	16074.97
573.349	16122.88
573.71	16277
574.071	16167.4
574.432	16198.59
574.794	16257.34
575.155	16133.73
575.516	16230.45
575.877	16271.8
576.238	16198.36
576.599	16275.42
576.96	16322.65
577.32	16289.43
577.681	16414.85
578.042	16336.66
578.403	16313.16
578.763	16418.69
579.124	16319.03
579.485	16493.94
579.845	16381.18
580.206	16458.01
580.566	16374.17
580.927	16345.7
581.287	16399.03
581.648	16420.27
582.008	16502.53
582.368	16382.76
582.728	16421.18
583.089	16381.41
583.449	16370.56
583.809	16395.64
584.169	16458.92
584.529	16366.49
584.889	16493.94
585.249	16356.55
585.609	16215.08
585.969	16274.97
586.329	16247.17
586.688	16276.55
587.048	16274.97
587.408	16326.94
587.768	16212.14
588.127	16269.32
588.487	16177.34
588.846	16310.9
589.206	16109.77
589.565	16170.11
589.925	16207.17
590.284	16165.59
590.643	16222.99
591.003	16218.47
591.362	16319.26
591.721	16211.01
592.08	16149.55
592.44	16121.75
592.799	16196.55
593.158	16195.2
593.517	16264.57
593.876	16056.89
594.235	16175.54
594.593	16077.91
594.952	16156.55
595.311	16083.56
595.67	16260.73
596.029	16206.49
596.387	16157.46
596.746	16210.56
597.104	16127.63
597.463	16105.03
597.822	16176.21
598.18	16064.13
598.538	16156.1
598.897	16172.82
599.255	16069.32
599.613	16208.3
599.972	16073.62
600.33	16119.94
600.688	16047.63
601.046	16175.54
601.404	16150.68
601.762	16086.05
602.12	16177.12
602.478	16187.29
602.836	16187.51
603.194	16078.14
603.552	16098.48
603.91	16079.49
604.268	16172.6
604.625	16105.03
604.983	16180.28
605.341	16121.3
605.698	16241.07
606.056	16203.78
606.413	16178.7
606.771	16184.8
607.128	16187.96
607.485	16131.02
607.843	16178.92
608.2	16172.37
608.557	16248.08
608.914	16126.5
609.272	16223.9
609.629	16243.78
609.986	16385.02
610.343	16355.42
610.7	16493.94
611.057	16387.96
611.414	16374.63
611.771	16279.04
612.127	16444.45
612.484	16342.08
612.841	16414.62
613.198	16404.46
613.554	16419.6
613.911	16531.68
614.267	16337.34
614.624	16352.03
614.98	16435.87
615.337	16535.98
615.693	16579.59
616.05	16441.52
616.406	16585.92
616.762	16507.28
617.118	16517.22
617.475	16526.03
617.831	16578.24
618.187	16552.93
618.543	16506.6
618.899	16597.9
619.255	16708.18
619.611	16548.63
619.967	16651
620.323	16636.54
620.678	16589.08
621.034	16604.22
621.39	16649.42
621.746	16716.09
622.101	16723.54
622.457	16725.8
622.812	16665.01
623.168	16647.61
623.523	16700.95
623.879	16677.89
624.234	16667.5
624.589	16696.65
624.945	16582.98
625.3	16656.65
625.655	16677.22
626.01	16613.94
626.365	16609.42
626.72	16661.17
627.075	16543.66
627.43	16509.99
627.785	16581.17
628.14	16593.38
628.495	16555.41
628.85	16559.93
629.205	16611
629.559	16614.39
629.914	16431.35
630.269	16524.45
630.623	16516.32
630.978	16415.53
631.332	16560.16
631.687	16524.68
632.041	16499.59
632.396	16535.98
632.75	16356.32
633.104	16491.01
633.459	16361.74
633.813	16432.48
634.167	16397.22
634.521	16432.48
634.875	16357
635.229	16412.82
635.583	16321.97
635.937	16309.32
636.291	16196.1
636.645	16284.01
636.999	16242.43
637.352	16166.72
637.706	16127.85
638.06	16247.62
638.413	16132.15
638.767	16147.51
639.121	16258.24
639.474	16057.35
639.828	16020.06
640.181	16117.01
640.534	16063.67
640.888	15987.52
641.241	15941.19
641.594	16013.51
641.947	15991.36
642.301	16047.4
642.654	15952.26
643.007	15919.5
643.36	15939.38
643.713	15902.32
644.066	15938.03
644.419	15808.54
644.771	15741.2
645.124	15637.24
645.477	15679.5
645.83	15576
646.182	15426.85
646.535	15446.74
646.888	15501.88
647.24	15348.21
647.593	15470.02
647.945	15342.34
648.298	15363.81
648.65	15334.88
649.002	15284.71
649.355	15394.99
649.707	15428.66
650.059	15441.54
650.411	15601.31
650.763	15681.08
651.115	15726.73
651.467	15671.82
651.819	15661.2
652.171	15755.89
652.523	15633.4
652.875	15653.29
653.227	15641.99
653.578	15717.47
653.93	15783.91
654.282	15653.51
654.633	15526.96
654.985	15711.37
655.337	15709.33
655.688	15713.17
656.039	15757.24
656.391	15585.27
656.742	15705.72
657.094	15657.58
657.445	15651.93
657.796	15731.7
658.147	15681.76
658.498	15595.44
658.849	15630.92
659.2	15671.59
659.551	15694.19
659.902	15645.61
660.253	15686.06
660.604	15650.13
660.955	15639.96
661.306	15687.41
661.656	15674.31
662.007	15599.05
662.358	15681.76
662.708	15679.95
663.059	15726.96
663.409	15589.34
663.76	15684.47
664.11	15684.47
664.461	15736.9
664.811	15749.11
665.161	15695.77
665.511	15576.91
665.862	15712.04
666.212	15734.42
666.562	15769.22
666.912	15731.93
667.262	15699.39
667.612	15804.7
667.962	15813.06
668.312	15698.94
668.662	15730.58
669.011	15620.52
669.361	15637.02
669.711	15648.32
670.06	15660.97
670.41	15652.39
670.76	15583.91
671.109	15677.7
671.459	15609.67
671.808	15564.48
672.157	15633.85
672.507	15552.27
672.856	15517.47
673.205	15513.86
673.554	15559.51
673.904	15497.36
674.253	15533.07
674.602	15511.15
674.951	15299.85
675.3	15297.59
675.649	15495.1
675.998	15369.68
676.346	15371.94
676.695	15451.94
677.044	15297.82
677.393	15416.69
677.741	15358.16
678.09	15398.15
678.438	15363.58
678.787	15263.47
679.135	15307.99
679.484	15314.54
679.832	15237.25
680.181	15205.62
680.529	15226.86
680.877	15112.74
681.225	15135.11
681.573	15220.76
681.922	15074.77
682.27	15040.65
682.618	14991.39
682.966	14997.71
683.314	15032.74
683.661	14998.39
684.009	14864.61
684.357	14876.81
684.705	14887.89
685.053	14847.21
685.4	14799.98
685.748	14773.99
686.095	14807.21
686.443	14647.67
686.79	14644.05
687.138	14709.58
687.485	14700.77
687.832	14603.83
688.18	14517.73
688.527	14541.91
688.874	14542.13
689.221	14495.81
689.568	14461.23
689.915	14366.32
690.262	14384.17
690.609	14268.01
690.956	14329.48
691.303	14301.46
691.65	14226.43
691.997	14209.03
692.344	14076.83
692.69	14159.09
693.037	14042.71
693.383	13894.01
693.73	13947.57
694.077	13907.57
694.423	13918.19
694.769	13793.68
695.116	13849.49
695.462	13716.84
695.808	13672.78
696.155	13621.25
696.501	13576.51
696.847	13610.4
697.193	13476.62
697.539	13406.79
697.885	13389.62
698.231	13404.31
698.577	13372.22
698.923	13322.73
699.269	13172.22
699.614	13077.09
699.96	13119.34
700.306	13090.42
700.651	13012.68
700.997	12988.95
701.342	12953.47
701.688	12881.16
702.033	12863.76
702.379	12921.16
702.724	12821.27
703.069	12821.27
703.415	12712.35
703.76	12676.42
704.105	12739.47
704.45	12647.94
704.795	12611.34
705.14	12530.66
705.485	12527.04
705.83	12448.18
706.175	12424.45
706.52	12429.64
706.865	12321.85
707.209	12355.07
707.554	12247.05
707.899	12333.38
708.243	12189.43
708.588	12187.17
708.932	12085.7
709.277	12057.23
709.621	12130.9
709.966	12015.42
710.31	12086.38
710.654	11933.84
710.998	11976.78
711.342	11966.61
711.687	11867.85
712.031	11785.82
712.375	11786.05
712.719	11865.14
713.063	11818.81
713.407	11852.03
713.75	11769.32
714.094	11723
714.438	11667.86
714.782	11695.43
715.125	11622.43
715.469	11611.36
715.812	11497.01
716.156	11475.32
716.499	11495.88
716.843	11508.77
717.186	11437.81
717.53	11525.04
717.873	11537.24
718.216	11471.03
718.559	11409.78
718.902	11387.86
719.246	11351.26
719.589	11393.06
719.932	11355.1
720.275	11367.53
720.617	11380.18
720.96	11341.31
721.303	11331.37
721.646	11324.14
721.989	11197.81
722.331	11239.39
722.674	11227.64
723.016	11282.56
723.359	11230.13
723.701	11237.59
724.044	11147.64
724.386	11172.73
724.729	11180.41
725.071	11120.98
725.413	11117.59
725.755	11146.29
726.097	11050.7
726.439	11084.82
726.782	11050.7
727.124	11059.74
727.465	11022.45
727.807	11004.6
728.149	11063.58
728.491	10979.97
728.833	10999.63
729.175	10974.77
729.516	11003.92
729.858	10973.64
730.199	10928.44
730.541	10918.5
730.882	10905.84
731.224	10944.03
731.565	10913.53
731.906	10916.46
732.248	10915.33
732.589	10839.18
732.93	10838.27
733.271	10967.31
733.612	10857.48
733.953	10889.12
734.294	10848.44
734.635	10815.68
734.976	10938.61
735.317	10765.06
735.658	10830.82
735.999	10840.53
736.339	10842.79
736.68	10863.81
737.021	10871.27
737.361	10851.61
737.702	11003.47
738.042	10889.8
738.383	10877.14
738.723	10886.86
739.063	10809.8
739.404	10897.71
739.744	10933.41
740.084	10904.94
740.424	10845.05
740.764	10895.22
741.104	11005.28
741.444	10974.09
741.784	10918.72
742.124	10972.28
742.464	11038.27
742.804	10932.51
743.143	10989.46
743.483	11052.96
743.823	11052.51
744.162	11066.52
744.502	11116.69
744.841	11134.99
745.181	11184.93
745.52	11169.11
745.86	11278.26
746.199	11266.74
746.538	11344.93
746.877	11334.31
747.216	11433.51
747.556	11402.55
747.895	11428.77
748.234	11442.78
748.573	11494.53
748.911	11587.41
749.25	11715.09
749.589	11815.88
749.928	11776.55
750.267	11901.07
750.605	11954.18
750.944	11977.45
751.283	12067.85
751.621	12188.52
751.96	12200.95
752.298	12417.22
752.636	12431.45
752.975	12470.77
753.313	12486.14
753.651	12765
753.989	12753.25
754.327	12962.06
754.666	12943.08
755.004	13143.98
755.342	13220.13
755.679	13427.81
756.017	13389.39
