Data from hue_160_FLMS001491_00017.txt Node
Date: Tue Feb 07 16:50:50 GMT 2017
User: dcchb
Spectrometer: FLMS00149
Trigger mode: 0
Integration Time (sec): 2.000000E-2
Scans to average: 10
Electric dark correction enabled: true
Nonlinearity correction enabled: false
Boxcar width: 0
XAxis mode: Wavelengths
Number of Pixels in Spectrum: 2048
>>>>>Begin Spectral Data<<<<<
341.393	-14.32
341.776	-14.32
342.16	-14.32
342.543	-80.08
342.927	-58.84
343.31	-66.98
343.693	-60.42
344.077	-60.2
344.46	-62.46
344.843	-45.28
345.226	-51.38
345.61	-42.8
345.993	-21.55
346.376	-13.42
346.759	16.19
347.142	14.15
347.525	65.68
347.908	56.86
348.291	64.32
348.674	100.03
349.057	107.26
349.44	138.44
349.823	150.42
350.206	167.14
350.588	195.16
350.971	211.21
351.354	210.98
351.737	234.26
352.119	233.81
352.502	236.75
352.884	292.34
353.267	282.62
353.65	289.4
354.032	266.8
354.414	299.34
354.797	313.13
355.179	315.16
355.562	309.06
355.944	317.65
356.326	314.48
356.709	324.88
357.091	315.39
357.473	337.76
357.855	337.99
358.238	329.62
358.62	339.57
359.002	337.31
359.384	346.35
359.766	324.43
360.148	324.2
360.53	328.95
360.912	334.82
361.294	317.87
361.676	331.21
362.057	308.83
362.439	319.23
362.821	320.81
363.203	331.88
363.584	322.17
363.966	328.27
364.348	306.35
364.729	328.72
365.111	320.81
365.493	308.16
365.874	309.29
366.256	301.83
366.637	308.83
367.019	303.18
367.4	320.58
367.781	319.91
368.163	307.93
368.544	305.9
368.925	299.34
369.306	314.03
369.688	290.08
370.069	297.76
370.45	303.86
370.831	319.45
371.212	323.97
371.593	297.31
371.974	316.97
372.355	313.81
372.736	297.99
373.117	312
373.498	302.51
373.879	327.14
374.26	332.11
374.641	288.72
375.021	320.58
375.402	326.01
375.783	332.34
376.163	330.98
376.544	323.3
376.925	323.3
377.305	330.08
377.686	329.17
378.066	320.81
378.447	324.2
378.827	331.88
379.208	325.33
379.588	323.52
379.968	293.92
380.349	339.12
380.729	322.84
381.109	321.94
381.489	337.08
381.87	336.63
382.25	319.68
382.63	329.17
383.01	335.95
383.39	345.89
383.77	339.12
384.15	343.18
384.53	355.16
384.91	356.06
385.29	339.79
385.67	333.01
386.049	352.45
386.429	348.15
386.809	352.9
387.189	373.69
387.568	353.8
387.948	361.26
388.328	354.71
388.707	330.98
389.087	373.01
389.466	365.1
389.846	349.96
390.225	371.2
390.605	340.25
390.984	350.87
391.363	361.71
391.743	364.2
392.122	359.68
392.501	366.91
392.881	385.67
393.26	363.97
393.639	377.98
394.018	362.84
394.397	383.63
394.776	385.22
395.155	364.65
395.534	367.36
395.913	346.35
396.292	390.64
396.671	357.87
397.05	360.81
397.429	370.98
397.808	374.14
398.186	377.76
398.565	378.21
398.944	388.15
399.323	376.4
399.701	387.25
400.08	384.09
400.458	403.75
400.837	387.93
401.215	404.2
401.594	412.79
401.972	377.08
402.351	385.67
402.729	403.75
403.107	439.68
403.486	431.54
403.864	399.45
404.242	409.85
404.62	401.49
404.999	423.41
405.377	398.1
405.755	401.49
406.133	400.36
406.511	421.83
406.889	421.6
407.267	437.87
407.645	410.75
408.023	408.94
408.401	436.51
408.779	402.39
409.156	447.59
409.534	439.45
409.912	447.36
410.29	441.49
410.667	432.45
411.045	456.85
411.422	441.71
411.8	466.57
412.178	453.01
412.555	453.24
412.933	464.31
413.31	475.83
413.687	472.22
414.065	482.61
414.442	480.35
414.819	466.12
415.197	485.1
415.574	474.48
415.951	477.87
416.328	502.5
416.705	509.28
417.082	493.24
417.46	504.53
417.837	481.03
418.214	509.51
418.591	532.1
418.967	505.89
419.344	517.42
419.721	518.55
420.098	536.17
420.475	512.67
420.852	530.75
421.228	531.88
421.605	529.84
421.982	554.02
422.358	554.25
422.735	546.34
423.111	540.24
423.488	564.19
423.864	550.86
424.241	557.19
424.617	543.86
424.994	586.57
425.37	553.57
425.746	593.12
426.123	561.03
426.499	563.97
426.875	562.16
427.251	587.92
427.627	628.37
428.003	622.27
428.379	587.47
428.756	600.35
429.132	608.26
429.507	633.8
429.883	614.14
430.259	628.37
430.635	621.14
431.011	643.74
431.387	634.25
431.763	681.48
432.138	667.02
432.514	674.93
432.89	667.02
433.265	684.19
433.641	670.18
434.016	685.55
434.392	706.56
434.767	710.86
435.143	711.08
435.518	718.77
435.894	705.66
436.269	719.44
436.644	732.1
437.02	746.11
437.395	750.18
437.77	743.17
438.145	748.6
438.52	762.16
438.895	776.84
439.271	783.4
439.646	787.69
440.021	778.43
440.395	798.76
440.77	782.27
441.145	795.83
441.52	812.1
441.895	832.66
442.27	809.84
442.645	818.2
443.019	841.02
443.394	856.16
443.769	849.61
444.143	842.6
444.518	877.41
444.892	860.23
445.267	867.46
445.641	859.55
446.016	886.9
446.39	892.32
446.764	880.12
447.139	895.03
447.513	885.77
447.887	898.2
448.262	890.51
448.636	916.05
449.01	925.09
449.384	916.28
449.758	941.13
450.132	925.77
450.506	966.67
450.88	964.64
451.254	941.59
451.628	944.75
452.002	977.74
452.376	999.44
452.75	987.91
453.123	1010.28
453.497	1019.1
453.871	1017.06
454.244	990.17
454.618	1048.02
454.992	1031.98
455.365	1064.75
455.739	1069.94
456.112	1098.64
456.486	1074.24
456.859	1107.23
457.232	1137.29
457.606	1128.02
457.979	1171.18
458.352	1167.57
458.725	1215.02
459.099	1165.99
459.472	1193.1
459.845	1219.09
460.218	1221.58
460.591	1235.59
460.964	1242.14
461.337	1279.43
461.71	1300.9
462.083	1299.09
462.456	1334.34
462.829	1333.21
463.201	1371.63
463.574	1336.38
463.947	1359.65
464.32	1419.76
464.692	1415.02
465.065	1433.78
465.438	1428.8
465.81	1488.69
466.183	1495.7
466.555	1563.26
466.928	1526.43
467.3	1590.16
467.672	1582.92
468.045	1607.1
468.417	1625.64
468.789	1642.36
469.161	1658.63
469.534	1706.54
469.906	1752.86
470.278	1797.83
470.65	1789.02
471.022	1814.33
471.394	1895.68
471.766	1884.39
472.138	1930.03
472.51	1997.38
472.882	2023.82
473.253	2060.88
473.625	2086.19
473.997	2146.75
474.369	2160.31
474.74	2240.53
475.112	2307.43
475.484	2337.48
475.855	2389.68
476.227	2430.36
476.598	2512.62
476.97	2551.03
477.341	2605.5
477.713	2681.88
478.084	2749.45
478.455	2831.93
478.827	2856.56
479.198	2979.72
479.569	3043.68
479.94	3099.49
480.311	3187.18
480.682	3312.37
481.053	3388.53
481.424	3494.29
481.795	3539.94
482.166	3643.66
482.537	3739.03
482.908	3807.05
483.279	3872.13
483.65	3945.57
484.021	4125.46
484.391	4206.36
484.762	4306.02
485.133	4417.88
485.503	4505.79
485.874	4623.3
486.244	4675.05
486.615	4835.95
486.985	4936.96
487.356	5104.19
487.726	5152.1
488.097	5341.92
488.467	5431.18
488.837	5595.93
489.207	5708.01
489.578	5870.27
489.948	5886.09
490.318	6020.32
490.688	6175.8
491.058	6325.62
491.428	6452.4
491.798	6536.24
492.168	6670.25
492.538	6779.62
492.908	6924.7
493.278	7064.59
493.648	7109.11
494.017	7320.85
494.387	7419.83
494.757	7494.63
495.126	7696.44
495.496	7699.83
495.866	7876.09
496.235	7966.26
496.605	8131.45
496.974	8156.54
497.344	8272.24
497.713	8358.79
498.082	8510.88
498.452	8615.73
498.821	8674.94
499.19	8744.32
499.559	8890.98
499.928	8950.87
500.298	9047.59
500.667	9219.56
501.036	9199.45
501.405	9306.56
501.774	9363.74
502.143	9537.97
502.512	9559.89
502.88	9675.14
503.249	9732.99
503.618	9742.26
503.987	9888.02
504.356	9936.83
504.724	9999.65
505.093	10058.18
505.462	10143.38
505.83	10108.58
506.199	10255.46
506.567	10419.08
506.936	10417.04
507.304	10535.46
507.672	10567.77
508.041	10625.4
508.409	10669.47
508.777	10701.1
509.145	10826.3
509.514	10790.59
509.882	10868.33
510.25	10916.24
510.618	10972.96
510.986	10990.81
511.354	11054.77
511.722	11127.98
512.09	11176.12
512.458	11193.75
512.826	11293.86
513.193	11319.17
513.561	11339.28
513.929	11422.44
514.297	11447.52
514.664	11574.3
515.032	11466.05
515.4	11677.12
515.767	11599.61
516.135	11603.23
516.502	11539.72
516.869	11737.01
517.237	11756.67
517.604	11657.46
517.972	11844.58
518.339	11816.1
518.706	11784.24
519.073	11810.23
519.44	11964.12
519.808	11981.07
520.175	11922.77
520.542	11990.79
520.909	12006.83
521.276	11973.61
521.643	12070.11
522.009	12168.86
522.376	12105.36
522.743	12199.37
523.11	12193.27
523.477	12282.53
523.843	12320.04
524.21	12285.92
524.577	12361.62
524.943	12450.66
525.31	12400.72
525.676	12523.2
526.043	12528.85
526.409	12441.85
526.776	12626.25
527.142	12530.66
527.508	12575.18
527.874	12621.28
528.241	12576.31
528.607	12602.52
528.973	12631.45
529.339	12586.02
529.705	12693.59
530.071	12655.18
530.437	12668.73
530.803	12683.42
531.169	12610.21
531.535	12598.91
531.901	12569.53
532.267	12569.98
532.632	12632.8
532.998	12621.05
533.364	12574.5
533.73	12611.34
534.095	12623.76
534.461	12629.64
534.826	12635.97
535.192	12565.91
535.557	12589.41
535.923	12576.76
536.288	12579.92
536.653	12469.87
537.019	12450.44
537.384	12443.2
537.749	12445.46
538.114	12394.84
538.479	12329.99
538.845	12371.34
539.21	12249.31
539.575	12267.84
539.94	12246.37
540.305	12304.22
540.67	12166.83
541.034	12166.38
541.399	12193.94
541.764	12105.59
542.129	12075.53
542.494	12059.71
542.858	12120.95
543.223	11978.36
543.587	12033.05
543.952	11884.8
544.316	11970.22
544.681	11905.36
545.045	11918.02
545.41	11928.42
545.774	11874.86
546.138	11725.71
546.503	11765.26
546.867	11690.91
547.231	11757.35
547.595	11731.36
547.959	11634.64
548.324	11628.31
548.688	11580.4
549.052	11626.73
549.416	11585.6
549.779	11402.78
550.143	11459.05
550.507	11511.03
550.871	11382.21
551.235	11325.27
551.599	11417.92
551.962	11320.97
552.326	11304.93
552.689	11309.22
553.053	11296.57
553.417	11228.77
553.78	11406.39
554.143	11196.68
554.507	11281.88
554.87	11257.47
555.234	11279.17
555.597	11149.45
555.96	11180.86
556.323	11109.91
556.686	11092.05
557.05	11170.47
557.413	11096.8
557.776	11087.53
558.139	11132.73
558.502	11045.05
558.865	11105.84
559.228	11078.95
559.59	11058.16
559.953	11047.99
560.316	11069
560.679	11014.54
561.041	11116.91
561.404	11080.08
561.767	11087.99
562.129	11077.14
562.492	11114.43
562.854	11066.06
563.217	11067.87
563.579	11076.69
563.941	11131.15
564.304	11086.86
564.666	11143.58
565.028	11157.14
565.39	11168.44
565.753	11218.15
566.115	11174.54
566.477	11189.9
566.839	11234.2
567.201	11276.91
567.563	11274.65
567.925	11309.9
568.287	11214.99
568.648	11206.63
569.01	11295.66
569.372	11363.46
569.734	11237.36
570.095	11329.79
570.457	11374.53
570.819	11334.53
571.18	11304.25
571.542	11402.78
571.903	11371.37
572.265	11365.49
572.626	11347.41
572.987	11409.56
573.349	11444.81
573.71	11414.3
574.071	11413.63
574.432	11467.41
574.794	11451.14
575.155	11474.64
575.516	11368.88
575.877	11468.77
576.238	11393.97
576.599	11497.69
576.96	11479.61
577.32	11482.33
577.681	11535.88
578.042	11474.64
578.403	11447.07
578.763	11487.97
579.124	11558.71
579.485	11510.8
579.845	11459.73
580.206	11581.76
580.566	11573.62
580.927	11445.72
581.287	11556.45
581.648	11411.59
582.008	11514.64
582.368	11462.66
582.728	11522.1
583.089	11459.95
583.449	11455.89
583.809	11466.28
584.169	11442.55
584.529	11389.9
584.889	11497.01
585.249	11446.62
585.609	11353.52
585.969	11490.23
586.329	11429.67
586.688	11458.15
587.048	11421.08
587.408	11317.13
587.768	11364.36
588.127	11397.58
588.487	11286.85
588.846	11407.98
589.206	11317.58
589.565	11334.98
589.925	11392.84
590.284	11362.55
590.643	11325.04
591.003	11366.4
591.362	11336.57
591.721	11359.84
592.08	11303.8
592.44	11341.54
592.799	11320.75
593.158	11300.86
593.517	11343.12
593.876	11326.62
594.235	11324.59
594.593	11283.91
594.952	11349.22
595.311	11180.19
595.67	11279.84
596.029	11300.86
596.387	11328.43
596.746	11321.88
597.104	11255.21
597.463	11160.53
597.822	11263.57
598.18	11184.48
598.538	11238.94
598.897	11227.87
599.255	11117.14
599.613	11290.47
599.972	11234.2
600.33	11250.24
600.688	11179.06
601.046	11221.09
601.404	11320.07
601.762	11260.64
602.12	11356.68
602.478	11209.56
602.836	11281.88
603.194	11187.64
603.552	11228.09
603.91	11207.76
604.268	11266.51
604.625	11270.58
604.983	11252.05
605.341	11210.24
605.698	11195.1
606.056	11286.62
606.413	11181.32
606.771	11330.69
607.128	11253.86
607.485	11209.56
607.843	11184.25
608.2	11323.23
608.557	11303.35
608.914	11288.66
609.272	11327.3
609.629	11346.28
609.986	11379.05
610.343	11254.08
610.7	11333.4
611.057	11319.84
611.414	11367.75
611.771	11334.76
612.127	11421.76
612.484	11415.66
612.841	11436.9
613.198	11423.57
613.554	11392.61
613.911	11419.5
614.267	11458.6
614.624	11463.57
614.98	11386.96
615.337	11431.71
615.693	11475.32
616.05	11394.19
616.406	11517.58
616.762	11457.69
617.118	11497.92
617.475	11463.57
617.831	11478.94
618.187	11512.83
618.543	11542.89
618.899	11582.44
619.255	11577.69
619.611	11543.57
619.967	11655.43
620.323	11581.08
620.678	11520.06
621.034	11535.88
621.39	11490.23
621.746	11500.4
622.101	11656.78
622.457	11517.8
622.812	11573.4
623.168	11632.38
623.523	11623.11
623.879	11559.39
624.234	11474.87
624.589	11551.25
624.945	11574.53
625.3	11537.46
625.655	11543.11
626.01	11602.77
626.365	11565.94
626.72	11562.55
627.075	11584.02
627.43	11543.79
627.785	11569.55
628.14	11571.81
628.495	11583.34
628.85	11551.02
629.205	11522.78
629.559	11517.13
629.914	11512.15
630.269	11553.06
630.623	11536.11
630.978	11531.82
631.332	11571.59
631.687	11563
632.041	11370.69
632.396	11455.89
632.75	11491.82
633.104	11485.94
633.459	11408.43
633.813	11411.82
634.167	11365.04
634.521	11423.34
634.875	11380.63
635.229	11321.65
635.583	11295.66
635.937	11287.3
636.291	11223.8
636.645	11309.45
636.999	11283.46
637.352	11287.08
637.706	11222.22
638.06	11237.13
638.413	11247.08
638.767	11181.77
639.121	11224.93
639.474	11101.77
639.828	11101.77
640.181	11151.26
640.534	11187.64
640.888	11150.36
641.241	11042.34
641.594	11053.64
641.947	11152.39
642.301	11109.23
642.654	11097.02
643.007	11124.14
643.36	11104.93
643.713	11025.39
644.066	11055.67
644.419	11015.44
644.771	10987.42
645.124	10949.23
645.477	10862.45
645.83	10772.29
646.182	10701.33
646.535	10748.33
646.888	10748.11
647.24	10725.28
647.593	10769.8
647.945	10744.04
648.298	10657.26
648.65	10655.23
649.002	10661.78
649.355	10625.85
649.707	10626.3
650.059	10760.76
650.411	10839.4
650.763	10857.26
651.115	10939.51
651.467	10944.03
651.819	10934.99
652.171	10916.24
652.523	10880.53
652.875	10906.97
653.227	10882.11
653.578	10916.69
653.93	10919.18
654.282	10840.08
654.633	10881.21
654.985	10924.37
655.337	10936.35
655.688	10920.31
656.039	10881.66
656.391	10855.45
656.742	10949.23
657.094	10921.44
657.445	10939.29
657.796	10847.99
658.147	10833.3
658.498	10898.16
658.849	10862.68
659.2	10911.49
659.551	10885.05
659.902	10916.92
660.253	10922.34
660.604	10971.38
660.955	10845.96
661.306	10943.81
661.656	10953.75
662.007	10944.26
662.358	10898.84
662.708	10917.37
663.059	10870.14
663.409	10900.65
663.76	10965.73
664.11	10937.03
664.461	10966.41
664.811	10974.54
665.161	10939.51
665.511	10892.74
665.862	10934.32
666.212	10996.69
666.562	10974.32
666.912	10984.03
667.262	10937.93
667.612	10943.81
667.962	11026.07
668.312	10956.01
668.662	10996.24
669.011	10944.03
669.361	10909.91
669.711	10914.2
670.06	10917.37
670.41	10920.53
670.76	10861.1
671.109	10948.33
671.459	10939.29
671.808	10882.34
672.157	10877.14
672.507	10887.09
672.856	10887.54
673.205	10859.29
673.554	10943.81
673.904	10908.78
674.253	10926.41
674.602	10842.12
674.951	10714.66
675.3	10676.02
675.649	10888.22
675.998	10812.29
676.346	10832.62
676.695	10899.29
677.044	10805.96
677.393	10801.67
677.741	10790.59
678.09	10744.72
678.438	10736.58
678.787	10732.06
679.135	10756.92
679.484	10643.7
679.832	10676.47
680.181	10682.35
680.529	10663.82
680.877	10603.7
681.225	10578.39
681.573	10659.97
681.922	10590.6
682.27	10551.5
682.618	10551.73
682.966	10513.09
683.314	10489.58
683.661	10482.35
684.009	10389.92
684.357	10395.35
684.705	10460.66
685.053	10429.25
685.4	10381.79
685.748	10331.17
686.095	10368
686.443	10340.66
686.79	10297.5
687.138	10288.68
687.485	10280.32
687.832	10190.83
688.18	10176.6
688.527	10191.74
688.874	10117.62
689.221	10205.07
689.568	10115.36
689.915	10086.2
690.262	10064.51
690.609	9974.12
690.956	10010.95
691.303	10027
691.65	9939.31
691.997	9927.56
692.344	9913.33
692.69	9916.49
693.037	9893.44
693.383	9770.73
693.73	9831.3
694.077	9746.1
694.423	9755.36
694.769	9656.38
695.116	9658.19
695.462	9604.63
695.808	9547.23
696.155	9605.99
696.501	9525.09
696.847	9468.14
697.193	9418.88
697.539	9355.83
697.885	9327.58
698.231	9382.95
698.577	9349.5
698.923	9310.86
699.269	9247.58
699.614	9244.64
699.96	9142.5
700.306	9205.77
700.651	9056.63
700.997	9048.49
701.342	9095.5
701.688	9098.43
702.033	8987.25
702.379	8986.8
702.724	8976.18
703.069	8964.88
703.415	8857.31
703.76	8866.35
704.105	8839
704.45	8848.5
704.795	8790.64
705.14	8743.87
705.485	8698.9
705.83	8747.03
706.175	8707.03
706.52	8644.66
706.865	8655.73
707.209	8632.46
707.554	8597.88
707.899	8614.15
708.243	8555.17
708.588	8561.5
708.932	8464.78
709.277	8495.29
709.621	8545
709.966	8432.46
710.31	8386.36
710.654	8342.97
710.998	8350.66
711.342	8345.01
711.687	8367.38
712.031	8305.46
712.375	8217.33
712.719	8286.93
713.063	8230.66
713.407	8325.35
713.75	8205.12
714.094	8238.34
714.438	8199.93
714.782	8256.42
715.125	8141.85
715.469	8147.5
715.812	8107.72
716.156	8060.49
716.499	8070.44
716.843	8131
717.186	8027.05
717.53	8053.71
717.873	8100.04
718.216	8037.67
718.559	8081.06
718.902	7941.63
719.246	8010.55
719.589	7925.58
719.932	7918.58
720.275	7931.01
720.617	7942.08
720.96	7912.02
721.303	7879.93
721.646	7872.25
721.989	7797
722.331	7862.99
722.674	7844.45
723.016	7870.44
723.359	7899.82
723.701	7827.51
724.044	7788.86
724.386	7720.16
724.729	7881.29
725.071	7808.98
725.413	7797.45
725.755	7791.12
726.097	7820.5
726.439	7757.23
726.782	7765.13
727.124	7824.79
727.465	7765.13
727.807	7761.97
728.149	7723.33
728.491	7722.88
728.833	7739.37
729.175	7701.63
729.516	7735.53
729.858	7760.84
730.199	7749.99
730.541	7751.35
730.882	7671.35
731.224	7735.98
731.565	7733.72
731.906	7798.35
732.248	7699.15
732.589	7660.05
732.93	7667.06
733.271	7659.15
733.612	7715.64
733.953	7710.9
734.294	7704.35
734.635	7692.59
734.976	7725.59
735.317	7712.71
735.658	7627.51
735.999	7710.67
736.339	7699.6
736.68	7764.68
737.021	7693.72
737.361	7636.55
737.702	7710.9
738.042	7739.37
738.383	7754.29
738.723	7743.89
739.063	7743.89
739.404	7708.64
739.744	7811.01
740.084	7747.06
740.424	7822.31
740.764	7720.62
741.104	7818.92
741.444	7747.06
741.784	7789.09
742.124	7843.78
742.464	7761.75
742.804	7896.88
743.143	7847.39
743.483	7898.92
743.823	7920.61
744.162	7904.11
744.502	7981.4
744.841	7998.12
745.181	8013.26
745.52	8032.25
745.86	8105.24
746.199	8114.05
746.538	8155.63
746.877	8167.84
747.216	8249.87
747.556	8268.62
747.895	8281.51
748.234	8327.83
748.573	8359.92
748.911	8422.97
749.25	8552.23
749.589	8526.24
749.928	8629.97
750.267	8719.46
750.605	8724.21
750.944	8733.47
751.283	8832.45
751.621	8930.98
751.96	8989.74
752.298	9049.85
752.636	9172.33
752.975	9222.95
753.313	9276.51
753.651	9370.52
753.989	9510.17
754.327	9587.23
754.666	9732.31
755.004	9792.2
755.342	9938.41
755.679	10087.56
756.017	10156.03
756.355	10301.57
756.693	10367.78
757.031	10587.21
757.368	10607.55
757.706	10860.19
758.044	10927.99
758.381	11090.7
758.719	11222.67
759.056	11361.65
759.394	11578.82
759.731	11568.88
760.068	11754.18
