Data from hue_28_FLMS001491_00062.txt Node
Date: Tue Feb 07 17:17:35 GMT 2017
User: dcchb
Spectrometer: FLMS00149
Trigger mode: 0
Integration Time (sec): 2.000000E-2
Scans to average: 10
Electric dark correction enabled: true
Nonlinearity correction enabled: false
Boxcar width: 0
XAxis mode: Wavelengths
Number of Pixels in Spectrum: 2048
>>>>>Begin Spectral Data<<<<<
341.393	-8.67
341.776	-8.67
342.16	-8.67
342.543	-55.45
342.927	-63.36
343.31	-94.55
343.693	-77.14
344.077	-50.25
344.46	-63.13
344.843	-72.63
345.226	-47.99
345.61	-19.75
345.993	-18.62
346.376	-5.73
346.759	12.8
347.142	8.5
347.525	45.11
347.908	62.29
348.291	85.11
348.674	94.83
349.057	141.15
349.44	134.83
349.823	140.02
350.206	192
350.588	199.46
350.971	215.95
351.354	227.03
351.737	260.02
352.119	242.85
352.502	278.55
352.884	279.68
353.267	284.88
353.65	302.05
354.032	301.6
354.414	307.25
354.797	300.02
355.179	319.23
355.562	324.65
355.944	337.08
356.326	346.57
356.709	328.49
357.091	326.46
357.473	358.32
357.855	346.8
358.238	349.96
358.62	327.59
359.002	334.6
359.384	354.03
359.766	329.4
360.148	353.13
360.53	323.07
360.912	343.64
361.294	361.49
361.676	332.34
362.057	330.98
362.439	333.92
362.821	326.69
363.203	321.26
363.584	340.02
363.966	312.22
364.348	325.1
364.729	329.85
365.111	316.29
365.493	323.97
365.874	329.17
366.256	319
366.637	311.09
367.019	314.71
367.4	324.65
367.781	308.38
368.163	315.16
368.544	304.31
368.925	323.97
369.306	319.91
369.688	319
370.069	302.28
370.45	308.38
370.831	295.27
371.212	314.48
371.593	311.32
371.974	335.27
372.355	321.94
372.736	334.37
373.117	311.32
373.498	305.67
373.879	297.76
374.26	317.65
374.641	326.91
375.021	334.37
375.402	314.26
375.783	326.69
376.163	346.8
376.544	323.75
376.925	332.79
377.305	317.2
377.686	347.93
378.066	316.29
378.447	313.35
378.827	335.27
379.208	348.38
379.588	322.84
379.968	353.8
380.349	335.73
380.729	344.76
381.109	317.42
381.489	348.15
381.87	339.57
382.25	334.14
382.63	336.4
383.01	341.38
383.39	343.64
383.77	337.99
384.15	342.51
384.53	342.05
384.91	332.79
385.29	344.76
385.67	338.44
386.049	337.99
386.429	357.42
386.809	350.19
387.189	365.78
387.568	342.73
387.948	377.53
388.328	377.08
388.707	347.7
389.087	353.8
389.466	382.28
389.846	356.52
390.225	366.91
390.605	363.52
390.984	378.89
391.363	365.33
391.743	360.36
392.122	362.39
392.501	373.69
392.881	403.52
393.26	374.14
393.639	358.55
394.018	379.34
394.397	368.27
394.776	378.89
395.155	392
395.534	363.75
395.913	364.2
396.292	384.99
396.671	414.59
397.05	381.6
397.429	386.35
397.808	389.06
398.186	396.74
398.565	383.86
398.944	399.45
399.323	389.51
399.701	377.31
400.08	371.66
400.458	377.76
400.837	387.7
401.215	402.62
401.594	399.23
401.972	405.33
402.351	406.23
402.729	432.67
403.107	411.88
403.486	421.37
403.864	411.88
404.242	398.55
404.62	438.32
404.999	404.42
405.377	399.9
405.755	406.01
406.133	436.51
406.511	399.45
406.889	438.77
407.267	424.99
407.645	407.81
408.023	414.37
408.401	402.62
408.779	424.99
409.156	442.16
409.534	425.67
409.912	456.4
410.29	461.6
410.667	452.11
411.045	453.46
411.422	467.7
411.8	457.3
412.178	467.02
412.555	455.95
412.933	447.36
413.31	470.41
413.687	472.45
414.065	449.62
414.442	456.17
414.819	463.86
415.197	469.06
415.574	472.22
415.951	479.9
416.328	483.74
416.705	471.32
417.082	501.82
417.46	465.89
417.837	503.18
418.214	496.63
418.591	483.29
418.967	493.91
419.344	497.08
419.721	472.67
420.098	516.96
420.475	509.51
420.852	500.02
421.228	503.18
421.605	535.95
421.982	527.36
422.358	518.55
422.735	516.96
423.111	520.81
423.488	525.78
423.864	523.74
424.241	554.02
424.617	562.16
424.994	547.92
425.37	544.08
425.746	566.68
426.123	549.51
426.499	558.09
426.875	562.61
427.251	555.83
427.627	568.26
428.003	547.7
428.379	558.77
428.756	581.59
429.132	577.08
429.507	578.43
429.883	581.59
430.259	596.96
430.635	590.41
431.011	608.03
431.387	594.7
431.763	603.52
432.138	627.02
432.514	624.08
432.89	644.42
433.265	624.08
433.641	648.71
434.016	653.23
434.392	651.65
434.767	676.73
435.143	642.84
435.518	650.07
435.894	668.37
436.269	682.16
436.644	684.64
437.02	666.56
437.395	692.1
437.77	677.41
438.145	693
438.52	672.67
438.895	722.61
439.271	710.86
439.646	736.39
440.021	692.1
440.395	729.61
440.77	719.67
441.145	732.1
441.52	735.72
441.895	727.58
442.27	739.33
442.645	748.14
443.019	744.53
443.394	747.69
443.769	748.37
444.143	764.64
444.518	773.45
444.892	751.53
445.267	760.35
445.641	790.18
446.016	761.7
446.39	776.39
446.764	791.53
447.139	784.75
447.513	791.76
447.887	817.29
448.262	822.04
448.636	803.51
449.01	803.74
449.384	797.63
449.758	829.72
450.132	817.97
450.506	861.14
450.88	828.37
451.254	847.8
451.628	841.48
452.002	854.13
452.376	857.75
452.75	842.6
453.123	858.42
453.497	854.13
453.871	846.22
454.244	882.6
454.618	864.98
454.992	909.95
455.365	904.52
455.739	918.54
456.112	919.44
456.486	951.3
456.859	956.5
457.232	972.77
457.606	947.01
457.979	961.47
458.352	982.94
458.725	999.66
459.099	1000.34
459.472	991.75
459.845	988.36
460.218	1032.43
460.591	1038.31
460.964	1030.85
461.337	1056.61
461.71	1056.84
462.083	1087.12
462.456	1093.67
462.829	1101.58
463.201	1111.07
463.574	1114.01
463.947	1109.04
464.32	1133.67
464.692	1163.27
465.065	1184.74
465.438	1181.58
465.81	1184.06
466.183	1227.68
466.555	1227.45
466.928	1234.23
467.3	1243.05
467.672	1252.31
468.045	1300.45
468.417	1298.64
468.789	1298.19
469.161	1313.55
469.534	1331.41
469.906	1366.43
470.278	1363.04
470.65	1390.84
471.022	1422.93
471.394	1415.25
471.766	1470.39
472.138	1488.69
472.51	1484.4
472.882	1516.03
473.253	1535.69
473.625	1562.59
473.997	1609.14
474.369	1601.91
474.74	1623.38
475.112	1649.36
475.484	1671.96
475.855	1750.15
476.227	1748.57
476.598	1777.72
476.97	1819.53
477.341	1857.72
477.713	1891.39
478.084	1912.41
478.455	1965.51
478.827	2010.26
479.198	2039.41
479.569	2060.43
479.94	2105.85
480.311	2146.75
480.682	2178.62
481.053	2263.58
481.424	2302
481.795	2319.63
482.166	2353.07
482.537	2378.16
482.908	2472.62
483.279	2504.03
483.65	2540.19
484.021	2580.19
484.391	2642.11
484.762	2699.28
485.133	2736.11
485.503	2766.4
485.874	2840.97
486.244	2886.17
486.615	2967.52
486.985	2987.18
487.356	3064.02
487.726	3086.16
488.097	3168.19
488.467	3214.75
488.837	3268.53
489.207	3298.13
489.578	3361.63
489.948	3433.72
490.318	3474.4
490.688	3486.83
491.058	3591.69
491.428	3665.58
491.798	3703.77
492.168	3762.3
492.538	3800.49
492.908	3833.26
493.278	3928.63
493.648	3957.1
494.017	4021.5
494.387	4075.06
494.757	4086.36
495.126	4160.26
495.496	4180.14
495.866	4211.78
496.235	4264.66
496.605	4329.74
496.974	4363.64
497.344	4444.09
497.713	4447.93
498.082	4510.08
498.452	4528.38
498.821	4595.27
499.19	4612.68
499.559	4613.81
499.928	4717.76
500.298	4750.52
500.667	4778.09
501.036	4746.01
501.405	4834.36
501.774	4827.81
502.143	4900.13
502.512	4886.34
502.88	4948.71
503.249	5022.38
503.618	5028.48
503.987	5083.17
504.356	5089.72
504.724	5092.44
505.093	5164.75
505.462	5111.42
505.83	5225.54
506.199	5173.34
506.567	5291.08
506.936	5300.34
507.304	5368.59
507.672	5368.59
508.041	5369.94
508.409	5489.71
508.777	5465.08
509.145	5505.76
509.514	5494.01
509.882	5614
510.25	5593.67
510.618	5610.39
510.986	5605.19
511.354	5685.19
511.722	5757.05
512.09	5738.97
512.458	5719.76
512.826	5785.53
513.193	5792.31
513.561	5861.23
513.929	5885.41
514.297	5976.48
514.664	5922.92
515.032	5976.26
515.4	5982.36
515.767	5970.38
516.135	6003.15
516.502	6000.89
516.869	6115.01
517.237	6143.03
517.604	6101.9
517.972	6222.58
518.339	6216.7
518.706	6131.73
519.073	6232.07
519.44	6220.77
519.808	6264.16
520.175	6347.54
520.542	6339.18
520.909	6423.93
521.276	6333.08
521.643	6352.97
522.009	6474.55
522.376	6463.47
522.743	6533.53
523.11	6575.79
523.477	6649.46
523.843	6616.92
524.21	6666.41
524.577	6692.85
524.943	6716.8
525.31	6802
525.676	6879.28
526.043	6902.11
526.409	6915.21
526.776	6962.22
527.142	7001.99
527.508	7013.29
527.874	7041.31
528.241	7049.67
528.607	7088.77
528.973	7254.41
529.339	7155.21
529.705	7183.46
530.071	7263.23
530.437	7290.57
530.803	7337.12
531.169	7423.22
531.535	7392.72
531.901	7349.33
532.267	7493.05
532.632	7444.01
532.998	7603.56
533.364	7612.6
533.73	7615.53
534.095	7594.07
534.461	7696.89
534.826	7724.01
535.192	7759.49
535.557	7832.7
535.923	7802.42
536.288	7858.24
536.653	7881.97
537.019	7877.67
537.384	7905.7
537.749	7990.67
538.114	7938.69
538.479	8019.59
538.845	7994.06
539.21	8062.3
539.575	8071.79
539.94	8140.49
540.305	8214.84
540.67	8158.8
541.034	8206.25
541.399	8259.13
541.764	8253.71
542.129	8386.36
542.494	8365.35
542.858	8419.81
543.223	8420.71
543.587	8492.8
543.952	8477.43
544.316	8481.95
544.681	8519.24
545.045	8553.81
545.41	8605.11
545.774	8627.03
546.138	8621.38
546.503	8706.8
546.867	8706.13
547.231	8789.74
547.595	8853.02
547.959	8799.01
548.324	8810.98
548.688	8858.44
549.052	8908.16
549.416	8977.08
549.779	8943.18
550.143	9011.2
550.507	9112.67
550.871	9024.31
551.235	9053.46
551.599	9187.24
551.962	9220.01
552.326	9220.01
552.689	9278.32
553.053	9175.49
553.417	9241.71
553.78	9294.13
554.143	9311.76
554.507	9361.25
554.87	9386.11
555.234	9448.71
555.597	9420.23
555.96	9432.89
556.323	9516.73
556.686	9563.28
557.05	9580.23
557.413	9587.91
557.776	9615.93
558.139	9645.99
558.502	9719.21
558.865	9770.51
559.228	9765.99
559.59	9790.62
559.953	9864.74
560.316	9880.79
560.679	9904.29
561.041	10001.91
561.404	10041.46
561.767	10083.94
562.129	9996.04
562.492	10022.25
562.854	10135.24
563.217	10036.94
563.579	10143.83
563.941	10222.47
564.304	10177.73
564.666	10302.47
565.028	10306.31
565.39	10351.73
565.753	10376.59
566.115	10430.38
566.477	10441.22
566.839	10511.05
567.201	10579.07
567.563	10592.41
567.925	10611.61
568.287	10611.84
568.648	10649.58
569.01	10673.98
569.372	10842.12
569.734	10784.26
570.095	10881.21
570.457	10866.52
570.819	10931.61
571.18	10932.96
571.542	10967.99
571.903	11102.22
572.265	11122.33
572.626	11121.66
572.987	11257.92
573.349	11306.51
573.71	11279.84
574.071	11370.46
574.432	11485.94
574.794	11576.11
575.155	11555.54
575.516	11648.42
575.877	11798.48
576.238	11831.47
576.599	11901.98
576.96	11896.78
577.32	12071.91
577.681	12110.56
578.042	12249.54
578.403	12285.92
578.763	12407.5
579.124	12558.68
579.485	12699.24
579.845	12850.2
580.206	12902.85
580.566	12993.25
580.927	13077.54
581.287	13331.09
581.648	13417.64
582.008	13659.44
582.368	13711.87
582.728	13858.53
583.089	14021.24
583.449	14202.48
583.809	14289.93
584.169	14562.24
584.529	14701.22
584.889	14985.74
585.249	15120.65
585.609	15238.38
585.969	15500.07
586.329	15709.33
586.688	15935.99
587.048	16195.42
587.408	16353.84
587.768	16665.24
588.127	16914.27
588.487	17015.97
588.846	17419.34
589.206	17588.15
589.565	17888.48
589.925	18230.85
590.284	18381.8
590.643	18690.95
591.003	19099.53
591.362	19328.22
591.721	19548.33
592.08	19837.81
592.44	20128.65
592.799	20422.88
593.158	20738.35
593.517	20873.49
593.876	21219.02
594.235	21391.9
594.593	21802.73
594.952	22042.73
595.311	22360.23
595.67	22747.34
596.029	23112.53
596.387	23447.66
596.746	23608.79
597.104	23949.34
597.463	24140.75
597.822	24440.4
598.18	24702.32
598.538	25057.34
598.897	25267.27
599.255	25634.72
599.613	26215.05
599.972	26287.13
600.33	26495.72
600.688	26770.51
601.046	27121.46
601.404	27407.33
601.762	27574.78
602.12	28085.73
602.478	28354.65
602.836	28552.38
603.194	28792.83
603.552	29092.71
603.91	29134.29
604.268	29507.61
604.625	29761.17
604.983	30089.52
605.341	30291.55
605.698	30611.31
606.056	30833.23
606.413	31131.98
606.771	31331.52
607.128	31707.78
607.485	31660.55
607.843	31961.11
608.2	32390.7
608.557	32594.09
608.914	32632.96
609.272	33055.54
609.629	33241.08
609.986	33494.18
610.343	33650.33
610.7	34081.96
611.057	34041.51
611.414	34302.52
611.771	34564.43
612.127	34690.08
612.484	34938.43
612.841	35111.31
613.198	35105.43
613.554	35281.93
613.911	35668.58
614.267	35826.32
614.624	35947.44
614.98	36188.57
615.337	36440.54
615.693	36437.15
616.05	36674.88
616.406	36876.69
616.762	36988.77
617.118	37074.42
617.475	37284.81
617.831	37428.54
618.187	37548.53
618.543	37850.22
618.899	38071.91
619.255	38051.12
619.611	38081.17
619.967	38384.22
620.323	38485.46
620.678	38502.18
621.034	38498.11
621.39	38607.94
621.746	38626.02
622.101	39096.97
622.457	38982.85
622.812	39113.46
623.168	39275.94
623.523	39202.95
623.879	39398.43
624.234	39332.89
624.589	39531.53
624.945	39684.52
625.3	39834.12
625.655	39786.67
626.01	39846.78
626.365	40038.41
626.72	39950.96
627.075	40077.73
627.43	40076.38
627.785	40068.69
628.14	40092.19
628.495	40196.37
628.85	40350.72
629.205	40163.15
629.559	40659.41
629.914	40253.09
630.269	40524.95
630.623	40400.21
630.978	40409.47
631.332	40698.73
631.687	40716.13
632.041	40657.6
632.396	40649.92
632.75	40604.72
633.104	40699.64
633.459	40545.74
633.813	40620.54
634.167	40682.46
634.521	40582.8
634.875	40794.55
635.229	40742.57
635.583	40446.31
635.937	40606.53
636.291	40745.51
636.645	40727.21
636.999	40545.52
637.352	40891.95
637.706	40573.09
638.06	40760.43
638.413	40638.39
638.767	40534.67
639.121	40831.84
639.474	40391.4
639.828	40585.74
640.181	40576.7
640.534	40660.09
640.888	40457.38
641.241	40441.79
641.594	40527.89
641.947	40635.46
642.301	40442.92
642.654	40641.78
643.007	40524.73
643.36	40445.18
643.713	40457.83
644.066	40619.86
644.419	40499.64
644.771	40089.03
645.124	39807
645.477	39861.24
645.83	39557.75
646.182	39446.79
646.535	39462.15
646.888	39330.63
647.24	39289.73
647.593	39514.58
647.945	39347.58
648.298	39281.14
648.65	39125.44
649.002	39120.69
649.355	39164.99
649.707	39236.62
650.059	39513
650.411	39837.74
650.763	39831.86
651.115	40260.78
651.467	40104.85
651.819	40151.18
652.171	40055.81
652.523	40028.47
652.875	40090.16
653.227	39969.03
653.578	40208.58
653.93	40142.81
654.282	39943.95
654.633	39814.91
654.985	39911.18
655.337	39941.69
655.688	39917.06
656.039	40023.5
656.391	39820.11
656.742	39969.71
657.094	39959.77
657.445	39947.11
657.796	39961.58
658.147	39891.75
658.498	39833.67
658.849	39975.81
659.2	39833.22
659.551	39755.25
659.902	39912.99
660.253	39987.34
660.604	39905.98
660.955	39666.89
661.306	39865.99
661.656	39790.51
662.007	39775.59
662.358	39722.03
662.708	39705.99
663.059	39754.12
663.409	39613.11
663.76	39908.92
664.11	39685.43
664.461	39785.99
664.811	39953.44
665.161	39816.95
665.511	39603.17
665.862	39705.54
666.212	39788.93
666.562	39812.65
666.912	39559.55
667.262	39636.39
667.612	39585.54
667.962	39684.07
668.312	39674.8
668.662	39741.24
669.011	39541.02
669.361	39565.43
669.711	39529.27
670.06	39654.92
670.41	39581.02
670.76	39510.74
671.109	39562.04
671.459	39421.03
671.808	39423.29
672.157	39470.52
672.507	39339.9
672.856	39435.04
673.205	39418.54
673.554	39569.04
673.904	39375.83
674.253	39591.64
674.602	39454.02
674.951	38877.54
675.3	38801.61
675.649	39342.16
675.998	39410.63
676.346	39448.82
676.695	39364.76
677.044	39183.74
677.393	39332.44
677.741	39400.24
678.09	39143.74
678.438	39041.37
678.787	39231.88
679.135	39135.38
679.484	38953.47
679.832	39151.88
680.181	38958.89
680.529	38911.66
680.877	38952.34
681.225	38749.86
681.573	39075.72
681.922	38757.99
682.27	38640.71
682.618	38623.98
682.966	38593.48
683.314	38558.9
683.661	38454.5
684.009	38353.48
684.357	38357.1
684.705	38248.63
685.053	38153.04
685.4	38210.44
685.748	38216.31
686.095	38131.12
686.443	37971.8
686.79	37944.23
687.138	38056.32
687.485	38066.94
687.832	37828.53
688.18	37988.97
688.527	37659.49
688.874	37753.95
689.221	37635.31
689.568	37586.95
689.915	37358.48
690.262	37489.55
690.609	37160.75
690.956	37196
691.303	37127.75
691.65	36957.36
691.997	36929.11
692.344	36725.73
692.69	36781.77
693.037	36763.69
693.383	36509.69
693.73	36611.38
694.077	36366.19
694.423	36371.16
694.769	36251.62
695.116	36102.02
695.462	36162.81
695.808	36049.81
696.155	36055.01
696.501	35850.05
696.847	35803.72
697.193	35545.65
697.539	35873.55
697.885	35490.51
698.231	35460.45
698.577	35487.8
698.923	35424.97
699.269	35165.77
699.614	35040.8
699.96	35016.4
700.306	35000.12
700.651	34942.95
700.997	34687.59
701.342	34666.35
701.688	34595.62
702.033	34513.81
702.379	34495.51
702.724	34474.49
703.069	34459.35
703.415	34126.48
703.76	34251.9
704.105	34122.18
704.45	33988.63
704.795	33922.87
705.14	33636.32
705.485	33723.55
705.83	33482.88
706.175	33488.3
706.52	33551.8
706.865	33377.79
707.209	33315.88
707.554	33251.24
707.899	33186.84
708.243	33207.63
708.588	32985.71
708.932	32840.18
709.277	32831.14
709.621	32909.33
709.966	32643.35
710.31	32724.25
710.654	32510.25
710.998	32618.72
711.342	32513.41
711.687	32495.56
712.031	32267.77
712.375	32210.82
712.719	32197.71
713.063	32265.73
713.407	32258.05
713.75	32180.76
714.094	32109.58
714.438	31794.33
714.782	31808.8
715.125	31676.14
715.469	31802.47
715.812	31734.22
716.156	31531.74
716.499	31570.38
716.843	31486.32
717.186	31474.12
717.53	31473.44
717.873	31419.2
718.216	31357.96
718.559	31214.46
718.902	31012.43
719.246	31154.35
719.589	31089.27
719.932	30877.3
720.275	30922.72
720.617	30798.65
720.96	30771.08
721.303	30757.98
721.646	30731.31
721.989	30515.05
722.331	30569.73
722.674	30541.71
723.016	30633.01
723.359	30550.3
723.701	30537.87
724.044	30435.27
724.386	30307.37
724.729	30352.56
725.071	30276.63
725.413	30250.87
725.755	30159.8
726.097	30066.24
726.439	29982.18
726.782	30054.27
727.124	30115.96
727.465	29915.74
727.807	29868.06
728.149	29768.85
728.491	29763.88
728.833	29917.77
729.175	29697.44
729.516	29694.5
729.858	29652.02
730.199	29630.77
730.541	29642.75
730.882	29635.52
731.224	29537.67
731.565	29352.36
731.906	29475.3
732.248	29502.64
732.589	29274.85
732.93	29232.82
733.271	29152.6
733.612	29296.32
733.953	29192.82
734.294	29121.41
734.635	28997.8
734.976	29128.87
735.317	28824.69
735.658	28944.46
735.999	28894.75
736.339	28781.31
736.68	28944.46
737.021	28820.85
737.361	28622.21
737.702	28755.32
738.042	28726.84
738.383	28593.97
738.723	28672.83
739.063	28584.93
739.404	28621.54
739.744	28503.57
740.084	28352.16
740.424	28461.09
740.764	28215.22
741.104	28457.47
741.444	28361.66
741.784	28289.11
742.124	28207.99
742.464	28237.36
742.804	28156.01
743.143	28113.75
743.483	28157.14
743.823	28005.73
744.162	27940.2
744.502	28005.96
744.841	27937.49
745.181	27930.48
745.52	27860.2
745.86	27800.77
746.199	27863.59
746.538	27748.56
746.877	27747.21
747.216	27843.7
747.556	27697.04
747.895	27807.32
748.234	27504.05
748.573	27476.48
748.911	27673.99
749.25	27581.11
749.589	27499.08
749.928	27387.9
750.267	27536.82
750.605	27315.36
750.944	27387.22
751.283	27197.84
751.621	27245.98
751.96	27069.94
752.298	27093.21
752.636	27084.85
752.975	27026.55
753.313	26897.29
753.651	27051.18
753.989	26844.63
754.327	26821.81
754.666	26685.99
755.004	26689.16
755.342	26710.85
755.679	26570.97
756.017	26395.83
756.355	26588.82
756.693	26422.27
757.031	26414.81
757.368	26280.58
757.706	26191.54
758.044	26076.07
758.381	26229.28
758.719	26015.28
759.056	26184.54
759.394	26007.14
