Data from hue_300_FLMS001491_00099.txt Node
Date: Tue Feb 07 15:51:29 GMT 2017
User: dcchb
Spectrometer: FLMS00149
Trigger mode: 0
Integration Time (sec): 2.000000E-2
Scans to average: 10
Electric dark correction enabled: true
Nonlinearity correction enabled: false
Boxcar width: 0
XAxis mode: Wavelengths
Number of Pixels in Spectrum: 2048
>>>>>Begin Spectral Data<<<<<
341.393	-1.4
341.776	-1.4
342.16	-1.4
342.543	-34.84
342.927	-59.93
343.31	-81.85
343.693	-63.77
344.077	-61.96
344.46	-58.35
344.843	-63.54
345.226	-42.3
345.61	-18.8
345.993	-9.53
346.376	-8.86
346.759	6.74
347.142	26.62
347.525	55.55
347.908	39.28
348.291	79.73
348.674	93.97
349.057	107.07
349.44	132.16
349.823	146.85
350.206	180.29
350.588	191.37
350.971	198.6
351.354	227.97
351.737	211.7
352.119	223.91
352.502	257.13
352.884	245.6
353.267	275.2
353.65	296.45
354.032	309.1
354.414	310.01
354.797	312.49
355.179	305.03
355.562	304.36
355.944	326.28
356.326	319.27
356.709	330.8
357.091	309.78
357.473	341.87
357.855	333.73
358.238	335.54
358.62	355.88
359.002	337.8
359.384	335.32
359.766	343.45
360.148	356.33
360.53	330.12
360.912	335.77
361.294	320.18
361.676	343.9
362.057	333.73
362.439	323.56
362.821	331.02
363.203	317.69
363.584	326.05
363.966	343.9
364.348	334.86
364.729	330.8
365.111	318.59
365.493	303.68
365.874	325.15
366.256	313.17
366.637	302.1
367.019	317.92
367.4	316.11
367.781	304.58
368.163	323.11
368.544	303
368.925	303.68
369.306	322.44
369.688	297.12
370.069	322.21
370.45	310.01
370.831	300.51
371.212	307.29
371.593	306.39
371.974	344.36
372.355	308.2
372.736	331.02
373.117	313.17
373.498	311.59
373.879	286.28
374.26	297.35
374.641	327.41
375.021	307.29
375.402	321.53
375.783	308.65
376.163	309.1
376.544	307.29
376.925	312.04
377.305	325.15
377.686	315.43
378.066	328.76
378.447	339.61
378.827	342.55
379.208	333.51
379.588	330.12
379.968	310.68
380.349	337.8
380.729	336.45
381.109	338.93
381.489	339.16
381.87	333.96
382.25	339.61
382.63	340.06
383.01	344.13
383.39	353.39
383.77	342.1
384.15	333.51
384.53	340.97
384.91	372.38
385.29	349.33
385.67	333.51
386.049	373.06
386.429	361.3
386.809	378.03
387.189	340.06
387.568	378.7
387.948	359.5
388.328	345.71
388.707	346.16
389.087	347.75
389.466	352.04
389.846	354.98
390.225	379.16
390.605	366.95
390.984	368.08
391.363	379.61
391.743	377.35
392.122	356.11
392.501	358.37
392.881	383.68
393.26	360.85
393.639	361.3
394.018	391.36
394.397	384.58
394.776	374.19
395.155	398.59
395.534	370.8
395.913	377.35
396.292	392.94
396.671	394.07
397.05	393.85
397.429	404.24
397.808	371.7
398.186	391.36
398.565	385.48
398.944	411.47
399.323	394.75
399.701	411.92
400.08	390.23
400.458	388.2
400.837	420.06
401.215	402.88
401.594	403.11
401.972	419.38
402.351	406.5
402.729	411.25
403.107	431.13
403.486	430
403.864	441.08
404.242	436.78
404.62	428.87
404.999	427.97
405.377	426.16
405.755	441.3
406.133	449.66
406.511	450.57
406.889	461.41
407.267	462.09
407.645	441.53
408.023	477.23
408.401	469.32
408.779	474.07
409.156	483.33
409.534	488.31
409.912	500.51
410.29	479.95
410.667	499.15
411.045	496.44
411.422	536.67
411.8	516.78
412.178	536.21
412.555	534.18
412.933	545.48
413.31	535.31
413.687	572.15
414.065	551.81
414.442	588.19
414.819	604.46
415.197	590.22
415.574	606.04
415.951	613.05
416.328	605.82
416.705	623.44
417.082	613.5
417.46	625.93
417.837	652.37
418.214	665.7
418.591	662.09
418.967	651.01
419.344	678.13
419.721	700.05
420.098	682.2
420.475	716.1
420.852	717.68
421.228	719.94
421.605	711.58
421.982	725.59
422.358	741.86
422.735	761.29
423.111	758.36
423.488	763.55
423.864	771.46
424.241	812.82
424.617	800.84
424.994	792.25
425.37	796.09
425.746	803.1
426.123	832.25
426.499	830.67
426.875	828.64
427.251	858.92
427.627	864.57
428.003	874.28
428.379	892.36
428.756	890.1
429.132	863.89
429.507	925.58
429.883	909.54
430.259	959.48
430.635	959.03
431.011	963.32
431.387	974.4
431.763	989.99
432.138	992.47
432.514	985.69
432.89	992.93
433.265	1027.95
433.641	1023.43
434.016	1044.68
434.392	1046.71
434.767	1053.49
435.143	1104.11
435.518	1087.16
435.894	1093.04
436.269	1092.13
436.644	1120.15
437.02	1152.02
437.395	1170.32
437.77	1147.95
438.145	1120.61
438.52	1189.08
438.895	1174.84
439.271	1162.64
439.646	1219.13
440.021	1221.17
440.395	1219.36
440.77	1201.96
441.145	1215.29
441.52	1234.28
441.895	1251.45
442.27	1254.61
442.645	1251.45
443.019	1271.79
443.394	1272.69
443.769	1283.54
444.143	1250.09
444.518	1270.43
444.892	1283.77
445.267	1282.18
445.641	1284.67
446.016	1293.48
446.39	1288.06
446.764	1300.71
447.139	1316.53
447.513	1334.39
447.887	1314.27
448.262	1315.18
448.636	1319.7
449.01	1339.81
449.384	1351.11
449.758	1361.5
450.132	1359.47
450.506	1343.43
450.88	1382.29
451.254	1372.35
451.628	1355.63
452.002	1400.82
452.376	1374.61
452.75	1407.6
453.123	1402.41
453.497	1412.58
453.871	1420.03
454.244	1432.24
454.618	1479.92
454.992	1442.63
455.365	1455.96
455.739	1491.9
456.112	1503.87
456.486	1479.01
456.859	1511.78
457.232	1522.63
457.606	1518.56
457.979	1504.1
458.352	1543.42
458.725	1557.66
459.099	1561.27
459.472	1594.49
459.845	1579.8
460.218	1607.37
460.591	1622.74
460.964	1604.66
461.337	1642.4
461.71	1638.56
462.083	1655.06
462.456	1660.7
462.829	1624.55
463.201	1711.33
463.574	1692.57
463.947	1711.55
464.32	1719.23
464.692	1757.88
465.065	1737.09
465.438	1739.57
465.81	1811.89
466.183	1814.83
466.555	1802.62
466.928	1837.2
467.3	1792
467.672	1848.27
468.045	1854.15
468.417	1851.89
468.789	1852.11
469.161	1872.22
469.534	1847.59
469.906	1952.22
470.278	1939.34
470.65	1948.38
471.022	1983.41
471.394	1999
471.766	1996.29
472.138	2013.92
472.51	2059.56
472.882	2046.91
473.253	2076.29
473.625	2086
473.997	2134.59
474.369	2142.95
474.74	2153.57
475.112	2175.04
475.484	2198.32
475.855	2212.1
476.227	2242.16
476.598	2267.92
476.97	2263.85
477.341	2296.62
477.713	2329.39
478.084	2342.04
478.455	2366.9
478.827	2386.11
479.198	2437.63
479.569	2427.69
479.94	2476.95
480.311	2506.11
480.682	2501.81
481.053	2593.56
481.424	2596.27
481.795	2616.84
482.166	2612.09
482.537	2637.63
482.908	2683.28
483.279	2690.51
483.65	2751.07
484.021	2735.7
484.391	2781.35
484.762	2781.13
485.133	2800.79
485.503	2847.34
485.874	2856.15
486.244	2884.63
486.615	2873.55
486.985	2941.35
487.356	2968.02
487.726	2977.51
488.097	3060.89
488.467	3053.44
488.837	3081.23
489.207	3093.44
489.578	3175.02
489.948	3168.24
490.318	3191.06
490.688	3194.45
491.058	3228.12
491.428	3240.55
491.798	3222.7
492.168	3296.82
492.538	3311.28
492.908	3363.03
493.278	3370.94
493.648	3391.73
494.017	3407.55
494.387	3443.48
494.757	3451.84
495.126	3440.32
495.496	3486.87
495.866	3490.71
496.235	3530.26
496.605	3505.18
496.974	3485.97
497.344	3557.15
497.713	3580.2
498.082	3598.51
498.452	3557.6
498.821	3610.48
499.19	3616.13
499.559	3638.73
499.928	3653.65
500.298	3690.48
500.667	3706.53
501.036	3673.08
501.405	3683.25
501.774	3716.7
502.143	3720.09
502.512	3719.18
502.88	3757.37
503.249	3762.57
503.618	3792.17
503.987	3770.03
504.356	3791.27
504.724	3800.08
505.093	3835.34
505.462	3831.72
505.83	3846.86
506.199	3827.43
506.567	3878.05
506.936	3864.04
507.304	3907.88
507.672	3951.04
508.041	3947.88
508.409	3951.49
508.777	3974.77
509.145	4004.6
509.514	4005.95
509.882	4009.34
510.25	3992.4
510.618	4011.15
510.986	4062.45
511.354	4018.61
511.722	4087.99
512.09	4057.48
512.458	4064.03
512.826	4081.66
513.193	4116.91
513.561	4139.51
513.929	4117.36
514.297	4182.45
514.664	4202.78
515.032	4168.21
515.4	4183.58
515.767	4180.19
516.135	4222.67
516.502	4159.85
516.869	4202.78
517.237	4192.84
517.604	4153.52
517.972	4210.92
518.339	4273.52
518.706	4221.77
519.073	4228.1
519.44	4289.79
519.808	4295.21
520.175	4230.13
520.542	4289.11
520.909	4327.75
521.276	4304.03
521.643	4302.44
522.009	4322.33
522.376	4349.45
522.743	4386.96
523.11	4405.27
523.477	4454.08
523.843	4429.9
524.21	4479.84
524.577	4461.31
524.943	4483.68
525.31	4488.2
525.676	4583.57
526.043	4559.61
526.409	4604.58
526.776	4591.25
527.142	4662.21
527.508	4643.68
527.874	4657.46
528.241	4687.29
528.607	4690
528.973	4736.78
529.339	4728.42
529.705	4756.44
530.071	4773.84
530.437	4815.65
530.803	4784.69
531.169	4820.17
531.535	4814.29
531.901	4827.18
532.267	4865.59
532.632	4925.7
532.998	4932.48
533.364	4964.35
533.73	4913.73
534.095	5003.44
534.461	5003.22
534.826	5030.56
535.192	4988.53
535.557	5117.11
535.923	5076.43
536.288	5119.37
536.653	5118.02
537.019	5118.02
537.384	5101.97
537.749	5152.59
538.114	5144.91
538.479	5181.97
538.845	5191.23
539.21	5231.01
539.575	5236.66
539.94	5272.81
540.305	5331.34
540.67	5255.41
541.034	5311.68
541.399	5337.67
541.764	5360.72
542.129	5412.02
542.494	5408.4
542.858	5433.49
543.223	5419.25
543.587	5495.18
543.952	5483.66
544.316	5549.64
544.681	5539.92
545.045	5578.79
545.41	5595.29
545.774	5597.55
546.138	5603.88
546.503	5652.01
546.867	5678
547.231	5699.69
547.595	5731.56
547.959	5711.45
548.324	5783.53
548.688	5765.68
549.052	5768.17
549.416	5802.97
549.779	5773.59
550.143	5793.03
550.507	5844.78
550.871	5905.11
551.235	5833.25
551.599	5866.7
551.962	5981.5
552.326	5914.83
552.689	5933.59
553.053	5985.79
553.417	5981.95
553.78	6059.46
554.143	6029.63
554.507	6026.47
554.87	6077.31
555.234	6083.64
555.597	6082.74
555.96	6072.79
556.323	6089.74
556.686	6106.92
557.05	6169.74
557.413	6186.24
557.776	6214.94
558.139	6220.13
558.502	6219.46
558.865	6212.45
559.228	6282.5
559.59	6280.92
559.953	6260.36
560.316	6315.27
560.679	6299.23
561.041	6375.38
561.404	6385.78
561.767	6415.61
562.129	6358.43
562.492	6419.22
562.854	6431.88
563.217	6419.22
563.579	6463.52
563.941	6491.31
564.304	6535.83
564.666	6520.92
565.028	6555.27
565.39	6562.95
565.753	6579.9
566.115	6615.83
566.477	6627.58
566.839	6667.8
567.201	6649.95
567.563	6686.11
567.925	6702.38
568.287	6741.48
568.648	6769.05
569.01	6809.72
569.372	6832.55
569.734	6830.06
570.095	6923.17
570.457	6930.17
570.819	6961.81
571.18	6995.48
571.542	7024.18
571.903	7047.91
572.265	7084.74
572.626	7092.43
572.987	7145.98
573.349	7254.23
573.71	7270.27
574.071	7293.1
574.432	7388.92
574.794	7432.08
575.155	7516.6
575.516	7477.28
575.877	7536.03
576.238	7585.29
576.599	7713.2
576.96	7750.26
577.32	7819.87
577.681	7919.07
578.042	7973.76
578.403	8050.59
578.763	8133.53
579.124	8230.48
579.485	8402.22
579.845	8492.84
580.206	8567.87
580.566	8632.27
580.927	8829.78
581.287	8929.21
581.648	9065.03
582.008	9252.14
582.368	9288.98
582.728	9500.05
583.089	9673.83
583.449	9761.96
583.809	10018
584.169	10121.05
584.529	10288.73
584.889	10560.36
585.249	10667.02
585.609	10835.38
585.969	11104.75
586.329	11276.95
586.688	11520.11
587.048	11753.09
587.408	11951.51
587.768	12208.22
588.127	12351.27
588.487	12644.37
588.846	12989.45
589.206	13132.27
589.565	13388.08
589.925	13642.08
590.284	13951
590.643	14254.95
591.003	14635.73
591.362	14821.71
591.721	15050.64
592.08	15288.6
592.44	15696.27
592.799	15958.63
593.158	16124.96
593.517	16474.55
593.876	16836.58
594.235	17111.82
594.593	17390.91
594.952	17818.25
595.311	17970.11
595.67	18365.58
596.029	18679.69
596.387	18904.55
596.746	19335.49
597.104	19428.83
597.463	19820.91
597.822	20203.04
598.18	20334.34
598.538	20712.86
598.897	20979.29
599.255	21119.85
599.613	21787.86
599.972	21850.23
600.33	22224.23
600.688	22399.14
601.046	22780.83
601.404	23088.39
601.762	23402.28
602.12	23795.49
602.478	23958.65
602.836	24227.8
603.194	24302.37
603.552	24761.79
603.91	24855.58
604.268	25257.15
604.625	25329.69
604.983	25702.78
605.341	25894.87
605.698	26212.15
606.056	26480.62
606.413	26751.34
606.771	26967.38
607.128	27189.07
607.485	27336.19
607.843	27534.37
608.2	28023.18
608.557	28172.32
608.914	28248.93
609.272	28621.8
609.629	28869.26
609.986	29110.38
610.343	29290.94
610.7	29620.42
611.057	29645.73
611.414	29983.58
611.771	30007.08
612.127	30336.79
612.484	30458.82
612.841	30696.55
613.198	30818.36
613.554	30959.6
613.911	31263.54
614.267	31453.37
614.624	31568.17
614.98	31787.6
615.337	32072.56
615.693	32114.37
616.05	32251.31
616.406	32626.67
616.762	32654.69
617.118	32716.39
617.475	32848.13
617.831	33124.28
618.187	33141.69
618.543	33285.64
618.899	33679.98
619.255	33740.54
619.611	33712.52
619.967	33823.93
620.323	34070.02
620.678	34055.56
621.034	34121.09
621.39	34196.35
621.746	34293.29
622.101	34793.39
622.457	34482.21
622.812	34670.23
623.168	34916.78
623.523	34806.73
623.879	35115.64
624.234	35012.14
624.589	35118.13
624.945	35226.83
625.3	35338.46
625.655	35366.94
626.01	35612.81
626.365	35528.74
626.72	35666.82
627.075	35572.58
627.43	35718.79
627.785	35613.03
628.14	35632.69
628.495	35920.6
628.85	35909.52
629.205	35876.53
629.559	36087.82
629.914	35956.07
630.269	36078.11
630.623	36040.37
630.978	35939.13
631.332	36222.06
631.687	36156.3
632.041	36167.82
632.396	36237.87
632.75	36058.44
633.104	36272.68
633.459	36006.24
633.813	36170.98
634.167	36216.18
634.521	36164.43
634.875	36209.4
635.229	36287.37
635.583	36159.68
635.937	36163.75
636.291	36180.7
636.645	36255.05
636.999	36243.98
637.352	36312.45
637.706	36126.24
638.06	36202.62
638.413	36032.68
638.767	36149.06
639.121	36383.63
639.474	36149.97
639.828	36128.95
640.181	36212.56
640.534	36178.44
640.888	36199.91
641.241	35951.55
641.594	36164.2
641.947	36155.17
642.301	36113.13
642.654	36139.35
643.007	36189.29
643.36	36098.9
643.713	36205.33
644.066	36222.51
644.419	36025.9
644.771	35907.26
645.124	35492.81
645.477	35461.4
645.83	35291.23
646.182	35160.84
646.535	35292.14
646.888	35340.05
647.24	35106.83
647.593	35279.48
647.945	35219.82
648.298	34963.33
648.65	34948.87
649.002	34890.34
649.355	35203.55
649.707	35088.53
650.059	35212.14
650.411	35462.75
650.763	35677.21
651.115	36106.13
651.467	35705.91
651.819	35796.08
652.171	35781.62
652.523	35683.54
652.875	35719.24
653.227	35612.81
653.578	35829.3
653.93	35718.79
654.282	35602.64
654.633	35583.88
654.985	35662.75
655.337	35766.93
655.688	35764.67
656.039	35833.14
656.391	35445.35
656.742	35549.53
657.094	35573.71
657.445	35728.51
657.796	35580.27
658.147	35643.77
658.498	35600.83
658.849	35601.51
659.2	35567.16
659.551	35393.15
659.902	35576.65
660.253	35611.68
660.604	35615.52
660.955	35484.67
661.306	35574.62
661.656	35606.03
662.007	35524.45
662.358	35673.82
662.708	35592.92
663.059	35575.97
663.409	35372.36
663.76	35589.3
664.11	35541.62
664.461	35562.19
664.811	35710.43
665.161	35559.7
665.511	35430.66
665.862	35395.41
666.212	35504.56
666.562	35469.53
666.912	35440.83
667.262	35347.73
667.612	35412.59
667.962	35465.69
668.312	35525.13
668.662	35611.22
669.011	35450.55
669.361	35317.22
669.711	35426.14
670.06	35373.49
670.41	35159.49
670.76	35182.99
671.109	35499.36
671.459	35293.27
671.808	35309.09
672.157	35320.38
672.507	35164.91
672.856	35080.84
673.205	35127.4
673.554	35246.71
673.904	35120.62
674.253	35294.62
674.602	35242.42
674.951	34697.58
675.3	34630.23
675.649	35046.95
675.998	35043.1
676.346	34985.7
676.695	35136.21
677.044	34901.41
677.393	35102.76
677.741	35055.31
678.09	34848.08
678.438	34811.92
678.787	34987.06
679.135	34886.05
679.484	34585.04
679.832	34860.28
680.181	34660.97
680.529	34801.08
680.877	34648.31
681.225	34667.75
681.573	34698.48
681.922	34656
682.27	34579.84
682.618	34467.98
682.966	34520.41
683.314	34525.6
683.661	34318.6
684.009	34263.01
684.357	34246.29
684.705	34098.95
685.053	34124.03
685.4	34051.27
685.748	33930.59
686.095	33973.3
686.443	33898.05
686.79	33661.67
687.138	33838.39
687.485	33693.99
687.832	33691.95
688.18	33602.92
688.527	33456.48
688.874	33528.34
689.221	33433.88
689.568	33438.4
689.915	33206.77
690.262	33194.34
690.609	33094
690.956	33047.9
691.303	33017.39
691.65	32879.55
691.997	32869.38
692.344	32700.79
692.69	32684.75
693.037	32674.35
693.383	32342.61
693.73	32649.04
694.077	32441.82
694.423	32324.76
694.769	32166.8
695.116	32225.1
695.462	32123.63
695.808	31911.66
696.155	32169.06
696.501	31840.25
696.847	31886.8
697.193	31635.06
697.539	31658.33
697.885	31541.5
698.231	31516.19
698.577	31475.74
698.923	31482.52
699.269	31255.63
699.614	31046.6
699.96	31019.26
700.306	31159.14
700.651	30923.44
700.997	30918.92
701.342	30780.84
701.688	30901.74
702.033	30673.95
702.379	30741.07
702.724	30574.07
703.069	30569.78
703.415	30256.34
703.76	30285.49
704.105	30255.66
704.45	30076.23
704.795	30003.69
705.14	29771.38
705.485	29847.08
705.83	29785.16
706.175	29832.62
706.52	29725.28
706.865	29617.71
707.209	29645.73
707.554	29501.78
707.899	29569.35
708.243	29351.5
708.588	29349.47
708.932	29200.32
709.277	29145.63
709.621	29105.86
709.966	28986.09
710.31	29039.42
710.654	28779.31
710.998	28808.24
711.342	28849.82
711.687	28726.66
712.031	28610.73
712.375	28616.61
712.719	28577.29
713.063	28512.88
713.407	28600.34
713.75	28343.62
714.094	28503.16
714.438	28277.18
714.782	28227.92
715.125	28186.79
715.469	28202.38
715.812	27999.45
716.156	27989.5
716.499	27985.66
716.843	27935.04
717.186	27816.4
717.53	27913.12
717.873	27884.2
718.216	27754.71
718.559	27787.25
718.902	27483.53
719.246	27606.46
719.589	27599.91
719.932	27256.87
720.275	27342.06
720.617	27384.1
720.96	27320.14
721.303	27334.15
721.646	27264.78
721.989	27100.04
722.331	27303.87
722.674	27084.67
723.016	27083.54
723.359	26963.77
723.701	27055.52
724.044	26825.47
724.386	26793.38
724.729	26884
725.071	26900.95
725.413	26832.25
725.755	26694.4
726.097	26638.35
726.439	26580.95
726.782	26483.56
727.124	26749.54
727.465	26514.51
727.807	26528.3
728.149	26465.7
728.491	26398.59
728.833	26498.7
729.175	26260.74
729.516	26328.53
729.858	26212.83
730.199	26352.71
730.541	26222.54
730.882	26189.55
731.224	26235.2
731.565	26054.19
731.906	26084.02
732.248	26045.37
732.589	26056.9
732.93	25928.54
733.271	25913.85
733.612	25974.64
733.953	25913.17
734.294	25851.93
734.635	25731.94
734.976	25846.74
735.317	25666.4
735.658	25604.93
735.999	25703.24
736.339	25671.6
736.68	25808.09
737.021	25539.85
737.361	25521.55
737.702	25663.46
738.042	25446.52
738.383	25451.04
738.723	25550.7
739.063	25461.89
739.404	25403.58
739.744	25373.98
740.084	25201.33
740.424	25270.03
740.764	25223.48
741.104	25301.67
741.444	25199.52
741.784	25090.15
742.124	25040.88
742.464	25049.47
742.804	25090.37
743.143	24944.61
743.483	24929.02
743.823	24857.16
744.162	24834.11
744.502	24933.09
744.841	24776.93
745.181	24889.92
745.52	24797.05
745.86	24856.03
746.199	24794.33
746.538	24700.55
746.877	24802.24
747.216	24772.41
747.556	24641.57
747.895	24558.86
748.234	24614.23
748.573	24604.73
748.911	24492.65
749.25	24655.81
749.589	24438.41
749.928	24443.38
750.267	24480.22
750.605	24449.26
750.944	24409.26
751.283	24319.54
751.621	24385.31
751.96	24321.35
752.298	24243.84
752.636	24272.77
752.975	24166.78
753.313	24070.96
753.651	24175.14
753.989	24105.99
754.327	24103.96
754.666	23976.28
755.004	23927.92
755.342	23961.36
755.679	23917.75
756.017	23994.35
756.355	23915.26
756.693	23646.57
757.031	23848.14
757.368	23647.92
757.706	23682.95
758.044	23574.25
758.381	23604.76
758.719	23452.45
759.056	23502.62
759.394	23550.52
759.731	23308.27
