Data from hue_140_FLMS001491_00009.txt Node
Date: Tue Feb 07 16:55:18 GMT 2017
User: dcchb
Spectrometer: FLMS00149
Trigger mode: 0
Integration Time (sec): 2.000000E-2
Scans to average: 10
Electric dark correction enabled: true
Nonlinearity correction enabled: false
Boxcar width: 0
XAxis mode: Wavelengths
Number of Pixels in Spectrum: 2048
>>>>>Begin Spectral Data<<<<<
341.393	-14.55
341.776	-14.55
342.16	-14.55
342.543	-64.26
342.927	-54.55
343.31	-50.03
343.693	-64.04
344.077	-64.49
344.46	-78.5
344.843	-45.73
345.226	-42.12
345.61	-37.82
345.993	-15
346.376	-7.77
346.759	0.37
347.142	40.82
347.525	40.37
347.908	45.11
348.291	63.19
348.674	103.42
349.057	112.23
349.44	139.12
349.823	154.94
350.206	164.43
350.588	189.06
350.971	206.69
351.354	215.05
351.737	259.12
352.119	267.93
352.502	255.05
352.884	272.22
353.267	272.45
353.65	289.17
354.032	321.94
354.414	308.83
354.797	328.27
355.179	317.65
355.562	332.56
355.944	317.2
356.326	319.23
356.709	329.4
357.091	350.64
357.473	355.61
357.855	337.76
358.238	334.6
358.62	340.7
359.002	350.64
359.384	331.21
359.766	335.05
360.148	328.72
360.53	331.66
360.912	359.68
361.294	329.62
361.676	341.83
362.057	380.02
362.439	338.21
362.821	323.52
363.203	312.68
363.584	332.11
363.966	325.33
364.348	312.22
364.729	320.36
365.111	309.29
365.493	313.35
365.874	307.7
366.256	273.81
366.637	318.55
367.019	314.26
367.4	319.45
367.781	298.66
368.163	304.54
368.544	320.36
368.925	304.77
369.306	333.01
369.688	328.27
370.069	306.35
370.45	282.62
370.831	326.01
371.212	309.06
371.593	334.14
371.974	333.47
372.355	335.95
372.736	310.64
373.117	315.16
373.498	323.97
373.879	314.94
374.26	306.12
374.641	299.12
375.021	331.66
375.402	332.11
375.783	335.5
376.163	313.81
376.544	322.17
376.925	327.82
377.305	311.32
377.686	326.01
378.066	323.97
378.447	323.52
378.827	325.33
379.208	315.61
379.588	323.75
379.968	332.34
380.349	331.21
380.729	342.96
381.109	345.44
381.489	326.69
381.87	320.36
382.25	341.6
382.63	341.38
383.01	338.66
383.39	363.52
383.77	332.56
384.15	335.27
384.53	333.47
384.91	359.91
385.29	350.41
385.67	355.61
386.049	351.09
386.429	347.02
386.809	359.91
387.189	344.31
387.568	352.9
387.948	360.58
388.328	373.24
388.707	363.3
389.087	360.58
389.466	363.97
389.846	383.41
390.225	363.07
390.605	375.95
390.984	353.35
391.363	377.31
391.743	357.87
392.122	357.42
392.501	370.98
392.881	368.72
393.26	371.88
393.639	385.44
394.018	368.49
394.397	360.58
394.776	380.47
395.155	399
395.534	397.87
395.913	381.6
396.292	389.96
396.671	373.46
397.05	380.7
397.429	405.1
397.808	397.19
398.186	386.35
398.565	410.75
398.944	394.48
399.323	403.52
399.701	372.79
400.08	398.32
400.458	411.88
400.837	395.16
401.215	389.74
401.594	409.62
401.972	402.84
402.351	405.33
402.729	393.8
403.107	426.8
403.486	406.23
403.864	411.66
404.242	429.28
404.62	426.8
404.999	416.4
405.377	418.21
405.755	427.02
406.133	438.32
406.511	425.21
406.889	443.75
407.267	442.62
407.645	435.38
408.023	447.14
408.401	435.16
408.779	452.78
409.156	433.35
409.534	459.34
409.912	448.49
410.29	448.04
410.667	472.67
411.045	485.55
411.422	457.08
411.8	483.29
412.178	471.77
412.555	479.9
412.933	489.85
413.31	489.85
413.687	488.04
414.065	482.61
414.442	484.87
414.819	503.4
415.197	506.34
415.574	498.43
415.951	505.21
416.328	491.2
416.705	512.9
417.082	512.44
417.46	511.54
417.837	511.54
418.214	532.33
418.591	519.22
418.967	521.48
419.344	520.81
419.721	542.95
420.098	526.46
420.475	539.56
420.852	524.65
421.228	541.37
421.605	543.4
421.982	558.32
422.358	540.24
422.735	559.67
423.111	554.7
423.488	557.19
423.864	560.13
424.241	580.92
424.617	582.05
424.994	589.05
425.37	589.5
425.746	572.33
426.123	595.38
426.499	607.13
426.875	586.34
427.251	608.03
427.627	610.97
428.003	604.65
428.379	621.59
428.756	620.46
429.132	634.93
429.507	616.62
429.883	617.75
430.259	645.32
430.635	662.95
431.011	653.23
431.387	653.23
431.763	686.9
432.138	640.12
432.514	690.74
432.89	666.34
433.265	686.68
433.641	708.37
434.016	687.35
434.392	703.85
434.767	724.64
435.143	707.92
435.518	715.6
435.894	719.44
436.269	746.56
436.644	725.09
437.02	734.59
437.395	764.41
437.77	771.19
438.145	791.08
438.52	777.97
438.895	742.04
439.271	763.29
439.646	788.6
440.021	793.34
440.395	777.07
440.77	788.82
441.145	797.18
441.52	810.97
441.895	813.23
442.27	796.28
442.645	815.49
443.019	829.95
443.394	850.06
443.769	843.06
444.143	825.66
444.518	860.91
444.892	856.16
445.267	868.59
445.641	854.58
446.016	882.38
446.39	856.62
446.764	867.92
447.139	848.25
447.513	883.51
447.887	891.19
448.262	898.42
448.636	908.82
449.01	917.41
449.384	922.83
449.758	910.85
450.132	961.02
450.506	933
450.88	937.07
451.254	931.64
451.628	944.3
452.002	972.77
452.376	1003.73
452.75	969.16
453.123	985.43
453.497	994.47
453.871	1006.22
454.244	1024.75
454.618	1046.22
454.992	1049.38
455.365	1050.28
455.739	1082.37
456.112	1042.15
456.486	1087.12
456.859	1089.38
457.232	1112.43
457.606	1103.84
457.979	1131.64
458.352	1163.27
458.725	1177.29
459.099	1175.7
459.472	1187.91
459.845	1195.59
460.218	1214.12
460.591	1205.31
460.964	1237.62
461.337	1267
461.71	1272.65
462.083	1292.76
462.456	1299.99
462.829	1309.71
463.201	1341.8
463.574	1345.42
463.947	1353.33
464.32	1372.31
464.692	1384.74
465.065	1418.64
465.438	1424.06
465.81	1449.59
466.183	1464.74
466.555	1514.45
466.928	1503.15
467.3	1536.6
467.672	1558.74
468.045	1579.99
468.417	1596.03
468.789	1608.01
469.161	1646.65
469.534	1694.11
469.906	1715.8
470.278	1735.69
470.65	1781.79
471.022	1804.39
471.394	1837.61
471.766	1869.24
472.138	1911.73
472.51	1947.43
472.882	1965.29
473.253	2007.09
473.625	2064.95
473.997	2130.48
474.369	2149.24
474.74	2184.04
475.112	2223.13
475.484	2263.58
475.855	2316.92
476.227	2377.03
476.598	2431.04
476.97	2496.8
477.341	2556.68
477.713	2636
478.084	2664.25
478.455	2777.02
478.827	2845.26
479.198	2895.43
479.569	2977.01
479.94	3065.15
480.311	3141.98
480.682	3257.91
481.053	3356.66
481.424	3433.72
481.795	3498.81
482.166	3540.16
482.537	3687.95
482.908	3810.89
483.279	3885.24
483.65	3964.33
484.021	4106.7
484.391	4154.38
484.762	4229.41
485.133	4381.04
485.503	4465.33
485.874	4643.86
486.244	4747.81
486.615	4879.79
486.985	4956.4
487.356	5193.45
487.726	5243.62
488.097	5381.92
488.467	5469.6
488.837	5679.77
489.207	5758.18
489.578	5939.19
489.948	6058.29
490.318	6220.54
490.688	6258.73
491.058	6442.23
491.428	6585.05
491.798	6703.02
492.168	6904.14
492.538	7018.94
492.908	7112.95
493.278	7314.3
493.648	7363.11
494.017	7576.44
494.387	7733.05
494.757	7844.91
495.126	7972.59
495.496	8085.8
495.866	8246.7
496.235	8380.26
496.605	8449.18
496.974	8527.37
497.344	8708.39
497.713	8836.07
498.082	8986.8
498.452	9120.81
498.821	9248.71
499.19	9239.45
499.559	9403.51
499.928	9543.39
500.298	9627.91
500.667	9791.52
501.036	9849.83
501.405	9947.68
501.774	10017.28
502.143	10149.25
502.512	10156.94
502.88	10387.21
503.249	10492.75
503.618	10535.23
503.987	10643.48
504.356	10672.4
504.724	10766.86
505.093	10836.47
505.462	10928.22
505.83	11087.76
506.199	11167.53
506.567	11262.44
506.936	11294.76
507.304	11452.5
507.672	11539.05
508.041	11531.59
508.409	11644.35
508.777	11772.71
509.145	11855.2
509.514	11845.03
509.882	11986.94
510.25	12021.29
510.618	12069.88
510.986	12163.66
511.354	12230.33
511.722	12323.43
512.09	12414.73
512.458	12325.92
512.826	12507.16
513.193	12598.23
513.561	12585.57
513.929	12647.04
514.297	12803.65
514.664	12811.33
515.032	12789.41
515.4	12956.41
515.767	12945.79
516.135	12952.57
516.502	12882.29
516.869	13103.98
517.237	13119.8
517.604	13073.7
517.972	13150.53
518.339	13245.67
518.706	13194.14
519.073	13237.31
519.44	13257.42
519.808	13351.65
520.175	13360.47
520.542	13543.06
520.909	13494.7
521.276	13465.55
521.643	13558.43
522.009	13698.54
522.376	13678.65
522.743	13632.55
523.11	13756.16
523.477	13765.65
523.843	13844.07
524.21	13991.64
524.577	13964.97
524.943	14008.36
525.31	14002.48
525.676	14080.45
526.043	14030.05
526.409	14138.3
526.776	14179.43
527.142	14143.95
527.508	14242.03
527.874	14263.04
528.241	14270.27
528.607	14232.54
528.973	14268.01
529.339	14268.47
529.705	14306.21
530.071	14348.69
530.437	14388.24
530.803	14337.39
531.169	14307.34
531.535	14367
531.901	14268.69
532.267	14360.89
532.632	14324.28
532.998	14305.08
533.364	14384.85
533.73	14421.68
534.095	14378.07
534.461	14289.26
534.826	14265.08
535.192	14380.78
535.557	14374.68
535.923	14238.41
536.288	14293.78
536.653	14254.68
537.019	14196.83
537.384	14105.53
537.749	14143.95
538.114	14144.63
538.479	14116.38
538.845	14150.73
539.21	14018.08
539.575	14027.34
539.94	14027.34
540.305	14042.94
540.67	13938.98
541.034	13859.89
541.399	13886.78
541.764	13870.74
542.129	13916.39
542.494	13828.7
542.858	13778.08
543.223	13755.26
543.587	13811.76
543.952	13710.06
544.316	13617.64
544.681	13683.62
545.045	13649.5
545.41	13649.27
545.774	13592.55
546.138	13644.75
546.503	13534.25
546.867	13454.25
547.231	13430.3
547.595	13390.98
547.959	13415.38
548.324	13404.99
548.688	13355.5
549.052	13292.22
549.416	13269.62
549.779	13211.55
550.143	13212.9
550.507	13243.41
550.871	13177.2
551.235	13090.64
551.599	13156.18
551.962	13068.95
552.326	13177.87
552.689	13177.42
553.053	13036.18
553.417	12968.39
553.78	13075.73
554.143	12947.37
554.507	13002.51
554.87	12960.25
555.234	13049.06
555.597	12891.55
555.96	12908.28
556.323	12917.77
556.686	12845.68
557.05	12917.54
557.413	12873.25
557.776	12838
558.139	12923.87
558.502	12868.5
558.865	12882.51
559.228	12868.28
559.59	12846.36
559.953	12828.96
560.316	12925.9
560.679	12873.02
561.041	12965.45
561.404	12938.78
561.767	12876.19
562.129	12885.9
562.492	12975.39
562.854	12914.38
563.217	12869.41
563.579	12907.15
563.941	12913.7
564.304	12874.15
564.666	12951.89
565.028	12974.04
565.39	12949.63
565.753	12959.8
566.115	12979.69
566.477	12997.54
566.839	13035.5
567.201	13061.94
567.563	12983.75
567.925	13123.19
568.287	13032.79
568.648	13095.39
569.01	13102.17
569.372	13197.76
569.734	13127.03
570.095	13268.04
570.457	13234.6
570.819	13226.69
571.18	13117.76
571.542	13190.3
571.903	13190.08
572.265	13322.5
572.626	13197.99
572.987	13339.23
573.349	13217.42
573.71	13328.38
574.071	13242.5
574.432	13353.01
574.794	13345.1
575.155	13335.84
575.516	13248.83
575.877	13269.4
576.238	13357.3
576.599	13389.62
576.96	13342.39
577.32	13429.39
577.681	13449.73
578.042	13462.39
578.403	13397.08
578.763	13382.16
579.124	13367.7
579.485	13428.04
579.845	13400.47
580.206	13401.37
580.566	13395.04
580.927	13421.26
581.287	13432.78
581.648	13339.68
582.008	13518.88
582.368	13428.94
582.728	13395.5
583.089	13430.52
583.449	13430.07
583.809	13337.42
584.169	13373.12
584.529	13352.33
584.889	13378.09
585.249	13351.88
585.609	13298.32
585.969	13380.35
586.329	13356.4
586.688	13280.47
587.048	13342.39
587.408	13297.19
587.768	13304.42
588.127	13253.35
588.487	13147.37
588.846	13260.81
589.206	13184.65
589.565	13181.49
589.925	13205.22
590.284	13195.95
590.643	13225.33
591.003	13248.83
591.362	13251.09
591.721	13218.1
592.08	13131.1
592.44	13240.92
592.799	13179
593.158	13219.23
593.517	13159.34
593.876	13197.53
594.235	13156.86
594.593	13126.8
594.952	13175.39
595.311	13093.58
595.67	13088.61
596.029	13168.16
596.387	13218.55
596.746	13175.16
597.104	13107.59
597.463	13104.2
597.822	13221.49
598.18	13105.79
598.538	13060.59
598.897	13074.83
599.255	13108.5
599.613	13174.94
599.972	13067.14
600.33	13240.25
600.688	13166.12
601.046	13191.66
601.404	13151.66
601.762	13141.94
602.12	13282.96
602.478	13154.6
602.836	13152.79
603.194	13126.58
603.552	13173.35
603.91	13080.48
604.268	13099.68
604.625	13056.3
604.983	13152.34
605.341	13078.22
605.698	13157.54
606.056	13076.41
606.413	13100.14
606.771	13198.21
607.128	13128.38
607.485	13032.57
607.843	13104.43
608.2	13185.56
608.557	13191.88
608.914	13167.03
609.272	13183.07
609.629	13239.34
609.986	13241.83
610.343	13174.71
610.7	13258.1
611.057	13252.67
611.414	13253.35
611.771	13270.3
612.127	13393.91
612.484	13360.69
612.841	13296.06
613.198	13309.4
613.554	13372.44
613.911	13344.42
614.267	13366.34
614.624	13301.49
614.98	13359.79
615.337	13336.06
615.693	13397.08
616.05	13335.16
616.406	13463.52
616.762	13402.5
617.118	13356.4
617.475	13489.5
617.831	13506.45
618.187	13392.56
618.543	13516.4
618.899	13527.47
619.255	13505.32
619.611	13527.47
619.967	13473.01
620.323	13541.71
620.678	13440.24
621.034	13491.76
621.39	13552.78
621.746	13430.75
622.101	13605.66
622.457	13515.27
622.812	13509.84
623.168	13482.27
623.523	13548.03
623.879	13577.41
624.234	13580.35
624.589	13532.89
624.945	13471.88
625.3	13581.48
625.655	13483.18
626.01	13545.55
626.365	13553.01
626.72	13485.66
627.075	13524.08
627.43	13498.32
627.785	13415.61
628.14	13524.08
628.495	13483.18
628.85	13491.09
629.205	13477.53
629.559	13475.04
629.914	13459.67
630.269	13518.88
630.623	13418.55
630.978	13376.51
631.332	13505.55
631.687	13383.52
632.041	13459.67
632.396	13438.66
632.75	13397.98
633.104	13451.76
633.459	13322.28
633.813	13346.68
634.167	13334.03
634.521	13319.79
634.875	13254.26
635.229	13256.74
635.583	13163.18
635.937	13222.39
636.291	13172.45
636.645	13160.47
636.999	13171.77
637.352	13162.73
637.706	13113.69
638.06	13237.08
638.413	13129.74
638.767	13231.43
639.121	13133.58
639.474	13077.99
639.828	13034.83
640.181	13086.35
640.534	13055.17
640.888	13026.01
641.241	12937.88
641.594	12974.49
641.947	12983.98
642.301	13020.14
642.654	12973.13
643.007	12943.98
643.36	12967.26
643.713	13028.27
644.066	13010.65
644.419	12930.42
644.771	12844.55
645.124	12773.82
645.477	12740.37
645.83	12696.08
646.182	12558
646.535	12564.1
646.888	12597.78
647.24	12527.04
647.593	12600.04
647.945	12555.52
648.298	12499.93
648.65	12543.31
649.002	12468.29
649.355	12524.33
649.707	12492.92
650.059	12585.12
650.411	12769.97
650.763	12701.05
651.115	12816.98
651.467	12758.22
651.819	12733.14
652.171	12765.23
652.523	12766.13
652.875	12784.89
653.227	12696.53
653.578	12835.74
653.93	12678
654.282	12731.56
654.633	12763.42
654.985	12727.72
655.337	12719.13
655.688	12799.58
656.039	12778.56
656.391	12701.5
656.742	12741.05
657.094	12710.32
657.445	12819.92
657.796	12767.04
658.147	12711.45
658.498	12715.51
658.849	12783.08
659.2	12713.93
659.551	12766.36
659.902	12789.64
660.253	12817.66
660.604	12747.6
660.955	12693.59
661.306	12829.63
661.656	12807.71
662.007	12753.03
662.358	12845.45
662.708	12835.51
663.059	12840.71
663.409	12733.82
663.76	12791.9
664.11	12861.72
664.461	12785.57
664.811	12845.45
665.161	12862.18
665.511	12847.04
665.862	12709.64
666.212	12890.65
666.562	12828.5
666.912	12880.93
667.262	12827.6
667.612	12841.16
667.962	12880.48
668.312	12844.32
668.662	12895.4
669.011	12790.99
669.361	12760.94
669.711	12777.88
670.06	12779.01
670.41	12733.59
670.76	12738.79
671.109	12827.83
671.459	12707.38
671.808	12760.26
672.157	12782.4
672.507	12720.94
672.856	12687.72
673.205	12727.49
673.554	12724.55
673.904	12638.45
674.253	12826.47
674.602	12671.9
674.951	12507.16
675.3	12392.58
675.649	12665.12
675.998	12611.79
676.346	12634.39
676.695	12737.43
677.044	12602.97
677.393	12590.54
677.741	12589.87
678.09	12589.87
678.438	12443.88
678.787	12631.22
679.135	12511
679.484	12458.34
679.832	12436.2
680.181	12354.62
680.529	12406.82
680.877	12414.05
681.225	12384
681.573	12376.76
681.922	12367.73
682.27	12329.08
682.618	12310.1
682.966	12300.38
683.314	12310.78
683.661	12289.31
684.009	12235.3
684.357	12220.38
684.705	12156.88
685.053	12111.01
685.4	12176.77
685.748	12125.92
686.095	12060.16
686.443	12042.54
686.79	11989.66
687.138	12028.3
687.485	11983.33
687.832	11936.55
688.18	12019.26
688.527	11935.19
688.874	11867.85
689.221	11816.55
689.568	11738.82
689.915	11773.62
690.262	11718.93
690.609	11675.77
690.956	11663.34
691.303	11604.36
691.65	11539.27
691.997	11594.86
692.344	11505.83
692.69	11497.69
693.037	11486.17
693.383	11441.87
693.73	11408.43
694.077	11297.92
694.423	11368.66
694.769	11276
695.116	11256.34
695.462	11193.29
695.808	11240.52
696.155	11215.89
696.501	11045.27
696.847	11039.17
697.193	10966.86
697.539	11034.2
697.885	10936.8
698.231	10937.93
698.577	10884.83
698.923	10891.83
699.269	10751.04
699.614	10717.37
699.96	10714.89
700.306	10719.41
700.651	10618.85
700.997	10574.1
701.342	10557.83
701.688	10586.3
702.033	10559.86
702.379	10505.18
702.724	10478.96
703.069	10480.32
703.415	10345.41
703.76	10391.51
704.105	10358.06
704.45	10321.9
704.795	10265.18
705.14	10179.53
705.485	10236.03
705.83	10204.17
706.175	10149.7
706.52	10127.56
706.865	10050.72
707.209	10090.5
707.554	10015.02
707.899	9987.68
708.243	9952.87
708.588	9946.77
708.932	9913.33
709.277	9850.28
709.621	9916.49
709.966	9763.73
710.31	9868.58
710.654	9737.74
710.998	9738.42
711.342	9692.32
711.687	9712.2
712.031	9727.8
712.375	9720.79
712.719	9651.41
713.063	9590.4
713.407	9585.88
713.75	9574.58
714.094	9592.66
714.438	9485.32
714.782	9579.1
715.125	9552.43
715.469	9474.92
715.812	9494.81
716.156	9429.95
716.499	9436.96
716.843	9481.93
717.186	9397.41
717.53	9453.9
717.873	9476.28
718.216	9388.59
718.559	9386.11
718.902	9306.56
719.246	9370.52
719.589	9269.28
719.932	9267.69
720.275	9246.23
720.617	9248.71
720.96	9209.16
721.303	9227.02
721.646	9219.79
721.989	9164.42
722.331	9222.95
722.674	9155.15
723.016	9167.36
723.359	9201.48
723.701	9153.8
724.044	9097.3
724.386	9104.76
724.729	9187.7
725.071	9156.74
725.413	9127.81
725.755	9110.18
726.097	9067.02
726.439	9054.59
726.782	9016.85
727.124	9086.68
727.465	9000.58
727.807	9069.28
728.149	9022.5
728.491	8993.13
728.833	8993.58
729.175	9043.52
729.516	8999.68
729.858	8977.08
730.199	9009.62
730.541	8974.59
730.882	9023.86
731.224	8993.35
731.565	8911.55
731.906	9020.02
732.248	9015.05
732.589	8913.13
732.93	8913.81
733.271	8922.62
733.612	8937.08
733.953	9010.07
734.294	8915.39
734.635	8997.19
734.976	8983.18
735.317	8912.45
735.658	8941.38
735.999	8964.2
736.339	8887.37
736.68	8980.47
737.021	8962.84
737.361	8961.49
737.702	9002.39
738.042	9013.46
738.383	9011.2
738.723	9013.69
739.063	8943.86
739.404	9019.79
739.744	9040.81
740.084	9003.97
740.424	9093.69
740.764	9038.77
741.104	9084.65
741.444	9067.02
741.784	9062.05
742.124	9086.91
742.464	9143.18
742.804	9164.42
743.143	9151.31
743.483	9167.81
743.823	9229.05
744.162	9220.01
744.502	9227.47
744.841	9220.24
745.181	9319.9
745.52	9308.37
745.86	9375.71
746.199	9407.35
746.538	9462.04
746.877	9499.55
747.216	9504.98
747.556	9592.66
747.895	9577.06
748.234	9578.87
748.573	9599.66
748.911	9745.87
749.25	9845.08
749.589	9840.33
749.928	9957.62
750.267	10056.6
750.605	10016.83
750.944	10123.49
751.283	10199.65
751.621	10219.08
751.96	10310.83
752.298	10387.89
752.636	10574.78
752.975	10596.47
753.313	10774.55
753.651	10865.17
753.989	10904.71
754.327	10972.06
754.666	10996.01
755.004	11216.12
755.342	11374.08
755.679	11520.97
756.017	11610.91
756.355	11792.15
756.693	11891.81
757.031	12038.92
757.368	12155.53
757.706	12325.24
758.044	12506.25
758.381	12671.45
758.719	12754.83
759.056	12885
