Data from hue_140_FLMS001491_00067.txt Node
Date: Tue Feb 07 16:56:15 GMT 2017
User: dcchb
Spectrometer: FLMS00149
Trigger mode: 0
Integration Time (sec): 2.000000E-2
Scans to average: 10
Electric dark correction enabled: true
Nonlinearity correction enabled: false
Boxcar width: 0
XAxis mode: Wavelengths
Number of Pixels in Spectrum: 2048
>>>>>Begin Spectral Data<<<<<
341.393	-6.65
341.776	-6.65
342.16	-6.65
342.543	-65.63
342.927	-62.47
343.31	-56.59
343.693	-97.95
344.077	-75.58
344.46	-57.72
344.843	-64.96
345.226	-22.92
345.61	-43.26
345.993	-9.36
346.376	-4.39
346.759	20.69
347.142	14.14
347.525	36.74
347.908	72.67
348.291	61.14
348.674	101.82
349.057	125.55
349.44	143.4
349.823	129.16
350.206	157.19
350.588	179.78
350.971	205.55
351.354	208.26
351.737	243.06
352.119	241.7
352.502	248.71
352.884	274.7
353.267	300.68
353.65	281.02
354.032	297.07
354.414	319.67
354.797	320.12
355.179	305.43
355.562	314.7
355.944	320.57
356.326	346.78
356.709	337.29
357.091	334.58
357.473	343.62
357.855	325.54
358.238	335.26
358.62	327.35
359.002	355.6
359.384	326.45
359.766	329.61
360.148	354.92
360.53	322.38
360.912	348.82
361.294	337.75
361.676	345.2
362.057	336.62
362.439	312.21
362.821	322.38
363.203	334.81
363.584	323.06
363.966	305.2
364.348	326.45
364.729	317.18
365.111	324.19
365.493	314.7
365.874	335.03
366.256	298.42
366.637	317.63
367.019	296.16
367.4	292.77
367.781	335.26
368.163	297.97
368.544	309.95
368.925	335.94
369.306	321.7
369.688	335.03
370.069	313.11
370.45	320.57
370.831	304.07
371.212	321.7
371.593	305.2
371.974	318.31
372.355	293
372.736	307.69
373.117	329.16
373.498	331.42
373.879	319.21
374.26	318.99
374.641	303.85
375.021	331.19
375.402	304.3
375.783	292.77
376.163	325.99
376.544	314.7
376.925	337.29
377.305	306.33
377.686	318.54
378.066	314.47
378.447	338.42
378.827	317.18
379.208	323.51
379.588	330.51
379.968	333.23
380.349	331.64
380.729	327.12
381.109	341.14
381.489	334.58
381.87	346.78
382.25	350.63
382.63	335.71
383.01	350.4
383.39	337.52
383.77	331.19
384.15	356.05
384.53	327.12
384.91	348.14
385.29	324.86
385.67	351.98
386.049	341.59
386.429	356.5
386.809	360.8
387.189	355.37
387.568	342.27
387.948	367.8
388.328	373.22
388.707	386.11
389.087	369.16
389.466	366.45
389.846	351.08
390.225	374.58
390.605	346.78
390.984	351.98
391.363	358.99
391.743	363.51
392.122	388.37
392.501	364.64
392.881	368.48
393.26	363.28
393.639	372.09
394.018	369.83
394.397	390.85
394.776	363.06
395.155	382.26
395.534	361.02
395.913	378.2
396.292	367.35
396.671	384.98
397.05	390.17
397.429	387.01
397.808	390.63
398.186	387.24
398.565	366.22
398.944	393.11
399.323	391.08
399.701	387.69
400.08	396.95
400.458	387.24
400.837	403.96
401.215	418.65
401.594	408.93
401.972	396.27
402.351	410.06
402.729	433.56
403.107	409.16
403.486	402.15
403.864	411.42
404.242	445.09
404.62	410.06
404.999	401.47
405.377	422.94
405.755	430.17
406.133	434.24
406.511	409.38
406.889	440.34
407.267	441.92
407.645	441.02
408.023	414.81
408.401	425.2
408.779	436.95
409.156	421.81
409.534	437.18
409.912	449.38
410.29	454.35
410.667	450.28
411.045	469.95
411.422	457.74
411.8	447.35
412.178	486.44
412.555	449.15
412.933	468.14
413.31	470.17
413.687	471.08
414.065	470.4
414.442	499.32
414.819	487.35
415.197	501.13
415.574	495.03
415.951	499.55
416.328	488.93
416.705	479.21
417.082	495.03
417.46	524.63
417.837	511.07
418.214	516.95
418.591	520.34
418.967	516.72
419.344	513.79
419.721	498.42
420.098	518.31
420.475	512.88
420.852	542.94
421.228	547.01
421.605	543.39
421.982	553.11
422.358	551.07
422.735	533.22
423.111	538.42
423.488	541.58
423.864	554.46
424.241	558.3
424.617	559.21
424.994	582.71
425.37	574.12
425.746	566.44
426.123	572.09
426.499	571.64
426.875	585.2
427.251	579.32
427.627	612.54
428.003	610.51
428.379	590.62
428.756	615.25
429.132	599.21
429.507	633.56
429.883	605.99
430.259	629.04
430.635	645.53
431.011	612.77
431.387	640.79
431.763	639.66
432.138	651.86
432.514	664.06
432.89	662.26
433.265	676.04
433.641	680.79
434.016	676.27
434.392	683.72
434.767	680.11
435.143	709.94
435.518	716.04
435.894	706.32
436.269	683.5
436.644	701.13
437.02	723.27
437.395	719.2
437.77	739.09
438.145	753.33
438.52	749.49
438.895	764.63
439.271	764.85
439.646	788.81
440.021	766.66
440.395	777.28
440.77	784.06
441.145	803.27
441.52	802.59
441.895	798.75
442.27	793.33
442.645	810.95
443.019	822.03
443.394	793.55
443.769	816.15
444.143	822.7
444.518	824.74
444.892	838.07
445.267	830.61
445.641	837.62
446.016	869.26
446.39	849.14
446.764	870.16
447.139	849.6
447.513	869.93
447.887	857.51
448.262	875.36
448.636	865.42
449.01	886.66
449.384	898.63
449.758	899.99
450.132	900.67
450.506	901.8
450.88	922.81
451.254	905.19
451.628	962.14
452.002	945.41
452.376	947.67
452.75	976.82
453.123	958.07
453.497	963.94
453.871	995.13
454.244	1024.28
454.618	1004.39
454.992	1003.94
455.365	1001.46
455.739	1058.63
456.112	1058.18
456.486	1055.01
456.859	1092.53
457.232	1077.84
457.606	1084.62
457.979	1081
458.352	1113.77
458.725	1123.26
459.099	1123.04
459.472	1127.78
459.845	1159.64
460.218	1171.62
460.591	1182.47
460.964	1219.76
461.337	1210.94
461.71	1251.62
462.083	1245.07
462.456	1272.64
462.829	1285.74
463.201	1275.8
463.574	1306.53
463.947	1294.1
464.32	1301.79
464.692	1377.49
465.065	1358.74
465.438	1409.13
465.81	1411.39
466.183	1439.86
466.555	1469.69
466.928	1480.99
467.3	1481.67
467.672	1492.97
468.045	1547.88
468.417	1558.73
468.789	1573.42
469.161	1651.16
469.534	1629.01
469.906	1665.62
470.278	1661.55
470.65	1731.83
471.022	1771.15
471.394	1787.2
471.766	1826.52
472.138	1846.63
472.51	1891.38
472.882	1949.91
473.253	1991.04
473.625	2004.37
473.997	2048.43
474.369	2084.82
474.74	2095.44
475.112	2178.6
475.484	2201.88
475.855	2252.05
476.227	2306.51
476.598	2412.04
476.97	2419.5
477.341	2517.35
477.713	2543.11
478.084	2581.3
478.455	2694.29
478.827	2728.87
479.198	2806.16
479.569	2865.14
479.94	2984.68
480.311	3040.5
480.682	3086.83
481.053	3241.17
481.424	3285.24
481.795	3365.46
482.166	3436.87
482.537	3538.79
482.908	3660.37
483.279	3715.74
483.65	3821.95
484.021	3979.91
484.391	4039.79
484.762	4136.06
485.133	4225.33
485.503	4324.76
485.874	4501.7
486.244	4556.39
486.615	4702.6
486.985	4780.11
487.356	4956.15
487.726	5029.15
488.097	5147.11
488.467	5279.76
488.837	5385.07
489.207	5462.81
489.578	5662.58
489.948	5723.14
490.318	5922.68
490.688	5974.21
491.058	6139.85
491.428	6336.68
491.798	6440.41
492.168	6559.5
492.538	6712.27
492.908	6806.28
493.278	6976.67
493.648	7020.28
494.017	7149.77
494.387	7292.36
494.757	7444.45
495.126	7598.57
495.496	7660.72
495.866	7755.18
496.235	7943.87
496.605	8060.48
496.974	8169.63
497.344	8281.72
497.713	8333.47
498.082	8503.41
498.452	8568.26
498.821	8714.7
499.19	8745.21
499.559	8933.23
499.928	9051.87
500.298	9177.51
500.667	9217.06
501.036	9245.31
501.405	9423.16
501.774	9431.07
502.143	9582.25
502.512	9672.87
502.88	9745.18
503.249	9770.72
503.618	9858.4
503.987	9962.13
504.356	10042.35
504.724	10142.46
505.093	10111.95
505.462	10226.07
505.83	10299.52
506.199	10376.13
506.567	10550.81
506.936	10584.48
507.304	10712.16
507.672	10791.48
508.041	10789.9
508.409	10965.04
508.777	10949.44
509.145	11074.64
509.514	11111.47
509.882	11132.72
510.25	11087.52
510.618	11248.87
510.986	11242.32
511.354	11397.34
511.722	11456.78
512.09	11461.52
512.458	11518.47
512.826	11597.79
513.193	11590.56
513.561	11671.91
513.929	11722.08
514.297	11757.33
514.664	11918.23
515.032	11826.93
515.4	11935.41
515.767	11937.21
516.135	12019.47
516.502	11888.4
516.869	12141.05
517.237	12115.51
517.604	12021.51
517.972	12218.79
518.339	12219.24
518.706	12236.64
519.073	12222.4
519.44	12294.27
519.808	12369.07
520.175	12293.59
520.542	12459.91
520.909	12536.29
521.276	12386.02
521.643	12557.31
522.009	12568.84
522.376	12645.67
522.743	12615.39
523.11	12634.37
523.477	12717.08
523.843	12783.52
524.21	12893.8
524.577	12908.26
524.943	12922.27
525.31	12880.47
525.676	13002.95
526.043	12911.43
526.409	13011.08
526.776	13119.78
527.142	13006.34
527.508	13145.54
527.874	13114.81
528.241	13128.14
528.607	13086.11
528.973	13126.56
529.339	13082.04
529.705	13237.07
530.071	13227.35
530.437	13193.68
530.803	13183.28
531.169	13217.86
531.535	13205.66
531.901	13179.89
532.267	13113.91
532.632	13184.87
532.998	13136.05
533.364	13227.58
533.73	13193.68
534.095	13235.94
534.461	13154.13
534.826	13214.92
535.192	13146.45
535.557	13186.45
535.923	13150.97
536.288	13179.67
536.653	13073.46
537.019	13009.5
537.384	13044.3
537.749	13109.84
538.114	12996.85
538.479	13016.28
538.845	12924.99
539.21	12879.34
539.575	12921.6
539.94	12864.2
540.305	12873.46
540.67	12851.77
541.034	12839.11
541.399	12829.85
541.764	12740.36
542.129	12742.84
542.494	12655.84
542.858	12694.93
543.223	12688.16
543.587	12646.8
543.952	12560.93
544.316	12527.03
544.681	12483.41
545.045	12557.99
545.41	12517.09
545.774	12536.07
546.138	12427.37
546.503	12445.45
546.867	12404.32
547.231	12435.05
547.595	12293.82
547.959	12359.35
548.324	12265.12
548.688	12260.82
549.052	12237.32
549.416	12248.62
549.779	12218.34
550.143	12240.71
550.507	12193.7
550.871	12208.39
551.235	12138.57
551.599	12158
551.962	12094.5
552.326	12008.17
552.689	12068.74
553.053	11990.55
553.417	11970.43
553.78	12041.62
554.143	11925.69
554.507	11984.67
554.87	11895.63
555.234	11995.29
555.597	11876.2
555.96	11934.05
556.323	11941.96
556.686	11841.62
557.05	11881.4
557.413	11830.55
557.776	11841.62
558.139	11826.48
558.502	11830.1
558.865	11807.73
559.228	11878.68
559.59	11902.19
559.953	11866.48
560.316	11891.57
560.679	11836.43
561.041	11931.11
561.404	11883.88
561.767	11899.48
562.129	11882.07
562.492	11905.12
562.854	11802.3
563.217	11893.6
563.579	11876.88
563.941	11859.25
564.304	11951.9
564.666	11969.76
565.028	11890.21
565.39	12035.74
565.753	12023.77
566.115	12046.59
566.477	11995.29
566.839	11972.69
567.201	12055.63
567.563	11988.74
567.925	12109.64
568.287	12066.93
568.648	12025.8
569.01	12177.89
569.372	12152.12
569.734	12068.28
570.095	12193.03
570.457	12146.25
570.819	12166.13
571.18	12123.88
571.542	12195.74
571.903	12216.76
572.265	12204.55
572.626	12319.58
572.987	12174.95
573.349	12297.88
573.71	12274.83
574.071	12258.79
574.432	12296.53
574.794	12318.45
575.155	12298.56
575.516	12291.1
575.877	12312.12
576.238	12345.11
576.599	12354.15
576.96	12312.57
577.32	12330.42
577.681	12359.12
578.042	12399.12
578.403	12291.33
578.763	12301.95
579.124	12368.62
579.485	12430.76
579.845	12449.97
580.206	12416.75
580.566	12374.94
580.927	12434.83
581.287	12433.47
581.648	12386.24
582.008	12312.35
582.368	12425.56
582.728	12420.37
583.089	12295.4
583.449	12403.87
583.809	12312.12
584.169	12305.79
584.529	12319.13
584.889	12411.1
585.249	12340.82
585.609	12201.84
585.969	12349.86
586.329	12358.9
586.688	12296.53
587.048	12294.72
587.408	12260.37
587.768	12301.05
588.127	12192.57
588.487	12165
588.846	12385.56
589.206	12139.92
589.565	12156.64
589.925	12257.88
590.284	12237.77
590.643	12269.86
591.003	12295.62
591.362	12275.06
591.721	12230.99
592.08	12160.26
592.44	12253.59
592.799	12286.81
593.158	12221.95
593.517	12184.44
593.876	12186.7
594.235	12138.57
594.593	12121.62
594.952	12132.69
595.311	12120.94
595.67	12081.17
596.029	12238.45
596.387	12226.7
596.746	12139.02
597.104	12193.93
597.463	12164.55
597.822	12207.49
598.18	12114.84
598.538	12110.77
598.897	12136.08
599.255	12062.41
599.613	12233.03
599.972	12100.37
600.33	12155.51
600.688	12149.19
601.046	12117.1
601.404	12108.74
601.762	12145.57
602.12	12160.49
602.478	12145.34
602.836	12131.11
603.194	12119.13
603.552	12113.93
603.91	12112.8
604.268	12175.63
604.625	12068.96
604.983	12166.81
605.341	12109.87
605.698	12179.92
606.056	12210.43
606.413	12140.82
606.771	12193.25
607.128	12185.57
607.485	12165
607.843	12187.83
608.2	12291.78
608.557	12357.54
608.914	12233.03
609.272	12301.5
609.629	12241.16
609.986	12333.36
610.343	12254.72
610.7	12319.8
611.057	12271.67
611.414	12306.47
611.771	12321.84
612.127	12337.88
612.484	12340.82
612.841	12351.67
613.198	12340.82
613.554	12316.41
613.911	12390.54
614.267	12369.75
614.624	12301.95
614.98	12353.25
615.337	12348.05
615.693	12369.07
616.05	12408.84
616.406	12467.6
616.762	12357.32
617.118	12376.07
617.475	12417.2
617.831	12416.52
618.187	12445.68
618.543	12453.13
618.899	12602.96
619.255	12573.58
619.611	12603.86
619.967	12655.39
620.323	12565.22
620.678	12543.98
621.034	12536.07
621.39	12506.01
621.746	12548.95
622.101	12606.35
622.457	12538.1
622.812	12536.97
623.168	12599.57
623.523	12601.15
623.879	12577.42
624.234	12469.18
624.589	12556.18
624.945	12503.98
625.3	12631.43
625.655	12571.1
626.01	12531.32
626.365	12499.01
626.72	12538.78
627.075	12460.82
627.43	12551.89
627.785	12514.6
628.14	12508.5
628.495	12505.34
628.85	12510.98
629.205	12476.18
629.559	12532.68
629.914	12410.42
630.269	12523.64
630.623	12451.55
630.978	12405.22
631.332	12431.66
631.687	12519.35
632.041	12367.49
632.396	12444.77
632.75	12375.62
633.104	12358.22
633.459	12388.95
633.813	12365.68
634.167	12266.92
634.521	12339.92
634.875	12358.67
635.229	12310.31
635.583	12237.32
635.937	12208.39
636.291	12247.49
636.645	12147.15
636.999	12173.14
637.352	12202.07
637.706	12127.04
638.06	12198.68
638.413	12218.79
638.767	12125.68
639.121	12099.47
639.474	12060.83
639.828	12121.16
640.181	12111.45
640.534	12111
640.888	12045.23
641.241	11906.48
641.594	12084.33
641.947	12101.96
642.301	12077.78
642.654	12061.05
643.007	12025.12
643.36	12056.31
643.713	11948.97
644.066	12100.6
644.419	11980.15
644.771	11937.89
645.124	11833.71
645.477	11854.05
645.83	11745.58
646.182	11695.64
646.535	11602.08
646.888	11678.69
647.24	11588.3
647.593	11632.36
647.945	11685.92
648.298	11595.3
648.65	11551.91
649.002	11492.03
649.355	11621.52
649.707	11537.22
650.059	11636.43
650.411	11792.59
650.763	11756.65
651.115	11849.08
651.467	11840.27
651.819	11907.61
652.171	11821.96
652.523	11792.13
652.875	11793.94
653.227	11810.44
653.578	11880.72
653.93	11912.36
654.282	11745.58
654.633	11819.03
654.985	11857.67
655.337	11799.59
655.688	11831.68
656.039	11902.86
656.391	11842.98
656.742	11827.16
657.094	11769.76
657.445	11850.44
657.796	11781.29
658.147	11824.22
658.498	11818.35
658.849	11783.55
659.2	11830.1
659.551	11823.55
659.902	11887.72
660.253	11872.58
660.604	11901.51
660.955	11820.16
661.306	11823.09
661.656	11774.73
662.007	11937.21
662.358	11906.93
662.708	11821.29
663.059	11863.09
663.409	11809.99
663.76	11891.79
664.11	11918.46
664.461	11896.31
664.811	11864
665.161	11872.13
665.511	11806.6
665.862	11817.44
666.212	11906.25
666.562	11884.11
666.912	11811.34
667.262	11781.74
667.612	11783.09
667.962	11858.35
668.312	11811.57
668.662	11930.43
669.011	11799.36
669.361	11750.55
669.711	11780.61
670.06	11788.97
670.41	11786.94
670.76	11788.74
671.109	11770.89
671.459	11774.73
671.808	11747.39
672.157	11837.56
672.507	11700.84
672.856	11718.46
673.205	11707.62
673.554	11755.75
673.904	11757.78
674.253	11786.71
674.602	11707.16
674.951	11528.64
675.3	11575.64
675.649	11710.55
675.998	11711.01
676.346	11711.01
676.695	11692.25
677.044	11643.21
677.393	11644.79
677.741	11637.34
678.09	11663.78
678.438	11638.24
678.787	11577.22
679.135	11595.75
679.484	11529.99
679.832	11618.13
680.181	11549.88
680.529	11532.48
680.877	11454.06
681.225	11495.19
681.573	11511.24
681.922	11426.72
682.27	11414.29
682.618	11379.71
682.966	11339.04
683.314	11423.33
683.661	11341.52
684.009	11367.29
684.357	11287.29
684.705	11245.48
685.053	11287.29
685.4	11338.36
685.748	11161.19
686.095	11142.66
686.443	11167.74
686.79	11147.63
687.138	11130
687.485	11224.46
687.832	11085.71
688.18	11093.85
688.527	11099.5
688.874	11029.89
689.221	10977.47
689.568	10973.62
689.915	10918.26
690.262	10906.06
690.609	10857.24
690.956	10803.46
691.303	10861.99
691.65	10706.96
691.997	10778.15
692.344	10627.87
692.69	10580.64
693.037	10660.64
693.383	10610.24
693.73	10567.08
694.077	10506.29
694.423	10419.29
694.769	10485.28
695.116	10423.58
695.462	10443.24
695.808	10388.55
696.155	10444.37
696.501	10329.12
696.847	10316.01
697.193	10227.88
697.539	10280.08
697.885	10229.01
698.231	10098.17
698.577	10141.33
698.923	10042.12
699.269	10018.62
699.614	10041.9
699.96	9959.64
700.306	9949.47
700.651	9893.65
700.997	9856.59
701.342	9809.13
701.688	9823.82
702.033	9737.5
702.379	9731.4
702.724	9657.73
703.069	9729.59
703.415	9619.76
703.76	9643.26
704.105	9660.66
704.45	9579.31
704.795	9487.79
705.14	9464.06
705.485	9427.9
705.83	9443.04
706.175	9498.18
706.52	9407.56
706.865	9341.8
707.209	9399.2
707.554	9339.32
707.899	9341.35
708.243	9343.61
708.588	9244.18
708.932	9183.39
709.277	9203.73
709.621	9201.92
709.966	9085.09
710.31	9138.19
710.654	9061.81
710.998	9058.87
711.342	9082.83
711.687	9038.76
712.031	9045.54
712.375	8948.59
712.719	8935.49
713.063	8981.13
713.407	8987.01
713.75	8901.36
714.094	8906.56
714.438	8839.22
714.782	8835.6
715.125	8821.59
715.469	8839.67
715.812	8790.86
716.156	8715.15
716.499	8731.42
716.843	8796.96
717.186	8702.5
717.53	8766.68
717.873	8727.58
718.216	8722.61
718.559	8632.22
718.902	8636.51
719.246	8538.66
719.589	8601.71
719.932	8599.68
720.275	8575.95
720.617	8566.46
720.96	8583.86
721.303	8605.78
721.646	8554.03
721.989	8544.99
722.331	8604.42
722.674	8520.58
723.016	8506.12
723.359	8452.33
723.701	8492.33
724.044	8429.96
724.386	8441.26
724.729	8507.02
725.071	8427.02
725.413	8492.33
725.755	8451.2
726.097	8427.25
726.439	8355.39
726.782	8407.14
727.124	8470.64
727.465	8446.68
727.807	8405.56
728.149	8410.3
728.491	8362.39
728.833	8440.58
729.175	8378.89
729.516	8358.78
729.858	8376.4
730.199	8373.24
730.541	8395.84
730.882	8351.32
731.224	8387.48
731.565	8348.16
731.906	8315.61
732.248	8327.37
732.589	8300.25
732.93	8315.84
733.271	8312
733.612	8365.33
733.953	8333.92
734.294	8281.72
734.635	8344.31
734.976	8331.21
735.317	8251.89
735.658	8287.59
735.999	8240.14
736.339	8334.15
736.68	8360.36
737.021	8285.56
737.361	8304.54
737.702	8307.48
738.042	8352.9
738.383	8363.52
738.723	8284.88
739.063	8334.15
739.404	8324.88
739.744	8309.97
740.084	8323.07
740.424	8409.62
740.764	8358.78
741.104	8376.4
741.444	8359.68
741.784	8361.94
742.124	8473.8
742.464	8488.04
742.804	8459.11
743.143	8432.22
743.483	8425.89
743.823	8512.45
744.162	8507.93
744.502	8573.24
744.841	8528.04
745.181	8551.31
745.52	8575.27
745.86	8660.01
746.199	8678.32
746.538	8777.52
746.877	8819.1
747.216	8858.43
747.556	8828.14
747.895	8910.85
748.234	8944.07
748.573	8907.92
748.911	9048.25
749.25	9053.9
749.589	9101.13
749.928	9236.95
750.267	9289.37
750.605	9324.18
750.944	9358.3
751.283	9417.73
751.621	9513.32
751.96	9512.19
752.298	9667.44
752.636	9753.99
752.975	9741.11
753.313	9885.52
753.651	10053.65
753.989	10005.06
754.327	10174.32
754.666	10252.29
755.004	10402.11
755.342	10533.64
755.679	10692.05
756.017	10727.75
756.355	10917.35
756.693	10933.62
757.031	11093.39
757.368	11177.01
757.706	11334.07
758.044	11407.51
758.381	11588.75
758.719	11749.87
759.056	11952.58
759.394	12015.4
