Data from hue_230_FLMS001491_00049.txt Node
Date: Tue Feb 07 16:37:17 GMT 2017
User: dcchb
Spectrometer: FLMS00149
Trigger mode: 0
Integration Time (sec): 2.000000E-2
Scans to average: 10
Electric dark correction enabled: true
Nonlinearity correction enabled: false
Boxcar width: 0
XAxis mode: Wavelengths
Number of Pixels in Spectrum: 2048
>>>>>Begin Spectral Data<<<<<
341.393	3.01
341.776	3.01
342.16	3.01
342.543	-69.31
342.927	-75.41
343.31	-77.44
343.693	-61.17
344.077	-47.61
344.46	-68.18
344.843	-58.46
345.226	-40.61
345.61	-30.89
345.993	-18.69
346.376	-5.58
346.759	5.49
347.142	17.47
347.525	49.56
347.908	59.5
348.291	85.27
348.674	77.58
349.057	113.74
349.44	130.69
349.823	144.7
350.206	178.82
350.588	184.92
350.971	216.34
351.354	211.59
351.737	239.61
352.119	232.61
352.502	245.94
352.884	267.18
353.267	275.54
353.65	273.96
354.032	287.07
354.414	308.54
354.797	295.66
355.179	319.16
355.562	298.59
355.944	310.34
356.326	330.46
356.709	312.6
357.091	339.27
357.473	326.62
357.855	324.58
358.238	327.29
358.62	344.69
359.002	326.62
359.384	334.98
359.766	338.59
360.148	326.16
360.53	327.52
360.912	322.55
361.294	318.93
361.676	333.4
362.057	328.42
362.439	316.67
362.821	302.21
363.203	317.12
363.584	319.38
363.966	312.15
364.348	303.79
364.729	304.47
365.111	285.94
365.493	329.78
365.874	320.06
366.256	292.04
366.637	326.39
367.019	309.89
367.4	304.24
367.781	299.5
368.163	315.09
368.544	308.99
368.925	286.62
369.306	295.2
369.688	295.88
370.069	297.69
370.45	320.29
370.831	286.84
371.212	316.67
371.593	290.46
371.974	335.2
372.355	302.21
372.736	289.78
373.117	300.85
373.498	302.66
373.879	317.35
374.26	312.38
374.641	327.75
375.021	319.61
375.402	295.2
375.783	311.7
376.163	307.86
376.544	322.77
376.925	299.27
377.305	312.38
377.686	326.62
378.066	311.7
378.447	317.8
378.827	324.58
379.208	313.51
379.588	311.25
379.968	331.59
380.349	336.11
380.729	323
381.109	339.5
381.489	327.97
381.87	335.2
382.25	320.29
382.63	321.42
383.01	287.07
383.39	337.01
383.77	343.34
384.15	302.44
384.53	333.4
384.91	333.85
385.29	320.51
385.67	347.41
386.049	339.5
386.429	336.78
386.809	340.17
387.189	350.8
387.568	339.72
387.948	338.59
388.328	354.41
388.707	347.41
389.087	348.31
389.466	361.64
389.846	348.31
390.225	346.95
390.605	341.3
390.984	340.85
391.363	347.63
391.743	346.5
392.122	356.67
392.501	349.21
392.881	360.06
393.26	361.42
393.639	354.19
394.018	374.52
394.397	362.55
394.776	360.51
395.155	369.1
395.534	360.51
395.913	380.63
396.292	383.34
396.671	372.72
397.05	375.88
397.429	389.21
397.808	404.35
398.186	381.76
398.565	397.12
398.944	370.46
399.323	376.11
399.701	368.87
400.08	390.57
400.458	394.41
400.837	395.99
401.215	377.24
401.594	397.35
401.972	395.31
402.351	396.22
402.729	413.17
403.107	417.46
403.486	410.68
403.864	398.7
404.242	414.97
404.62	414.07
404.999	451.81
405.377	435.31
405.755	424.24
406.133	450.91
406.511	419.72
406.889	429.44
407.267	444.58
407.645	438.03
408.023	433.96
408.401	465.6
408.779	463.79
409.156	462.66
409.534	465.14
409.912	478.25
410.29	473.73
410.667	491.58
411.045	497.46
411.422	501.07
411.8	503.33
412.178	503.33
412.555	504.92
412.933	521.19
413.31	525.71
413.687	548.53
414.065	532.94
414.442	537.23
414.819	570.45
415.197	548.76
415.574	558.02
415.951	589.43
416.328	564.35
416.705	585.37
417.082	601.86
417.46	579.04
417.837	593.28
418.214	580.62
418.591	617.91
418.967	599.83
419.344	618.81
419.721	644.57
420.098	640.73
420.475	652.03
420.852	637.79
421.228	672.6
421.605	677.11
421.982	678.02
422.358	686.38
422.735	685.7
423.111	720.05
423.488	733.84
423.864	715.31
424.241	730.22
424.617	747.17
424.994	756.66
425.37	757.11
425.746	768.86
426.123	786.04
426.499	787.17
426.875	788.52
427.251	798.24
427.627	815.42
428.003	835.98
428.379	857.9
428.756	848.86
429.132	849.54
429.507	866.04
429.883	877.34
430.259	880.27
430.635	875.98
431.011	905.58
431.387	908.75
431.763	945.36
432.138	954.17
432.514	930.67
432.89	963.66
433.265	984.9
433.641	988.07
434.016	991.01
434.392	1010.44
434.767	1035.98
435.143	1042.76
435.518	1047.05
435.894	1099.25
436.269	1099.93
436.644	1090.44
437.02	1127.5
437.395	1134.28
437.77	1127.5
438.145	1165.92
438.52	1188.97
438.895	1198.01
439.271	1228.96
439.646	1242.3
440.021	1269.19
440.395	1246.14
440.77	1249.3
441.145	1267.38
441.52	1293.37
441.895	1301.51
442.27	1329.75
442.645	1339.7
443.019	1349.41
443.394	1341.5
443.769	1364.33
444.143	1367.49
444.518	1413.82
444.892	1382.86
445.267	1410.65
445.641	1403.65
446.016	1447.04
446.39	1460.15
446.764	1467.38
447.139	1437.09
447.513	1463.99
447.887	1517.09
448.262	1501.95
448.636	1479.58
449.01	1516.41
449.384	1521.16
449.758	1547.15
450.132	1610.42
450.506	1559.13
450.88	1588.28
451.254	1612.46
451.628	1605.23
452.002	1637.54
452.376	1626.92
452.75	1630.08
453.123	1647.71
453.497	1664.21
453.871	1686.81
454.244	1693.81
454.618	1686.81
454.992	1748.5
455.365	1720.48
455.739	1797.99
456.112	1782.4
456.486	1817.42
456.859	1791.21
457.232	1842.73
457.606	1825.56
457.979	1857.65
458.352	1901.26
458.725	1940.13
459.099	1910.3
459.472	1973.35
459.845	1969.96
460.218	1988.49
460.591	1993.01
460.964	2031.43
461.337	2051.54
461.71	2092.67
462.083	2116.63
462.456	2098.77
462.829	2123.63
463.201	2164.08
463.574	2161.14
463.947	2182.39
464.32	2240.69
464.692	2234.59
465.065	2280.91
465.438	2281.14
465.81	2317.07
466.183	2362.27
466.555	2371.99
466.928	2402.27
467.3	2392.32
467.672	2439.78
468.045	2474.81
468.417	2466.67
468.789	2491.76
469.161	2527.24
469.534	2557.74
469.906	2611.08
470.278	2643.16
470.65	2655.82
471.022	2731.3
471.394	2759.55
471.766	2750.51
472.138	2791.18
472.51	2832.99
472.882	2860.56
473.253	2913.67
473.625	2901.69
473.997	2979.88
474.369	3002.7
474.74	3031.18
475.112	3083.83
475.484	3125.86
475.855	3145.52
476.227	3158.86
476.598	3256.03
476.97	3269.82
477.341	3346.65
477.713	3425.07
478.084	3390.04
478.455	3505.97
478.827	3512.07
479.198	3576.25
479.569	3602.24
479.94	3713.87
480.311	3703.02
480.682	3746.86
481.053	3876.13
481.424	3864.15
481.795	3918.84
482.166	4004.71
482.537	4032.73
482.908	4067.76
483.279	4134.43
483.65	4166.29
484.021	4223.01
484.391	4299.39
484.762	4321.99
485.133	4371.26
485.503	4413.51
485.874	4493.74
486.244	4498.26
486.615	4589.78
486.985	4634.98
487.356	4723.79
487.726	4724.69
488.097	4761.08
488.467	4808.98
488.837	4892.37
489.207	4919.94
489.578	4982.54
489.948	5087.85
490.318	5081.07
490.688	5075.87
491.058	5177.34
491.428	5230.44
491.798	5284
492.168	5316.99
492.538	5400.83
492.908	5438.57
493.278	5421.62
493.648	5475.63
494.017	5516.54
494.387	5641.28
494.757	5613.26
495.126	5660.03
495.496	5663.42
495.866	5763.08
496.235	5802.18
496.605	5804.66
496.974	5825.23
497.344	5865.23
497.713	5846.92
498.082	5892.35
498.452	5950.65
498.821	5980.03
499.19	5939.58
499.559	6006.24
499.928	6048.27
500.298	6054.83
500.667	6082.85
501.036	6097.31
501.405	6117.88
501.774	6152.68
502.143	6163.52
502.512	6221.6
502.88	6235.39
503.249	6267.02
503.618	6225.67
503.987	6289.17
504.356	6316.74
504.724	6331.2
505.093	6328.04
505.462	6409.85
505.83	6409.39
506.199	6433.8
506.567	6482.39
506.936	6521.48
507.304	6525.1
507.672	6561.48
508.041	6557.41
508.409	6557.86
508.777	6615.49
509.145	6630.4
509.514	6624.98
509.882	6642.16
510.25	6648.48
510.618	6690.97
510.986	6717.41
511.354	6727.8
511.722	6730.97
512.09	6782.04
512.458	6718.31
512.826	6841.47
513.193	6776.16
513.561	6796.95
513.929	6801.02
514.297	6861.59
514.664	6856.84
515.032	6810.51
515.4	6912.21
515.767	6921.24
516.135	6885.77
516.502	6797.63
516.869	6958.53
517.237	6884.86
517.604	6888.93
517.972	6966.89
518.339	7001.24
518.706	6977.74
519.073	6987.46
519.44	6989.72
519.808	7049.38
520.175	7074.01
520.542	7063.61
520.909	7111.3
521.276	7032.88
521.643	7032.43
522.009	7058.42
522.376	7110.17
522.743	7130.28
523.11	7195.14
523.477	7133.67
523.843	7188.13
524.21	7214.8
524.577	7202.14
524.943	7182.25
525.31	7210.05
525.676	7258.41
526.043	7253.21
526.409	7236.04
526.776	7342.25
527.142	7290.73
527.508	7278.52
527.874	7334.12
528.241	7324.17
528.607	7364.85
528.973	7362.36
529.339	7364.17
529.705	7379.99
530.071	7336.15
530.437	7385.87
530.803	7382.02
531.169	7387.9
531.535	7403.94
531.901	7407.11
532.267	7334.12
532.632	7423.6
532.998	7369.14
533.364	7370.72
533.73	7376.6
534.095	7398.97
534.461	7326.88
534.826	7394.23
535.192	7357.84
535.557	7309.03
535.923	7260.22
536.288	7346.09
536.653	7313.55
537.019	7297.96
537.384	7305.19
537.749	7294.79
538.114	7262.03
538.479	7265.64
538.845	7321.01
539.21	7228.36
539.575	7193.33
539.94	7242.82
540.305	7227.68
540.67	7208.02
541.034	7203.27
541.399	7206.43
541.764	7179.32
542.129	7196.94
542.494	7192.88
542.858	7157.62
543.223	7210.95
543.587	7214.34
543.952	7142.93
544.316	7127.34
544.681	7035.14
545.045	7097.74
545.41	7037.63
545.774	7074.23
546.138	7045.76
546.503	7051.64
546.867	7009.83
547.231	7021.35
547.595	6986.33
547.959	7041.02
548.324	7026.33
548.688	6996.04
549.052	6979.77
549.416	7022.03
549.779	6995.14
550.143	6866.56
550.507	6985.42
550.871	6943.84
551.235	6865.2
551.599	6910.62
551.962	6918.76
552.326	6894.13
552.689	6893.9
553.053	6852.09
553.417	6796.28
553.78	6896.61
554.143	6885.09
554.507	6827.24
554.87	6806.22
555.234	6904.97
555.597	6831.98
555.96	6783.4
556.323	6869.72
556.686	6814.35
557.05	6780.91
557.413	6839.21
557.776	6777.97
558.139	6884.86
558.502	6855.71
558.865	6792.21
559.228	6847.12
559.59	6852.77
559.953	6846.9
560.316	6843.96
560.679	6819.1
561.041	6853.22
561.404	6880.34
561.767	6895.03
562.129	6885.99
562.492	6911.08
562.854	6858.87
563.217	6897.74
563.579	6872.21
563.941	6915.59
564.304	6900.45
564.666	6949.27
565.028	6977.97
565.39	6987.91
565.753	6959.89
566.115	7017.06
566.477	6977.51
566.839	6972.54
567.201	7082.37
567.563	7046.21
567.925	7074.91
568.287	7022.03
568.648	7128.02
569.01	7063.61
569.372	7121.69
569.734	7075.82
570.095	7084.63
570.457	7140
570.819	7127.34
571.18	7135.02
571.542	7172.54
571.903	7236.49
572.265	7170.28
572.626	7218.86
572.987	7205.08
573.349	7191.75
573.71	7242.37
574.071	7265.42
574.432	7228.13
574.794	7314.91
575.155	7293.89
575.516	7240.78
575.877	7363.94
576.238	7338.63
576.599	7379.09
576.96	7395.36
577.32	7370.27
577.681	7418.18
578.042	7412.31
578.403	7403.27
578.763	7462.7
579.124	7410.5
579.485	7503.83
579.845	7527.56
580.206	7509.7
580.566	7526.2
580.927	7476.94
581.287	7535.24
581.648	7522.81
582.008	7559.65
582.368	7551.06
582.728	7655.91
583.089	7612.75
583.449	7596.48
583.809	7566.88
584.169	7649.81
584.529	7658.85
584.889	7707.89
585.249	7677.83
585.609	7588.12
585.969	7725.52
586.329	7659.3
586.688	7724.16
587.048	7716.7
587.408	7751.73
587.768	7749.02
588.127	7756.25
588.487	7722.35
588.846	7761.9
589.206	7758.06
589.565	7800.54
589.925	7817.94
590.284	7857.27
590.643	7852.52
591.003	7830.37
591.362	7913.08
591.721	7836.93
592.08	7864.04
592.44	7899.75
592.799	7861.78
593.158	7896.13
593.517	7911.28
593.876	7917.83
594.235	7896.59
594.593	7930.03
594.952	7951.5
595.311	7910.82
595.67	7902.01
596.029	7962.8
596.387	8013.65
596.746	7959.18
597.104	7993.31
597.463	7952.63
597.822	7969.8
598.18	7973.19
598.538	7970.71
598.897	8021.55
599.255	7975.45
599.613	7992.63
599.972	8013.87
600.33	8066.75
600.688	8012.29
601.046	8010.48
601.404	8057.26
601.762	8036.24
602.12	8057.49
602.478	8069.46
602.836	8083.02
603.194	8081.21
603.552	8122.12
603.91	8044.38
604.268	8122.79
604.625	8047.77
604.983	8090.71
605.341	8085.51
605.698	8129.57
606.056	8125.51
606.413	8129.35
606.771	8093.87
607.128	8151.04
607.485	8071.72
607.843	8090.03
608.2	8208.44
608.557	8165.73
608.914	8153.08
609.272	8228.78
609.629	8232.4
609.986	8239.63
610.343	8252.73
610.7	8247.09
611.057	8251.15
611.414	8271.49
611.771	8246.18
612.127	8258.61
612.484	8226.29
612.841	8248.89
613.198	8233.98
613.554	8273.98
613.911	8315.56
614.267	8265.39
614.624	8336.8
614.98	8295.9
615.337	8348.78
615.693	8345.61
616.05	8316.91
616.406	8373.86
616.762	8294.54
617.118	8322.79
617.475	8369.12
617.831	8353.75
618.187	8369.79
618.543	8399.4
618.899	8468.1
619.255	8492.5
619.611	8429.45
619.967	8440.98
620.323	8404.14
620.678	8446.18
621.034	8409.34
621.39	8435.56
621.746	8438.72
622.101	8522.33
622.457	8439.4
622.812	8483.46
623.168	8456.8
623.523	8446.85
623.879	8398.49
624.234	8428.32
624.589	8442.56
624.945	8480.07
625.3	8439.62
625.655	8443.46
626.01	8406.86
626.365	8446.18
626.72	8410.92
627.075	8500.19
627.43	8410.7
627.785	8484.14
628.14	8445.5
628.495	8377.48
628.85	8438.94
629.205	8366.86
629.559	8398.04
629.914	8342.68
630.269	8342
630.623	8386.52
630.978	8353.52
631.332	8384.03
631.687	8396.46
632.041	8354.88
632.396	8385.39
632.75	8389.91
633.104	8289.8
633.459	8324.15
633.813	8281.21
634.167	8362.79
634.521	8273.98
634.875	8309.46
635.229	8262
635.583	8257.25
635.937	8239.18
636.291	8223.58
636.645	8270.36
636.999	8248.22
637.352	8230.81
637.706	8176.8
638.06	8193.98
638.413	8205.05
638.767	8144.26
639.121	8183.13
639.474	8065.17
639.828	8153.75
640.181	8062.91
640.534	8140.42
640.888	8046.64
641.241	8080.31
641.594	8138.16
641.947	8087.99
642.301	8101.78
642.654	8134.55
643.007	8117.6
643.36	8053.87
643.713	8066.3
644.066	8070.14
644.419	8029.01
644.771	7975.23
645.124	7940.43
645.477	7940.43
645.83	7832.41
646.182	7878.06
646.535	7829.24
646.888	7795.8
647.24	7740.88
647.593	7872.63
647.945	7791.73
648.298	7789.7
648.65	7770.04
649.002	7729.58
649.355	7728.45
649.707	7787.89
650.059	7725.97
650.411	7878.51
650.763	7850.71
651.115	7988.34
651.467	7956.7
651.819	7920.09
652.171	7967.54
652.523	7933.42
652.875	7895.23
653.227	7902.91
653.578	7974.78
653.93	7918.28
654.282	7942.23
654.633	7859.52
654.985	7896.36
655.337	7999.63
655.688	7878.96
656.039	7957.6
656.391	7935.91
656.742	7925.74
657.094	7863.82
657.445	7916.25
657.796	7919.18
658.147	7913.76
658.498	7970.71
658.849	7933.87
659.2	7963.03
659.551	7922.57
659.902	7967.09
660.253	7982.23
660.604	7933.65
660.955	7895.68
661.306	7904.04
661.656	7988.79
662.007	7911.05
662.358	7952.18
662.708	7850.26
663.059	7904.27
663.409	7902.01
663.76	7963.7
664.11	7883.03
664.461	7920.31
664.811	7968.22
665.161	7933.87
665.511	7929.35
665.862	7928.45
666.212	8003.02
666.562	7946.53
666.912	7962.57
667.262	7998.5
667.612	7979.07
667.962	7928
668.312	7940.2
668.662	7955.34
669.011	7986.98
669.361	7908.34
669.711	7924.61
670.06	7934.33
670.41	7939.3
670.76	7890.71
671.109	7883.48
671.459	7935
671.808	7858.17
672.157	7945.17
672.507	7838.73
672.856	7869.69
673.205	7852.29
673.554	7894.33
673.904	7811.62
674.253	7925.06
674.602	7871.95
674.951	7800.32
675.3	7712.64
675.649	7839.86
675.998	7843.71
676.346	7810.03
676.695	7819.98
677.044	7789.24
677.393	7830.15
677.741	7790.6
678.09	7778.85
678.438	7799.41
678.787	7810.03
679.135	7745.4
679.484	7752.41
679.832	7730.49
680.181	7694.56
680.529	7723.26
680.877	7652.3
681.225	7703.6
681.573	7704.73
681.922	7649.81
682.27	7622.92
682.618	7654.33
682.966	7585.18
683.314	7584.28
683.661	7563.49
684.009	7513.55
684.357	7572.07
684.705	7514
685.053	7542.92
685.4	7489.82
685.748	7430.61
686.095	7473.55
686.443	7437.39
686.79	7419.31
687.138	7421.12
687.485	7401.23
687.832	7369.37
688.18	7422.7
688.527	7354.23
688.874	7306.32
689.221	7284.62
689.568	7304.74
689.915	7263.16
690.262	7274
690.609	7260.67
690.956	7220.67
691.303	7213.21
691.65	7200.79
691.997	7130.05
692.344	7170.05
692.69	7116.49
693.037	7106.55
693.383	7070.62
693.73	7035.82
694.077	6995.82
694.423	7026.1
694.769	7027.91
695.116	6878.76
695.462	6969.83
695.808	6888.48
696.155	6967.8
696.501	6877.18
696.847	6822.94
697.193	6775.94
697.539	6857.29
697.885	6789.95
698.231	6790.85
698.577	6777.97
698.923	6743.85
699.269	6655.26
699.614	6676.96
699.96	6629.5
700.306	6621.82
700.651	6639.22
700.997	6566.9
701.342	6571.65
701.688	6575.49
702.033	6467.7
702.379	6523.29
702.724	6459.79
703.069	6494.36
703.415	6447.36
703.76	6366.23
704.105	6416.4
704.45	6368.49
704.795	6342.05
705.14	6277.65
705.485	6310.19
705.83	6307.93
706.175	6324.88
706.52	6247.36
706.865	6254.14
707.209	6265.67
707.554	6247.82
707.899	6260.02
708.243	6161.26
708.588	6184.77
708.932	6137.99
709.277	6186.8
709.621	6140.47
709.966	6075.17
710.31	6173.24
710.654	6062.06
710.998	6087.37
711.342	6013.25
711.687	6065
712.031	6016.18
712.375	5985.45
712.719	6064.32
713.063	6025
713.407	5958.33
713.75	6013.02
714.094	5974.83
714.438	5920.14
714.782	5969.86
715.125	5943.19
715.469	5919.24
715.812	5878.56
716.156	5867.03
716.499	5857.32
716.843	5867.49
717.186	5799.92
717.53	5872.68
717.873	5819.8
718.216	5852.12
718.559	5768.28
718.902	5738
719.246	5766.25
719.589	5767.6
719.932	5829.07
720.275	5778.9
720.617	5735.06
720.96	5724.44
721.303	5741.84
721.646	5713.14
721.989	5714.72
722.331	5789.3
722.674	5705.46
723.016	5739.35
723.359	5722.63
723.701	5700.71
724.044	5695.97
724.386	5679.02
724.729	5715.63
725.071	5678.34
725.413	5661.84
725.755	5665.46
726.097	5693.71
726.439	5648.51
726.782	5635.4
727.124	5656.42
727.465	5585.01
727.807	5650.32
728.149	5633.59
728.491	5596.31
728.833	5634.05
729.175	5593.6
729.516	5611.22
729.858	5616.87
730.199	5613.26
730.541	5608.96
730.882	5632.01
731.224	5639.24
731.565	5616.42
731.906	5583.65
732.248	5608.28
732.589	5566.25
732.93	5579.36
733.271	5618.68
733.612	5572.58
733.953	5578.23
734.294	5618
734.635	5559.7
734.976	5629.75
735.317	5540.94
735.658	5567.83
735.999	5619.58
736.339	5612.8
736.68	5654.16
737.021	5611.9
737.361	5615.52
737.702	5606.7
738.042	5637.21
738.383	5617.1
738.723	5647.38
739.063	5620.26
739.404	5616.87
739.744	5651.9
740.084	5634.95
740.424	5669.53
740.764	5634.95
741.104	5703.2
741.444	5666.36
741.784	5636.98
742.124	5689.86
742.464	5723.54
742.804	5708.85
743.143	5705.91
743.483	5739.58
743.823	5751.56
744.162	5794.49
744.502	5757.43
744.841	5798.56
745.181	5865.91
745.52	5827.04
745.86	5923.98
746.199	5883.98
746.538	5936.64
746.877	5967.82
747.216	5988.84
747.556	6036.97
747.895	6043.3
748.234	6027.03
748.573	6100.48
748.911	6133.02
749.25	6203.75
749.589	6185.22
749.928	6264.76
750.267	6304.31
750.605	6283.75
750.944	6386.34
751.283	6491.65
751.621	6510.41
751.96	6547.7
752.298	6696.17
752.636	6683.51
752.975	6716.5
753.313	6810.29
753.651	6930.74
753.989	6970.73
754.327	7033.78
754.666	7080.79
755.004	7253.44
755.342	7295.47
755.679	7354.45
756.017	7458.41
756.355	7571.4
756.693	7652.07
757.031	7797.38
757.368	7852.52
757.706	7935.23
758.044	8031.27
758.381	8184.94
758.719	8231.72
759.056	8309.91
759.394	8447.53
759.731	8589.68
760.068	8633.29
760.405	8800.29
760.743	8908.76
761.08	9046.84
761.417	9170
761.754	9336.77
762.091	9377.68
762.428	9507.62
762.765	9658.35
763.102	9831.22
763.438	9869.19
763.775	9996.19
764.112	10076.64
764.449	10176.3
764.785	10282.06
765.122	10357.76
765.458	10457.65
765.795	10587.81
766.131	10680.24
766.467	10810.63
766.804	10865.55
767.14	10899.9
767.476	11062.38
767.812	11134.69
768.148	11218.53
768.485	11322.94
768.821	11348.7
769.157	11406.1
769.492	11574.23
769.828	11713.43
