Data from hue_160_FLMS001491_00084.txt Node
Date: Tue Feb 07 16:51:48 GMT 2017
User: dcchb
Spectrometer: FLMS00149
Trigger mode: 0
Integration Time (sec): 2.000000E-2
Scans to average: 10
Electric dark correction enabled: true
Nonlinearity correction enabled: false
Boxcar width: 0
XAxis mode: Wavelengths
Number of Pixels in Spectrum: 2048
>>>>>Begin Spectral Data<<<<<
341.393	-19.65
341.776	-19.65
342.16	-19.65
342.543	-66.2
342.927	-47.44
343.31	-61.91
343.693	-76.82
344.077	-83.37
344.46	-54.67
344.843	-51.51
345.226	-53.32
345.61	-29.82
345.993	-5.18
346.376	-15.58
346.759	27.13
347.142	21.93
347.525	45.89
347.908	54.02
348.291	84.53
348.674	102.16
349.057	96.51
349.44	143.74
349.823	153
350.206	150.29
350.588	214.92
350.971	211.99
351.354	238.2
351.737	244.3
352.119	251.53
352.502	268.71
352.884	292.89
353.267	289.27
353.65	294.47
354.032	294.24
354.414	328.37
354.797	304.41
355.179	319.55
355.562	333.11
355.944	343.51
356.326	336.95
356.709	337.86
357.091	333.34
357.473	355.71
357.855	336.73
358.238	338.31
358.62	332.66
359.002	337.41
359.384	341.47
359.766	330.63
360.148	328.59
360.53	347.35
360.912	344.64
361.294	340.12
361.676	318.88
362.057	337.63
362.439	350.74
362.821	341.93
363.203	328.14
363.584	303.73
363.966	322.04
364.348	345.54
364.729	336.95
365.111	308.93
365.493	317.07
365.874	304.41
366.256	324.3
366.637	310.51
367.019	316.84
367.4	322.94
367.781	319.1
368.163	310.29
368.544	300.35
368.925	305.99
369.306	313.23
369.688	313
370.069	308.71
370.45	310.29
370.831	322.49
371.212	331.3
371.593	320.91
371.974	306.45
372.355	301.93
372.736	320.68
373.117	335.15
373.498	338.08
373.879	318.65
374.26	320.46
374.641	324.53
375.021	345.09
375.402	327.92
375.783	316.39
376.163	319.55
376.544	330.63
376.925	323.17
377.305	325.88
377.686	330.17
378.066	331.3
378.447	320.01
378.827	348.25
379.208	334.92
379.588	330.85
379.968	348.71
380.349	337.41
380.729	327.24
381.109	355.03
381.489	324.3
381.87	342.6
382.25	335.6
382.63	352.77
383.01	359.78
383.39	327.92
383.77	354.13
384.15	349.84
384.53	352.77
384.91	359.33
385.29	350.74
385.67	353.45
386.049	370.63
386.429	345.77
386.809	341.7
387.189	359.78
387.568	334.92
387.948	371.08
388.328	357.97
388.707	364.52
389.087	373.34
389.466	353
389.846	371.98
390.225	363.39
390.605	357.07
390.984	357.97
391.363	398.65
391.743	367.46
392.122	376.05
392.501	394.13
392.881	400.46
393.26	364.98
393.639	373.79
394.018	373.11
394.397	392.77
394.776	389.61
395.155	393.22
395.534	370.17
395.913	367.01
396.292	394.13
396.671	386.44
397.05	396.61
397.429	391.87
397.808	390.96
398.186	392.09
398.565	405.43
398.944	421.7
399.323	419.89
399.701	402.26
400.08	405.88
400.458	409.04
400.837	410.4
401.215	394.13
401.594	425.54
401.972	399.55
402.351	390.74
402.729	407.91
403.107	389.61
403.486	408.36
403.864	428.48
404.242	428.93
404.62	412.66
404.999	410.4
405.377	436.39
405.755	426.22
406.133	417.18
406.511	444.75
406.889	434.8
407.267	443.84
407.645	441.81
408.023	470.06
408.401	433.9
408.779	433.45
409.156	477.74
409.534	457.86
409.912	434.58
410.29	462.37
410.667	475.71
411.045	461.47
411.422	461.02
411.8	474.13
412.178	490.62
412.555	483.62
412.933	510.06
413.31	462.83
413.687	492.88
414.065	494.92
414.442	515.25
414.819	511.87
415.197	505.76
415.574	512.54
415.951	526.78
416.328	529.27
416.705	527.91
417.082	512.32
417.46	547.8
417.837	524.75
418.214	518.64
418.591	551.41
418.967	567.46
419.344	515.93
419.721	521.58
420.098	532.66
420.475	539.43
420.852	565.42
421.228	546.21
421.605	554.35
421.982	566.55
422.358	568.36
422.735	577.63
423.111	582.15
423.488	592.09
423.864	587.57
424.241	575.37
424.617	590.73
424.994	580.34
425.37	583.05
425.746	592.54
426.123	625.99
426.499	635.93
426.875	627.79
427.251	626.66
427.627	643.61
428.003	651.75
428.379	648.58
428.756	629.15
429.132	647.23
429.507	636.83
429.883	650.84
430.259	680.9
430.635	667.12
431.011	680.9
431.387	706.21
431.763	692.2
432.138	691.07
432.514	694.23
432.89	715.93
433.265	720.9
433.641	726.77
434.016	751.18
434.392	714.57
434.767	731.75
435.143	743.5
435.518	764.06
435.894	763.84
436.269	783.72
436.644	767.68
437.02	790.05
437.395	801.8
437.77	814.91
438.145	830.73
438.52	828.24
438.895	830.27
439.271	832.76
439.646	864.17
440.021	848.58
440.395	858.07
440.77	860.78
441.145	835.47
441.52	878.18
441.895	907.56
442.27	863.72
442.645	884.06
443.019	886.32
443.394	906.2
443.769	929.48
444.143	908.01
444.518	941.91
444.892	899.43
445.267	922.02
445.641	941.01
446.016	946.66
446.39	952.76
446.764	965.19
447.139	959.54
447.513	974.68
447.887	952.53
448.262	982.36
448.636	966.77
449.01	1005.86
449.384	999.76
449.758	997.28
450.132	1016.26
450.506	1028.01
450.88	1062.13
451.254	1039.99
451.628	1059.87
452.002	1048.35
452.376	1045.86
452.75	1072.98
453.123	1071.4
453.497	1125.86
453.871	1099.65
454.244	1103.49
454.618	1132.19
454.992	1146.88
455.365	1149.14
455.739	1174.9
456.112	1180.55
456.486	1190.27
456.859	1194.33
457.232	1227.55
457.606	1253.54
457.979	1247.66
458.352	1259.19
458.725	1258.51
459.099	1311.39
459.472	1321.34
459.845	1348.91
460.218	1337.15
460.591	1345.52
460.964	1373.99
461.337	1412.41
461.71	1423.25
462.083	1443.59
462.456	1439.07
462.829	1439.52
463.201	1476.36
463.574	1505.51
463.947	1488.11
464.32	1555.45
464.692	1550.71
465.065	1558.84
465.438	1601.33
465.81	1611.72
466.183	1646.52
466.555	1693.53
466.928	1653.3
467.3	1721.1
467.672	1760.65
468.045	1773.98
468.417	1800.19
468.789	1821.66
469.161	1846.97
469.534	1922.45
469.906	1906.4
470.278	1914.99
470.65	1980.08
471.022	2008.55
471.394	2068.43
471.766	2111.6
472.138	2137.13
472.51	2197.47
472.882	2229.56
473.253	2267.75
473.625	2278.6
473.997	2353.4
474.369	2388.2
474.74	2446.5
475.112	2506.61
475.484	2541.42
475.855	2628.42
476.227	2646.27
476.598	2780.51
476.97	2817.57
477.341	2862.09
477.713	2920.39
478.084	3007.17
478.455	3083.1
478.827	3132.81
479.198	3284.9
479.569	3288.29
479.94	3381.17
480.311	3464.56
480.682	3573.03
481.053	3714.27
481.424	3796.07
481.795	3851.89
482.166	3895.5
482.537	4034.94
482.908	4123.97
483.279	4244.87
483.65	4329.39
484.021	4455.72
484.391	4586.11
484.762	4673.34
485.133	4741.36
485.503	4795.59
485.874	4966.44
486.244	5107.45
486.615	5196.71
486.985	5294.79
487.356	5459.53
487.726	5608.91
488.097	5711.28
488.467	5808.9
488.837	5951.5
489.207	6102.45
489.578	6182.68
489.948	6322.56
490.318	6438.26
490.688	6561.88
491.058	6725.26
491.428	6850
491.798	6925.26
492.168	7136.55
492.538	7268.07
492.908	7347.17
493.278	7495.41
493.648	7587.84
494.017	7770.88
494.387	7896.76
494.757	7971.1
495.126	8157.77
495.496	8146.69
495.866	8332.45
496.235	8465.1
496.605	8526.34
496.974	8644.31
497.344	8759.78
497.713	8801.14
498.082	8993.22
498.452	9101.24
498.821	9131.53
499.19	9186.67
499.559	9317.74
499.928	9503.04
500.298	9550.95
500.667	9653.09
501.036	9654.22
501.405	9860.55
501.774	9886.99
502.143	9924.95
502.512	10100.99
502.88	10173.76
503.249	10161.1
503.618	10241.1
503.987	10312.29
504.356	10392.96
504.724	10529
505.093	10522.22
505.462	10626.18
505.83	10703.46
506.199	10783.01
506.567	10865.04
506.936	10892.38
507.304	10943.91
507.672	11049.22
508.041	11080.85
508.409	11189.32
508.777	11296.89
509.145	11379.38
509.514	11302.32
509.882	11446.27
510.25	11484.46
510.618	11557.68
510.986	11519.49
511.354	11689.88
511.722	11687.39
512.09	11748.18
512.458	11771.46
512.826	11940.49
513.193	11765.35
513.561	11866.82
513.929	11977.55
514.297	12033.14
514.664	12085.8
515.032	12156.08
515.4	12123.99
515.767	12248.51
516.135	12233.36
516.502	12222.07
516.869	12321.95
517.237	12296.41
517.604	12285.34
517.972	12458.67
518.339	12478.56
518.706	12481.04
519.073	12462.51
519.44	12535.05
519.808	12589.06
520.175	12564.66
520.542	12678.78
520.909	12777.53
521.276	12711.54
521.643	12710.19
522.009	12786.12
522.376	12874.48
522.743	12788.6
523.11	12919
523.477	13044.64
523.843	13000.35
524.21	13140.46
524.577	13107.47
524.943	13118.54
525.31	13125.32
525.676	13168.93
526.043	13154.7
526.409	13189.72
526.776	13415.71
527.142	13250.51
527.508	13261.13
527.874	13326.67
528.241	13383.62
528.607	13378.65
528.973	13395.37
529.339	13262.94
529.705	13418.19
530.071	13413.9
530.437	13474.69
530.803	13395.59
531.169	13464.97
531.535	13383.39
531.901	13377.97
532.267	13416.16
532.632	13442.37
532.998	13403.73
533.364	13434.01
533.73	13407.12
534.095	13400.34
534.461	13370.74
534.826	13386.78
535.192	13416.61
535.557	13469.49
535.923	13377.29
536.288	13327.8
536.653	13332.54
537.019	13313.56
537.384	13227.24
537.749	13310.62
538.114	13220.91
538.479	13194.47
538.845	13252.55
539.21	13122.38
539.575	13127.8
539.94	13061.37
540.305	13151.76
540.67	12959.45
541.034	13055.94
541.399	13062.5
541.764	12951.54
542.129	12971.2
542.494	12972.33
542.858	12995.38
543.223	12901.82
543.587	12902.5
543.952	12810.07
544.316	12834.7
544.681	12782.95
545.045	12760.81
545.41	12763.29
545.774	12702.73
546.138	12667.7
546.503	12686.91
546.867	12618.67
547.231	12577.76
547.595	12558.1
547.959	12492.34
548.324	12515.39
548.688	12398.56
549.052	12487.37
549.416	12372.34
549.779	12346.58
550.143	12327.6
550.507	12399.91
550.871	12335.96
551.235	12278.34
551.599	12327.15
551.962	12256.42
552.326	12232.69
552.689	12228.17
553.053	12146.14
553.417	12150.66
553.78	12196.08
554.143	12146.59
554.507	12122.63
554.87	12064.33
555.234	12179.13
555.597	12060.71
555.96	12073.14
556.323	12108.62
556.686	12032.24
557.05	12085.12
557.413	11947.95
557.776	12001.96
558.139	12020.72
558.502	11945.01
558.865	11947.5
559.228	11982.52
559.59	12004.22
559.953	11912.02
560.316	12093.26
560.679	11982.98
561.041	11964.45
561.404	12004.44
561.767	12037.66
562.129	12025.91
562.492	12001.51
562.854	12110.2
563.217	11990.21
563.579	12022.3
563.941	12044.22
564.304	12054.39
564.666	12145.68
565.028	12056.87
565.39	12152.69
565.753	12003.77
566.115	12091.22
566.477	12227.26
566.839	12169.86
567.201	12151.79
567.563	12161.5
567.925	12276.98
568.287	12227.49
568.648	12256.87
569.01	12127.6
569.372	12309.52
569.734	12115.4
570.095	12274.49
570.457	12279.69
570.819	12261.16
571.18	12216.64
571.542	12361.72
571.903	12294.38
572.265	12352.68
572.626	12357.2
572.987	12250.99
573.349	12389.52
573.71	12378.9
574.071	12393.36
574.432	12416.86
574.794	12496.18
575.155	12426.35
575.516	12346.58
575.877	12421.83
576.238	12393.13
576.599	12447.14
576.96	12478.56
577.32	12420.7
577.681	12466.13
578.042	12519.91
578.403	12473.81
578.763	12541.38
579.124	12493.7
579.485	12478.1
579.845	12458.22
580.206	12556.52
580.566	12487.37
580.927	12410.99
581.287	12534.15
581.648	12473.81
582.008	12562.85
582.368	12475.84
582.728	12461.83
583.089	12410.99
583.449	12390.87
583.809	12452.34
584.169	12530.53
584.529	12446.47
584.889	12513.36
585.249	12445.34
585.609	12352.23
585.969	12344.77
586.329	12304.55
586.688	12343.87
587.048	12349.07
587.408	12375.96
587.768	12344.1
588.127	12317.88
588.487	12313.59
588.846	12389.97
589.206	12288.28
589.565	12288.05
589.925	12331.89
590.284	12385.23
590.643	12270.2
591.003	12307.94
591.362	12340.48
591.721	12246.47
592.08	12264.78
592.44	12241.5
592.799	12235.17
593.158	12301.39
593.517	12240.82
593.876	12325.11
594.235	12280.6
594.593	12223.65
594.952	12235.85
595.311	12218.45
595.67	12209.18
596.029	12289.41
596.387	12278.11
596.746	12239.92
597.104	12224.1
597.463	12204.66
597.822	12201.05
598.18	12194.72
598.538	12157.66
598.897	12283.08
599.255	12192.24
599.613	12261.61
599.972	12169.41
600.33	12205.79
600.688	12218.9
601.046	12212.12
601.404	12242.63
601.762	12177.32
602.12	12283.53
602.478	12195.85
602.836	12268.84
603.194	12133.71
603.552	12245.57
603.91	12149.98
604.268	12218
604.625	12225.68
604.983	12129.19
605.341	12100.26
605.698	12233.36
606.056	12246.47
606.413	12192.24
606.771	12246.25
607.128	12229.07
607.485	12168.73
607.843	12234.49
608.2	12239.24
608.557	12316.3
608.914	12173.48
609.272	12231.78
609.629	12295.28
609.986	12327.83
610.343	12258.9
610.7	12395.39
611.057	12313.59
611.414	12335.06
611.771	12279.47
612.127	12371.89
612.484	12311.55
612.841	12361.72
613.198	12351.55
613.554	12427.71
613.911	12401.27
614.267	12407.6
614.624	12403.53
614.98	12443.3
615.337	12434.04
615.693	12432.68
616.05	12487.14
616.406	12540.02
616.762	12481.04
617.118	12486.69
617.475	12382.74
617.831	12504.32
618.187	12550.19
618.543	12514.26
618.899	12587.48
619.255	12521.49
619.611	12502.96
619.967	12655.95
620.323	12586.8
620.678	12586.8
621.034	12531.21
621.39	12472.45
621.746	12523.3
622.101	12681.26
622.457	12492.12
622.812	12520.36
623.168	12609.17
623.523	12631.32
623.879	12613.02
624.234	12542.28
624.589	12523.53
624.945	12584.99
625.3	12573.24
625.655	12491.21
626.01	12608.72
626.365	12544.77
626.72	12526.69
627.075	12542.74
627.43	12533.92
627.785	12538.22
628.14	12507.48
628.495	12593.36
628.85	12566.92
629.205	12506.8
629.559	12577.08
629.914	12537.09
630.269	12495.28
630.623	12488.05
630.978	12461.38
631.332	12439.91
631.687	12467.93
632.041	12409.18
632.396	12477.2
632.75	12348.16
633.104	12448.73
633.459	12330.31
633.813	12346.13
634.167	12386.13
634.521	12423.42
634.875	12365.79
635.229	12332.35
635.583	12191.56
635.937	12279.92
636.291	12295.51
636.645	12245.79
636.999	12150.88
637.352	12289.41
637.706	12236.53
638.06	12200.6
638.413	12197.66
638.767	12096.19
639.121	12193.82
639.474	12138.23
639.828	12160.37
640.181	12080.37
640.534	12182.29
640.888	12068.62
641.241	12007.38
641.594	11999.47
641.947	12004.44
642.301	12012.35
642.654	12013.48
643.007	12063.43
643.36	11988.85
643.713	12041.28
644.066	12017.55
644.419	11921.51
644.771	11851.68
645.124	11748.18
645.477	11764
645.83	11711.34
646.182	11646.71
646.535	11657.33
646.888	11655.3
647.24	11591.8
647.593	11681.51
647.945	11657.56
648.298	11588.18
648.65	11617.79
649.002	11563.78
649.355	11618.01
649.707	11609.2
650.059	11667.5
650.411	11787.73
650.763	11815.97
651.115	11846.48
651.467	11831.79
651.819	11915.41
652.171	11851.91
652.523	11792.47
652.875	11878.12
653.227	11802.87
653.578	11897.33
653.93	11844.9
654.282	11831.12
654.633	11757.45
654.985	11811.91
655.337	11829.53
655.688	11849.65
656.039	11845.58
656.391	11735.3
656.742	11755.41
657.094	11792.25
657.445	11816.65
657.796	11767.61
658.147	11842.19
658.498	11792.47
658.849	11760.61
659.2	11775.3
659.551	11814.39
659.902	11856.43
660.253	11797.67
660.604	11808.74
660.955	11744.11
661.306	11843.32
661.656	11729.2
662.007	11774.39
662.358	11872.92
662.708	11832.92
663.059	11826.37
663.409	11835.18
663.76	11843.54
664.11	11896.42
664.461	11830.44
664.811	11882.19
665.161	11815.75
665.511	11855.07
665.862	11808.29
666.212	11947.95
666.562	11965.12
666.912	11954.5
667.262	11918.57
667.612	11855.52
667.962	11945.69
668.312	11844.9
668.662	11930.32
669.011	11900.27
669.361	11828.86
669.711	11846.93
670.06	11815.52
670.41	11835.41
670.76	11818.91
671.109	11839.48
671.459	11717.9
671.808	11842.87
672.157	11776.2
672.507	11735.07
672.856	11795.18
673.205	11725.58
673.554	11787.05
673.904	11766.26
674.253	11800.61
674.602	11779.82
674.951	11646.71
675.3	11503.21
675.649	11703.44
675.998	11653.04
676.346	11653.72
676.695	11747.73
677.044	11653.72
677.393	11639.26
677.741	11646.94
678.09	11688.07
678.438	11616.88
678.787	11648.07
679.135	11596.55
679.484	11466.83
679.832	11640.39
680.181	11451.92
680.529	11569.2
680.877	11505.7
681.225	11510.22
681.573	11545.47
681.922	11501.63
682.27	11375.08
682.618	11481.07
682.966	11433.84
683.314	11333.95
683.661	11350.22
684.009	11268.42
684.357	11245.37
684.705	11222.09
685.053	11305.48
685.4	11273.84
685.748	11164.92
686.095	11259.15
686.443	11239.72
686.79	11166.95
687.138	11187.97
687.485	11140.96
687.832	11069.1
688.18	11041.76
688.527	10947.97
688.874	11042.89
689.221	10950.01
689.568	11021.65
689.915	10936.22
690.262	10942.33
690.609	10847.64
690.956	10844.93
691.303	10775.55
691.65	10693.07
691.997	10759.05
692.344	10700.07
692.69	10627.98
693.037	10577.82
693.383	10608.32
693.73	10504.37
694.077	10489
694.423	10511.15
694.769	10500.75
695.116	10352.06
695.462	10401.77
695.808	10330.36
696.155	10381.21
696.501	10295.79
696.847	10246.98
697.193	10148
697.539	10202.68
697.885	10124.04
698.231	10058.05
698.577	10066.19
698.923	10168.33
699.269	9984.38
699.614	9960.43
699.96	9913.43
700.306	9881.79
700.651	9846.53
700.997	9772.41
701.342	9795.24
701.688	9728.8
702.033	9749.81
702.379	9694.67
702.724	9735.8
703.069	9691.96
703.415	9569.03
703.76	9604.96
704.105	9532.19
704.45	9585.98
704.795	9486.77
705.14	9473.21
705.485	9394.12
705.83	9409.03
706.175	9374.68
706.52	9382.82
706.865	9307.79
707.209	9329.49
707.554	9255.36
707.899	9333.55
708.243	9258.53
708.588	9197.06
708.932	9145.31
709.277	9111.41
709.621	9153.22
709.966	9018.31
710.31	9057.18
710.654	8989.16
710.998	8992.32
711.342	8940.57
711.687	9007.01
712.031	8953.68
712.375	8869.16
712.719	8914.36
713.063	8869.16
713.407	8944.41
713.75	8882.49
714.094	8793.46
714.438	8829.16
714.782	8818.31
715.125	8750.07
715.469	8758.2
715.812	8663.74
716.156	8642.95
716.499	8703.29
716.843	8765.21
717.186	8662.84
717.53	8653.8
717.873	8708.49
718.216	8702.16
718.559	8609.28
718.902	8614.48
719.246	8611.54
719.589	8550.52
719.932	8495.16
720.275	8501.49
720.617	8536.74
720.96	8581.26
721.303	8594.36
721.646	8502.62
721.989	8510.98
722.331	8516.85
722.674	8505.55
723.016	8514.14
723.359	8446.35
723.701	8465.33
724.044	8381.49
724.386	8383.75
724.729	8456.74
725.071	8433.01
725.413	8396.4
725.755	8425.56
726.097	8413.13
726.439	8347.37
726.782	8370.64
727.124	8393.92
727.465	8349.63
727.807	8347.14
728.149	8351.66
728.491	8324.99
728.833	8317.76
729.175	8284.32
729.516	8346.69
729.858	8367.93
730.199	8323.64
730.541	8329.29
730.882	8319.34
731.224	8365.44
731.565	8289.29
731.906	8292.45
732.248	8356.4
732.589	8279.57
732.93	8214.04
733.271	8313.47
733.612	8237.09
733.953	8300.13
734.294	8292.45
734.635	8250.42
734.976	8310.76
735.317	8238.89
735.658	8255.39
735.999	8317.31
736.339	8285.45
736.68	8268.72
737.021	8271.44
737.361	8283.19
737.702	8297.2
738.042	8346.24
738.383	8317.31
738.723	8305.11
739.063	8337.2
739.404	8251.77
739.744	8368.16
740.084	8314.6
740.424	8397.31
740.764	8381.26
741.104	8393.01
741.444	8415.39
741.784	8386.01
742.124	8438.44
742.464	8443.86
742.804	8368.83
743.143	8446.35
743.483	8468.27
743.823	8536.29
744.162	8550.07
744.502	8516.63
744.841	8581.48
745.181	8622.16
745.52	8597.53
745.86	8656.74
746.199	8715.04
746.538	8676.4
746.877	8776.28
747.216	8779.22
747.556	8849.95
747.895	8891.53
748.234	8894.7
748.573	8944.19
748.911	9008.14
749.25	9077.52
749.589	9055.37
749.928	9223.27
750.267	9225.99
750.605	9342.82
750.944	9399.09
751.283	9467.56
751.621	9559.76
751.96	9548.69
752.298	9716.82
752.636	9831.85
752.975	9832.07
753.313	9894.67
753.651	10061.44
753.989	10097.15
754.327	10101.67
754.666	10281.33
755.004	10430.02
755.342	10523.58
755.679	10684.25
756.017	10687.42
756.355	10872.04
756.693	10912.5
757.031	11111.13
757.368	11146.84
757.706	11340.51
758.044	11527.39
758.381	11653.49
758.719	11720.16
759.056	11907.05
759.394	12022.75
