Data from hue_90_FLMS001491_41.txt Node
Date: Mon Feb 06 15:25:10 GMT 2017
User: dcchb
Spectrometer: FLMS00149
Trigger mode: 0
Integration Time (sec): 2.000000E-2
Scans to average: 10
Electric dark correction enabled: true
Nonlinearity correction enabled: false
Boxcar width: 0
XAxis mode: Wavelengths
Number of Pixels in Spectrum: 2048
>>>>>Begin Spectral Data<<<<<
341.393	5.71
341.776	5.71
342.16	5.71
342.543	-79.26
342.927	-65.48
343.31	-82.88
343.693	-61.41
344.077	-59.6
344.46	-70
344.843	-69.09
345.226	-42.2
345.61	-22.77
345.993	-18.7
346.376	-2.88
346.759	21.07
347.142	16.55
347.525	52.26
347.908	47.51
348.291	66.04
348.674	104.46
349.057	121.64
349.44	152.14
349.823	131.58
350.206	134.74
350.588	193.5
350.971	206.38
351.354	230.56
351.737	229.2
352.119	254.51
352.502	260.16
352.884	274.4
353.267	271.01
353.65	276.66
354.032	304.68
354.414	317.34
354.797	317.11
355.179	336.54
355.562	323.89
355.944	320.73
356.326	335.41
356.709	317.79
357.091	323.21
357.473	341.52
357.855	340.39
358.238	347.84
358.62	332.03
359.002	321.4
359.384	330.44
359.766	332.93
360.148	331.12
360.53	347.62
360.912	339.93
361.294	333.38
361.676	326.38
362.057	320.5
362.439	319.82
362.821	334.06
363.203	345.81
363.584	337.67
363.966	327.73
364.348	336.54
364.729	336.77
365.111	324.12
365.493	307.85
365.874	298.81
366.256	327.51
366.637	308.75
367.019	305.81
367.4	317.11
367.781	308.3
368.163	317.11
368.544	305.13
368.925	313.49
369.306	316.88
369.688	300.39
370.069	304.46
370.45	288.64
370.831	298.13
371.212	303.55
371.593	311.23
371.974	307.39
372.355	317.11
372.736	315.53
373.117	301.74
373.498	296.32
373.879	315.08
374.26	310.78
374.641	315.08
375.021	316.66
375.402	346.26
375.783	309.88
376.163	304
376.544	324.79
376.925	319.14
377.305	335.87
377.686	306.04
378.066	331.35
378.447	331.57
378.827	321.86
379.208	356.88
379.588	337.45
379.968	338.8
380.349	339.93
380.729	325.7
381.109	348.07
381.489	341.74
381.87	346.49
382.25	330.22
382.63	354.62
383.01	360.72
383.39	324.12
383.77	351.69
384.15	335.41
384.53	344.68
384.91	348.97
385.29	337.67
385.67	368.86
386.049	336.77
386.429	374.06
386.809	361.18
387.189	354.62
387.568	333.61
387.948	374.96
388.328	372.02
388.707	327.28
389.087	347.84
389.466	379.26
389.846	366.37
390.225	363.66
390.605	372.02
390.984	360.27
391.363	361.63
391.743	371.12
392.122	365.24
392.501	375.41
392.881	377.45
393.26	377.67
393.639	362.31
394.018	386.04
394.397	369.54
394.776	381.06
395.155	382.65
395.534	385.58
395.913	365.24
396.292	377.9
396.671	382.42
397.05	373.15
397.429	382.65
397.808	374.06
398.186	407.28
398.565	390.78
398.944	398.01
399.323	405.02
399.701	414.96
400.08	407.05
400.458	385.36
400.837	400.05
401.215	421.97
401.594	400.95
401.972	407.96
402.351	391.23
402.729	402.98
403.107	408.63
403.486	379.26
403.864	390.55
404.242	394.4
404.62	408.18
404.999	427.39
405.377	420.84
405.755	454.28
406.133	443.43
406.511	444.34
406.889	442.76
407.267	426.94
407.645	456.32
408.023	422.64
408.401	433.27
408.779	462.87
409.156	441.4
409.534	451.34
409.912	443.89
410.29	450.67
410.667	470.78
411.045	461.51
411.422	468.74
411.8	461.51
412.178	469.65
412.555	474.17
412.933	469.87
413.31	471
413.687	492.7
414.065	480.72
414.442	495.41
414.819	495.64
415.197	474.62
415.574	502.64
415.951	493.15
416.328	504.9
416.705	510.1
417.082	522.98
417.46	518.91
417.837	491.12
418.214	505.13
418.591	513.94
418.967	519.14
419.344	527.27
419.721	497.9
420.098	510.33
420.475	534.96
420.852	535.41
421.228	541.51
421.605	533.15
421.982	549.42
422.358	527.27
422.735	526.37
423.111	541.06
423.488	539.7
423.864	559.36
424.241	560.49
424.617	572.02
424.994	552.36
425.37	565.24
425.746	575.63
426.123	578.8
426.499	593.04
426.875	572.47
427.251	605.92
427.627	609.08
428.003	613.83
428.379	613.37
428.756	598.23
429.132	607.27
429.507	621.28
429.883	620.83
430.259	652.02
430.635	643.2
431.011	634.84
431.387	641.85
431.763	660.83
432.138	674.16
432.514	649.3
432.89	677.55
433.265	684.78
433.641	680.26
434.016	687.72
434.392	689.76
434.767	715.97
435.143	709.87
435.518	698.12
435.894	700.15
436.269	720.94
436.644	717.78
437.02	728.4
437.395	742.64
437.77	743.99
438.145	743.31
438.52	754.61
438.895	760.26
439.271	765.91
439.646	771.56
440.021	789.87
440.395	783.09
440.77	777.89
441.145	773.6
441.52	814.95
441.895	788.28
442.27	805.46
442.645	798
443.019	824.67
443.394	823.76
443.769	842.97
444.143	821.5
444.518	851.56
444.892	834.84
445.267	830.32
445.641	868.06
446.016	861.73
446.39	839.13
446.764	842.52
447.139	850.43
447.513	854.5
447.887	852.01
448.262	867.38
448.636	887.49
449.01	900.6
449.384	864.44
449.758	920.71
450.132	904.67
450.506	924.33
450.88	914.83
451.254	904.89
451.628	951.44
452.002	948.28
452.376	965.23
452.75	949.18
453.123	971.1
453.497	969.52
453.871	980.82
454.244	970.88
454.618	995.74
454.992	1025.57
455.365	1027.6
455.739	1034.83
456.112	1045.23
456.486	1066.7
456.859	1080.48
457.232	1077.54
457.606	1074.38
457.979	1089.29
458.352	1128.39
458.725	1143.08
459.099	1146.47
459.472	1159.8
459.845	1186.69
460.218	1173.13
460.591	1174.26
460.964	1198.9
461.337	1225.34
461.71	1249.74
462.083	1250.42
462.456	1259.68
462.829	1269.4
463.201	1292.9
463.574	1294.03
463.947	1325.22
464.32	1361.38
464.692	1358.21
465.065	1363.86
465.438	1378.1
465.81	1411.77
466.183	1442.28
466.555	1465.33
466.928	1469.62
467.3	1490.19
467.672	1536.29
468.045	1575.61
468.417	1572.67
468.789	1572.67
469.161	1580.35
469.534	1631.65
469.906	1669.39
470.278	1650.86
470.65	1694.25
471.022	1781.7
471.394	1794.59
471.766	1844.3
472.138	1865.32
472.51	1894.7
472.882	1906.67
473.253	1961.59
473.625	2000.68
473.997	2073.67
474.369	2097.18
474.74	2107.8
475.112	2152.09
475.484	2228.47
475.855	2289.04
476.227	2302.82
476.598	2385.98
476.97	2419.88
477.341	2490.39
477.713	2549.59
478.084	2594.11
478.455	2674.11
478.827	2738.52
479.198	2834.33
479.569	2897.38
479.94	2966.98
480.311	3067.32
480.682	3162.46
481.053	3258.95
481.424	3342.12
481.795	3385.73
482.166	3478.84
482.537	3579.85
482.908	3657.59
483.279	3743.69
483.65	3892.38
484.021	4021.87
484.391	4106.62
484.762	4189.32
485.133	4238.59
485.503	4374.4
485.874	4590.9
486.244	4579.37
486.615	4809.87
486.985	4859.82
487.356	5040.38
487.726	5170.77
488.097	5304.32
488.467	5335.06
488.837	5490.08
489.207	5668.38
489.578	5766.46
489.948	5881.71
490.318	6067.24
490.688	6133
491.058	6354.69
491.428	6414.58
491.798	6542.71
492.168	6727.34
492.538	6852.08
492.908	7004.39
493.278	7147.89
493.648	7244.61
494.017	7368
494.387	7501.1
494.757	7657.71
495.126	7853.64
495.496	7880.3
495.866	8023.35
496.235	8149.9
496.605	8296.56
496.974	8392.6
497.344	8496.56
497.713	8605.93
498.082	8760.5
498.452	8885.7
498.821	8974.96
499.19	9000.95
499.559	9242.3
499.928	9317.78
500.298	9387.38
500.667	9454.5
501.036	9535.62
501.405	9699.24
501.774	9765.22
502.143	9882.73
502.512	9908.95
502.88	10095.38
503.249	10075.27
503.618	10212.44
503.987	10358.43
504.356	10450.86
504.724	10408.6
505.093	10519.78
505.462	10599.78
505.83	10663.73
506.199	10820.79
506.567	10937.4
506.936	10936.27
507.304	11116.83
507.672	11157.96
508.041	11188.46
508.409	11287.67
508.777	11361.11
509.145	11458.96
509.514	11479.3
509.882	11590.26
510.25	11587.32
510.618	11755.45
510.986	11625.51
511.354	11783.93
511.722	11866.41
512.09	11953.41
512.458	11938.05
512.826	12023.02
513.193	12131.04
513.561	12169.68
513.929	12213.97
514.297	12309.56
514.664	12331.71
515.032	12354.31
515.4	12528.77
515.767	12540.52
516.135	12490.35
516.502	12423.46
516.869	12580.52
517.237	12701.19
517.604	12583.91
517.972	12698.25
518.339	12767.86
518.706	12690.57
519.073	12822.54
519.44	12879.94
519.808	12941.64
520.175	12854.86
520.542	13017.79
520.909	12961.52
521.276	13067.06
521.643	13020.28
522.009	13142.76
522.376	13167.39
522.743	13099.83
523.11	13264.34
523.477	13315.64
523.843	13345.92
524.21	13493.26
524.577	13500.94
524.943	13472.7
525.31	13568.51
525.676	13547.95
526.043	13625.46
526.409	13569.87
526.776	13695.29
527.142	13612.13
527.508	13723.31
527.874	13731.67
528.241	13775.06
528.607	13734.16
528.973	13752.69
529.339	13663.43
529.705	13797.21
530.071	13778
530.437	13776.19
530.803	13844.89
531.169	13814.16
531.535	13812.8
531.901	13884.89
532.267	13769.64
532.632	13870.65
532.998	13857.32
533.364	13833.82
533.73	13766.25
534.095	13922.18
534.461	13847.15
534.826	13796.98
535.192	13828.39
535.557	13866.81
535.923	13765.57
536.288	13761.5
536.653	13830.88
537.019	13643.09
537.384	13683.54
537.749	13719.02
538.114	13594.95
538.479	13710.88
538.845	13656.65
539.21	13576.87
539.575	13616.65
539.94	13529.64
540.305	13606.03
540.67	13517.67
541.034	13504.11
541.399	13420.95
541.764	13468.4
542.129	13375.52
542.494	13406.26
542.858	13407.84
543.223	13350.21
543.587	13344.34
543.952	13267.5
544.316	13279.03
544.681	13277
545.045	13178.69
545.41	13239.93
545.774	13120.62
546.138	13108.41
546.503	13031.13
546.867	12989.32
547.231	13110.45
547.595	13000.84
547.959	13065.7
548.324	12931.24
548.688	12900.73
549.052	12994.52
549.416	12877.91
549.779	12860.96
550.143	12858.48
550.507	12868.42
550.871	12783.22
551.235	12666.62
551.599	12743.9
551.962	12743.22
552.326	12762.66
552.689	12778.25
553.053	12634.75
553.417	12656.9
553.78	12695.99
554.143	12651.48
554.507	12632.72
554.87	12577.35
555.234	12653.74
555.597	12517.47
555.96	12531.03
556.323	12573.29
556.686	12446.28
557.05	12535.77
557.413	12517.47
557.776	12592.04
558.139	12512.5
558.502	12540.97
558.865	12440.18
559.228	12577.35
559.59	12593.62
559.953	12504.59
560.316	12531.25
560.679	12510.24
561.041	12506.17
561.404	12498.03
561.767	12530.12
562.129	12530.12
562.492	12590.91
562.854	12507.75
563.217	12443.8
563.579	12536.45
563.941	12536.68
564.304	12630.91
564.666	12609.89
565.028	12546.17
565.39	12634.3
565.753	12684.02
566.115	12631.14
566.477	12719.95
566.839	12692.38
567.201	12750.91
567.563	12661.42
567.925	12698.03
568.287	12709.55
568.648	12717.91
569.01	12717.01
569.372	12818.25
569.734	12767.4
570.095	12784.58
570.457	12842.66
570.819	12820.51
571.18	12815.31
571.542	12851.7
571.903	12805.37
572.265	12837.01
572.626	12772.6
572.987	12878.59
573.349	12886.5
573.71	12919.26
574.071	12893.5
574.432	12908.64
574.794	12949.32
575.155	12935.54
575.516	12847.18
575.877	12924.01
576.238	12900.96
576.599	12959.94
576.96	13012.37
577.32	13022.99
577.681	12971.47
578.042	12961.98
578.403	12999.26
578.763	12947.06
579.124	12990.22
579.485	13017.79
579.845	13049.2
580.206	13044.01
580.566	13031.8
580.927	13014.18
581.287	13073.16
581.648	12905.03
582.008	13053.05
582.368	12959.04
582.728	12981.86
583.089	12955.87
583.449	12982.54
583.809	12946.83
584.169	13016.66
584.529	12901.86
584.889	12944.8
585.249	12927.4
585.609	12862.54
585.969	12988.64
586.329	12891.02
586.688	12902.99
587.048	12876.1
587.408	12893.95
587.768	12878.59
588.127	12809.89
588.487	12882.2
588.846	12903.22
589.206	12846.72
589.565	12832.26
589.925	12840.62
590.284	12783.45
590.643	12759.27
591.003	12827.52
591.362	12835.65
591.721	12817.35
592.08	12732.83
592.44	12845.37
592.799	12778.93
593.158	12831.36
593.517	12782.32
593.876	12829.32
594.235	12709.33
594.593	12759.5
594.952	12732.15
595.311	12664.58
595.67	12743.45
596.029	12796.1
596.387	12790
596.746	12781.19
597.104	12700.29
597.463	12652.38
597.822	12731.02
598.18	12694.64
598.538	12621.65
598.897	12733.06
599.255	12663.68
599.613	12778.03
599.972	12693.06
600.33	12731.02
600.688	12679.27
601.046	12728.54
601.404	12740.06
601.762	12744.58
602.12	12753.85
602.478	12683.11
602.836	12745.26
603.194	12595.21
603.552	12693.51
603.91	12632.04
604.268	12701.64
604.625	12640.18
604.983	12794.97
605.341	12651.48
605.698	12717.69
606.056	12792.94
606.413	12724.47
606.771	12719.27
607.128	12752.72
607.485	12674.3
607.843	12694.86
608.2	12792.71
608.557	12838.14
608.914	12762.66
609.272	12739.83
609.629	12867.97
609.986	12819.38
610.343	12744.35
610.7	12902.32
611.057	12876.78
611.414	12866.38
611.771	12834.97
612.127	12801.98
612.484	12823.45
612.841	12892.82
613.198	12840.17
613.554	12824.13
613.911	12881.98
614.267	12918.59
614.624	12911.81
614.98	12904.35
615.337	13054.85
615.693	13010.11
616.05	12928.08
616.406	13006.27
616.762	12938.7
617.118	12995.2
617.475	12963.11
617.831	13011.69
618.187	13069.32
618.543	12993.84
618.899	13123.55
619.255	13028.19
619.611	13039.94
619.967	13074.51
620.323	13139.82
620.678	13068.87
621.034	12951.58
621.39	13022.09
621.746	12962.2
622.101	13219.14
622.457	13005.59
622.812	13125.59
623.168	13124.68
623.523	13070
623.879	13134.63
624.234	13051.01
624.589	13107.73
624.945	13089.43
625.3	13098.47
625.655	13032.48
626.01	13034.06
626.365	13086.94
626.72	13114.74
627.075	13043.1
627.43	13053.95
627.785	13010.79
628.14	13054.85
628.495	13016.44
628.85	13010.11
629.205	12987.29
629.559	13025.02
629.914	12964.46
630.269	12941.64
630.623	12922.65
630.978	12923.78
631.332	13011.69
631.687	13015.99
632.041	12980.73
632.396	12871.58
632.75	12851.47
633.104	12967.63
633.459	12884.69
633.813	12872.49
634.167	12942.09
634.521	12907.51
634.875	12846.05
635.229	12911.13
635.583	12778.7
635.937	12810.34
636.291	12729.89
636.645	12754.52
636.999	12748.65
637.352	12794.97
637.706	12669.78
638.06	12736.22
638.413	12649.22
638.767	12723.11
639.121	12712.26
639.474	12627.52
639.828	12563.57
640.181	12648.99
640.534	12651.25
640.888	12539.61
641.241	12495.77
641.594	12500.07
641.947	12568.31
642.301	12474.76
642.654	12578.71
643.007	12507.75
643.36	12504.81
643.713	12437.47
644.066	12493.51
644.419	12456.68
644.771	12426.85
645.124	12277.47
645.477	12311.6
645.83	12108.66
646.182	12146.63
646.535	12132.39
646.888	12171.71
647.24	12046.97
647.593	12151.38
647.945	12105.27
648.298	12045.84
648.65	12061.43
649.002	11972.85
649.355	12093.75
649.707	12117.25
650.059	12124.48
650.411	12267.53
650.763	12249.45
651.115	12380.75
651.467	12364.93
651.819	12305.72
652.171	12267.3
652.523	12289.45
652.875	12288.77
653.227	12310.92
653.578	12319.51
653.93	12320.18
654.282	12305.27
654.633	12266.4
654.985	12265.04
655.337	12235.89
655.688	12343.46
656.039	12401.09
656.391	12251.26
656.742	12278.38
657.094	12297.81
657.445	12361.77
657.796	12412.84
658.147	12293.97
658.498	12312.95
658.849	12333.97
659.2	12327.42
659.551	12268.66
659.902	12338.94
660.253	12390.01
660.604	12416.91
660.955	12303.01
661.306	12397.47
661.656	12349.56
662.007	12423.68
662.358	12386.17
662.708	12405.83
663.059	12415.1
663.409	12263.69
663.76	12367.87
664.11	12362.44
664.461	12388.66
664.811	12393.85
665.161	12384.36
665.511	12337.36
665.862	12378.04
666.212	12460.07
666.562	12449.45
666.912	12353.86
667.262	12381.43
667.612	12433.4
667.962	12421.42
668.312	12412.16
668.662	12491.48
669.011	12409.22
669.361	12394.98
669.711	12382.33
670.06	12379.62
670.41	12314.31
670.76	12353.4
671.109	12372.39
671.459	12430.24
671.808	12339.17
672.157	12479.28
672.507	12224.37
672.856	12264.59
673.205	12251.49
673.554	12396.34
673.904	12384.36
674.253	12368.77
674.602	12323.8
674.951	12119.74
675.3	12086.97
675.649	12276.34
675.998	12218.72
676.346	12191.83
676.695	12290.13
677.044	12164.03
677.393	12211.71
677.741	12176.91
678.09	12086.07
678.438	12097.14
678.787	12142.34
679.135	12097.37
679.484	12043.13
679.832	12060.3
680.181	12072.06
680.529	11975.56
680.877	12072.28
681.225	11954.09
681.573	12034.32
681.922	11950.48
682.27	11912.06
682.618	11986.63
682.966	11904.38
683.314	11883.36
683.661	11887.43
684.009	11742.8
684.357	11822.57
684.705	11793.42
685.053	11756.81
685.4	11683.82
685.748	11693.76
686.095	11668.45
686.443	11646.76
686.79	11645.63
687.138	11609.24
687.485	11539.19
687.832	11573.31
688.18	11550.04
688.527	11519.75
688.874	11510.94
689.221	11404.28
689.568	11373.77
689.915	11427.33
690.262	11399.53
690.609	11369.93
690.956	11317.73
691.303	11282.02
691.65	11197.05
691.997	11241.34
692.344	11152.53
692.69	11119.99
693.037	11046.77
693.383	11007.68
693.73	11061.46
694.077	11008.81
694.423	10910.96
694.769	10943.72
695.116	10842.94
695.462	10808.59
695.808	10782.37
696.155	10814.01
696.501	10630.06
696.847	10750.96
697.193	10600.23
697.539	10741.24
697.885	10581.93
698.231	10582.38
698.577	10535.82
698.923	10499.44
699.269	10443.62
699.614	10390.52
699.96	10409.27
700.306	10389.84
700.651	10296.73
700.997	10249.73
701.342	10173.8
701.688	10185.78
702.033	10167.25
702.379	10137.64
702.724	10131.54
703.069	10059
703.415	10003.64
703.76	10022.62
704.105	9961.15
704.45	9975.39
704.795	9864.43
705.14	9881.15
705.485	9854.94
705.83	9825.33
706.175	9815.84
706.52	9776.07
706.865	9731.1
707.209	9700.59
707.554	9741.27
707.899	9691.78
708.243	9626.47
708.588	9600.03
708.932	9509.18
709.277	9523.42
709.621	9543.31
709.966	9429.19
710.31	9493.82
710.654	9375.18
710.998	9416.31
711.342	9331.11
711.687	9333.6
712.031	9327.27
712.375	9273.71
712.719	9301.28
713.063	9260.83
713.407	9258.57
713.75	9277.55
714.094	9174.05
714.438	9212.02
714.782	9223.09
715.125	9163.88
715.469	9115.97
715.812	9096.99
716.156	9027.62
716.499	9080.27
716.843	9080.27
717.186	9039.82
717.53	9099.7
717.873	9081.85
718.216	9083.43
718.559	9018.12
718.902	8967.73
719.246	9042.76
719.589	8908.97
719.932	8948.75
720.275	8897.45
720.617	8937
720.96	8872.59
721.303	8866.26
721.646	8814.51
721.989	8838.47
722.331	8837.34
722.674	8819.26
723.016	8825.14
723.359	8838.92
723.701	8783.1
724.044	8811.35
724.386	8688.42
724.729	8690.22
725.071	8768.41
725.413	8728.87
725.755	8766.38
726.097	8716.21
726.439	8699.04
726.782	8727.28
727.124	8722.09
727.465	8659.04
727.807	8678.25
728.149	8650
728.491	8653.84
728.833	8651.35
729.175	8668.98
729.516	8642.54
729.858	8696.1
730.199	8686.83
730.541	8626.27
730.882	8645.7
731.224	8650.45
731.565	8615.88
731.906	8679.83
732.248	8626.72
732.589	8663.11
732.93	8617.23
733.271	8651.13
733.612	8664.24
733.953	8602.09
734.294	8621.3
734.635	8630.11
734.976	8564.35
735.317	8581.53
735.658	8626.27
735.999	8583.79
736.339	8646.61
736.68	8633.73
737.021	8588.53
737.361	8602.99
737.702	8657.46
738.042	8588.08
738.383	8653.84
738.723	8700.84
739.063	8616.1
739.404	8652.03
739.744	8751.01
740.084	8647.51
740.424	8755.08
740.764	8645.03
741.104	8700.84
741.444	8636.67
741.784	8746.27
742.124	8738.81
742.464	8810.67
742.804	8812.25
743.143	8759.15
743.483	8758.92
743.823	8807.73
744.162	8857.68
744.502	8833.27
744.841	8847.28
745.181	8901.52
745.52	8982.19
745.86	9048.86
746.199	9007.05
746.538	9041.85
746.877	9135.41
747.216	9156.2
747.556	9213.37
747.895	9288.63
748.234	9318.23
748.573	9312.58
748.911	9360.49
749.25	9447.72
749.589	9485.23
749.928	9551.67
750.267	9658.79
750.605	9693.13
750.944	9827.14
751.283	9870.31
751.621	9894.26
751.96	10010.19
752.298	10141.26
752.636	10198.88
752.975	10210.41
753.313	10273.01
753.651	10468.48
753.989	10486.79
754.327	10626.22
754.666	10716.84
755.004	10856.27
755.342	11009.26
755.679	11098.52
756.017	11179.88
756.355	11360.44
756.693	11423.94
757.031	11571.5
757.368	11651.5
757.706	11875.22
758.044	11933.53
758.381	12082.9
758.719	12230.02
759.056	12436.11
759.394	12506.62
