Data from hue_130_FLMS001491_00088.txt Node
Date: Tue Feb 07 16:58:13 GMT 2017
User: dcchb
Spectrometer: FLMS00149
Trigger mode: 0
Integration Time (sec): 2.000000E-2
Scans to average: 10
Electric dark correction enabled: true
Nonlinearity correction enabled: false
Boxcar width: 0
XAxis mode: Wavelengths
Number of Pixels in Spectrum: 2048
>>>>>Begin Spectral Data<<<<<
341.393	-12.12
341.776	-12.12
342.16	-12.12
342.543	-63.87
342.927	-50.54
343.31	-49.41
343.693	-57.54
344.077	-81.5
344.46	-59.8
344.843	-39.46
345.226	-69.07
345.61	-14.6
345.993	-21.16
346.376	4.38
346.759	23.59
347.142	25.85
347.525	31.27
347.908	60.42
348.291	68.11
348.674	87.31
349.057	91.61
349.44	150.14
349.823	150.82
350.206	169.57
350.588	204.6
350.971	205.28
351.354	218.16
351.737	230.59
352.119	241.21
352.502	286.63
352.884	265.61
353.267	268.78
353.65	292.05
354.032	301.77
354.414	305.61
354.797	317.36
355.179	330.92
355.562	322.11
355.944	302.45
356.326	322.79
356.709	333.18
357.091	326.18
357.473	338.83
357.855	345.39
358.238	351.26
358.62	344.03
359.002	337.25
359.384	341.32
359.766	330.92
360.148	333.64
360.53	347.19
360.912	336.8
361.294	314.65
361.676	319.85
362.057	338.83
362.439	341.54
362.821	341.32
363.203	332.05
363.584	329.12
363.966	328.66
364.348	323.47
364.729	321.21
365.111	308.78
365.493	320.53
365.874	344.93
366.256	298.16
366.637	311.49
367.019	313.3
367.4	307.2
367.781	306.29
368.163	320.3
368.544	308.1
368.925	301.77
369.306	308.55
369.688	304.03
370.069	311.04
370.45	329.12
370.831	310.59
371.212	329.57
371.593	324.37
371.974	300.64
372.355	323.01
372.736	325.73
373.117	308.78
373.498	324.37
373.879	310.13
374.26	312.39
374.641	320.08
375.021	332.05
375.402	321.21
375.783	329.34
376.163	313.3
376.544	323.69
376.925	318.49
377.305	329.79
377.686	323.92
378.066	340.64
378.447	331.83
378.827	335.9
379.208	328.66
379.588	320.3
379.968	325.05
380.349	353.75
380.729	324.14
381.109	342
381.489	347.87
381.87	347.42
382.25	334.54
382.63	317.14
383.01	364.82
383.39	381.09
383.77	362.11
384.15	352.17
384.53	339.51
384.91	364.82
385.29	337.93
385.67	366.63
386.049	356.69
386.429	343.35
386.809	346.29
387.189	347.65
387.568	365.27
387.948	362.56
388.328	354.65
388.707	360.3
389.087	349.91
389.466	371.15
389.846	370.92
390.225	372.05
390.605	348.1
390.984	384.93
391.363	354.88
391.743	386.74
392.122	379.28
392.501	386.29
392.881	396.68
393.26	384.03
393.639	375.67
394.018	379.51
394.397	357.82
394.776	391.26
395.155	389.45
395.534	395.33
395.913	386.97
396.292	389
396.671	396.01
397.05	377.25
397.429	404.82
397.808	401.43
398.186	416.34
398.565	397.59
398.944	390.36
399.323	400.75
399.701	391.71
400.08	386.52
400.458	395.55
400.837	390.13
401.215	399.85
401.594	429
401.972	417.7
402.351	418.83
402.729	426.06
403.107	418.6
403.486	426.51
403.864	404.82
404.242	415.89
404.62	424.71
404.999	414.09
405.377	443.46
405.755	424.71
406.133	443.24
406.511	436.23
406.889	423.35
407.267	425.84
407.645	433.07
408.023	433.75
408.401	448.89
408.779	455.67
409.156	459.28
409.534	435.78
409.912	457.7
410.29	448.21
410.667	463.12
411.045	479.17
411.422	478.94
411.8	496.57
412.178	476.68
412.555	476.23
412.933	477.59
413.31	484.59
413.687	479.85
414.065	482.11
414.442	489.56
414.819	500.64
415.197	490.24
415.574	513.52
415.951	515.1
416.328	500.64
416.705	518.26
417.082	512.39
417.46	532.95
417.837	523.69
418.214	529.79
418.591	537.92
418.967	537.02
419.344	530.24
419.721	552.16
420.098	513.29
420.475	546.51
420.852	545.83
421.228	536.34
421.605	556.45
421.982	540.86
422.358	553.97
422.735	553.97
423.111	573.85
423.488	554.42
423.864	554.87
424.241	570.69
424.617	574.31
424.994	550.58
425.37	574.31
425.746	582.22
426.123	588.32
426.499	612.95
426.875	607.75
427.251	607.98
427.627	619.5
428.003	616.57
428.379	604.36
428.756	635.77
429.132	657.92
429.507	636.23
429.883	633.06
430.259	663.8
430.635	641.65
431.011	650.46
431.387	685.04
431.763	673.29
432.138	682.33
432.514	676.45
432.89	680.97
433.265	695.21
433.641	684.13
434.016	683
434.392	700.18
434.767	723.23
435.143	731.82
435.518	726.85
435.894	722.78
436.269	730.91
436.644	737.47
437.02	751.48
437.395	766.17
437.77	768.43
438.145	748.77
438.52	773.62
438.895	774.53
439.271	791.02
439.646	780.4
440.021	811.59
440.395	824.47
440.77	820.18
441.145	804.81
441.52	824.47
441.895	829.22
442.27	820.4
442.645	852.72
443.019	843.9
443.394	845.03
443.769	854.98
444.143	829.67
444.518	870.8
444.892	856.56
445.267	865.15
445.641	886.62
446.016	855.66
446.39	885.71
446.764	879.16
447.139	888.2
447.513	863.79
447.887	883
448.262	920.96
448.636	936.78
449.01	919.61
449.384	925.94
449.758	935.88
450.132	952.15
450.506	956.9
450.88	937.01
451.254	956.9
451.628	984.92
452.002	958.93
452.376	1021.98
452.75	991.92
453.123	1002.09
453.497	989.44
453.871	1015.43
454.244	1041.19
454.618	1028.31
454.992	1063.56
455.365	1075.54
455.739	1097.01
456.112	1085.25
456.486	1102.88
456.859	1087.51
457.232	1142.43
457.606	1123.45
457.979	1119.83
458.352	1143.33
458.725	1184.23
459.099	1179.71
459.472	1192.37
459.845	1207.96
460.218	1206.38
460.591	1252.71
460.964	1281.41
461.337	1288.64
461.71	1281.63
462.083	1315.53
462.456	1280.96
462.829	1326.38
463.201	1341.07
463.574	1364.34
463.947	1360.27
464.32	1418.58
464.692	1422.87
465.065	1406.83
465.438	1461.74
465.81	1460.84
466.183	1511.01
466.555	1532.47
466.928	1510.55
467.3	1540.38
467.672	1569.76
468.045	1624.45
468.417	1623.32
468.789	1643.88
469.161	1661.96
469.534	1681.17
469.906	1746.71
470.278	1755.97
470.65	1764.33
471.022	1825.8
471.394	1880.71
471.766	1880.71
472.138	1889.07
472.51	1959.81
472.882	2000.03
473.253	2045
473.625	2056.98
473.997	2142.18
474.369	2161.84
474.74	2184.43
475.112	2264.21
475.484	2363.19
475.855	2378.78
476.227	2415.61
476.598	2464.65
476.97	2510.98
477.341	2616.29
477.713	2629.39
478.084	2706.91
478.455	2795.27
478.827	2853.57
479.198	2954.81
479.569	2990.51
479.94	3131.75
480.311	3170.4
480.682	3246.78
481.053	3387.79
481.424	3479.09
481.795	3531.52
482.166	3627.11
482.537	3698.07
482.908	3837.5
483.279	3865.07
483.65	4014.89
484.021	4151.16
484.391	4226.19
484.762	4308.22
485.133	4395
485.503	4510.93
485.874	4664.37
486.244	4791.82
486.615	4884.7
486.985	5019.39
487.356	5138.93
487.726	5286.5
488.097	5436.78
488.467	5509.77
488.837	5680.61
489.207	5773.49
489.578	5921.06
489.948	6053.48
490.318	6200.6
490.688	6304.1
491.058	6470.2
491.428	6585.67
491.798	6694.37
492.168	6946.12
492.538	7029.73
492.908	7160.35
493.278	7324.64
493.648	7395.37
494.017	7582.94
494.387	7686.44
494.757	7865.87
495.126	7997.61
495.496	8098.63
495.866	8185.86
496.235	8310.37
496.605	8450.03
496.974	8626.98
497.344	8659.52
497.713	8780.19
498.082	8895.9
498.452	9068.55
498.821	9207.07
499.19	9254.76
499.559	9350.57
499.928	9413.62
500.298	9596.44
500.667	9656.78
501.036	9710.34
501.405	9863.78
501.774	9910.11
502.143	10133.38
502.512	10158.46
502.88	10296.09
503.249	10297.67
503.618	10391.9
503.987	10513.03
504.356	10557.32
504.724	10645.68
505.093	10731.33
505.462	10723.87
505.83	10859.46
506.199	11026.01
506.567	11075.27
506.936	11133.8
507.304	11283.63
507.672	11378.09
508.041	11390.29
508.409	11437.75
508.777	11574.02
509.145	11607.01
509.514	11677.52
509.882	11755.71
510.25	11772.66
510.618	11929.94
510.986	11955.7
511.354	11966.32
511.722	12161.12
512.09	12258.52
512.458	12231.18
512.826	12264.62
513.193	12305.98
513.561	12320.21
513.929	12467.33
514.297	12496.71
514.664	12505.52
515.032	12620.09
515.4	12604.73
515.767	12671.62
516.135	12748.68
516.502	12657.61
516.869	12896.47
517.237	12875.68
517.604	12774.89
517.972	12894.89
518.339	13013.53
518.706	13009.46
519.073	13042
519.44	13160.42
519.808	13104.82
520.175	13153.86
520.542	13367.19
520.909	13241.54
521.276	13193.64
521.643	13333.29
522.009	13386.4
522.376	13443.12
522.743	13450.8
523.11	13602.66
523.477	13703
523.843	13644.92
524.21	13767.41
524.577	13829.55
524.943	13826.16
525.31	13818.7
525.676	13878.14
526.043	13826.16
526.409	13908.65
526.776	14024.35
527.142	13974.41
527.508	14062.31
527.874	14001.75
528.241	13978.93
528.607	14034.07
528.973	14125.82
529.339	14021.64
529.705	14147.28
530.071	14153.38
530.437	14139.15
530.803	14214.17
531.169	14234.29
531.535	14125.59
531.901	14148.87
532.267	14125.36
532.632	14204.68
532.998	14117.91
533.364	14145.7
533.73	14181.86
534.095	14210.56
534.461	14195.64
534.826	14158.36
535.192	14216.43
535.557	14182.54
535.923	14160.84
536.288	14213.27
536.653	14106.83
537.019	14025.93
537.384	14052.14
537.749	14038.13
538.114	14078.58
538.479	14001.75
538.845	14065.03
539.21	13926.27
539.575	13925.37
539.94	13877.69
540.305	14021.64
540.67	13858.48
541.034	13873.17
541.399	13787.97
541.764	13838.82
542.129	13787.97
542.494	13694.64
542.858	13739.61
543.223	13706.62
543.587	13713.85
543.952	13593.4
544.316	13614.42
544.681	13632.27
545.045	13551.37
545.41	13578.94
545.774	13570.58
546.138	13506.62
546.503	13512.95
546.867	13446.96
547.231	13448.09
547.595	13433.63
547.959	13427.98
548.324	13307.98
548.688	13364.03
549.052	13307.08
549.416	13293.07
549.779	13247.65
550.143	13228.21
550.507	13193.86
550.871	13166.74
551.235	13084.71
551.599	13103.02
551.962	13152.28
552.326	13096.01
552.689	13069.12
553.053	12966.3
553.417	12994.55
553.78	13207.42
554.143	12953.64
554.507	12957.26
554.87	13006.3
555.234	13054.66
555.597	12949.8
555.96	12960.42
556.323	12906.64
556.686	12802.23
557.05	12870.71
557.413	12943.7
557.776	12885.62
558.139	12926.3
558.502	12993.64
558.865	12868.67
559.228	12814.21
559.59	12868.22
559.953	12912.97
560.316	12983.92
560.679	12900.31
561.041	12932.17
561.404	12925.85
561.767	12958.61
562.129	12898.05
562.492	12942.57
562.854	13020.99
563.217	12927.2
563.579	12938.05
563.941	13007.65
564.304	13004.49
564.666	13077.26
565.028	13039.29
565.39	13107.31
565.753	13020.31
566.115	13078.38
566.477	13018.05
566.839	13030.7
567.201	13179.17
567.563	13161.32
567.925	13190.92
568.287	13263.01
568.648	13171.49
569.01	13175.78
569.372	13234.09
569.734	13124.94
570.095	13249.91
570.457	13327.42
570.819	13247.42
571.18	13275.67
571.542	13293.52
571.903	13314.99
572.265	13254.2
572.626	13375.33
572.987	13325.16
573.349	13313.63
573.71	13385.72
574.071	13402.22
574.432	13279.28
574.794	13489.22
575.155	13328.32
575.516	13350.47
575.877	13433.86
576.238	13384.14
576.599	13426.62
576.96	13446.96
577.32	13419.17
577.681	13570.58
578.042	13462.56
578.403	13547.75
578.763	13487.87
579.124	13469.79
579.485	13546.62
579.845	13566.73
580.206	13572.16
580.566	13420.07
580.927	13467.75
581.287	13493.97
581.648	13387.98
582.008	13507.98
582.368	13459.84
582.728	13472.05
583.089	13422.1
583.449	13492.16
583.809	13477.24
584.169	13545.04
584.529	13460.52
584.889	13587.3
585.249	13436.57
585.609	13468.66
585.969	13492.16
586.329	13372.39
586.688	13505.04
587.048	13399.28
587.408	13387.76
587.768	13491.26
588.127	13394.08
588.487	13322.45
588.846	13409.68
589.206	13332.84
589.565	13300.75
589.925	13359.96
590.284	13311.83
590.643	13294.42
591.003	13396.57
591.362	13290.58
591.721	13291.03
592.08	13328.77
592.44	13406.51
592.799	13329
593.158	13227.08
593.517	13280.41
593.876	13240.41
594.235	13279.96
594.593	13283.8
594.952	13328.55
595.311	13225.27
595.67	13157.25
596.029	13280.64
596.387	13270.24
596.746	13221.88
597.104	13182.11
597.463	13223.01
597.822	13340.98
598.18	13150.93
598.538	13181.43
598.897	13301.2
599.255	13138.04
599.613	13358.83
599.972	13243.8
600.33	13221.43
600.688	13181.43
601.046	13190.02
601.404	13258.27
601.762	13258.72
602.12	13267.76
602.478	13237.25
602.836	13239.28
603.194	13139.4
603.552	13193.64
603.91	13151.15
604.268	13228.21
604.625	13232.05
604.983	13232.51
605.341	13192.05
605.698	13299.17
606.056	13181.43
606.413	13227.53
606.771	13250.13
607.128	13277.48
607.485	13207.87
607.843	13204.48
608.2	13236.8
608.557	13319.06
608.914	13218.04
609.272	13333.97
609.629	13262.33
609.986	13383.46
610.343	13349.79
610.7	13432.73
611.057	13339.62
611.414	13337.59
611.771	13317.02
612.127	13364.25
612.484	13374.87
612.841	13384.82
613.198	13343.69
613.554	13417.59
613.911	13416.91
614.267	13443.35
614.624	13421.2
614.98	13398.6
615.337	13453.74
615.693	13446.74
616.05	13427.75
616.406	13558.37
616.762	13446.74
617.118	13485.15
617.475	13480.86
617.831	13544.36
618.187	13566.96
618.543	13525.38
618.899	13626.17
619.255	13576.45
619.611	13559.28
619.967	13693.28
620.323	13602.44
620.678	13597.69
621.034	13544.14
621.39	13599.28
621.746	13570.12
622.101	13628.2
622.457	13593.63
622.812	13611.48
623.168	13665.04
623.523	13601.08
623.879	13621.42
624.234	13592.5
624.589	13641.99
624.945	13608.99
625.3	13582.55
625.655	13644.25
626.01	13657.35
626.365	13568.09
626.72	13627.98
627.075	13592.72
627.43	13656.45
627.785	13588.88
628.14	13608.77
628.495	13675.88
628.85	13607.18
629.205	13522.22
629.559	13581.42
629.914	13480.18
630.269	13546.85
630.623	13499.84
630.978	13475.44
631.332	13497.58
631.687	13524.47
632.041	13503.01
632.396	13488.09
632.75	13490.8
633.104	13452.16
633.459	13328.32
633.813	13441.77
634.167	13330.58
634.521	13407.42
634.875	13481.09
635.229	13410.35
635.583	13270.24
635.937	13345.72
636.291	13272.73
636.645	13322.67
636.999	13296.46
637.352	13291.26
637.706	13132.62
638.06	13268.89
638.413	13226.4
638.767	13155.9
639.121	13134.43
639.474	13124.71
639.828	13064.37
640.181	13113.64
640.534	13138.72
640.888	13094.43
641.241	13044.71
641.594	13021.21
641.947	13039.52
642.301	13022.34
642.654	13104.15
643.007	13045.62
643.36	13087.65
643.713	12991.38
644.066	13050.14
644.419	13018.73
644.771	12926.52
645.124	12806.3
645.477	12792.97
645.83	12630.94
646.182	12671.84
646.535	12642.92
646.888	12632.52
647.24	12576.7
647.593	12635.23
647.945	12597.95
648.298	12526.08
648.65	12529.47
649.002	12533.54
649.355	12606.98
649.707	12598.17
650.059	12664.16
650.411	12749.13
650.763	12782.57
651.115	12923.13
651.467	12868.9
651.819	12936.92
652.171	12898.28
652.523	12811.5
652.875	12801.1
653.227	12829.58
653.578	12831.61
653.93	12864.83
654.282	12780.54
654.633	12756.81
654.985	12844.94
655.337	12846.98
655.688	12844.04
656.039	12925.17
656.391	12780.54
656.742	12743.7
657.094	12784.61
657.445	12776.92
657.796	12827.09
658.147	12786.64
658.498	12770.14
658.849	12822.57
659.2	12740.77
659.551	12818.28
659.902	12814.89
660.253	12810.82
660.604	12892.85
660.955	12729.02
661.306	12830.93
661.656	12825.28
662.007	12836.81
662.358	12939.86
662.708	12912.97
663.059	12820.76
663.409	12833.42
663.76	12892.4
664.11	12902.57
664.461	12890.82
664.811	12854.66
665.161	12865.96
665.511	12849.46
665.862	12866.64
666.212	12921.1
666.562	12914.32
666.912	12861.67
667.262	12892.85
667.612	12866.87
667.962	12853.31
668.312	12863.7
668.662	12946.41
669.011	12905.06
669.361	12939.86
669.711	12817.37
670.06	12843.36
670.41	12796.81
670.76	12873.87
671.109	12820.54
671.459	12753.65
671.808	12746.19
672.157	12849.24
672.507	12736.02
672.856	12714.1
673.205	12738.73
673.554	12717.49
673.904	12732.63
674.253	12855.34
674.602	12724.95
674.951	12491.51
675.3	12522.92
675.649	12786.64
675.998	12727.43
676.346	12654.44
676.695	12653.76
677.044	12621.67
677.393	12602.24
677.741	12673.65
678.09	12666.87
678.438	12611.05
678.787	12625.29
679.135	12552.98
679.484	12478.85
679.832	12559.75
680.181	12471.4
680.529	12538.29
680.877	12428.23
681.225	12400.89
681.573	12587.1
681.922	12508.91
682.27	12381.68
682.618	12422.81
682.966	12418.74
683.314	12419.65
683.661	12384.17
684.009	12284.73
684.357	12275.24
684.705	12222.36
685.053	12313.43
685.4	12173.1
685.748	12058.3
686.095	12171.06
686.443	12100.78
686.79	11994.57
687.138	12073.89
687.485	12095.81
687.832	11981.69
688.18	12049.03
688.527	11921.81
688.874	11900.56
689.221	11794.35
689.568	11828.47
689.915	11825.31
690.262	11872.77
690.609	11814.01
690.956	11793
691.303	11690.17
691.65	11671.64
691.997	11581.7
692.344	11572.44
692.69	11549.61
693.037	11604.53
693.383	11531.31
693.73	11495.6
694.077	11471.65
694.423	11399.79
694.769	11341.48
695.116	11233.01
695.462	11285.21
695.808	11194.14
696.155	11195.5
696.501	11130.19
696.847	11089.51
697.193	11028.04
697.539	11049.29
697.885	10986.91
698.231	10905.79
698.577	10970.64
698.923	10909.85
699.269	10798.22
699.614	10788.95
699.96	10835.51
700.306	10740.82
700.651	10760.03
700.997	10725
701.342	10628.51
701.688	10581.73
702.033	10560.03
702.379	10546.47
702.724	10461.96
703.069	10530.88
703.415	10441.62
703.76	10441.62
704.105	10345.8
704.45	10299.93
704.795	10312.58
705.14	10247.72
705.485	10198.46
705.83	10144.9
706.175	10158.24
706.52	10129.99
706.865	10133.83
707.209	10105.36
707.554	10037.33
707.899	10114.85
708.243	10043.44
708.588	9930.67
708.932	9921.18
709.277	9880.05
709.621	9868.07
709.966	9866.04
710.31	9856.32
710.654	9781.07
710.998	9692.71
711.342	9791.24
711.687	9735.42
712.031	9749.88
712.375	9625.59
712.719	9638.93
713.063	9671.69
713.407	9703.11
713.75	9596.44
714.094	9626.5
714.438	9527.07
714.782	9591.02
715.125	9492.04
715.469	9493.85
715.812	9506.95
716.156	9443.23
716.499	9495.88
716.843	9434.41
717.186	9379.27
717.53	9445.94
717.873	9456.11
718.216	9423.11
718.559	9362.1
718.902	9343.34
719.246	9322.1
719.589	9287.52
719.932	9273.06
720.275	9307.86
720.617	9277.35
720.96	9206.62
721.303	9304.47
721.646	9199.62
721.989	9212.5
722.331	9216.34
722.674	9167.3
723.016	9200.75
723.359	9200.52
723.701	9205.94
724.044	9137.02
724.386	9096.79
724.729	9145.16
725.071	9164.59
725.413	9144.93
725.755	9058.6
726.097	9082.33
726.439	8988.32
726.782	9056.12
727.124	9074.87
727.465	9032.62
727.807	9075.1
728.149	9055.21
728.491	8974.99
728.833	9016.8
729.175	9004.37
729.516	9033.75
729.858	9027.42
730.199	9032.16
730.541	8984.48
730.882	9009.79
731.224	9037.14
731.565	9027.42
731.906	9019.06
732.248	9038.49
732.589	8964.14
732.93	9026.74
733.271	8970.24
733.612	9043.24
733.953	9008.66
734.294	8978.38
734.635	8994.2
734.976	8966.85
735.317	8963.24
735.658	9055.67
735.999	8997.81
736.339	8979.96
736.68	8972.5
737.021	8960.08
737.361	8963.01
737.702	8991.94
738.042	8985.84
738.383	9020.19
738.723	9012.5
739.063	9037.36
739.404	8993.29
739.744	9001.2
740.084	9044.14
740.424	9053.18
740.764	9145.38
741.104	9138.6
741.444	9069
741.784	9119.17
742.124	9086.85
742.464	9121.65
742.804	9047.08
743.143	9188.32
743.483	9182.22
743.823	9116
744.162	9116.91
744.502	9202.55
744.841	9217.47
745.181	9285.49
745.52	9298.15
745.86	9295.66
746.199	9311.93
746.538	9365.49
746.877	9499.5
747.216	9557.12
747.556	9599.61
747.895	9568.19
748.234	9555.31
748.573	9682.77
748.911	9690
749.25	9792.6
749.589	9828.98
749.928	9861.52
750.267	9961.86
750.605	10041.4
750.944	10071.46
751.283	10158.01
751.621	10268.06
751.96	10318.68
752.298	10451.34
752.636	10571.33
752.975	10587.38
753.313	10675.28
753.651	10819.69
753.989	10877.76
754.327	11092.45
754.666	11083.18
755.004	11212.22
755.342	11397.98
755.679	11430.97
756.017	11587.35
756.355	11788.25
756.693	11819.66
757.031	12046.32
757.368	12028.7
757.706	12158.41
758.044	12402.7
758.381	12529.02
758.719	12681.56
759.056	12769.92
