Data from hue_280_FLMS001491_00064.txt Node
Date: Tue Feb 07 15:55:36 GMT 2017
User: dcchb
Spectrometer: FLMS00149
Trigger mode: 0
Integration Time (sec): 2.000000E-2
Scans to average: 10
Electric dark correction enabled: true
Nonlinearity correction enabled: false
Boxcar width: 0
XAxis mode: Wavelengths
Number of Pixels in Spectrum: 2048
>>>>>Begin Spectral Data<<<<<
341.393	-6
341.776	-6
342.16	-6
342.543	-41.26
342.927	-53.69
343.31	-56.4
343.693	-70.41
344.077	-49.39
344.46	-43.74
344.843	-65.66
345.226	-57.53
345.61	-29.28
345.993	-22.05
346.376	-28.83
346.759	5.07
347.142	13.88
347.525	67.67
347.908	49.59
348.291	71.96
348.674	100.89
349.057	114.22
349.44	114.22
349.823	113.32
350.206	149.25
350.588	183.82
350.971	189.92
351.354	228.79
351.737	235.8
352.119	235.35
352.502	237.61
352.884	250.04
353.267	261.11
353.65	286.65
354.032	292.97
354.414	299.98
354.797	324.38
355.179	300.66
355.562	311.28
355.944	309.02
356.326	305.4
356.709	306.31
357.091	330.26
357.473	330.49
357.855	318.06
358.238	338.85
358.62	320.77
359.002	335.91
359.384	314.89
359.766	351.73
360.148	314.21
360.53	323.93
360.912	332.52
361.294	328.9
361.676	316.93
362.057	325.74
362.439	325.97
362.821	329.58
363.203	324.38
363.584	331.84
363.966	319.19
364.348	329.58
364.729	317.15
365.111	314.21
365.493	303.82
365.874	314.89
366.256	325.97
366.637	299.75
367.019	322.58
367.4	312.18
367.781	306.98
368.163	290.94
368.544	304.27
368.925	297.94
369.306	308.11
369.688	314.89
370.069	299.07
370.45	297.04
370.831	304.95
371.212	316.02
371.593	302.46
371.974	302.92
372.355	294.78
372.736	322.58
373.117	322.12
373.498	297.94
373.879	302.46
374.26	303.82
374.641	278.06
375.021	319.19
375.402	291.16
375.783	295.46
376.163	321.45
376.544	302.46
376.925	315.8
377.305	316.47
377.686	313.31
378.066	319.86
378.447	320.77
378.827	328.9
379.208	313.31
379.588	341.11
379.968	329.58
380.349	320.77
380.729	330.03
381.109	323.93
381.489	321.67
381.87	341.78
382.25	334.33
382.63	323.03
383.01	339.52
383.39	344.95
383.77	352.18
384.15	331.62
384.53	322.8
384.91	337.72
385.29	328.23
385.67	367.55
386.049	340.43
386.429	344.04
386.809	349.24
387.189	359.64
387.568	357.83
387.948	344.04
388.328	334.33
388.707	366.42
389.087	341.56
389.466	366.42
389.846	367.55
390.225	347.66
390.605	368.9
390.984	365.29
391.363	354.89
391.743	357.83
392.122	370.94
392.501	364.16
392.881	370.71
393.26	390.15
393.639	367.77
394.018	381.56
394.397	381.11
394.776	363.03
395.155	365.96
395.534	364.61
395.913	381.78
396.292	370.48
396.671	395.57
397.05	388.79
397.429	384.04
397.808	392.4
398.186	402.57
398.565	395.34
398.944	402.57
399.323	387.89
399.701	391.95
400.08	386.3
400.458	392.18
400.837	396.7
401.215	409.35
401.594	417.49
401.972	415.46
402.351	413.2
402.729	414.1
403.107	438.28
403.486	416.13
403.864	421.56
404.242	440.54
404.62	448.45
404.999	421.1
405.377	431.95
405.755	437.6
406.133	426.3
406.511	436.92
406.889	439.86
407.267	468.56
407.645	468.56
408.023	475.79
408.401	476.47
408.779	467.21
409.156	461.78
409.534	455.23
409.912	477.83
410.29	474.44
410.667	482.57
411.045	471.72
411.422	493.87
411.8	519.18
412.178	512.85
412.555	526.64
412.933	523.7
413.31	557.82
413.687	547.88
414.065	525.73
414.442	562.12
414.819	571.84
415.197	572.74
415.574	567.99
415.951	566.41
416.328	595.11
416.705	610.48
417.082	613.42
417.46	607.54
417.837	631.49
418.214	620.42
418.591	631.04
418.967	656.13
419.344	644.38
419.721	642.79
420.098	659.97
420.475	640.99
420.852	659.74
421.228	673.98
421.605	679.63
421.982	709.68
422.358	683.7
422.735	684.6
423.111	722.79
423.488	738.16
423.864	720.53
424.241	732.73
424.617	732.96
424.994	749.46
425.37	765.73
425.746	770.93
426.123	777.25
426.499	773.19
426.875	777.93
427.251	809.8
427.627	807.31
428.003	834.88
428.379	821.55
428.756	840.53
429.132	846.4
429.507	888.66
429.883	881.21
430.259	900.19
430.635	898.38
431.011	899.06
431.387	921.2
431.763	948.55
432.138	953.07
432.514	928.44
432.89	942.67
433.265	978.6
433.641	980.86
434.016	1004.82
434.392	1019.96
434.767	1043.46
435.143	1043.01
435.518	1061.77
435.894	1085.49
436.269	1055.89
436.644	1083.01
437.02	1104.93
437.395	1117.13
437.77	1118.94
438.145	1148.54
438.52	1137.7
438.895	1167.3
439.271	1183.57
439.646	1212.04
440.021	1211.82
440.395	1196.23
440.77	1212.72
441.145	1210.46
441.52	1238.71
441.895	1236.22
442.27	1244.13
442.645	1240.52
443.019	1284.81
443.394	1274.42
443.769	1262.21
444.143	1277.35
444.518	1283
444.892	1317.58
445.267	1308.99
445.641	1332.72
446.016	1335.43
446.39	1344.02
446.764	1362.1
447.139	1339.27
447.513	1380.18
447.887	1377.92
448.262	1355.32
448.636	1371.36
449.01	1385.15
449.384	1406.16
449.758	1397.58
450.132	1416.11
450.506	1395.54
450.88	1449.55
451.254	1421.76
451.628	1430.57
452.002	1440.51
452.376	1448.42
452.75	1457.24
453.123	1485.03
453.497	1487.52
453.871	1501.53
454.244	1525.26
454.618	1541.08
454.992	1540.4
455.365	1541.53
455.739	1572.94
456.112	1586.95
456.486	1584.01
456.859	1584.46
457.232	1644.8
457.606	1624.69
457.979	1631.24
458.352	1689.77
458.725	1688.42
459.099	1649.77
459.472	1709.21
459.845	1716.89
460.218	1723.44
460.591	1732.48
460.964	1723.44
461.337	1800.5
461.71	1766.61
462.083	1812.48
462.456	1788.07
462.829	1829.88
463.201	1854.51
463.574	1864.46
463.947	1905.81
464.32	1902.87
464.692	1906.94
465.065	1934.29
465.438	1933.61
465.81	1949.43
466.183	1996.66
466.555	1998.01
466.928	2022.19
467.3	2007.73
467.672	2016.32
468.045	2067.39
468.417	2056.09
468.789	2069.87
469.161	2090.21
469.534	2121.85
469.906	2161.62
470.278	2177.67
470.65	2191.45
471.022	2223.32
471.394	2233.26
471.766	2259.93
472.138	2305.57
472.51	2307.83
472.882	2348.96
473.253	2340.83
473.625	2413.14
473.997	2435.74
474.369	2427.15
474.74	2441.84
475.112	2494.95
475.484	2514.61
475.855	2572.91
476.227	2541.5
476.598	2619.69
476.97	2606.36
477.341	2642.06
477.713	2676.86
478.084	2694.27
478.455	2772.23
478.827	2732.23
479.198	2833.7
479.569	2823.98
479.94	2857.2
480.311	2941.94
480.682	2967.25
481.053	2990.75
481.424	3042.28
481.795	3045.44
482.166	3125.44
482.537	3108.27
482.908	3133.8
483.279	3174.7
483.65	3228.71
484.021	3242.95
484.391	3288.6
484.762	3331.76
485.133	3336.06
485.503	3372.44
485.874	3418.54
486.244	3441.59
486.615	3479.78
486.985	3497.63
487.356	3555.03
487.726	3600.23
488.097	3625.99
488.467	3616.5
488.837	3708.93
489.207	3721.36
489.578	3764.97
489.948	3808.36
490.318	3859.88
490.688	3840
491.058	3913.89
491.428	3894.23
491.798	3939.2
492.168	3988.92
492.538	3999.54
492.908	4025.76
493.278	4065.53
493.648	4051.74
494.017	4122.93
494.387	4167.9
494.757	4196.37
495.126	4200.21
495.496	4250.38
495.866	4233.43
496.235	4289.25
496.605	4315.01
496.974	4342.81
497.344	4363.37
497.713	4358.63
498.082	4410.83
498.452	4411.06
498.821	4441.56
499.19	4445.41
499.559	4480.89
499.928	4511.39
500.298	4515.23
500.667	4512.52
501.036	4534.89
501.405	4585.52
501.774	4549.81
502.143	4564.95
502.512	4590.94
502.88	4646.76
503.249	4646.76
503.618	4682.69
503.987	4630.49
504.356	4723.14
504.724	4666.64
505.093	4689.24
505.462	4729.01
505.83	4753.65
506.199	4768.11
506.567	4816.47
506.936	4823.25
507.304	4854.43
507.672	4871.16
508.041	4844.94
508.409	4849.01
508.777	4896.69
509.145	4917.03
509.514	4882.46
509.882	4956.13
510.25	4952.51
510.618	4944.6
510.986	4981.89
511.354	4981.21
511.722	5039.97
512.09	5039.06
512.458	4987.99
512.826	5060.98
513.193	5125.39
513.561	5054.88
513.929	5128.78
514.297	5109.8
514.664	5126.07
515.032	5143.92
515.4	5192.28
515.767	5153.41
516.135	5211.71
516.502	5154.31
516.869	5216.01
517.237	5226.85
517.604	5177.36
517.972	5218.72
518.339	5251.26
518.706	5286.06
519.073	5284.48
519.44	5306.4
519.808	5299.39
520.175	5289.68
520.542	5384.82
520.909	5387.75
521.276	5313.86
521.643	5383.46
522.009	5437.7
522.376	5434.76
522.743	5426.62
523.11	5445.15
523.477	5497.58
523.843	5495.32
524.21	5554.76
524.577	5573.74
524.943	5575.77
525.31	5555.43
525.676	5644.24
526.043	5641.98
526.409	5660.52
526.776	5663.9
527.142	5718.14
527.508	5701.19
527.874	5769.66
528.241	5791.36
528.607	5775.99
528.973	5814.41
529.339	5804.01
529.705	5903.22
530.071	5872.26
530.437	5878.14
530.803	5922.43
531.169	5956.78
531.535	5905.93
531.901	5990
532.267	5894.41
532.632	5950
532.998	5956.1
533.364	5962.2
533.73	5992.26
534.095	6044.91
534.461	6069.32
534.826	6097.79
535.192	6091.46
535.557	6093.95
535.923	6084.01
536.288	6140.05
536.653	6153.84
537.019	6120.62
537.384	6117
537.749	6189.54
538.114	6138.24
538.479	6188.41
538.845	6144.8
539.21	6164.46
539.575	6213.04
539.94	6232.93
540.305	6256.21
540.67	6225.25
541.034	6206.94
541.399	6312.7
541.764	6259.6
542.129	6282.65
542.494	6286.94
542.858	6326.49
543.223	6287.39
543.587	6352.7
543.952	6330.55
544.316	6400.61
544.681	6387.05
545.045	6397.67
545.41	6431.57
545.774	6435.64
546.138	6470.44
546.503	6481.74
546.867	6454.62
547.231	6440.61
547.595	6491.91
547.959	6471.79
548.324	6488.52
548.688	6502.07
549.052	6524.45
549.416	6578.46
549.779	6502.98
550.143	6506.82
550.507	6540.04
550.871	6568.97
551.235	6547.5
551.599	6582.75
551.962	6609.64
552.326	6645.57
552.689	6615.07
553.053	6613.03
553.417	6642.41
553.78	6686.7
554.143	6685.57
554.507	6681.51
554.87	6740.26
555.234	6670.66
555.597	6721.05
555.96	6722.18
556.323	6775.97
556.686	6805.12
557.05	6848.05
557.413	6876.75
557.776	6819.35
558.139	6888.96
558.502	6854.16
558.865	6850.54
559.228	6922.85
559.59	6888.28
559.953	6945.45
560.316	6930.99
560.679	6945.68
561.041	7038.78
561.404	7021.38
561.767	7054.6
562.129	7026.13
562.492	7076.75
562.854	7039.69
563.217	7090.53
563.579	7130.08
563.941	7102.74
564.304	7162.85
564.666	7199.01
565.028	7190.64
565.39	7183.19
565.753	7267.93
566.115	7266.57
566.477	7246.01
566.839	7266.8
567.201	7340.02
567.563	7366.91
567.925	7382.5
568.287	7505.44
568.648	7424.99
569.01	7488.49
569.372	7518.09
569.734	7461.6
570.095	7541.14
570.457	7495.27
570.819	7566.91
571.18	7595.61
571.542	7631.08
571.903	7668.37
572.265	7676.28
572.626	7673.34
572.987	7778.65
573.349	7757.64
573.71	7797.18
574.071	7882.83
574.432	7865.65
574.794	7898.87
575.155	7891.19
575.516	7914.24
575.877	8010.74
576.238	7979.55
576.599	8028.14
576.96	8086.89
577.32	8107.91
577.681	8154.01
578.042	8181.8
578.403	8151.07
578.763	8227.68
579.124	8312.87
579.485	8373.89
579.845	8329.6
580.206	8414.57
580.566	8426.32
580.927	8477.62
581.287	8516.94
581.648	8586.99
582.008	8603.04
582.368	8634.45
582.728	8693.66
583.089	8749.47
583.449	8793.77
583.809	8833.54
584.169	8857.95
584.529	8903.82
584.889	8956.02
585.249	9000.09
585.609	9125.06
585.969	9182.68
586.329	9202.34
586.688	9294.77
587.048	9349.91
587.408	9347.65
587.768	9401.66
588.127	9546.51
588.487	9560.07
588.846	9622.22
589.206	9680.52
589.565	9746.51
589.925	9859.95
590.284	9813.63
590.643	9950.57
591.003	9998.03
591.362	10092.26
591.721	10137.91
592.08	10272.37
592.44	10226.5
592.799	10365.02
593.158	10331.35
593.517	10406.83
593.876	10527.05
594.235	10509.43
594.593	10630.55
594.952	10688.18
595.311	10633.27
595.67	10787.39
596.029	10911
596.387	10985.12
596.746	10980.15
597.104	11005.69
597.463	11064.44
597.822	11144.21
598.18	11182.86
598.538	11289.07
598.897	11337.88
599.255	11284.55
599.613	11439.57
599.972	11448.84
600.33	11534.71
600.688	11477.99
601.046	11687.25
601.404	11676.18
601.762	11727.47
602.12	11774.25
602.478	11930.63
602.836	11925.89
603.194	11880.92
603.552	11873.23
603.91	11940.58
604.268	12108.03
604.625	11969.73
604.983	12107.58
605.341	12044.3
605.698	12209.5
606.056	12220.34
606.413	12193.68
606.771	12353.45
607.128	12352.77
607.485	12324.75
607.843	12349.83
608.2	12409.94
608.557	12478.87
608.914	12445.65
609.272	12554.35
609.629	12604.06
609.986	12659.88
610.343	12553.44
610.7	12732.87
611.057	12724.74
611.414	12688.58
611.771	12734
612.127	12863.72
612.484	12820.33
612.841	12927.89
613.198	12899.19
613.554	12866.43
613.911	13026.87
614.267	13000.21
614.624	12963.15
614.98	13129.7
615.337	13118.4
615.693	13090.38
616.05	13054.44
616.406	13205.63
616.762	13219.19
617.118	13175.57
617.475	13204.72
617.831	13102.58
618.187	13213.31
618.543	13208.34
618.899	13276.81
619.255	13319.07
619.611	13282.69
619.967	13414.66
620.323	13441.78
620.678	13352.97
621.034	13392.06
621.39	13362.46
621.746	13351.61
622.101	13515
622.457	13328.11
622.812	13489.69
623.168	13529.46
623.523	13556.13
623.879	13604.03
624.234	13422.12
624.589	13573.98
624.945	13605.16
625.3	13477.71
625.655	13543.25
626.01	13569.69
626.365	13598.39
626.72	13518.16
627.075	13536.01
627.43	13530.82
627.785	13559.52
628.14	13604.03
628.495	13622.11
628.85	13668.89
629.205	13514.55
629.559	13641.32
629.914	13599.29
630.269	13630.93
630.623	13459.41
630.978	13560.42
631.332	13585.5
631.687	13613.75
632.041	13491.04
632.396	13508.22
632.75	13528.56
633.104	13567.2
633.459	13360.65
633.813	13457.15
634.167	13398.62
634.521	13433.64
634.875	13449.46
635.229	13378.5
635.583	13336.92
635.937	13436.36
636.291	13387.32
636.645	13462.8
636.999	13343.93
637.352	13423.25
637.706	13310.94
638.06	13331.05
638.413	13374.89
638.767	13370.59
639.121	13379.41
639.474	13275
639.828	13247.89
640.181	13249.47
640.534	13260.99
640.888	13275.91
641.241	13250.15
641.594	13285.63
641.947	13262.58
642.301	13227.55
642.654	13252.18
643.007	13240.65
643.36	13174.89
643.713	13138.28
644.066	13214.89
644.419	13143.03
644.771	13134.89
645.124	12966.76
645.477	12907.78
645.83	12874.56
646.182	12815.13
646.535	12777.16
646.888	12829.59
647.24	12853.55
647.593	12861
647.945	12870.49
648.298	12844.05
648.65	12754.57
649.002	12765.64
649.355	12830.27
649.707	12781.91
650.059	12825.98
650.411	12987.78
650.763	13033.65
651.115	13100.55
651.467	13170.83
651.819	13100.32
652.171	13041.34
652.523	12983.03
652.875	13068.23
653.227	13049.02
653.578	13131.51
653.93	13066.2
654.282	13020.77
654.633	13032.3
654.985	13016.25
655.337	12979.42
655.688	13109.58
656.039	13106.19
656.391	12995.24
656.742	13038.4
657.094	13097.38
657.445	13111.84
657.796	13100.55
658.147	13167.89
658.498	13186.19
658.849	13192.75
659.2	13153.65
659.551	13172.86
659.902	13131.51
660.253	13154.78
660.604	13130.15
660.955	13116.59
661.306	13280.88
661.656	13197.27
662.007	13124.05
662.358	13155.69
662.708	13165.63
663.059	13185.97
663.409	13136.93
663.76	13250.37
664.11	13204.72
664.461	13181.45
664.811	13269.13
665.161	13184.38
665.511	13245.63
665.862	13143.71
666.212	13195.01
666.562	13177.61
666.912	13262.8
667.262	13220.77
667.612	13263.25
667.962	13189.58
668.312	13178.74
668.662	13268.9
669.011	13230.49
669.361	13240.65
669.711	13185.06
670.06	13109.81
670.41	13165.85
670.76	13143.71
671.109	13226.19
671.459	13209.92
671.808	13171.96
672.157	13093.77
672.507	13031.39
672.856	13152.3
673.205	13136.93
673.554	13209.02
673.904	13140.77
674.253	13152.52
674.602	13068.46
674.951	12949.81
675.3	12886.31
675.649	13019.42
675.998	13079.53
676.346	13040.89
676.695	13068.46
677.044	12998.63
677.393	13049.93
677.741	13031.17
678.09	12990.27
678.438	12855.13
678.787	13006.08
679.135	12965.86
679.484	12957.27
679.832	12927.67
680.181	12877.5
680.529	12801.8
680.877	12762.48
681.225	12874.34
681.573	12819.42
681.922	12799.54
682.27	12825.52
682.618	12806.32
682.966	12736.04
683.314	12693.32
683.661	12688.58
684.009	12671.4
684.357	12586.21
684.705	12567
685.053	12635.7
685.4	12596.6
685.748	12559.99
686.095	12525.42
686.443	12474.57
686.79	12412.43
687.138	12440
687.485	12403.16
687.832	12417.63
688.18	12388.02
688.527	12297.4
688.874	12277.29
689.221	12231.19
689.568	12221.25
689.915	12140.8
690.262	12078.43
690.609	12171.76
690.956	11989.61
691.303	12066
691.65	12005.66
691.997	12036.84
692.344	11898.54
692.69	11912.55
693.037	11906.68
693.383	11774.03
693.73	11763.41
694.077	11742.61
694.423	11754.14
694.769	11735.38
695.116	11696.51
695.462	11632.56
695.808	11592.56
696.155	11580.81
696.501	11435.05
696.847	11467.82
697.193	11426.47
697.539	11427.14
697.885	11317.77
698.231	11266.02
698.577	11212.69
698.923	11196.87
699.269	11167.49
699.614	11073.03
699.96	10991.67
700.306	11099.02
700.651	11042.07
700.997	10955.97
701.342	10940.38
701.688	10889.76
702.033	10866.25
702.379	10868.97
702.724	10816.54
703.069	10849.98
703.415	10619.48
703.76	10669.2
704.105	10652.93
704.45	10650.21
704.795	10556.88
705.14	10579.48
705.485	10517.34
705.83	10423.78
706.175	10513.95
706.52	10386.04
706.865	10373.61
707.209	10347.4
707.554	10297.23
707.899	10293.84
708.243	10217.01
708.588	10238.02
708.932	10161.64
709.277	10115.09
709.621	10232.37
709.966	10110.57
710.31	10085.26
710.654	10044.58
710.998	10036.9
711.342	10029.21
711.687	10035.09
712.031	9936.56
712.375	9980.18
712.719	9961.64
713.063	9940.18
713.407	9932.72
713.75	9913.96
714.094	9854.08
714.438	9858.37
714.782	9840.97
715.125	9792.61
715.469	9794.87
715.812	9756.45
716.156	9664.03
716.499	9692.27
716.843	9708.54
717.186	9672.84
717.53	9707.87
717.873	9727.75
718.216	9653.4
718.559	9611.6
718.902	9625.61
719.246	9562.79
719.589	9539.74
719.932	9525.95
720.275	9559.85
720.617	9564.14
720.96	9541.54
721.303	9501.09
721.646	9509.23
721.989	9503.35
722.331	9450.02
722.674	9506.74
723.016	9481.66
723.359	9495.44
723.701	9424.71
724.044	9368.44
724.386	9365.73
724.729	9387.65
725.071	9389.91
725.413	9382.23
725.755	9425.84
726.097	9405.05
726.439	9304.71
726.782	9354.66
727.124	9404.6
727.465	9398.5
727.807	9360.98
728.149	9323.24
728.491	9346.52
728.833	9340.87
729.175	9297.26
729.516	9332.51
729.858	9320.53
730.199	9238.5
730.541	9306.07
730.882	9276.47
731.224	9286.41
731.565	9245.73
731.906	9244.6
732.248	9277.6
732.589	9257.93
732.93	9256.13
733.271	9288.22
733.612	9350.14
733.953	9216.81
734.294	9222.23
734.635	9183.13
734.976	9299.97
735.317	9182.23
735.658	9288.89
735.999	9278.95
736.339	9244.83
736.68	9324.83
737.021	9251.83
737.361	9293.87
737.702	9305.62
738.042	9298.61
738.383	9261.1
738.723	9309.23
739.063	9332.06
739.404	9358.27
739.744	9393.98
740.084	9260.42
740.424	9390.81
740.764	9375.45
741.104	9445.73
741.444	9367.99
741.784	9340.42
742.124	9442.34
742.464	9420.42
742.804	9480.75
743.143	9431.26
743.483	9406.63
743.823	9518.72
744.162	9515.1
744.502	9585.84
744.841	9596.46
745.181	9594.2
745.52	9563.01
745.86	9657.92
746.199	9713.74
746.538	9734.08
746.877	9798.26
747.216	9870.8
747.556	9958.03
747.895	9928.88
748.234	9927.07
748.573	9965.94
748.911	10068.76
749.25	10054.75
749.589	10159.61
749.928	10226.72
750.267	10318.7
750.605	10373.39
750.944	10439.82
751.283	10419.26
751.621	10635.53
751.96	10678.46
752.298	10729.76
752.636	10872.58
752.975	10916.2
753.313	10911.9
753.651	11115.06
753.989	11216.75
754.327	11274.6
754.666	11348.73
755.004	11499.68
755.342	11692.9
755.679	11802.05
756.017	11863.06
756.355	12051.53
756.693	12090.85
757.031	12283.84
757.368	12352.54
757.706	12423.73
758.044	12668.24
758.381	12707.34
758.719	12912.98
759.056	13022.58
759.394	13111.17
759.731	13143.26
760.068	13381.22
760.405	13460.54
760.743	13569.46
761.08	13759.51
761.417	13855.1
761.754	14007.19
762.091	14138.03
762.428	14218.48
