Data from hue_110_FLMS001491_00074.txt Node
Date: Tue Feb 07 17:01:48 GMT 2017
User: dcchb
Spectrometer: FLMS00149
Trigger mode: 0
Integration Time (sec): 2.000000E-2
Scans to average: 10
Electric dark correction enabled: true
Nonlinearity correction enabled: false
Boxcar width: 0
XAxis mode: Wavelengths
Number of Pixels in Spectrum: 2048
>>>>>Begin Spectral Data<<<<<
341.393	-10.47
341.776	-10.47
342.16	-10.47
342.543	-69.45
342.927	-64.7
343.31	-62.67
343.693	-69.22
344.077	-77.58
344.46	-69.9
344.843	-41.65
345.226	-49.56
345.61	-37.36
345.993	-5.27
346.376	0.83
346.759	13.94
347.142	20.49
347.525	40.38
347.908	57.78
348.291	79.48
348.674	93.49
349.057	106.82
349.44	122.41
349.823	116.99
350.206	159.47
350.588	188.4
350.971	226.59
351.354	219.58
351.737	228.17
352.119	242.41
352.502	256.42
352.884	267.94
353.267	283.31
353.65	291
354.032	302.75
354.414	314.27
354.797	287.61
355.179	335.51
355.562	340.71
355.944	330.09
356.326	330.77
356.709	333.71
357.091	332.8
357.473	347.72
357.855	353.82
358.238	364.21
358.62	332.35
359.002	347.49
359.384	335.06
359.766	356.08
360.148	342.97
360.53	347.49
360.912	344.1
361.294	314.05
361.676	346.36
362.057	315.63
362.439	344.78
362.821	352.24
363.203	325.57
363.584	321.05
363.966	312.46
364.348	304.1
364.729	322.86
365.111	316.08
365.493	333.03
365.874	326.47
366.256	328.28
366.637	331.45
367.019	305.01
367.4	313.59
367.781	313.82
368.163	332.35
368.544	319.92
368.925	336.42
369.306	336.87
369.688	333.93
370.069	327.38
370.45	329.41
370.831	334.84
371.212	326.25
371.593	322.18
371.974	345.46
372.355	333.93
372.736	324.67
373.117	343.42
373.498	331.22
373.879	315.85
374.26	324.89
374.641	297.32
375.021	322.41
375.402	305.68
375.783	326.93
376.163	345.68
376.544	329.19
376.925	315.85
377.305	348.85
377.686	314.5
378.066	342.97
378.447	326.25
378.827	347.72
379.208	339.81
379.588	348.17
379.968	371.9
380.349	349.07
380.729	340.26
381.109	351.33
381.489	365.34
381.87	345.23
382.25	367.6
382.63	352.01
383.01	359.24
383.39	338.68
383.77	351.78
384.15	351.33
384.53	349.98
384.91	368.73
385.29	356.76
385.67	376.42
386.049	346.36
386.429	365.57
386.809	346.13
387.189	380.26
387.568	375.96
387.948	372.57
388.328	377.09
388.707	357.66
389.087	381.61
389.466	391.11
389.846	373.7
390.225	370.54
390.605	373.7
390.984	392.91
391.363	388.62
391.743	392.24
392.122	390.65
392.501	378
392.881	417.09
393.26	367.6
393.639	393.14
394.018	393.37
394.397	387.49
394.776	391.56
395.155	413.93
395.534	393.14
395.913	403.08
396.292	414.61
396.671	394.04
397.05	414.16
397.429	408.05
397.808	413.48
398.186	418.68
398.565	413.25
398.944	429.07
399.323	420.94
399.701	417.09
400.08	422.52
400.458	417.55
400.837	435.4
401.215	429.3
401.594	420.71
401.972	438.11
402.351	431.78
402.729	431.56
403.107	436.75
403.486	435.4
403.864	444.44
404.242	456.64
404.62	447.6
404.999	467.71
405.377	443.08
405.755	453.48
406.133	459.13
406.511	476.3
406.889	469.75
407.267	487.83
407.645	481.72
408.023	479.24
408.401	483.31
408.779	487.37
409.156	483.31
409.534	505.23
409.912	493.02
410.29	483.98
410.667	498.67
411.045	516.98
411.422	481.72
411.8	516.07
412.178	495.51
412.555	508.39
412.933	532.8
413.31	529.86
413.687	542.74
414.065	517.88
414.442	526.02
414.819	519.46
415.197	540.48
415.574	519.92
415.951	536.86
416.328	567.15
416.705	535.06
417.082	533.02
417.46	549.52
417.837	568.73
418.214	574.6
418.591	557.43
418.967	572.8
419.344	585.68
419.721	562.17
420.098	571.44
420.475	573.25
420.852	568.5
421.228	594.72
421.605	581.16
421.982	599.69
422.358	617.77
422.735	622.96
423.111	595.39
423.488	610.08
423.864	618.9
424.241	639.69
424.617	643.08
424.994	625.22
425.37	638.33
425.746	649.4
426.123	673.58
426.499	647.14
426.875	661.83
427.251	676.52
427.627	669.06
428.003	677.2
428.379	693.24
428.756	693.92
429.132	693.24
429.507	718.78
429.883	729.63
430.259	714.94
430.635	722.62
431.011	744.09
431.387	745.45
431.763	742.06
432.138	748.38
432.514	766.91
432.89	781.38
433.265	777.76
433.641	781.83
434.016	797.65
434.392	771.43
434.767	806.91
435.143	812.79
435.518	822.73
435.894	832.22
436.269	830.64
436.644	832
437.02	854.14
437.395	855.73
437.77	862.51
438.145	845.1
438.52	862.73
438.895	890.53
439.271	866.8
439.646	909.51
440.021	902.5
440.395	915.84
440.77	922.17
441.145	910.64
441.52	913.35
441.895	923.29
442.27	926.46
442.645	948.61
443.019	934.82
443.394	934.82
443.769	949.28
444.143	946.8
444.518	967.36
444.892	988.15
445.267	988.15
445.641	989.51
446.016	979.11
446.39	989.28
446.764	1010.3
447.139	1022.73
447.513	1024.54
447.887	1028.83
448.262	1022.95
448.636	1031.54
449.01	1035.83
449.384	1050.3
449.758	1076.74
450.132	1066.34
450.506	1066.57
450.88	1093.69
451.254	1109.28
451.628	1111.54
452.002	1096.62
452.376	1119.67
452.75	1119
453.123	1151.99
453.497	1154.93
453.871	1141.59
454.244	1158.32
454.618	1198.77
454.992	1202.16
455.365	1221.37
455.739	1238.77
456.112	1239.67
456.486	1264.3
456.859	1249.39
457.232	1292.78
457.606	1283.29
457.979	1304.3
458.352	1335.71
458.725	1343.17
459.099	1355.15
459.472	1382.94
459.845	1379.1
460.218	1407.58
460.591	1444.41
460.964	1430.63
461.337	1487.12
461.71	1474.69
462.083	1481.92
462.456	1504.07
462.829	1515.37
463.201	1534.8
463.574	1549.49
463.947	1580.23
464.32	1603.05
464.692	1620.23
465.065	1665.2
465.438	1695.48
465.81	1727.34
466.183	1720.79
466.555	1724.63
466.928	1759.21
467.3	1801.24
467.672	1799.43
468.045	1876.72
468.417	1880.11
468.789	1898.64
469.161	1952.42
469.534	1969.14
469.906	1982.25
470.278	2043.04
470.65	2052.53
471.022	2124.17
471.394	2156.71
471.766	2150.61
472.138	2202.58
472.51	2284.62
472.882	2339.98
473.253	2366.87
473.625	2408.68
473.997	2459.98
474.369	2502.01
474.74	2562.35
475.112	2649.58
475.484	2683.7
475.855	2732.29
476.227	2803.47
476.598	2882.34
476.97	2942
477.341	3031.04
477.713	3085.95
478.084	3153.29
478.455	3251.14
478.827	3286.4
479.198	3429.9
479.569	3469.89
479.94	3574.52
480.311	3616.78
480.682	3822.65
481.053	3935.65
481.424	3996.43
481.795	4054.74
482.166	4186.71
482.537	4246.6
482.908	4366.37
483.279	4516.19
483.65	4633.93
484.021	4771.33
484.391	4846.58
484.762	4996.63
485.133	5096.29
485.503	5196.85
485.874	5385.78
486.244	5485.21
486.615	5640.46
486.985	5768.59
487.356	5961.35
487.726	6049.04
488.097	6168.13
488.467	6360.67
488.837	6499.87
489.207	6604.95
489.578	6785.74
489.948	6959.52
490.318	7136.69
490.688	7185.96
491.058	7386.18
491.428	7544.59
491.798	7743
492.168	7933.73
492.538	8028.64
492.908	8210.56
493.278	8353.16
493.648	8514.96
494.017	8717.89
494.387	8777.78
494.757	8975.29
495.126	9122.4
495.496	9172.8
495.866	9315.84
496.235	9489.85
496.605	9650.98
496.974	9688.94
497.344	9964.19
497.713	10050.96
498.082	10165.09
498.452	10296.38
498.821	10430.16
499.19	10490.5
499.559	10637.62
499.928	10784.5
500.298	10875.35
500.667	11047.32
501.036	11122.57
501.405	11339.29
501.774	11351.95
502.143	11495.9
502.512	11612.51
502.88	11759.39
503.249	11769.11
503.618	11786.29
503.987	11957.36
504.356	12063.79
504.724	12122.1
505.093	12247.97
505.462	12277.35
505.83	12418.13
506.199	12595.98
506.567	12691.57
506.936	12787.39
507.304	12916.2
507.672	13006.59
508.041	13067.16
508.409	13147.38
508.777	13250.88
509.145	13320.71
509.514	13378.33
509.882	13431.89
510.25	13403.42
510.618	13624.2
510.986	13588.05
511.354	13746.69
511.722	13899.9
512.09	13980.58
512.458	13937.19
512.826	14001.37
513.193	14074.59
513.561	14131.76
513.929	14243.17
514.297	14326.33
514.664	14367.24
515.032	14477.29
515.4	14529.94
515.767	14572.65
516.135	14666.66
516.502	14555.7
516.869	14757.28
517.237	14848.8
517.604	14770.61
517.972	14866.66
518.339	15011.51
518.706	14962.25
519.073	15049.25
519.44	15074.56
519.808	15191.85
520.175	15030.72
520.542	15366.08
520.909	15268.45
521.276	15326.08
521.643	15434.78
522.009	15492.4
522.376	15542.12
522.743	15582.8
523.11	15609.46
523.477	15775.56
523.843	15837.93
524.21	15824.6
524.577	15950.7
524.943	15941.43
525.31	15976.01
525.676	16164.7
526.043	16170.35
526.409	16116.12
526.776	16277.47
527.142	16220.97
527.508	16304.81
527.874	16358.37
528.241	16403.11
528.607	16291.48
528.973	16475.65
529.339	16450.34
529.705	16484.47
530.071	16630.68
530.437	16559.49
530.803	16490.12
531.169	16597.91
531.535	16543.9
531.901	16487.41
532.267	16577.57
532.632	16615.76
532.998	16612.83
533.364	16727.63
533.73	16623.45
534.095	16712.48
534.461	16631.81
534.826	16700.73
535.192	16610.11
535.557	16770.34
535.923	16636.33
536.288	16703.22
536.653	16666.84
537.019	16580.96
537.384	16667.74
537.749	16607.4
538.114	16498.93
538.479	16488.31
538.845	16505.94
539.21	16439.95
539.575	16471.59
539.94	16454.19
540.305	16529.21
540.67	16357.92
541.034	16421.42
541.399	16427.97
541.764	16391.81
542.129	16440.4
542.494	16346.17
542.858	16380.97
543.223	16280.41
543.587	16306.17
543.952	16251.03
544.316	16178.49
544.681	16199.73
545.045	16210.8
545.41	16275.43
545.774	16145.27
546.138	16097.81
546.503	16133.74
546.867	15990.7
547.231	16152.95
547.595	16051.03
547.959	15997.02
548.324	15997.47
548.688	15967.19
549.052	16012.39
549.416	15878.38
549.779	15919.06
550.143	15853.98
550.507	15960.19
550.871	15816.01
551.235	15809.68
551.599	15808.55
551.962	15795.45
552.326	15810.36
552.689	15812.62
553.053	15721.1
553.417	15747.54
553.78	15918.38
554.143	15660.99
554.507	15712.28
554.87	15777.14
555.234	15728.33
555.597	15661.89
555.96	15547.54
556.323	15628.9
556.686	15567.66
557.05	15590.03
557.413	15650.82
557.776	15613.76
558.139	15644.49
558.502	15634.77
558.865	15666.41
559.228	15640.65
559.59	15678.39
559.953	15612.85
560.316	15717.71
560.679	15716.13
561.041	15699.63
561.404	15857.59
561.767	15734.2
562.129	15697.6
562.492	15823.69
562.854	15700.53
563.217	15704.83
563.579	15765.62
563.941	15807.88
564.304	15806.52
564.666	15964.03
565.028	15860.3
565.39	15886.74
565.753	15896.01
566.115	15937.36
566.477	15933.75
566.839	15984.82
567.201	16078.83
567.563	16007.87
567.925	15987.53
568.287	16082.44
568.648	16046.29
569.01	16087.64
569.372	16152.95
569.734	16133.74
570.095	16096.91
570.457	16168.09
570.819	16200.41
571.18	16137.81
571.542	16347.75
571.903	16140.75
572.265	16263
572.626	16272.95
572.987	16317.24
573.349	16280.86
573.71	16308.43
574.071	16276.79
574.432	16267.98
574.794	16480.17
575.155	16412.61
575.516	16305.94
575.877	16406.73
576.238	16442.43
576.599	16471.36
576.96	16424.13
577.32	16570.34
577.681	16573.28
578.042	16483.79
578.403	16528.53
578.763	16590
579.124	16440.4
579.485	16512.72
579.845	16470
580.206	16577.57
580.566	16524.92
580.927	16494.64
581.287	16543.9
581.648	16481.08
582.008	16566.5
582.368	16540.74
582.728	16518.82
583.089	16441.76
583.449	16507.52
583.809	16496.9
584.169	16515.65
584.529	16304.13
584.889	16546.16
585.249	16367.41
585.609	16385.26
585.969	16413.51
586.329	16350.91
586.688	16391.81
587.048	16419.84
587.408	16325.38
587.768	16380.74
588.127	16355.88
588.487	16319.5
588.846	16468.42
589.206	16305.72
589.565	16273.85
589.925	16344.36
590.284	16340.29
590.643	16368.09
591.003	16328.99
591.362	16371.25
591.721	16369.44
592.08	16317.92
592.44	16360.18
592.799	16330.8
593.158	16194.31
593.517	16234.3
593.876	16212.16
594.235	16235.66
594.593	16194.98
594.952	16262.55
595.311	16150.24
595.67	16185.04
596.029	16248.32
596.387	16334.42
596.746	16329.9
597.104	16175.32
597.463	16157.7
597.822	16235.21
598.18	16127.64
598.538	16222.1
598.897	16233.63
599.255	16108.66
599.613	16289.22
599.972	16164.7
600.33	16257.36
600.688	16152.05
601.046	16212.61
601.404	16284.02
601.762	16178.71
602.12	16289.44
602.478	16269.78
602.836	16232.95
603.194	16154.53
603.552	16202.89
603.91	16017.81
604.268	16153.4
604.625	16115.89
604.983	16177.81
605.341	16122.9
605.698	16166.51
606.056	16237.02
606.413	16173.29
606.771	16197.24
607.128	16159.5
607.485	16235.21
607.843	16122.22
608.2	16261.2
608.557	16258.71
608.914	16304.59
609.272	16346.62
609.629	16326.28
609.986	16340.29
610.343	16303.46
610.7	16380.97
611.057	16375.77
611.414	16283.8
611.771	16249.45
612.127	16464.81
612.484	16317.47
612.841	16500.29
613.198	16389.78
613.554	16303.23
613.911	16477.24
614.267	16531.25
614.624	16489.44
614.98	16442.66
615.337	16521.08
615.693	16483.11
616.05	16582.54
616.406	16535.99
616.762	16483.79
617.118	16507.07
617.475	16522.66
617.831	16586.61
618.187	16613.5
618.543	16510.23
618.899	16665.48
619.255	16632.49
619.611	16604.24
619.967	16707.29
620.323	16787.51
620.678	16578.02
621.034	16628.19
621.39	16664.12
621.746	16667.97
622.101	16832.48
622.457	16672.03
622.812	16594.97
623.168	16682.2
623.523	16641.3
623.879	16768.98
624.234	16539.61
624.589	16660.96
624.945	16725.82
625.3	16686.27
625.655	16689.43
626.01	16651.02
626.365	16717.46
626.72	16663.22
627.075	16607.4
627.43	16706.38
627.785	16626.61
628.14	16624.13
628.495	16709.09
628.85	16687.85
629.205	16701.86
629.559	16653.05
629.914	16599.27
630.269	16638.36
630.623	16540.29
630.978	16504.13
631.332	16540.96
631.687	16585.71
632.041	16550.68
632.396	16506.84
632.75	16490.57
633.104	16463
633.459	16360.63
633.813	16429.55
634.167	16419.84
634.521	16415.32
634.875	16477.91
635.229	16374.87
635.583	16379.16
635.937	16240.86
636.291	16288.31
636.645	16227.98
636.999	16176.68
637.352	16252.16
637.706	16240.41
638.06	16206.28
638.413	16194.98
638.767	16131.71
639.121	16188.66
639.474	16067.98
639.828	15985.5
640.181	16075.66
640.534	16035.89
640.888	16044.25
641.241	15941.43
641.594	15951.15
641.947	15935.56
642.301	16011.26
642.654	15982.33
643.007	16049.45
643.36	15976.91
643.713	15922
644.066	15949.11
644.419	15905.73
644.771	15760.87
645.124	15613.98
645.477	15645.85
645.83	15588.45
646.182	15492.18
646.535	15392.74
646.888	15454.44
647.24	15316.59
647.593	15479.07
647.945	15389.81
648.298	15388.45
648.65	15262.35
649.002	15352.75
649.355	15402.69
649.707	15375.12
650.059	15358.85
650.411	15640.65
650.763	15721.1
651.115	15806.07
651.467	15771.94
651.819	15789.34
652.171	15686.52
652.523	15678.84
652.875	15715
653.227	15657.82
653.578	15767.88
653.93	15714.54
654.282	15642.46
654.633	15726.3
654.985	15668.44
655.337	15692.17
655.688	15698.05
656.039	15714.32
656.391	15611.5
656.742	15659.63
657.094	15729.01
657.445	15754.32
657.796	15620.99
658.147	15606.52
658.498	15693.75
658.849	15761.1
659.2	15740.76
659.551	15648.78
659.902	15788.21
660.253	15708.89
660.604	15767.88
660.955	15739.4
661.306	15838.16
661.656	15791.6
662.007	15750.48
662.358	15770.81
662.708	15760.87
663.059	15819.63
663.409	15600.65
663.76	15727.2
664.11	15685.17
664.461	15744.6
664.811	15804.94
665.161	15727.43
665.511	15708.67
665.862	15760.42
666.212	15820.98
666.562	15754.09
666.912	15648.33
667.262	15668.44
667.612	15693.08
667.962	15750.25
668.312	15747.99
668.662	15818.72
669.011	15676.81
669.361	15700.99
669.711	15652.17
670.06	15772.62
670.41	15618.95
670.76	15662.34
671.109	15681.55
671.459	15606.98
671.808	15645.85
672.157	15695.11
672.507	15629.8
672.856	15576.69
673.205	15639.52
673.554	15629.12
673.904	15463.93
674.253	15672.51
674.602	15561.55
674.951	15394.1
675.3	15371.28
675.649	15537.83
675.998	15538.05
676.346	15529.46
676.695	15529.24
677.044	15459.41
677.393	15518.39
677.741	15489.24
678.09	15460.99
678.438	15382.8
678.787	15358.4
679.135	15349.81
679.484	15264.39
679.832	15433.65
680.181	15278.85
680.529	15296.7
680.877	15234.33
681.225	15202.02
681.573	15336.25
681.922	15186.87
682.27	15207.89
682.618	15013.09
682.966	15128.8
683.314	15078.63
683.661	15076.82
684.009	14987.11
684.357	14932.42
684.705	14942.81
685.053	14836.83
685.4	14872.53
685.748	14825.53
686.095	14687
686.443	14739.65
686.79	14785.98
687.138	14713.21
687.485	14737.39
687.832	14556.83
688.18	14680
688.527	14526.55
688.874	14556.38
689.221	14418.31
689.568	14388.7
689.915	14421.25
690.262	14498.98
690.609	14321.13
690.956	14290.18
691.303	14254.92
691.65	14210.86
691.997	14291.31
692.344	14075.27
692.69	13996.62
693.037	14029.17
693.383	13988.94
693.73	14039.56
694.077	13863.07
694.423	13917.08
694.769	13929.05
695.116	13779
695.462	13760.02
695.808	13726.8
696.155	13781.94
696.501	13620.36
696.847	13661.04
697.193	13534.94
697.539	13580.59
697.885	13408.16
698.231	13404.1
698.577	13420.59
698.923	13314.38
699.269	13278.68
699.614	13220.6
699.96	13135.18
700.306	13207.27
700.651	13066.7
700.997	13055.86
701.342	13026.03
701.688	12973.37
702.033	12908.97
702.379	12828.29
702.724	12838.91
703.069	12819.71
703.415	12627.62
703.76	12684.12
704.105	12748.97
704.45	12635.76
704.795	12573.38
705.14	12560.5
705.485	12515.08
705.83	12548.07
706.175	12433.95
706.52	12401.19
706.865	12405.7
707.209	12336.1
707.554	12344.24
707.899	12282.09
708.243	12157.58
708.588	12141.76
708.932	12071.48
709.277	12040.06
709.621	12026.28
709.966	12019.73
710.31	11982.21
710.654	11848.43
710.998	11901.09
711.342	11883.68
711.687	11799.62
712.031	11777.7
712.375	11767.76
712.719	11745.61
713.063	11679.17
713.407	11796.68
713.75	11647.08
714.094	11654.31
714.438	11624.93
714.782	11722.33
715.125	11572.51
715.469	11642.79
715.812	11526.86
716.156	11449.12
716.499	11599.17
716.843	11431.95
717.186	11438.95
717.53	11452.51
717.873	11471.27
718.216	11486.86
718.559	11363.92
718.902	11304.04
719.246	11351.95
719.589	11385.84
719.932	11283.02
720.275	11263.14
720.617	11317.6
720.96	11252.06
721.303	11221.78
721.646	11227.2
721.989	11191.05
722.331	11236.92
722.674	11231.72
723.016	11212.97
723.359	11220.65
723.701	11172.52
724.044	11104.04
724.386	11106.53
724.729	11169.13
725.071	11140.65
725.413	11144.04
725.755	11005.74
726.097	11046.42
726.439	11007.55
726.782	10972.07
727.124	11003.71
727.465	11065.63
727.807	11014.1
728.149	10969.58
728.491	10979.75
728.833	10993.31
729.175	10931.17
729.516	10919.87
729.858	10912.41
730.199	10885.52
730.541	10992.41
730.882	10926.65
731.224	10962.35
731.565	10883.26
731.906	10864.05
732.248	10941.34
732.589	10851.62
732.93	10819.08
733.271	10856.82
733.612	10991.96
733.953	10920.32
734.294	10848.68
734.635	10870.83
734.976	10841
735.317	10863.37
735.658	10814.33
735.999	10829.48
736.339	10894.11
736.68	10882.81
737.021	10885.74
737.361	10830.83
737.702	10891.85
738.042	10838.74
738.383	10870.38
738.723	10884.16
739.063	10841.45
739.404	10878.97
739.744	10877.61
740.084	10837.16
740.424	10949.92
740.764	10863.37
741.104	11001
741.444	10910.38
741.784	10926.2
742.124	11050.94
742.464	11038.96
742.804	11043.93
743.143	10954.67
743.483	11086.42
743.823	11030.6
744.162	11104.5
744.502	11188.11
744.841	11135
745.181	11237.6
745.52	11210.48
745.86	11260.88
746.199	11347.88
746.538	11319.41
746.877	11385.39
747.216	11497.71
747.556	11485.5
747.895	11540.42
748.234	11579.96
748.573	11632.39
748.911	11623.35
749.25	11799.39
749.589	11814.53
749.928	11863.8
750.267	11999.84
750.605	12100.85
750.944	12068.31
751.283	12209.55
751.621	12338.81
751.96	12319.15
752.298	12467.85
752.636	12591.91
752.975	12655.19
753.313	12714.85
753.651	12903.54
753.989	12983.09
754.327	13092.69
754.666	13147.83
755.004	13351.22
755.342	13435.96
755.679	13534.49
756.017	13649.29
756.355	13848.38
756.693	13975.83
