Data from hue_30_FLMS001491_93.txt Node
Date: Mon Feb 06 15:06:24 GMT 2017
User: dcchb
Spectrometer: FLMS00149
Trigger mode: 0
Integration Time (sec): 2.000000E-2
Scans to average: 10
Electric dark correction enabled: true
Nonlinearity correction enabled: false
Boxcar width: 0
XAxis mode: Wavelengths
Number of Pixels in Spectrum: 2048
>>>>>Begin Spectral Data<<<<<
341.393	-15.13
341.776	-15.13
342.16	-15.13
342.543	-53.77
342.927	-61.45
343.31	-84.73
343.693	-61.68
344.077	-74.33
344.46	-52.41
344.843	-66.65
345.226	-32.75
345.61	-36.14
345.993	-14.45
346.376	-3.83
346.759	19.22
347.142	12.9
347.525	33.91
347.908	54.25
348.291	69.62
348.674	105.55
349.057	131.54
349.44	127.92
349.823	143.97
350.206	161.82
350.588	194.81
350.971	215.38
351.354	234.81
351.737	244.3
352.119	250.63
352.502	258.76
352.884	278.65
353.267	273
353.65	308.25
354.032	312.32
354.414	301.25
354.797	296.05
355.179	327.46
355.562	308.93
355.944	337.41
356.326	324.75
356.709	324.3
357.091	317.97
357.473	334.47
357.855	350.29
358.238	335.37
358.62	336.28
359.002	363.85
359.384	333.11
359.766	331.08
360.148	335.6
360.53	355.26
360.912	333.11
361.294	325.88
361.676	332.89
362.057	335.15
362.439	314.36
362.821	345.09
363.203	352.55
363.584	321.14
363.966	315.49
364.348	313
364.729	338.54
365.111	325.43
365.493	315.49
365.874	314.36
366.256	333.79
366.637	298.09
367.019	299.67
367.4	334.92
367.781	317.29
368.163	304.86
368.544	304.41
368.925	318.65
369.306	341.93
369.688	314.36
370.069	299.89
370.45	318.42
370.831	324.3
371.212	303.28
371.593	309.38
371.974	300.12
372.355	306.67
372.736	328.37
373.117	303.51
373.498	321.81
373.879	331.98
374.26	307.58
374.641	321.14
375.021	302.15
375.402	315.26
375.783	311.19
376.163	330.17
376.544	310.29
376.925	308.03
377.305	323.17
377.686	329.5
378.066	313.23
378.447	337.41
378.827	328.59
379.208	326.33
379.588	332.43
379.968	334.47
380.349	311.19
380.729	313.9
381.109	320.46
381.489	339.67
381.87	345.54
382.25	330.85
382.63	342.15
383.01	354.13
383.39	324.98
383.77	351.64
384.15	344.86
384.53	334.92
384.91	353.45
385.29	372.89
385.67	355.49
386.049	332.43
386.429	321.59
386.809	363.62
387.189	363.85
387.568	337.18
387.948	353.45
388.328	346.22
388.707	347.35
389.087	324.53
389.466	366.11
389.846	353.9
390.225	357.07
390.605	376.5
390.984	372.66
391.363	370.63
391.743	348.93
392.122	367.91
392.501	388.03
392.881	387.35
393.26	374.24
393.639	367.01
394.018	382.6
394.397	384.86
394.776	380.34
395.155	383.28
395.534	376.73
395.913	366.33
396.292	357.74
396.671	377.86
397.05	371.3
397.429	396.84
397.808	359.33
398.186	375.82
398.565	388.25
398.944	375.6
399.323	378.99
399.701	380.12
400.08	390.51
400.458	390.29
400.837	400.68
401.215	388.25
401.594	399.55
401.972	401.59
402.351	385.77
402.729	385.77
403.107	403.39
403.486	399.33
403.864	395.94
404.242	399.1
404.62	396.16
404.999	408.82
405.377	403.62
405.755	414.69
406.133	405.88
406.511	418.53
406.889	415.37
407.267	417.18
407.645	424.41
408.023	431.64
408.401	426.67
408.779	433.45
409.156	412.88
409.534	410.4
409.912	437.74
410.29	437.06
410.667	434.58
411.045	439.55
411.422	431.64
411.8	430.29
412.178	424.18
412.555	442.26
412.933	460.12
413.31	448.14
413.687	455.6
414.065	437.97
414.442	447.69
414.819	476.84
415.197	460.79
415.574	444.3
415.951	470.06
416.328	476.84
416.705	476.84
417.082	453.34
417.46	459.44
417.837	468.7
418.214	453.11
418.591	464.86
418.967	486.1
419.344	473.67
419.721	501.24
420.098	503.73
420.475	490.4
420.852	478.87
421.228	497.18
421.605	507.12
421.982	494.69
422.358	484.97
422.735	519.32
423.111	518.42
423.488	531.75
423.864	516.84
424.241	530.62
424.617	529.49
424.994	524.29
425.37	544.18
425.746	549.38
426.123	505.76
426.499	538.53
426.875	522.49
427.251	551.19
427.627	539.43
428.003	547.57
428.379	537.4
428.756	541.47
429.132	577.85
429.507	571.98
429.883	581.69
430.259	581.24
430.635	573.11
431.011	596.61
431.387	606.78
431.763	587.8
432.138	569.72
432.514	607
432.89	604.29
433.265	616.27
433.641	640.45
434.016	618.75
434.392	614.69
434.767	644.74
435.143	636.16
435.518	620.34
435.894	637.74
436.269	621.69
436.644	656.04
437.02	644.74
437.395	643.16
437.77	667.79
438.145	661.24
438.52	664.18
438.895	685.87
439.271	681.13
439.646	702.59
440.021	694.91
440.395	734.68
440.77	707.11
441.145	689.94
441.52	708.7
441.895	718.19
442.27	722.71
442.645	735.14
443.019	699.88
443.394	711.63
443.769	707.11
444.143	715.25
444.518	709.15
444.892	722.71
445.267	750.5
445.641	754.12
446.016	741.69
446.39	768.13
446.764	733.78
447.139	767.45
447.513	753.44
447.887	741.69
448.262	770.62
448.636	772.2
449.01	799.54
449.384	764.74
449.758	788.47
450.132	778.52
450.506	774.46
450.88	783.04
451.254	778.98
451.628	797.96
452.002	805.42
452.376	812.2
452.75	797.06
453.123	820.56
453.497	837.96
453.871	854.91
454.244	828.01
454.618	861.91
454.992	870.95
455.365	856.49
455.739	859.43
456.112	897.84
456.486	882.25
456.859	904.62
457.232	880.89
457.606	904.85
457.979	909.82
458.352	923.61
458.725	932.64
459.099	930.16
459.472	960.44
459.845	943.72
460.218	983.27
460.591	965.19
460.964	985.75
461.337	994.11
461.71	1010.61
462.083	1029.14
462.456	996.82
462.829	1010.16
463.201	1023.49
463.574	1054.9
463.947	1089.03
464.32	1091.74
464.692	1103.71
465.065	1101.91
465.438	1094.45
465.81	1110.49
466.183	1150.04
466.555	1165.41
466.928	1174.45
467.3	1155.69
467.672	1186.2
468.045	1212.41
468.417	1214.67
468.789	1241.34
469.161	1233.43
469.534	1254.22
469.906	1287.89
470.278	1310.26
470.65	1289.92
471.022	1340.54
471.394	1371.5
471.766	1370.15
472.138	1385.51
472.51	1419.19
472.882	1449.02
473.253	1457.83
473.625	1477.94
473.997	1517.71
474.369	1525.62
474.74	1529.47
475.112	1582.57
475.484	1594.32
475.855	1642.46
476.227	1672.74
476.598	1679.29
476.97	1710.7
477.341	1758.39
477.713	1798.61
478.084	1805.16
478.455	1858.95
478.827	1886.52
479.198	1954.99
479.569	1947.31
479.94	1993.41
480.311	2067.98
480.682	2069.79
481.053	2143.01
481.424	2159.96
481.795	2207.87
482.166	2286.51
482.537	2302.33
482.908	2360.18
483.279	2431.36
483.65	2458.25
484.021	2501.19
484.391	2555.65
484.762	2570.34
485.133	2644.01
485.503	2667.74
485.874	2748.42
486.244	2783.67
486.615	2834.06
486.985	2915.87
487.356	2929.43
487.726	2983.66
488.097	3045.13
488.467	3114.06
488.837	3172.36
489.207	3227.5
489.578	3290.1
489.948	3345.24
490.318	3394.5
490.688	3453.03
491.058	3509.07
491.428	3582.52
491.798	3599.02
492.168	3683.53
492.538	3748.62
492.908	3803.76
493.278	3809.63
493.648	3865.68
494.017	3927.14
494.387	3975.05
494.757	4042.39
495.126	4061.6
495.496	4138.44
495.866	4174.82
496.235	4280.58
496.605	4287.59
496.974	4288.49
497.344	4332.33
497.713	4387.92
498.082	4481.93
498.452	4524.87
498.821	4566.9
499.19	4556.5
499.559	4624.98
499.928	4681.47
500.298	4706.33
500.667	4764.86
501.036	4775.03
501.405	4822.94
501.774	4822.94
502.143	4888.02
502.512	4969.37
502.88	4979.77
503.249	4980
503.618	5026.55
503.987	5064.74
504.356	5094.8
504.724	5162.82
505.093	5116.94
505.462	5198.3
505.83	5244.17
506.199	5293.43
506.567	5350.38
506.936	5335.92
507.304	5415.92
507.672	5429.25
508.041	5474.9
508.409	5470.83
508.777	5551.28
509.145	5577.72
509.514	5569.13
509.882	5623.6
510.25	5667.66
510.618	5704.27
510.986	5735
511.354	5766.42
511.722	5793.53
512.09	5805.51
512.458	5857.04
512.826	5829.24
513.193	5899.75
513.561	5968.22
513.929	5983.13
514.297	5973.42
514.664	6030.36
515.032	6014.77
515.4	6097.03
515.767	6077.37
516.135	6139.74
516.502	6088.67
516.869	6216.35
517.237	6219.29
517.604	6232.84
517.972	6262
518.339	6297.25
518.706	6322.56
519.073	6360.3
519.44	6393.29
519.808	6447.98
520.175	6422.9
520.542	6494.98
520.909	6514.19
521.276	6546.06
521.643	6597.35
522.009	6631.48
522.376	6622.21
522.743	6647.3
523.11	6714.87
523.477	6797.35
523.843	6770.91
524.21	6833.51
524.577	6908.08
524.943	6895.43
525.31	6985.59
525.676	7009.1
526.043	7028.98
526.409	7059.49
526.776	7096.1
527.142	7111.92
527.508	7194.63
527.874	7170.67
528.241	7281.86
528.607	7317.79
528.973	7302.2
529.339	7344.23
529.705	7423.77
530.071	7449.54
530.437	7427.84
530.803	7527.73
531.169	7587.39
531.535	7586.93
531.901	7551.23
532.267	7633.03
532.632	7701.96
532.998	7688.63
533.364	7826.48
533.73	7759.13
534.095	7779.47
534.461	7884.33
534.826	7915.06
535.192	7993.7
535.557	8048.16
535.923	8009.75
536.288	8052.23
536.653	8056.98
537.019	8082.06
537.384	8110.08
537.749	8127.94
538.114	8138.56
538.479	8134.04
538.845	8217.2
539.21	8219.01
539.575	8289.51
539.94	8251.55
540.305	8345.56
540.67	8364.31
541.034	8440.02
541.399	8470.75
541.764	8453.35
542.129	8539.45
542.494	8528.15
542.858	8506.46
543.223	8606.34
543.587	8682.5
543.952	8650.86
544.316	8753
544.681	8701.93
545.045	8797.52
545.41	8838.2
545.774	8892.44
546.138	8880.23
546.503	8896.05
546.867	8884.53
547.231	8980.57
547.595	8978.76
547.959	9056.95
548.324	9020.79
548.688	9044.52
549.052	9128.36
549.416	9117.06
549.779	9160
550.143	9143.73
550.507	9199.77
550.871	9263.73
551.235	9255.36
551.599	9300.33
551.962	9387.56
552.326	9382.14
552.689	9465.08
553.053	9387.56
553.417	9476.15
553.78	9578.29
554.143	9546.88
554.507	9609.7
554.87	9649.7
555.234	9659.87
555.597	9651.29
555.96	9690.83
556.323	9739.42
556.686	9757.27
557.05	9803.6
557.413	9933.76
557.776	9931.28
558.139	9881.79
558.502	9963.14
558.865	9895.12
559.228	10019.19
559.59	10062.35
559.953	10085.17
560.316	10162.68
560.679	10106.19
561.041	10184.61
561.404	10303.92
561.767	10256.69
562.129	10262.57
562.492	10367.43
562.854	10337.82
563.217	10355.9
563.579	10404.26
563.941	10434.09
564.304	10486.52
564.666	10556.35
565.028	10572.62
565.39	10545.73
565.753	10659.17
566.115	10672.28
566.477	10754.53
566.839	10744.59
567.201	10848.99
567.563	10792.72
567.925	10908.43
568.287	10916.56
568.648	10913.63
569.01	10966.51
569.372	11105.94
569.734	11065.03
570.095	11095.09
570.457	11157.01
570.819	11195.88
571.18	11240.62
571.542	11343.22
571.903	11304.58
572.265	11350.22
572.626	11516.32
572.987	11481.07
573.349	11581.18
573.71	11591.35
574.071	11755.86
574.432	11704.11
574.794	11901.62
575.155	11860.95
575.516	11914.96
575.877	11911.34
576.238	12033.82
576.599	12166.25
576.96	12262.06
577.32	12342.29
577.681	12433.59
578.042	12518.33
578.403	12574.15
578.763	12761.03
579.124	12798.77
579.485	12919.9
579.845	13089.61
580.206	13191.76
580.566	13345.2
580.927	13433.11
581.287	13587.91
581.648	13650.28
582.008	13871.74
582.368	13996.03
582.728	14117.38
583.089	14254.78
583.449	14404.83
583.809	14535.9
584.169	14749.23
584.529	14899.06
584.889	15214.98
585.249	15341.31
585.609	15415.88
585.969	15742.43
586.329	15885.7
586.688	16123.66
587.048	16307.61
587.408	16491.78
587.768	16727.71
588.127	16866.24
588.487	17106.01
588.846	17433.68
589.206	17638.65
589.565	17880.22
589.925	18118.18
590.284	18370.6
590.643	18542.13
591.003	18905.05
591.362	19190.7
591.721	19386.17
592.08	19673.62
592.44	19897.57
592.799	20200.84
593.158	20497.1
593.517	20586.37
593.876	20867.71
594.235	21127.37
594.593	21362.16
594.952	21748.37
595.311	21951.98
595.67	22235.14
596.029	22568.91
596.387	22733.43
596.746	23117.15
597.104	23169.57
597.463	23451.15
597.822	23815.66
598.18	23934.98
598.538	24221.98
598.897	24563.89
599.255	24599.37
599.613	25290.87
599.972	25200.03
600.33	25568.61
600.688	25731.09
601.046	25957.3
601.404	26288.14
601.762	26523.38
602.12	26842.47
602.478	26959.08
602.836	27279.07
603.194	27425.96
603.552	27573.75
603.91	27637.93
604.268	28141.2
604.625	28113.85
604.983	28379.83
605.341	28342.32
605.698	28860.5
606.056	29064.79
606.413	29285.35
606.771	29395.17
607.128	29726.69
607.485	29717.65
607.843	29801.49
608.2	30305.43
608.557	30462.49
608.914	30458.65
609.272	30891.41
609.629	31034.23
609.986	31240.55
610.343	31270.38
610.7	31659.29
611.057	31746.52
611.414	31946.29
611.771	31993.75
612.127	32161.2
612.484	32327.3
612.841	32669.66
613.198	32605.71
613.554	32815.42
613.911	32974.29
614.267	33167.73
614.624	33142.19
614.98	33412.69
615.337	33584.44
615.693	33664.67
616.05	33719.58
616.406	34010.42
616.762	33916.41
617.118	34133.13
617.475	34197.98
617.831	34408.6
618.187	34576.96
618.543	34674.36
618.899	34976.95
619.255	35082.71
619.611	34869.15
619.967	35239.54
620.323	35272.76
620.678	35358.86
621.034	35221.01
621.39	35398.86
621.746	35477.5
622.101	35842.91
622.457	35672.75
622.812	35802.46
623.168	35816.02
623.523	35990.93
623.879	36123.36
624.234	35914.78
624.589	36144.15
624.945	36244.48
625.3	36255.33
625.655	36367.42
626.01	36365.16
626.365	36394.54
626.72	36521.77
627.075	36506.62
627.43	36508.43
627.785	36621.88
628.14	36599.5
628.495	36605.38
628.85	36772.83
629.205	36747.97
629.559	37060.51
629.914	36849.67
630.269	36867.75
630.623	36748.88
630.978	36783.91
631.332	36950
631.687	37055.31
632.041	36890.57
632.396	36954.07
632.75	36719.95
633.104	36957.46
633.459	36860.97
633.813	36968.53
634.167	36782.78
634.521	36956.56
634.875	36918.37
635.229	36805.83
635.583	36703.46
635.937	36728.31
636.291	36835.88
636.645	36782.78
636.999	36718.82
637.352	37100.06
637.706	36832.94
638.06	37001.53
638.413	36782.55
638.767	36716.11
639.121	36667.52
639.474	36594.31
639.828	36764.25
640.181	36774.64
640.534	36740.29
640.888	36709.11
641.241	36592.95
641.594	36584.36
641.947	36671.82
642.301	36677.24
642.654	36679.73
643.007	36449.23
643.36	36507.98
643.713	36458.94
644.066	36628.43
644.419	36319.74
644.771	36204.26
645.124	35921.1
645.477	35772.18
645.83	35735.35
646.182	35493.54
646.535	35525.63
646.888	35496.48
647.24	35388.69
647.593	35600.21
647.945	35532.19
648.298	35251.97
648.65	35390.72
649.002	35459.87
649.355	35307.56
649.707	35417.16
650.059	35492.64
650.411	35885.17
650.763	35926.53
651.115	36220.76
651.467	36226.18
651.819	36179.18
652.171	36113.64
652.523	35999.29
652.875	36128.33
653.227	35877.26
653.578	36127.65
653.93	36172.17
654.282	35890.37
654.633	35818.06
654.985	35900.09
655.337	35924.95
655.688	35773.08
656.039	36016.47
656.391	35755.23
656.742	35869.35
657.094	35863.93
657.445	35972.18
657.796	35823.48
658.147	35853.53
658.498	35820.99
658.849	35902.35
659.2	35735.8
659.551	35645.63
659.902	35802.01
660.253	35721.56
660.604	35779.64
660.955	35613.09
661.306	35712.97
661.656	35708.45
662.007	35773.54
662.358	35633.43
662.708	35716.14
663.059	35719.98
663.409	35467.78
663.76	35748.45
664.11	35710.94
664.461	35675.46
664.811	35697.38
665.161	35739.64
665.511	35552.75
665.862	35653.77
666.212	35742.58
666.562	35783.71
666.912	35545.97
667.262	35590.04
667.612	35699.41
667.962	35612.41
668.312	35529.7
668.662	35713.43
669.011	35739.64
669.361	35648.57
669.711	35545.75
670.06	35603.6
670.41	35460.32
670.76	35465.07
671.109	35625.97
671.459	35399.54
671.808	35374.9
672.157	35503.94
672.507	35322.02
672.856	35276.15
673.205	35356.6
673.554	35439.31
673.904	35300.1
674.253	35525.86
674.602	35423.49
674.951	34858.53
675.3	34801.13
675.649	35271.4
675.998	35308.24
676.346	35231.63
676.695	35304.17
677.044	35138.53
677.393	35213.1
677.741	35324.74
678.09	35144.63
678.438	34991.41
678.787	35159.99
679.135	35095.81
679.484	34916.84
679.832	34998.87
680.181	34769.5
680.529	35028.92
680.877	34881.36
681.225	34751.42
681.573	34964.07
681.922	34894.69
682.27	34456.96
682.618	34553.68
682.966	34542.16
683.314	34611.31
683.661	34532.89
684.009	34379.9
684.357	34330.18
684.705	34253.35
685.053	34270.3
685.4	34197.31
685.748	34090.19
686.095	34081.6
686.443	33840.25
686.79	33975.62
687.138	34070.53
687.485	34006.58
687.832	33887.94
688.18	33858.11
688.527	33616.76
688.874	33646.14
689.221	33577.66
689.568	33551.45
689.915	33357.1
690.262	33413.82
690.609	33377.22
690.956	33128.41
691.303	33191.01
691.65	32954.18
691.997	33057.68
692.344	32768.19
692.69	32777.68
693.037	32687.52
693.383	32619.27
693.73	32657.91
694.077	32433.06
694.423	32450.91
694.769	32418.82
695.116	32283.91
695.462	32355.77
695.808	32367.52
696.155	32259.28
696.501	32032.17
696.847	32001.66
697.193	31824.04
697.539	32019.74
697.885	31731.38
698.231	31465.18
698.577	31622.69
698.923	31457.72
699.269	31408
699.614	31321
699.96	31151.06
700.306	31191.28
700.651	30963.72
700.997	30955.36
701.342	30802.37
701.688	30834.91
702.033	30715.82
702.379	30783.84
702.724	30611.64
703.069	30669.72
703.415	30277.41
703.76	30363.28
704.105	30418.65
704.45	30313.57
704.795	30150.63
705.14	30027.02
705.485	29893.92
705.83	29841.94
706.175	29869.29
706.52	29843.52
706.865	29678.56
707.209	29592.68
707.554	29617.09
707.899	29561.04
708.243	29424.1
708.588	29491.67
708.932	29268.62
709.277	29288.74
709.621	29213.71
709.966	29093.94
710.31	29131.45
710.654	28916.32
710.998	28991.12
711.342	28980.27
711.687	28922.42
712.031	28693.5
712.375	28703.67
712.719	28798.58
713.063	28642.2
713.407	28656.89
713.75	28445.37
714.094	28443.33
714.438	28375.54
714.782	28384.35
715.125	28067.07
715.469	28353.17
715.812	28251.02
716.156	27958.83
716.499	28008.32
716.843	28024.81
717.186	27941.43
717.53	27986.85
717.873	28033.18
718.216	27826.18
718.559	27841.32
718.902	27580.08
719.246	27651.49
719.589	27633.86
719.932	27578.95
720.275	27458.73
720.617	27485.62
720.96	27390.25
721.303	27374.44
721.646	27265.74
721.989	27246.08
722.331	27294.21
722.674	27199.98
723.016	27244.27
723.359	27097.15
723.701	27192.75
724.044	26923.15
724.386	26889.93
724.729	26945.97
725.071	26916.14
725.413	26898.52
725.755	26805.64
726.097	26717.5
726.439	26605.64
726.782	26584.4
727.124	26770.38
727.465	26584.4
727.807	26610.61
728.149	26399.32
728.491	26406.33
728.833	26461.01
729.175	26424.86
729.516	26336.5
729.858	26328.14
730.199	26311.86
730.541	26310.73
730.882	26289.94
731.224	26167.91
731.565	26010.4
731.906	26101.7
732.248	26119.1
732.589	25884.76
732.93	25875.49
733.271	25976.51
733.612	25867.58
733.953	25959.56
734.294	25866.23
734.635	25817.19
734.976	25861.48
735.317	25688.83
735.658	25608.83
735.999	25582.17
736.339	25643.18
736.68	25677.76
737.021	25516.86
737.361	25418.55
737.702	25523.86
738.042	25471.89
738.383	25425.11
738.723	25470.76
739.063	25305.79
739.404	25388.95
739.744	25292
740.084	25140.6
740.424	25250.2
740.764	25168.84
741.104	25292
741.444	25106.25
741.784	25153.25
742.124	25127.26
742.464	25092.69
742.804	25010.66
743.143	24882.52
743.483	24903.31
743.823	24854.05
744.162	24703.77
744.502	24762.98
744.841	24708.07
745.181	24789.19
745.52	24670.33
745.86	24719.14
746.199	24615.19
746.538	24571.8
746.877	24642.98
747.216	24660.83
747.556	24546.94
747.895	24486.15
748.234	24481.86
748.573	24355.08
748.911	24375.19
749.25	24332.26
749.589	24256.78
749.928	24373.61
750.267	24349.88
750.605	24220.62
750.944	24251.13
751.283	24082.32
751.621	24143.33
751.96	24043.45
752.298	24065.37
752.636	23977.24
752.975	23852.95
753.313	23871.25
753.651	23903.11
753.989	23835.77
754.327	23757.81
754.666	23725.04
755.004	23637.36
755.342	23708.77
755.679	23695.21
756.017	23481.2
756.355	23693.18
756.693	23448.89
757.031	23527.76
757.368	23412.51
757.706	23396.46
758.044	23245.05
758.381	23304.26
758.719	23205.73
759.056	23306.52
759.394	23173.42
759.731	22978.62
