Data from hue_10_FLMS001491_28.txt Node
Date: Mon Feb 06 15:31:40 GMT 2017
User: dcchb
Spectrometer: FLMS00149
Trigger mode: 0
Integration Time (sec): 2.000000E-2
Scans to average: 10
Electric dark correction enabled: true
Nonlinearity correction enabled: false
Boxcar width: 0
XAxis mode: Wavelengths
Number of Pixels in Spectrum: 2048
>>>>>Begin Spectral Data<<<<<
341.393	-2.05
341.776	-2.05
342.16	-2.05
342.543	-66.45
342.927	-63.52
343.31	-76.4
343.693	-41.14
344.077	-68.49
344.46	-71.2
344.843	-53.57
345.226	-43.18
345.61	-31.65
345.993	-24.87
346.376	13.32
346.759	-2.27
347.142	25.07
347.525	43.83
347.908	40.66
348.291	78.18
348.674	100.32
349.057	111.4
349.44	119.53
349.823	134.22
350.206	163.82
350.588	190.49
350.971	181.22
351.354	225.06
351.737	231.62
352.119	244.73
352.502	256.93
352.884	278.85
353.267	282.92
353.65	296.25
354.032	304.16
354.414	298.28
354.797	303.93
355.179	332.86
355.562	311.84
355.944	289.7
356.326	336.93
356.709	337.6
357.091	337.83
357.473	346.64
357.855	336.7
358.238	354.1
358.62	342.35
359.002	341.45
359.384	323.82
359.766	336.25
360.148	322.46
360.53	344.38
360.912	313.65
361.294	329.92
361.676	338.06
362.057	328.79
362.439	327.43
362.821	322.01
363.203	329.69
363.584	351.62
363.966	353.2
364.348	314.55
364.729	333.76
365.111	300.32
365.493	318.17
365.874	298.28
366.256	302.12
366.637	312.52
367.019	306.87
367.4	305.51
367.781	304.84
368.163	306.42
368.544	322.92
368.925	305.97
369.306	312.52
369.688	316.81
370.069	301.22
370.45	310.94
370.831	327.66
371.212	329.47
371.593	320.2
371.974	304.16
372.355	328.34
372.736	322.24
373.117	321.79
373.498	322.92
373.879	316.14
374.26	308.68
374.641	321.11
375.021	306.87
375.402	326.98
375.783	329.02
376.163	330.15
376.544	315.23
376.925	318.17
377.305	343.93
377.686	307.77
378.066	327.21
378.447	329.47
378.827	342.58
379.208	349.58
379.588	332.63
379.968	324.05
380.349	318.85
380.729	343.48
381.109	324.05
381.489	326.53
381.87	324.72
382.25	340.32
382.63	333.76
383.01	333.76
383.39	334.89
383.77	324.95
384.15	320.88
384.53	338.06
384.91	344.61
385.29	337.83
385.67	338.06
386.049	362.01
386.429	370.82
386.809	337.83
387.189	351.84
387.568	358.39
387.948	343.25
388.328	364.5
388.707	353.2
389.087	353.65
389.466	359.98
389.846	363.14
390.225	365.63
390.605	346.87
390.984	367.21
391.363	362.69
391.743	376.7
392.122	370.15
392.501	367.89
392.881	369.02
393.26	340.77
393.639	370.6
394.018	384.83
394.397	364.72
394.776	366.3
395.155	377.83
395.534	358.39
395.913	374.67
396.292	384.38
396.671	385.74
397.05	388.22
397.429	379.41
397.808	350.49
398.186	385.74
398.565	373.76
398.944	407.43
399.323	384.38
399.701	383.7
400.08	382.12
400.458	406.75
400.837	378.73
401.215	403.37
401.594	382.57
401.972	397.49
402.351	392.07
402.729	413.76
403.107	390.94
403.486	407.21
403.864	400.65
404.242	396.36
404.62	409.92
404.999	402.69
405.377	404.72
405.755	386.19
406.133	407.88
406.511	411.73
406.889	423.48
407.267	430.03
407.645	404.72
408.023	436.36
408.401	427.77
408.779	425.29
409.156	429.13
409.534	430.93
409.912	443.82
410.29	444.72
410.667	464.38
411.045	452.18
411.422	432.97
411.8	426.64
412.178	437.26
412.555	454.44
412.933	445.85
413.31	474.55
413.687	483.59
414.065	479.07
414.442	474.55
414.819	475.45
415.197	479.52
415.574	472.97
415.951	476.36
416.328	459.18
416.705	487.88
417.082	479.07
417.46	492.4
417.837	498.28
418.214	484.72
418.591	514.32
418.967	504.61
419.344	487.66
419.721	502.35
420.098	506.64
420.475	516.81
420.852	516.58
421.228	509.35
421.605	518.39
421.982	526.07
422.358	517.49
422.735	500.54
423.111	522.68
423.488	524.04
423.864	521.1
424.241	546.64
424.617	536.24
424.994	531.72
425.37	538.05
425.746	526.98
426.123	567.43
426.499	540.54
426.875	545.51
427.251	580.08
427.627	576.24
428.003	582.12
428.379	587.54
428.756	560.42
429.132	569.01
429.507	585.96
429.883	598.39
430.259	583.25
430.635	596.35
431.011	597.94
431.387	595.22
431.763	592.96
432.138	598.39
432.514	623.92
432.89	595
433.265	609.69
433.641	627.54
434.016	631.38
434.392	642.45
434.767	637.71
435.143	659.63
435.518	693.98
435.894	663.25
436.269	674.54
436.644	666.64
437.02	672.28
437.395	677.71
437.77	669.8
438.145	706.18
438.52	702.79
438.895	688.1
439.271	697.14
439.646	720.87
440.021	728.1
440.395	709.35
440.77	705.05
441.145	726.29
441.52	692.17
441.895	726.52
442.27	729.01
442.645	733.07
443.019	749.34
443.394	757.03
443.769	762.23
444.143	746.63
444.518	759.06
444.892	748.44
445.267	782.56
445.641	774.88
446.016	771.27
446.39	745.95
446.764	791.83
447.139	779.17
447.513	788.44
447.887	784.82
448.262	805.84
448.636	789.8
449.01	797.48
449.384	798.38
449.758	809.68
450.132	821.21
450.506	801.09
450.88	818.04
451.254	826.18
451.628	810.59
452.002	851.94
452.376	852.62
452.75	854.65
453.123	872.28
453.497	851.04
453.871	864.37
454.244	885.39
454.618	875.67
454.992	889.91
455.365	877.7
455.739	915.44
456.112	912.05
456.486	914.09
456.859	941.2
457.232	941.66
457.606	931.03
457.979	944.82
458.352	951.83
458.725	989.56
459.099	963.12
459.472	977.36
459.845	1000.86
460.218	974.65
460.591	1003.8
460.964	1004.25
461.337	1039.73
461.71	1060.3
462.083	1033.18
462.456	1029.79
462.829	1078.83
463.201	1077.47
463.574	1067.75
463.947	1095.78
464.32	1135.55
464.692	1115.44
465.065	1139.16
465.438	1102.33
465.81	1153.4
466.183	1157.24
466.555	1180.07
466.928	1204.02
467.3	1176.45
467.672	1200.41
468.045	1215.1
468.417	1238.37
468.789	1270.46
469.161	1270.01
469.534	1285.15
469.906	1333.06
470.278	1310.46
470.65	1358.37
471.022	1347.07
471.394	1375.54
471.766	1380.97
472.138	1427.74
472.51	1446.73
472.882	1429.1
473.253	1455.99
473.625	1483.79
473.997	1512.49
474.369	1536.89
474.74	1532.83
475.112	1612.37
475.484	1606.27
475.855	1648.98
476.227	1668.19
476.598	1706.38
476.97	1682.43
477.341	1748.19
477.713	1756.78
478.084	1798.81
478.455	1840.39
478.827	1863.21
479.198	1922.42
479.569	1932.36
479.94	1978.46
480.311	2001.74
480.682	2056.88
481.053	2112.02
481.424	2121.51
481.795	2167.84
482.166	2200.61
482.537	2224.33
482.908	2265.24
483.279	2262.75
483.65	2349.3
484.021	2404.67
484.391	2460.03
484.762	2468.17
485.133	2491.45
485.503	2535.74
485.874	2570.77
486.244	2618.22
486.615	2667.26
486.985	2693.25
487.356	2748.84
487.726	2766.01
488.097	2876.97
488.467	2837.88
488.837	2934.15
489.207	2971.21
489.578	3013.01
489.948	3036.74
490.318	3069.51
490.688	3119.9
491.058	3176.85
491.428	3204.42
491.798	3274.93
492.168	3367.58
492.538	3337.75
492.908	3379.11
493.278	3452.78
493.648	3471.08
494.017	3500.68
494.387	3529.84
494.757	3546.33
495.126	3623.17
495.496	3620.46
495.866	3681.7
496.235	3704.3
496.605	3741.58
496.974	3754.24
497.344	3765.76
497.713	3787.91
498.082	3887.57
498.452	3926.21
498.821	3909.94
499.19	3958.07
499.559	3965.53
499.928	3987.45
500.298	4005.08
500.667	4058.86
501.036	4046.43
501.405	4071.74
501.774	4114
502.143	4145.19
502.512	4181.57
502.88	4200.55
503.249	4217.5
503.618	4267.9
503.987	4279.65
504.356	4303.6
504.724	4274
505.093	4340.66
505.462	4341.34
505.83	4397.16
506.199	4416.82
506.567	4427.21
506.936	4468.34
507.304	4499.08
507.672	4509.92
508.041	4545.4
508.409	4572.3
508.777	4589.24
509.145	4565.29
509.514	4557.61
509.882	4608.9
510.25	4643.03
510.618	4659.07
510.986	4663.82
511.354	4706.53
511.722	4724.16
512.09	4780.65
512.458	4745.17
512.826	4790.37
513.193	4849.8
513.561	4824.72
513.929	4873.08
514.297	4858.16
514.664	4898.16
515.032	4903.36
515.4	4915.34
515.767	4966.86
516.135	4960.31
516.502	4978.61
516.869	5036.69
517.237	4995.79
517.604	4984.26
517.972	5080.98
518.339	5105.16
518.706	5079.63
519.073	5080.98
519.44	5086.86
519.808	5164.37
520.175	5124.82
520.542	5254.54
520.909	5236.46
521.276	5194.2
521.643	5277.81
522.009	5298.15
522.376	5276.23
522.743	5318.26
523.11	5352.84
523.477	5387.87
523.843	5407.98
524.21	5459.05
524.577	5490.69
524.943	5527.98
525.31	5520.74
525.676	5533.85
526.043	5607.3
526.409	5628.54
526.776	5673.73
527.142	5707.18
527.508	5785.6
527.874	5706.05
528.241	5764.13
528.607	5736.11
528.973	5778.37
529.339	5830.79
529.705	5872.37
530.071	5950.56
530.437	5885.93
530.803	5939.26
531.169	5964.35
531.535	5965.25
531.901	5998.47
532.267	6023.1
532.632	6064.46
532.998	6087.06
533.364	6095.19
533.73	6179.26
534.095	6165.7
534.461	6222.65
534.826	6241.18
535.192	6212.48
535.557	6276.88
535.923	6272.82
536.288	6332.25
536.653	6328.41
537.019	6384.22
537.384	6429.65
537.749	6431.91
538.114	6421.29
538.479	6426.26
538.845	6493.6
539.21	6499.7
539.575	6516.42
539.94	6556.42
540.305	6564.56
540.67	6584.67
541.034	6615.63
541.399	6683.2
541.764	6705.12
542.129	6722.75
542.494	6795.97
542.858	6761.16
543.223	6809.75
543.587	6862.86
543.952	6827.15
544.316	6819.92
544.681	6902.18
545.045	6882.52
545.41	6939.46
545.774	6991.67
546.138	6948.73
546.503	6977.88
546.867	6989.63
547.231	7084.55
547.595	7112.12
547.959	7140.82
548.324	7178.55
548.688	7160.7
549.052	7172.45
549.416	7197.54
549.779	7277.08
550.143	7287.25
550.507	7280.7
550.871	7312.11
551.235	7348.95
551.599	7385.78
551.962	7378.55
552.326	7389.17
552.689	7468.04
553.053	7447.02
553.417	7429.4
553.78	7543.06
554.143	7504.42
554.507	7565.21
554.87	7583.97
555.234	7620.58
555.597	7553.46
555.96	7646.34
556.323	7641.59
556.686	7679.78
557.05	7694.47
557.413	7789.39
557.776	7828.48
558.139	7832.77
558.502	7848.59
558.865	7855.6
559.228	7900.34
559.59	7885.43
559.953	7877.07
560.316	8007.23
560.679	8027.12
561.041	8071.19
561.404	8027.57
561.767	8078.19
562.129	8094.91
562.492	8146.21
562.854	8179.21
563.217	8143.73
563.579	8172.65
563.941	8244.06
564.304	8217.62
564.666	8357.28
565.028	8319.32
565.39	8368.35
565.753	8345.3
566.115	8412.65
566.477	8517.95
566.839	8444.74
567.201	8505.07
567.563	8548.46
567.925	8611.74
568.287	8576.03
568.648	8609.03
569.01	8636.14
569.372	8712.3
569.734	8733.54
570.095	8764.5
570.457	8786.2
570.819	8859.87
571.18	8855.12
571.542	8945.74
571.903	8980.99
572.265	8957.04
572.626	9034.32
572.987	9108.45
573.349	9120.2
573.71	9204.72
574.071	9241.32
574.432	9317.93
574.794	9346.86
575.155	9421.21
575.516	9401.32
575.877	9598.38
576.238	9580.98
576.599	9662.78
576.96	9710.69
577.32	9831.59
577.681	9906.62
578.042	10042.89
578.403	10092.83
578.763	10140.28
579.124	10241.07
579.485	10307.29
579.845	10514.29
580.206	10528.97
580.566	10695.52
580.927	10814.39
581.287	10942.75
581.648	11138
582.008	11208.96
582.368	11342.06
582.728	11445.11
583.089	11623.41
583.449	11841.48
583.809	11965.32
584.169	12170.51
584.529	12335.03
584.889	12658.18
585.249	12748.58
585.609	12949.25
585.969	13204.38
586.329	13400.54
586.688	13631.49
587.048	13951.26
587.408	14125.72
587.768	14347.18
588.127	14602.31
588.487	14802.99
588.846	15154.16
589.206	15250.66
589.565	15612
589.925	15856.07
590.284	16175.38
590.643	16554.58
591.003	16798.41
591.362	17169.03
591.721	17442.01
592.08	17905.96
592.44	18119.06
592.799	18426.85
593.158	18839.94
593.517	19002.2
593.876	19321.06
594.235	19686.25
594.593	20009.4
594.952	20431.09
595.311	20628.6
595.67	20976.61
596.029	21484.17
596.387	21843.93
596.746	22185.17
597.104	22396.69
597.463	22729.11
597.822	23190.56
598.18	23459.03
598.538	23760.72
598.897	24240.03
599.255	24308.05
599.613	24806.57
599.972	25098.99
600.33	25512.76
600.688	25814.22
601.046	26182.8
601.404	26622.79
601.762	26880.18
602.12	27343.9
602.478	27698.69
602.836	27989.98
603.194	28209.64
603.552	28555.85
603.91	28722.17
604.268	29209.84
604.625	29358.99
604.983	29844.4
605.341	29935.47
605.698	30438.51
606.056	30701.55
606.413	30768.89
606.771	31322.78
607.128	31584.69
607.485	31710.11
607.843	32033.95
608.2	32480.49
608.557	32876.86
608.914	32924.54
609.272	33291.99
609.629	33585.54
609.986	34215.81
610.343	34053.78
610.7	34533.32
611.057	34663.93
611.414	34851.95
611.771	35173.52
612.127	35464.59
612.484	35630.46
612.841	35994.75
613.198	35994.97
613.554	36159.94
613.911	36649.42
614.267	36914.95
614.624	36888.06
614.98	37224.54
615.337	37580.92
615.693	37534.37
616.05	37840.12
616.406	38140
616.762	38099.32
617.118	38382.25
617.475	38413.67
617.831	38772.53
618.187	38913.31
618.543	39093.87
618.899	39471.04
619.255	39521.43
619.611	39446.63
619.967	39791.93
620.323	40091.59
620.678	40030.35
621.034	40172.04
621.39	40271.92
621.746	40391.69
622.101	40944.45
622.457	40645.47
622.812	40876.2
623.168	41049.3
623.523	41153.93
623.879	41296.3
624.234	41302.18
624.589	41472.57
624.945	41541.04
625.3	41703.3
625.655	41767.93
626.01	41925.44
626.365	41845.44
626.72	41957.75
627.075	41999.79
627.43	42101.03
627.785	42056.96
628.14	42318.42
628.495	42350.96
628.85	42350.28
629.205	42353.9
629.559	42581.01
629.914	42533.78
630.269	42513.67
630.623	42543.27
630.978	42560.45
631.332	42761.12
631.687	42880.67
632.041	42594.57
632.396	42701.01
632.75	42682.25
633.104	42836.37
633.459	42652.88
633.813	42796.6
634.167	42816.94
634.521	42768.8
634.875	42919.54
635.229	43067.33
635.583	42722.03
635.937	42876.82
636.291	42716.83
636.645	42975.81
636.999	42814.23
637.352	42960.89
637.706	42806.32
638.06	42909.59
638.413	42924.96
638.767	42672.99
639.121	42907.78
639.474	42740.56
639.828	42682.71
640.181	42875.02
640.534	42721.35
640.888	42767.45
641.241	42557.06
641.594	42806.32
641.947	42947.78
642.301	42727
642.654	42800.44
643.007	42856.03
643.36	42877.05
643.713	42712.08
644.066	42922.25
644.419	42554.35
644.771	42413.79
645.124	42097.18
645.477	42111.19
645.83	41717.53
646.182	41616.97
646.535	41533.58
646.888	41555.73
647.24	41438.67
647.593	41673.92
647.945	41567.25
648.298	41380.14
648.65	41419.46
649.002	41219.69
649.355	41395.28
649.707	41292.69
650.059	41614.48
650.411	42147.35
650.763	41981.48
651.115	42349.38
651.467	42268.25
651.819	42336.5
652.171	42257.63
652.523	42150.97
652.875	42169.72
653.227	42105.09
653.578	42327.01
653.93	42317.07
654.282	42008.6
654.633	41917.3
654.985	42167.01
655.337	42121.82
655.688	42017.41
656.039	42268.25
656.391	41854.03
656.742	41956.17
657.094	41983.97
657.445	42101.93
657.796	41996.17
658.147	42037.98
658.498	41979.22
658.849	42101.25
659.2	41977.19
659.551	41803.18
659.902	42039.33
660.253	42023.74
660.604	42026.68
660.955	41967.7
661.306	41913.91
661.656	41887.02
662.007	41919.79
662.358	41783.29
662.708	41825.55
663.059	41765.22
663.409	41650.87
663.76	41936.28
664.11	41835.72
664.461	42005.66
664.811	41857.19
665.161	41858.77
665.511	41758.44
665.862	41758.89
666.212	41948.26
666.562	41932.89
666.912	41798.66
667.262	41757.08
667.612	41793.92
667.962	41736.06
668.312	41763.86
668.662	41900.35
669.011	41954.81
669.361	41736.97
669.711	41673.24
670.06	41742.39
670.41	41577.88
670.76	41669.62
671.109	41704.43
671.459	41732
671.808	41633.92
672.157	41722.96
672.507	41459.91
672.856	41466.24
673.205	41653.81
673.554	41590.3
673.904	41497.43
674.253	41631.66
674.602	41567.48
674.951	40932.47
675.3	40663.78
675.649	41445.68
675.998	41299.92
676.346	41324.55
676.695	41442.29
677.044	41181.73
677.393	41299.69
677.741	41387.15
678.09	41259.69
678.438	41126.36
678.787	41209.52
679.135	41317.09
679.484	40923.43
679.832	41033.71
680.181	40873.26
680.529	41063.99
680.877	40975.41
681.225	40823.32
681.573	41143.99
681.922	40783.32
682.27	40631.23
682.618	40772.93
682.966	40512.37
683.314	40718.92
683.661	40654.96
684.009	40275.76
684.357	40356.44
684.705	40240.74
685.053	40335.87
685.4	40308.76
685.748	40033.74
686.095	40029.67
686.443	39811.14
686.79	39849.11
687.138	39986.51
687.485	39888.88
687.832	39952.61
688.18	39873.06
688.527	39611.83
688.874	39643.24
689.221	39572.05
689.568	39454.54
689.915	39280.99
690.262	39364.15
690.609	39149.24
690.956	39295
691.303	39178.39
691.65	38972.52
691.997	39074.44
692.344	38692.3
692.69	38519.43
693.037	38800.77
693.383	38297.06
693.73	38475.36
694.077	38257.74
694.423	38312.65
694.769	38183.39
695.116	38106.78
695.462	37962.6
695.808	37857.3
696.155	37930.97
696.501	37710.18
696.847	37663.4
697.193	37525.55
697.539	37477.42
697.885	37399.91
698.231	37200.36
698.577	37190.65
698.923	37171.66
699.269	36999.01
699.614	36729.19
699.96	36788.17
700.306	36818
700.651	36540.95
700.997	36520.61
701.342	36383.66
701.688	36391.8
702.033	36204.68
702.379	36233.84
702.724	36134.4
703.069	36186.61
703.415	35820.96
703.76	35840.63
704.105	35935.31
704.45	35787.75
704.795	35495.32
705.14	35465.95
705.485	35489.9
705.83	35217.59
706.175	35293.97
706.52	35228.21
706.865	35162.45
707.209	35024.83
707.554	34805.85
707.899	34949.12
708.243	34842.46
708.588	34678.62
708.932	34600.43
709.277	34458.97
709.621	34553.88
709.966	34304.62
710.31	34428.01
710.654	34310.27
710.998	34113.44
711.342	34172.42
711.687	34152.53
712.031	34033.89
712.375	33877.29
712.719	33934.91
713.063	33845.2
713.407	33898.76
713.75	33686.33
714.094	33702.38
714.438	33459.67
714.782	33505.09
715.125	33379.45
715.469	33441.14
715.812	33239.34
716.156	33026.01
716.499	32989.85
716.843	33237.08
717.186	32948.5
717.53	33137.19
717.873	33110.98
718.216	32786.24
718.559	32789.41
718.902	32661.73
719.246	32696.75
719.589	32515.06
719.932	32539.47
720.275	32453.37
720.617	32405.01
720.96	32441.17
721.303	32393.03
721.646	32360.04
721.989	32099.48
722.331	32260.15
722.674	32134.28
723.016	32148.97
723.359	32012.03
723.701	32122.31
724.044	31826.49
724.386	31680.73
724.729	31874.4
725.071	31804.57
725.413	31751.69
725.755	31663.56
726.097	31525.03
726.439	31322.78
726.782	31376.56
727.124	31511.25
727.465	31368.65
727.807	31279.62
728.149	31224.02
728.491	31303.57
728.833	31371.82
729.175	31152.61
729.516	31076
729.858	30969.34
730.199	31120.52
730.541	30911.72
730.882	30967.99
731.224	31037.81
731.565	30758.95
731.906	30788.1
732.248	30788.78
732.589	30641.89
732.93	30553.98
733.271	30623.36
733.612	30669.91
733.953	30722.57
734.294	30519.64
734.635	30351.73
734.976	30619.75
735.317	30341.79
735.658	30385.63
735.999	30305.4
736.339	30252.98
736.68	30168.46
737.021	30088.69
737.361	30095.92
737.702	30202.81
738.042	29939.99
738.383	30087.1
738.723	30162.58
739.063	29958.29
739.404	29938.86
739.744	29895.92
740.084	29895.92
740.424	29807.79
740.764	29819.99
741.104	29814.12
741.444	29623.39
741.784	29699.54
742.124	29658.64
742.464	29494.35
742.804	29416.16
743.143	29396.95
743.483	29483.05
743.823	29300.01
744.162	29300.01
744.502	29337.97
744.841	29151.31
745.181	29288.48
745.52	29077.87
745.86	29162.61
746.199	29119.45
746.538	29010.75
746.877	29105.89
747.216	29015.95
747.556	28949.51
747.895	29031.76
748.234	28827.02
748.573	28903.41
748.911	28770.98
749.25	28795.16
749.589	28625.45
749.928	28667.25
750.267	28643.07
750.605	28634.94
750.944	28551.78
751.283	28450.54
751.621	28556.07
751.96	28331.22
752.298	28348.84
752.636	28362.63
752.975	28170.09
753.313	28092.58
753.651	28184.33
753.989	28089.19
754.327	28117.66
754.666	27934.84
755.004	28026.37
755.342	27983.2
755.679	27870.67
756.017	27718.81
756.355	27811.01
756.693	27734.4
757.031	27752.7
757.368	27498.92
757.706	27433.39
758.044	27446.27
758.381	27445.59
758.719	27387.51
759.056	27289.21
759.394	27298.48
759.731	27064.36
760.068	27086.05
760.405	26971.93
