Data from hue_70_FLMS001491_82.txt Node
Date: Mon Feb 06 15:21:33 GMT 2017
User: dcchb
Spectrometer: FLMS00149
Trigger mode: 0
Integration Time (sec): 2.000000E-2
Scans to average: 10
Electric dark correction enabled: true
Nonlinearity correction enabled: false
Boxcar width: 0
XAxis mode: Wavelengths
Number of Pixels in Spectrum: 2048
>>>>>Begin Spectral Data<<<<<
341.393	-32.85
341.776	-32.85
342.16	-32.85
342.543	-60.42
342.927	-77.14
343.31	-73.08
343.693	-88.44
344.077	-61.33
344.46	-68.56
344.843	-53.87
345.226	-37.15
345.61	-28.11
345.993	-9.12
346.376	0.59
346.759	6.47
347.142	27.49
347.525	53.7
347.908	69.29
348.291	66.35
348.674	99.8
349.057	95.96
349.44	115.84
349.823	138.22
350.206	168.5
350.588	182.28
350.971	190.64
351.354	212.57
351.737	222.06
352.119	230.42
352.502	255.28
352.884	289.17
353.267	287.59
353.65	313.35
354.032	283.07
354.414	306.35
354.797	310.19
355.179	328.27
355.562	303.18
355.944	354.48
356.326	340.7
356.709	338.44
357.091	330.3
357.473	331.66
357.855	319.68
358.238	337.99
358.62	342.28
359.002	331.66
359.384	350.64
359.766	332.34
360.148	309.06
360.53	352.45
360.912	321.49
361.294	327.36
361.676	321.49
362.057	325.1
362.439	323.3
362.821	348.15
363.203	335.27
363.584	340.7
363.966	315.84
364.348	305.9
364.729	323.3
365.111	322.62
365.493	316.07
365.874	317.2
366.256	333.24
366.637	314.48
367.019	330.53
367.4	322.39
367.781	310.87
368.163	325.78
368.544	297.76
368.925	307.7
369.306	302.73
369.688	287.14
370.069	302.05
370.45	284.2
370.831	294.14
371.212	294.14
371.593	297.53
371.974	293.47
372.355	306.12
372.736	311.32
373.117	306.57
373.498	325.33
373.879	305.67
374.26	306.57
374.641	316.07
375.021	330.53
375.402	313.81
375.783	312.22
376.163	323.52
376.544	324.65
376.925	283.98
377.305	304.09
377.686	301.38
378.066	326.91
378.447	335.5
378.827	328.95
379.208	339.57
379.588	334.14
379.968	328.27
380.349	330.08
380.729	320.13
381.109	336.86
381.489	338.44
381.87	320.13
382.25	344.54
382.63	316.74
383.01	351.77
383.39	343.86
383.77	341.6
384.15	323.3
384.53	335.5
384.91	337.53
385.29	338.66
385.67	334.82
386.049	361.71
386.429	332.56
386.809	351.77
387.189	327.14
387.568	339.79
387.948	352.45
388.328	364.88
388.707	347.93
389.087	349.28
389.466	327.14
389.846	353.58
390.225	330.3
390.605	348.38
390.984	356.06
391.363	356.97
391.743	363.07
392.122	374.14
392.501	366.46
392.881	342.28
393.26	331.66
393.639	365.1
394.018	381.15
394.397	365.78
394.776	369.4
395.155	372.56
395.534	353.13
395.913	361.04
396.292	392.9
396.671	392.45
397.05	387.7
397.429	376.4
397.808	381.15
398.186	377.53
398.565	367.82
398.944	395.39
399.323	363.97
399.701	386.35
400.08	387.02
400.458	388.61
400.837	394.93
401.215	375.5
401.594	398.1
401.972	390.87
402.351	393.13
402.729	396.06
403.107	413.69
403.486	383.18
403.864	384.54
404.242	391.09
404.62	408.04
404.999	411.2
405.377	385.89
405.755	414.59
406.133	396.74
406.511	391.54
406.889	417.98
407.267	406.91
407.645	424.76
408.023	414.82
408.401	410.98
408.779	441.71
409.156	435.16
409.534	422.28
409.912	430.64
410.29	436.06
410.667	457.3
411.045	432.22
411.422	427.25
411.8	451.43
412.178	445.78
412.555	451.43
412.933	424.76
413.31	431.54
413.687	457.08
414.065	443.52
414.442	460.47
414.819	467.93
415.197	455.27
415.574	459.79
415.951	457.53
416.328	484.42
416.705	473.12
417.082	478.32
417.46	477.64
417.837	492.56
418.214	484.2
418.591	475.38
418.967	489.17
419.344	474.25
419.721	497.76
420.098	462.73
420.475	500.69
420.852	503.63
421.228	503.4
421.605	507.7
421.982	531.65
422.358	507.25
422.735	521.03
423.111	504.76
423.488	526.91
423.864	513.12
424.241	530.97
424.617	547.92
424.994	542.5
425.37	550.41
425.746	555.38
426.123	549.05
426.499	503.86
426.875	527.81
427.251	557.41
427.627	543.18
428.003	576.4
428.379	575.04
428.756	587.24
429.132	575.72
429.507	592.44
429.883	575.49
430.259	599.67
430.635	585.89
431.011	580.01
431.387	601.26
431.763	615.72
432.138	599.9
432.514	611.42
432.89	613.01
433.265	620.46
433.641	607.81
434.016	630.18
434.392	636.06
434.767	651.65
435.143	636.28
435.518	655.04
435.894	658.43
436.269	651.88
436.644	672.44
437.02	667.24
437.395	663.63
437.77	683.51
438.145	686
438.52	696.39
438.895	695.26
439.271	701.37
439.646	694.36
440.021	695.49
440.395	716.28
440.77	717.86
441.145	712.21
441.52	713.79
441.895	720.8
442.27	743.85
442.645	721.93
443.019	733
443.394	740.01
443.769	730.29
444.143	733.46
444.518	757.18
444.892	744.98
445.267	752.66
445.641	757.86
446.016	781.59
446.39	759.9
446.764	757.18
447.139	767.35
447.513	760.12
447.887	786.56
448.262	790.18
448.636	791.31
449.01	787.24
449.384	803.06
449.758	812.32
450.132	848.48
450.506	827.92
450.88	829.27
451.254	849.61
451.628	817.75
452.002	834.02
452.376	852.77
452.75	867.69
453.123	839.44
453.497	886.9
453.871	883.28
454.244	896.16
454.618	888.48
454.992	911.76
455.365	909.95
455.739	918.08
456.112	939.55
456.486	941.59
456.859	945.43
457.232	947.46
457.606	929.83
457.979	999.44
458.352	984.07
458.725	1007.35
459.099	1023.39
459.472	1028.36
459.845	1030.17
460.218	1065.88
460.591	1066.55
460.964	1065.42
461.337	1102.71
461.71	1092.09
462.083	1129.6
462.456	1112.43
462.829	1106.1
463.201	1155.59
463.574	1161.24
463.947	1194.69
464.32	1163.95
464.692	1245.08
465.065	1215.48
465.438	1242.14
465.81	1258.19
466.183	1281.01
466.555	1284.4
466.928	1313.55
467.3	1338.19
467.672	1345.87
468.045	1370.05
468.417	1370.73
468.789	1400.78
469.161	1410.5
469.534	1425.19
469.906	1492.53
470.278	1506.77
470.65	1507.45
471.022	1565.52
471.394	1580.21
471.766	1596.71
472.138	1619.31
472.51	1667.89
472.882	1692.3
473.253	1735.91
473.625	1744.95
473.997	1836.7
474.369	1862.01
474.74	1897.94
475.112	1924.16
475.484	1979.3
475.855	2017.94
476.227	2066.3
476.598	2101.55
476.97	2148.79
477.341	2246.41
477.713	2303.36
478.084	2335.22
478.455	2411.15
478.827	2510.58
479.198	2569.11
479.569	2588.55
479.94	2687.98
480.311	2738.83
480.682	2839.61
481.053	2933.4
481.424	3004.58
481.795	3116.44
482.166	3205.93
482.537	3253.62
482.908	3395.76
483.279	3450.45
483.65	3553.95
484.021	3697.22
484.391	3760.49
484.762	3861.28
485.133	3981.96
485.503	4063.31
485.874	4230.99
486.244	4292.46
486.615	4446.13
486.985	4596.18
487.356	4723.18
487.726	4830.75
488.097	5008.37
488.467	5048.14
488.837	5245.2
489.207	5371.53
489.578	5495.36
489.948	5588.24
490.318	5804.06
490.688	5900.78
491.058	6026.88
491.428	6209.47
491.798	6337.15
492.168	6525.85
492.538	6646.97
492.908	6797.93
493.278	6968.77
493.648	7078.6
494.017	7272.04
494.387	7349.33
494.757	7488.98
495.126	7748.86
495.496	7824.79
495.866	7923.77
496.235	8142.07
496.605	8310.21
496.974	8419.13
497.344	8571.67
497.713	8701.83
498.082	8865.22
498.452	9030.19
498.821	9158.09
499.19	9275.83
499.559	9423.4
499.928	9561.92
500.298	9737.96
500.667	9884.85
501.036	9941.57
501.405	10085.07
501.774	10159.65
502.143	10352.64
502.512	10503.59
502.88	10644.16
503.249	10727.32
503.618	10908.55
503.987	10979.06
504.356	11061.32
504.724	11255.66
505.093	11276.45
505.462	11437.58
505.83	11571.36
506.199	11664.24
506.567	11895.42
506.936	11958.7
507.304	12186.94
507.672	12293.38
508.041	12329.76
508.409	12488.4
508.777	12673.93
509.145	12697.89
509.514	12824.89
509.882	12979.01
510.25	13035.73
510.618	13219
510.986	13202.73
511.354	13341.49
511.722	13520.46
512.09	13661.48
512.458	13734.7
512.826	13885.2
513.193	13962.03
513.561	14087.45
513.929	14197.73
514.297	14322.25
514.664	14387.33
515.032	14429.37
515.4	14559.31
515.767	14645.18
516.135	14680.66
516.502	14782.35
516.869	14970.37
517.237	15115.22
517.604	15012.63
517.972	15228.89
518.339	15326.29
518.706	15417.81
519.073	15511.82
519.44	15598.38
519.808	15751.82
520.175	15729.22
520.542	15920.85
520.909	16002.66
521.276	16009.89
521.643	16241.52
522.009	16316.55
522.376	16397.22
522.743	16484.68
523.11	16637.44
523.477	16756.31
523.843	16846.7
524.21	16974.38
524.577	17125.57
524.943	17112.46
525.31	17230.87
525.676	17458.21
526.043	17515.84
526.409	17543.86
526.776	17648.04
527.142	17749.05
527.508	17926.22
527.874	18051.42
528.241	18015.71
528.607	18055.26
528.973	18306.78
529.339	18203.73
529.705	18294.35
530.071	18441.24
530.437	18491.63
530.803	18581.12
531.169	18696.37
531.535	18585.87
531.901	18696.82
532.267	18767.56
532.632	18875.35
532.998	18870.83
533.364	18934.33
533.73	19046.65
534.095	19139.07
534.461	19237.6
534.826	19278.05
535.192	19227.88
535.557	19317.37
535.923	19325.73
536.288	19473.75
536.653	19451.83
537.019	19374.77
537.384	19436.24
537.749	19574.99
538.114	19537.25
538.479	19592.17
538.845	19669.68
539.21	19600.08
539.575	19641.66
539.94	19672.17
540.305	19699.96
540.67	19689.57
541.034	19804.59
541.399	19855.21
541.764	19846.63
542.129	19841.88
542.494	19865.61
542.858	19906.28
543.223	19876.68
543.587	20028.54
543.952	19979.73
544.316	19942.44
544.681	19972.95
545.045	20064.25
545.41	20087.52
545.774	20164.13
546.138	20103.12
546.503	20280.51
546.867	20132.04
547.231	20321.64
547.595	20358.93
547.959	20248.65
548.324	20193.73
548.688	20229.44
549.052	20352.37
549.416	20343.56
549.779	20257.69
550.143	20407.29
550.507	20378.59
550.871	20459.94
551.235	20404.35
551.599	20679.37
551.962	20534.74
552.326	20611.12
552.689	20642.99
553.053	20531.35
553.417	20639.82
553.78	20778.13
554.143	20739.71
554.507	20768.63
554.87	20738.35
555.234	20941.51
555.597	20789.65
555.96	20843.21
556.323	21026.71
556.686	21012.02
557.05	21077.1
557.413	21063.99
557.776	20992.58
558.139	21214.5
558.502	21163.43
558.865	21268.28
559.228	21346.02
559.59	21368.17
559.953	21367.71
560.316	21494.27
560.679	21479.35
561.041	21573.36
561.404	21770.87
561.767	21871.43
562.129	21659.46
562.492	21905.33
562.854	21915.72
563.217	21845.44
563.579	21988.26
563.941	22042.27
564.304	22103.97
564.666	22260.12
565.028	22301.48
565.39	22359.78
565.753	22339.21
566.115	22372.66
566.477	22479.32
566.839	22592.32
567.201	22644.29
567.563	22666.44
567.925	22748.7
568.287	22737.85
568.648	22880.22
569.01	23001.8
569.372	23024.39
569.734	22945.53
570.095	23155.69
570.457	23224.84
570.819	23099.87
571.18	23131.28
571.542	23302.13
571.903	23333.99
572.265	23378.28
572.626	23420.99
572.987	23594.55
573.349	23518.39
573.71	23606.98
574.071	23671.38
574.432	23652.4
574.794	23879.06
575.155	23583.02
575.516	23732.17
575.877	23733.98
576.238	23784.15
576.599	23960.87
576.96	23931.04
577.32	23905.28
577.681	24061.88
578.042	24028.44
578.403	24091.71
578.763	24124.25
579.124	24079.28
579.485	24247.41
579.845	24207.19
580.206	24173.97
580.566	24154.31
580.927	24178.94
581.287	24208.54
581.648	24203.35
582.008	24314.3
582.368	24218.71
582.728	24337.81
583.089	24227.75
583.449	24249
583.809	24359.95
584.169	24284.47
584.529	24337.81
584.889	24374.87
585.249	24160.18
585.609	24128.32
585.969	24343.46
586.329	24261.65
586.688	24360.4
587.048	24197.02
587.408	24309.56
587.768	24265.72
588.127	24207.87
588.487	24264.59
588.846	24383.23
589.206	24261.2
589.565	24210.58
589.925	24345.72
590.284	24293.29
590.643	24289.22
591.003	24320.41
591.362	24425.94
591.721	24341.42
592.08	24381.87
592.44	24449.22
592.799	24349.56
593.158	24354.98
593.517	24292.84
593.876	24422.1
594.235	24289.67
594.593	24335.32
594.952	24325.15
595.311	24288.99
595.67	24387.75
596.029	24434.53
596.387	24437.01
596.746	24451.25
597.104	24466.62
597.463	24348.88
597.822	24472.04
598.18	24296.23
598.538	24243.35
598.897	24481.98
599.255	24199.28
599.613	24652.6
599.972	24381.2
600.33	24564.92
600.688	24384.81
601.046	24549.55
601.404	24655.09
601.762	24620.06
602.12	24690.11
602.478	24583.68
602.836	24701.41
603.194	24637.69
603.552	24641.98
603.91	24557.46
604.268	24675.2
604.625	24544.13
604.983	24609.89
605.341	24538.48
605.698	24729.21
606.056	24746.84
606.413	24746.61
606.771	24885.59
607.128	24743.9
607.485	24677.91
607.843	24677.23
608.2	24996.32
608.557	25001.52
608.914	24864.12
609.272	24927.4
609.629	24989.31
609.986	25099.82
610.343	24998.13
610.7	25265.24
611.057	25180.27
611.414	25141.4
611.771	25220.72
612.127	25274.73
612.484	25168.29
612.841	25350.66
613.198	25163.32
613.554	25310.21
613.911	25441.96
614.267	25415.07
614.624	25455.07
614.98	25424.11
615.337	25510.2
615.693	25549.98
616.05	25521.28
616.406	25695.96
616.762	25609.41
617.118	25597.66
617.475	25612.8
617.831	25609.41
618.187	25733.7
618.543	25782.97
618.899	25863.19
619.255	25879.01
619.611	25863.87
619.967	25952.68
620.323	26067.7
620.678	25898.22
621.034	25798.33
621.39	25896.18
621.746	25856.41
622.101	26099.12
622.457	25872.46
622.812	26019.8
623.168	25975.5
623.523	25934.15
623.879	26097.31
624.234	25934.15
624.589	26075.39
624.945	26086.46
625.3	26075.16
625.655	26061.15
626.01	26162.84
626.365	26057.76
626.72	26130.98
627.075	26174.37
627.43	26112.67
627.785	26010.08
628.14	26041.49
628.495	26183.63
628.85	26035.61
629.205	26034.71
629.559	26148.15
629.914	26075.39
630.269	26049.17
630.623	26021.15
630.978	25948.39
631.332	26054.15
631.687	26067.25
632.041	25917.65
632.396	26053.24
632.75	25918.33
633.104	26011.43
633.459	25933.47
633.813	25806.24
634.167	25919.91
634.521	25905
634.875	25956.52
635.229	25874.72
635.583	25792.46
635.937	25746.58
636.291	25817.99
636.645	25703.87
636.999	25733.93
637.352	25811.89
637.706	25659.35
638.06	25737.54
638.413	25585.68
638.767	25642.63
639.121	25567.6
639.474	25422.52
639.828	25555.4
640.181	25512.01
640.534	25393.82
640.888	25308.4
641.241	25451.9
641.594	25390.43
641.947	25562.86
642.301	25399.02
642.654	25447.61
643.007	25339.81
643.36	25365.12
643.713	25342.3
644.066	25458.45
644.419	25245.35
644.771	25093.94
645.124	24761.07
645.477	24819.83
645.83	24647.4
646.182	24570.34
646.535	24486.05
646.888	24456.22
647.24	24496.45
647.593	24529.89
647.945	24496.45
648.298	24328.09
648.65	24367.86
649.002	24301.2
649.355	24437.01
649.707	24401.53
650.059	24458.93
650.411	24856.89
650.763	24828.41
651.115	25051.46
651.467	24914.97
651.819	24933.27
652.171	24926.27
652.523	24874.97
652.875	24865.7
653.227	24835.19
653.578	24973.72
653.93	24981.86
654.282	24781.86
654.633	24853.95
654.985	24907.96
655.337	24827.29
655.688	24877
656.039	24869.09
656.391	24649.89
656.742	24779.38
657.094	24800.17
657.445	24874.52
657.796	24866.15
658.147	24834.06
658.498	24794.97
658.849	24845.36
659.2	24917
659.551	24745.93
659.902	24895.98
660.253	24813.05
660.604	24884.01
660.955	24676.1
661.306	24828.87
661.656	24711.13
662.007	24882.42
662.358	24819.6
662.708	24791.81
663.059	24837.91
663.409	24712.94
663.76	24881.52
664.11	24822.99
664.461	24886.49
664.811	24848.3
665.161	24865.7
665.511	24744.58
665.862	24881.97
666.212	25010.78
666.562	24894.63
666.912	24860.96
667.262	24740.28
667.612	24743.22
667.962	24992.7
668.312	24758.81
668.662	24886.27
669.011	24850.34
669.361	24873.61
669.711	24756.1
670.06	24564.47
670.41	24648.98
670.76	24688.31
671.109	24679.49
671.459	24777.34
671.808	24626.16
672.157	24726.95
672.507	24488.08
672.856	24419.39
673.205	24683.11
673.554	24715.88
673.904	24561.53
674.253	24631.58
674.602	24613.73
674.951	24322.67
675.3	24109.56
675.649	24561.76
675.998	24475.66
676.346	24488.99
676.695	24432.72
677.044	24413.74
677.393	24439.5
677.741	24418.48
678.09	24311.14
678.438	24240.63
678.787	24416.67
679.135	24452.15
679.484	24271.14
679.832	24338.71
680.181	24152.95
680.529	24237.24
680.877	24050.36
681.225	24036.35
681.573	24188.43
681.922	24046.74
682.27	23943.69
682.618	23937.14
682.966	23868.21
683.314	23917.93
683.661	23882
684.009	23847.2
684.357	23772.17
684.705	23753.41
685.053	23783.02
685.4	23716.13
685.748	23613.31
686.095	23583.02
686.443	23442.46
686.79	23445.17
687.138	23457.6
687.485	23441.78
687.832	23385.06
688.18	23469.13
688.527	23341.22
688.874	23266.65
689.221	23318.62
689.568	23126.99
689.915	23117.5
690.262	23130.61
690.609	23042.47
690.956	23024.39
691.303	22845.87
691.65	22734.91
691.997	22727.68
692.344	22652.65
692.69	22660.56
693.037	22460.79
693.383	22373.11
693.73	22527.01
694.077	22339.44
694.423	22256.05
694.769	22163.17
695.116	22216.96
695.462	22221.7
695.808	22014.48
696.155	22170.86
696.501	21860.58
696.847	21806.35
697.193	21691.55
697.539	21738.1
697.885	21512.12
698.231	21588.05
698.577	21606.13
698.923	21381.5
699.269	21354.16
699.614	21319.81
699.96	21279.58
700.306	21245.23
700.651	21066.25
700.997	21046.37
701.342	21009.76
701.688	21098.34
702.033	20838.24
702.379	20899.7
702.724	20753.27
703.069	20733.83
703.415	20534.52
703.76	20553.05
704.105	20580.62
704.45	20465.14
704.795	20319.15
705.14	20347.4
705.485	20271.92
705.83	20210.01
706.175	20250.68
706.52	20149.44
706.865	20082.33
707.209	20076.9
707.554	19898.83
707.899	19880.97
708.243	19817.25
708.588	19763.46
708.932	19777.47
709.277	19698.38
709.621	19706.29
709.966	19592.39
710.31	19619.51
710.654	19506.3
710.998	19456.13
711.342	19476.01
711.687	19432.62
712.031	19277.37
712.375	19208.68
712.719	19349.91
713.063	19258.39
713.407	19194.21
713.75	19131.16
714.094	19133.88
714.438	18985.4
714.782	19015.23
715.125	18997.16
715.469	18975.46
715.812	18883.71
716.156	18835.35
716.499	18784.51
716.843	18825.18
717.186	18689.37
717.53	18845.3
717.873	18743.15
718.216	18711.06
718.559	18583.16
718.902	18480.11
719.246	18483.05
719.589	18555.13
719.932	18430.84
720.275	18441.01
720.617	18394.01
720.96	18310.39
721.303	18412.09
721.646	18318.3
721.989	18275.59
722.331	18241.92
722.674	18280.79
723.016	18307.68
723.359	18267.01
723.701	18220.91
724.044	18144.3
724.386	17991.98
724.729	18222.26
725.071	18117.18
725.413	18095.48
725.755	17998.09
726.097	18037.41
726.439	17948.37
726.782	18005.54
727.124	18018.42
727.465	17964.19
727.807	17881.03
728.149	17884.42
728.491	17838.32
728.833	17843.06
729.175	17825.21
729.516	17643.29
729.858	17781.82
730.199	17724.65
730.541	17781.14
730.882	17671.99
731.224	17756.51
731.565	17625.44
731.906	17723.97
732.248	17763.06
732.589	17639.68
732.93	17429.97
733.271	17583.18
733.612	17586.57
733.953	17675.16
734.294	17540.92
734.635	17528.04
734.976	17613.46
735.317	17443.75
735.658	17539.12
735.999	17501.15
736.339	17485.11
736.68	17621.15
737.021	17548.61
737.361	17339.8
737.702	17445.56
738.042	17494.14
738.383	17384.32
738.723	17473.13
739.063	17392.68
739.404	17502.28
739.744	17373.24
740.084	17391.32
740.424	17466.8
740.764	17399.23
741.104	17435.16
741.444	17340.7
741.784	17352.45
742.124	17435.61
742.464	17382.28
742.804	17429.06
743.143	17386.8
743.483	17489.4
743.823	17409.85
744.162	17361.04
744.502	17427.25
744.841	17460.93
745.181	17550.41
745.52	17441.94
745.86	17598.32
746.199	17537.53
746.538	17506.57
746.877	17756.28
747.216	17773.91
747.556	17690.3
747.895	17684.65
748.234	17722.16
748.573	17717.87
748.911	17738.21
749.25	17836.06
749.589	17781.14
749.928	17841.25
750.267	17959.89
750.605	17909.95
750.944	17985.88
751.283	18000.57
751.621	18101.59
751.96	18071.98
752.298	18144.07
752.636	18144.97
752.975	18271.3
753.313	18277.4
753.651	18417.28
753.989	18342.48
754.327	18425.87
754.666	18391.3
755.004	18589.03
755.342	18716.94
755.679	18709.71
756.017	18818.86
756.355	18882.36
756.693	18834.67
