Data from hue_00_FLMS001491_18.txt Node
Date: Mon Feb 06 15:29:20 GMT 2017
User: dcchb
Spectrometer: FLMS00149
Trigger mode: 0
Integration Time (sec): 2.000000E-2
Scans to average: 10
Electric dark correction enabled: true
Nonlinearity correction enabled: false
Boxcar width: 0
XAxis mode: Wavelengths
Number of Pixels in Spectrum: 2048
>>>>>Begin Spectral Data<<<<<
341.393	-26.48
341.776	-26.48
342.16	-26.48
342.543	-73.49
342.927	-63.77
343.31	-68.52
343.693	-87.5
344.077	-66.03
344.46	-48.18
344.843	-58.57
345.226	-41.62
345.61	-23.77
345.993	-24.67
346.376	-5.24
346.759	0.64
347.142	22.33
347.525	70.46
347.908	57.58
348.291	72.72
348.674	91.48
349.057	108.88
349.44	112.95
349.823	128.32
350.206	171.93
350.588	199.95
350.971	195.88
351.354	226.62
351.737	233.4
352.119	268.65
352.502	261.42
352.884	266.39
353.267	281.31
353.65	286.73
354.032	301.64
354.414	275.43
354.797	300.51
355.179	297.58
355.562	317.92
355.944	331.7
356.326	322.44
356.709	305.94
357.091	328.99
357.473	335.77
357.855	354.98
358.238	323.56
358.62	329.44
359.002	346.16
359.384	333.06
359.766	331.47
360.148	326.05
360.53	321.08
360.912	315.2
361.294	343.68
361.676	355.88
362.057	322.44
362.439	352.72
362.821	318.37
363.203	324.02
363.584	335.54
363.966	312.94
364.348	293.06
364.729	308.88
365.111	289.22
365.493	303.9
365.874	321.31
366.256	284.7
366.637	328.76
367.019	325.15
367.4	314.07
367.781	326.05
368.163	315.88
368.544	305.94
368.925	315.88
369.306	338.25
369.688	310.68
370.069	317.92
370.45	315.2
370.831	319.72
371.212	321.08
371.593	319.95
371.974	295.77
372.355	310.68
372.736	299.61
373.117	322.89
373.498	312.72
373.879	303.45
374.26	311.36
374.641	319.27
375.021	307.52
375.402	309.1
375.783	316.56
376.163	327.41
376.544	327.63
376.925	326.5
377.305	317.24
377.686	318.14
378.066	328.08
378.447	315.43
378.827	337.35
379.208	332.38
379.588	343.23
379.968	311.81
380.349	326.5
380.729	329.67
381.109	328.76
381.489	328.31
381.87	341.19
382.25	345.71
382.63	331.25
383.01	353.39
383.39	332.38
383.77	341.87
384.15	356.33
384.53	333.28
384.91	322.44
385.29	338.71
385.67	327.18
386.049	348.2
386.429	358.37
386.809	354.98
387.189	361.08
387.568	348.42
387.948	344.81
388.328	352.49
388.707	348.2
389.087	353.17
389.466	356.11
389.846	358.14
390.225	371.47
390.605	351.59
390.984	356.56
391.363	364.92
391.743	344.81
392.122	366.05
392.501	356.56
392.881	358.14
393.26	351.36
393.639	364.92
394.018	363.79
394.397	363.11
394.776	377.35
395.155	371.47
395.534	349.78
395.913	364.92
396.292	387.74
396.671	377.57
397.05	373.28
397.429	378.7
397.808	363.56
398.186	387.07
398.565	360.63
398.944	375.31
399.323	385.48
399.701	381.42
400.08	392.04
400.458	388.42
400.837	410.79
401.215	396.33
401.594	384.58
401.972	383.22
402.351	380.96
402.729	391.59
403.107	396.78
403.486	397.01
403.864	381.42
404.242	415.31
404.62	404.69
404.999	407.18
405.377	393.62
405.755	403.34
406.133	406.5
406.511	411.7
406.889	448.53
407.267	418.7
407.645	422.09
408.023	396.11
408.401	419.16
408.779	428.42
409.156	436.33
409.534	442.88
409.912	452.38
410.29	436.78
410.667	435.88
411.045	424.35
411.422	453.51
411.8	439.72
412.178	455.09
412.555	464.8
412.933	434.52
413.31	467.97
413.687	444.01
414.065	467.06
414.442	463.67
414.819	448.99
415.197	477.46
415.574	469.78
415.951	489.21
416.328	487.85
416.705	484.24
417.082	486.5
417.46	489.21
417.837	488.53
418.214	503.22
418.591	489.66
418.967	498.93
419.344	501.41
419.721	507.74
420.098	509.32
420.475	527.18
420.852	519.49
421.228	535.99
421.605	513.39
421.982	517.23
422.358	530.79
422.735	512.03
423.111	533.95
423.488	551.13
423.864	547.74
424.241	536.21
424.617	562.43
424.994	531.24
425.37	557.01
425.746	551.58
426.123	553.62
426.499	562.88
426.875	548.42
427.251	557.01
427.627	567.85
428.003	592.71
428.379	582.77
428.756	590.9
429.132	589.55
429.507	579.15
429.883	609.66
430.259	591.35
430.635	625.93
431.011	621.18
431.387	615.31
431.763	640.17
432.138	621.18
432.514	634.29
432.89	622.54
433.265	636.78
433.641	651.01
434.016	668.64
434.392	666.61
434.767	688.98
435.143	655.08
435.518	672.03
435.894	668.64
436.269	674.52
436.644	702.54
437.02	681.75
437.395	690.79
437.77	697.11
438.145	720.84
438.52	718.81
438.895	703.67
439.271	713.16
439.646	708.87
440.021	719.94
440.395	736.44
440.77	730.11
441.145	738.7
441.52	765.14
441.895	750.45
442.27	746.38
442.645	749.99
443.019	756.77
443.394	770.33
443.769	771.24
444.143	762.65
444.518	783.44
444.892	764.23
445.267	775.76
445.641	801.07
446.016	786.6
446.39	804.91
446.764	813.72
447.139	780.05
447.513	809.65
447.887	826.38
448.262	830.9
448.636	841.07
449.01	804.68
449.384	833.83
449.758	819.82
450.132	826.38
450.506	835.42
450.88	846.04
451.254	834.06
451.628	875.64
452.002	886.04
452.376	890.1
452.75	879.71
453.123	862.31
453.497	891.46
453.871	897.34
454.244	898.47
454.618	881.74
454.992	912.25
455.365	932.36
455.739	932.81
456.112	935.75
456.486	928.75
456.859	947.73
457.232	968.75
457.606	946.83
457.979	980.95
458.352	967.84
458.725	1016.88
459.099	998.58
459.472	1013.04
459.845	1011.23
460.218	1038.12
460.591	1008.52
460.964	1040.16
461.337	1070.21
461.71	1087.16
462.083	1102.53
462.456	1091.23
462.829	1098.69
463.201	1088.06
463.574	1122.87
463.947	1129.65
464.32	1151.79
464.692	1154.05
465.065	1142.75
465.438	1181.17
465.81	1182.07
466.183	1211.68
466.555	1214.61
466.928	1241.73
467.3	1232.69
467.672	1243.54
468.045	1274.95
468.417	1267.72
468.789	1272.92
469.161	1299.58
469.534	1321.28
469.906	1316.76
470.278	1333.48
470.65	1370.32
471.022	1392.92
471.394	1399.47
471.766	1454.16
472.138	1439.47
472.51	1458.22
472.882	1468.17
473.253	1517.43
473.625	1514.72
473.997	1523.31
474.369	1578.67
474.74	1580.71
475.112	1624.55
475.484	1655.06
475.855	1653.93
476.227	1665.45
476.598	1721.95
476.97	1734.38
477.341	1795.16
477.713	1769.85
478.084	1827.93
478.455	1869.51
478.827	1903.64
479.198	1942.51
479.569	1949.96
479.94	1993.13
480.311	2021.37
480.682	2065.21
481.053	2067.02
481.424	2101.6
481.795	2156.96
482.166	2200.35
482.537	2159.45
482.908	2265.43
483.279	2293.91
483.65	2332.33
484.021	2382.49
484.391	2409.84
484.762	2444.87
485.133	2486.45
485.503	2490.51
485.874	2560.57
486.244	2601.7
486.615	2638.08
486.985	2650.51
487.356	2705.88
487.726	2684.86
488.097	2770.73
488.467	2789.94
488.837	2860.22
489.207	2914.68
489.578	2948.13
489.948	2970.05
490.318	3037.39
490.688	3035.58
491.058	3093.44
491.428	3141.8
491.798	3159.65
492.168	3225.86
492.538	3213.43
492.908	3261.57
493.278	3272.41
493.648	3327.33
494.017	3381.34
494.387	3383.15
494.757	3410.49
495.126	3483.03
495.496	3475.12
495.866	3530.26
496.235	3578.39
496.605	3610.03
496.974	3595.57
497.344	3641.44
497.713	3633.53
498.082	3684.61
498.452	3732.29
498.821	3733.19
499.19	3744.27
499.559	3822
499.928	3821.78
500.298	3809.8
500.667	3887.31
501.036	3871.95
501.405	3875.79
501.774	3947.65
502.143	3953.98
502.512	4003.24
502.88	4024.48
503.249	4005.05
503.618	4056.8
503.987	4071.49
504.356	4070.13
504.724	4115.56
505.093	4106.52
505.462	4122.79
505.83	4167.76
506.199	4182.67
506.567	4273.07
506.936	4256.57
507.304	4280.3
507.672	4311.71
508.041	4304.25
508.409	4307.87
508.777	4360.97
509.145	4409.11
509.514	4378.83
509.882	4440.97
510.25	4415.21
510.618	4476.9
510.986	4474.19
511.354	4487.3
511.722	4518.26
512.09	4563.23
512.458	4460.18
512.826	4544.24
513.193	4626.28
513.561	4565.26
513.929	4670.57
514.297	4683.68
514.664	4678.7
515.032	4726.61
515.4	4710.57
515.767	4759.15
516.135	4774.97
516.502	4720.06
516.869	4760.74
517.237	4772.04
517.604	4782.88
517.972	4817.23
518.339	4853.62
518.706	4866.04
519.073	4942.65
519.44	4958.47
519.808	4972.03
520.175	4941.97
520.542	5012.03
520.909	4997.34
521.276	4985.59
521.643	5058.36
522.009	5076.43
522.376	5065.81
522.743	5098.81
523.11	5104.23
523.477	5186.26
523.843	5187.84
524.21	5277.33
524.577	5272.36
524.943	5269.42
525.31	5298.35
525.676	5336.09
526.043	5366.37
526.409	5420.38
526.776	5455.41
527.142	5467.38
527.508	5476.65
527.874	5522.07
528.241	5505.35
528.607	5573.6
528.973	5625.35
529.339	5582.18
529.705	5642.3
530.071	5666.02
530.437	5750.31
530.803	5732.24
531.169	5740.37
531.535	5790.54
531.901	5806.13
532.267	5785.79
532.632	5826.25
532.998	5882.29
533.364	5913.02
533.73	5923.64
534.095	5968.61
534.461	5986.92
534.826	5999.12
535.192	6054.94
535.557	6110.98
535.923	6052.23
536.288	6095.84
536.653	6151.66
537.019	6162.51
537.384	6151.89
537.749	6191.66
538.114	6254.48
538.479	6221.94
538.845	6299.68
539.21	6250.19
539.575	6226.01
539.94	6327.47
540.305	6340.13
540.67	6376.06
541.034	6411.54
541.399	6445.44
541.764	6407.92
542.129	6503.06
542.494	6469.39
542.858	6525.66
543.223	6560.01
543.587	6586
543.952	6605.89
544.316	6636.17
544.681	6601.59
545.045	6637.3
545.41	6695.15
545.774	6662.83
546.138	6717.07
546.503	6752.55
546.867	6744.41
547.231	6824.64
547.595	6789.16
547.959	6872.55
548.324	6898.99
548.688	6929.27
549.052	6932.88
549.416	6984.86
549.779	6986.89
550.143	6983.28
550.507	7036.38
550.871	6990.06
551.235	7078.87
551.599	7115.02
551.962	7133.78
552.326	7126.55
552.689	7179.43
553.053	7154.57
553.417	7186.21
553.78	7225.08
554.143	7213.78
554.507	7248.81
554.87	7375.13
555.234	7357.28
555.597	7341.46
555.96	7351.18
556.323	7379.65
556.686	7323.83
557.05	7410.84
557.413	7475.69
557.776	7457.39
558.139	7552.75
558.502	7546.65
558.865	7548.91
559.228	7595.69
559.59	7660.55
559.953	7609.02
560.316	7717.27
560.679	7738.96
561.041	7718.4
561.404	7793.43
561.767	7810.6
562.129	7817.38
562.492	7889.92
562.854	7940.77
563.217	7856.47
563.579	7938.05
563.941	7952.52
564.304	8086.07
564.666	8025.74
565.028	8103.47
565.39	8080.2
565.753	8097.82
566.115	8121.55
566.477	8156.35
566.839	8165.17
567.201	8253.07
567.563	8305.95
567.925	8305.05
568.287	8275.67
568.648	8304.37
569.01	8395.9
569.372	8414.65
569.734	8371.71
570.095	8501.2
570.457	8456.23
570.819	8546.4
571.18	8541.65
571.542	8573.29
571.903	8679.28
572.265	8653.06
572.626	8770.12
572.987	8778.26
573.349	8799.95
573.71	8835.43
574.071	8912.04
574.432	8926.28
574.794	9046.27
575.155	9052.6
575.516	9047.18
575.877	9150.45
576.238	9250.11
576.599	9305.48
576.96	9364.01
577.32	9469.54
577.681	9536.2
578.042	9594.51
578.403	9645.58
578.763	9715.41
579.124	9858.23
579.485	9947.49
579.845	10057.77
580.206	10063.42
580.566	10100.48
580.927	10271.1
581.287	10374.6
581.648	10463.41
582.008	10655.27
582.368	10750.41
582.728	10862.5
583.089	10989.73
583.449	11106.11
583.809	11214.13
584.169	11471.97
584.529	11542.25
584.889	11766.43
585.249	11909.7
585.609	12036.7
585.969	12248.45
586.329	12405.06
586.688	12633.3
587.048	12814.99
587.408	13043
587.768	13263.34
588.127	13436.21
588.487	13600.5
588.846	13920.72
589.206	14053.83
589.565	14227.61
589.925	14532.23
590.284	14704.66
590.643	14919.57
591.003	15272.1
591.362	15563.16
591.721	15714.57
592.08	15949.59
592.44	16234.33
592.799	16469.36
593.158	16658.05
593.517	16976.46
593.876	17193.63
594.235	17420.29
594.593	17654.41
594.952	18069.09
595.311	18210.55
595.67	18521.28
596.029	18916.52
596.387	19168.27
596.746	19399.67
597.104	19631.53
597.463	19852.54
597.822	20202.59
598.18	20413.21
598.538	20652.3
598.897	21010.7
599.255	21057.94
599.613	21564.36
599.972	21711.25
600.33	22066.5
600.688	22273.04
601.046	22548.07
601.404	22846.59
601.762	23112.57
602.12	23413.58
602.478	23737.41
602.836	23917.29
603.194	23939.22
603.552	24349.37
603.91	24522.93
604.268	24806.76
604.625	24979.64
604.983	25298.5
605.341	25467.08
605.698	25687.42
606.056	26063
606.413	26295.76
606.771	26514.29
607.128	26716.54
607.485	26768.75
607.843	26985.69
608.2	27346.58
608.557	27450.31
608.914	27727.14
609.272	28015.27
609.629	28153.34
609.986	28507
610.343	28417.52
610.7	28912.19
611.057	28884.4
611.414	29161.45
611.771	29339.53
612.127	29576.13
612.484	29785.84
612.841	29887.76
613.198	30025.16
613.554	30010.69
613.911	30479.61
614.267	30531.58
614.624	30777
614.98	30958.01
615.337	31202.75
615.693	31262.19
616.05	31245.92
616.406	31509.86
616.762	31608.62
617.118	31694.04
617.475	31832.34
617.831	31995.5
618.187	32233.46
618.543	32322.05
618.899	32604.98
619.255	32636.16
619.611	32685.2
619.967	32985.31
620.323	33162.02
620.678	33094.91
621.034	33068.47
621.39	33230.72
621.746	33222.13
622.101	33642.91
622.457	33463.94
622.812	33719.3
623.168	33896.24
623.523	33884.72
623.879	34133.98
624.234	33985.96
624.589	34137.82
624.945	34161.77
625.3	34334.87
625.655	34481.08
626.01	34406.28
626.365	34563.12
626.72	34628.65
627.075	34513.63
627.43	34780.96
627.785	34815.77
628.14	34616.9
628.495	34760.17
628.85	34809.66
629.205	34843.11
629.559	34961.75
629.914	34831.81
630.269	34993.16
630.623	34972.37
630.978	34932.82
631.332	35294.17
631.687	35258.69
632.041	34965.37
632.396	35124.23
632.75	35035.87
633.104	35287.39
633.459	35058.02
633.813	35037.91
634.167	35181.18
634.521	35149.77
634.875	35254.62
635.229	35121.97
635.583	35177.11
635.937	35120.84
636.291	35079.04
636.645	35190.9
636.999	35148.41
637.352	35293.27
637.706	35097.11
638.06	35350.67
638.413	35121.29
638.767	35185.93
639.121	35124.68
639.474	35019.15
639.828	35012.14
640.181	35255.75
640.534	35202.42
640.888	35060.73
641.241	35100.05
641.594	35026.83
641.947	35209.2
642.301	34980.51
642.654	35032.26
643.007	35178.47
643.36	35094.63
643.713	34963.33
644.066	35156.32
644.419	34925.14
644.771	34747.74
645.124	34390.69
645.477	34522.89
645.83	34316.34
646.182	34069.57
646.535	34043.81
646.888	34158.83
647.24	33884.94
647.593	34164.94
647.945	34037.71
648.298	33878.84
648.65	33914.55
649.002	33750.48
649.355	33995.9
649.707	33860.76
650.059	34071.83
650.411	34340.98
650.763	34491.93
651.115	34723.11
651.467	34656.67
651.819	34748.65
652.171	34698.03
652.523	34566.51
652.875	34734.64
653.227	34585.49
653.578	34780.06
653.93	34484.93
654.282	34485.15
654.633	34359.73
654.985	34417.13
655.337	34457.13
655.688	34544.36
656.039	34658.93
656.391	34283.12
656.742	34445.15
657.094	34444.48
657.445	34470.24
657.796	34480.18
658.147	34360.18
658.498	34304.14
658.849	34367.19
659.2	34365.61
659.551	34303.01
659.902	34372.84
660.253	34432.95
660.604	34434.98
660.955	34224.37
661.306	34453.74
661.656	34301.43
662.007	34322.9
662.358	34218.49
662.708	34269.57
663.059	34274.99
663.409	34084.94
663.76	34385.27
664.11	34235.67
664.461	34250.36
664.811	34354.76
665.161	34251.49
665.511	34278.83
665.862	34249.45
666.212	34453.74
666.562	34429.56
666.912	34315.21
667.262	34281.09
667.612	34269.34
667.962	34289.9
668.312	34200.41
668.662	34409
669.011	34216.23
669.361	34244.48
669.711	34305.72
670.06	34119.74
670.41	34081.32
670.76	33990.25
671.109	34145.5
671.459	34133.07
671.808	34091.04
672.157	34146.18
672.507	33922.68
672.856	33930.59
673.205	34064.82
673.554	34162.9
673.904	33896.02
674.253	34019.4
674.602	33976.92
674.951	33568.57
675.3	33399.76
675.649	33915.22
675.998	33802.01
676.346	33815.34
676.695	33946.41
677.044	33736.92
677.393	33984.15
677.741	33843.59
678.09	33765.17
678.438	33714.1
678.787	33870.03
679.135	33838.16
679.484	33519.3
679.832	33718.39
680.181	33478.85
680.529	33657.6
680.877	33573.54
681.225	33475.69
681.573	33658.73
681.922	33400.66
682.27	33355.92
682.618	33327.44
682.966	33315.47
683.314	33326.09
683.661	33149.82
684.009	33134
684.357	32955.7
684.705	33042.03
685.053	32984.4
685.4	32982.59
685.748	32782.82
686.095	32735.82
686.443	32603.85
686.79	32753.45
687.138	32840.9
687.485	32645.43
687.832	32699.89
688.18	32649.72
688.527	32468.71
688.874	32483.85
689.221	32336.73
689.568	32220.58
689.915	32193.69
690.262	32248.83
690.609	32094.48
690.956	31978.1
691.303	32059
691.65	31838.22
691.997	31834.15
692.344	31696.75
692.69	31618.34
693.037	31600.93
693.383	31416.08
693.73	31573.59
694.077	31317.78
694.423	31319.59
694.769	31308.06
695.116	31203.88
695.462	31157.1
695.808	31001.4
696.155	31036.66
696.501	30761.41
696.847	30840.28
697.193	30650.23
697.539	30807.96
697.885	30586.72
698.231	30452.26
698.577	30282.33
698.923	30366.39
699.269	30265.15
699.614	30195.32
699.96	29952.16
700.306	30019.96
700.651	29846.18
700.997	29755.33
701.342	29782.45
701.688	29806.18
702.033	29677.37
702.379	29619.52
702.724	29569.12
703.069	29707.65
703.415	29331.62
703.76	29274.89
704.105	29327.55
704.45	29211.84
704.795	29154.67
705.14	29023.15
705.485	29096.37
705.83	28759.2
706.175	28846.88
706.52	28792.87
706.865	28719.43
707.209	28564.63
707.554	28448.93
707.899	28618.41
708.243	28359.44
708.588	28329.61
708.932	28144.3
709.277	28135.26
709.621	28151.08
709.966	28042.16
710.31	28066.56
710.654	27925.33
710.998	27895.04
711.342	27960.13
711.687	27774.82
712.031	27803.75
712.375	27641.94
712.719	27727.14
713.063	27546.8
713.407	27636.07
713.75	27553.81
714.094	27438.78
714.438	27287.15
714.782	27409.86
715.125	27278.11
715.469	27334.83
715.812	27122.18
716.156	27086.48
716.499	27198.11
716.843	27142.52
717.186	26935.52
717.53	27013.71
717.873	27000.6
718.216	26945.24
718.559	26775.75
718.902	26690.33
719.246	26667.05
719.589	26521.07
719.932	26525.14
720.275	26472.93
720.617	26533.95
720.96	26476.32
721.303	26453.5
721.646	26434.74
721.989	26263
722.331	26430.45
722.674	26200.85
723.016	26408.75
723.359	26214.86
723.701	26064.58
724.044	25960.86
724.386	25820.07
724.729	26054.64
725.071	25975.55
725.413	25856.23
725.755	25953.63
726.097	25804.93
726.439	25658.04
726.782	25650.81
727.124	25863.23
727.465	25541.88
727.807	25538.72
728.149	25489
728.491	25543.47
728.833	25580.98
729.175	25445.62
729.516	25428.22
729.858	25350.93
730.199	25437.93
730.541	25389.12
730.882	25296.24
731.224	25333.53
731.565	25194.55
731.906	25242.23
732.248	25175.11
732.589	25033.42
732.93	25025.51
733.271	24992.29
733.612	25136.92
733.953	25057.83
734.294	24861.9
734.635	24775.13
734.976	24913.43
735.317	24713.66
735.658	24737.61
735.999	24879.76
736.339	24661.46
736.68	24766.09
737.021	24667.11
737.361	24611.06
737.702	24750.27
738.042	24571.06
738.383	24490.39
738.723	24607.9
739.063	24450.39
739.404	24397.51
739.744	24488.81
740.084	24343.72
740.424	24341.01
740.764	24324.29
741.104	24267.12
741.444	24259.66
741.784	24148.02
742.124	24168.36
742.464	24184.63
742.804	24209.26
743.143	24133.33
743.483	24132.66
743.823	24070.74
744.162	24068.7
744.502	24021.92
744.841	23823.51
745.181	24046.56
745.52	23900.8
745.86	23990.97
746.199	23884.3
746.538	23812.44
746.877	23772.44
747.216	23892.66
747.556	23667.81
747.895	23795.26
748.234	23610.86
748.573	23587.13
748.911	23570.19
749.25	23567.02
749.589	23402.73
749.928	23484.31
750.267	23428.95
750.605	23414.94
750.944	23336.97
751.283	23294.71
751.621	23251.1
751.96	23217.65
752.298	23112.8
752.636	23110.99
752.975	23019.69
753.313	22882.52
753.651	23046.81
753.989	22855.85
754.327	22843.65
754.666	22825.12
755.004	22729.53
755.342	22862.18
755.679	22832.35
756.017	22591
756.355	22736.31
756.693	22509.42
757.031	22638.68
757.368	22456.99
757.706	22482.98
758.044	22473.27
758.381	22412.7
758.719	22260.39
759.056	22378.58
759.394	22260.39
759.731	22127.29
760.068	21987.85
760.405	22072.37
