Data from hue_280_FLMS001491_00068.txt Node
Date: Tue Feb 07 15:55:37 GMT 2017
User: dcchb
Spectrometer: FLMS00149
Trigger mode: 0
Integration Time (sec): 2.000000E-2
Scans to average: 10
Electric dark correction enabled: true
Nonlinearity correction enabled: false
Boxcar width: 0
XAxis mode: Wavelengths
Number of Pixels in Spectrum: 2048
>>>>>Begin Spectral Data<<<<<
341.393	-6
341.776	-6
342.16	-6
342.543	-66.34
342.927	-82.38
343.31	-77.41
343.693	-82.61
344.077	-68.37
344.46	-52.78
344.843	-50.07
345.226	-42.84
345.61	-17.3
345.993	-16.4
346.376	-24.31
346.759	0.1
347.142	40.1
347.525	51.4
347.908	57.27
348.291	68.12
348.674	104.95
349.057	110.15
349.44	101.79
349.823	143.15
350.206	153.99
350.588	182.01
350.971	200.77
351.354	226.53
351.737	223.82
352.119	226.76
352.502	234.44
352.884	261.79
353.267	257.04
353.65	280.77
354.032	273.54
354.414	279.87
354.797	310.37
355.179	318.28
355.562	297.72
355.944	321.9
356.326	334.1
356.709	330.71
357.091	325.97
357.473	322.58
357.855	326.87
358.238	314.67
358.62	325.29
359.002	332.29
359.384	328.68
359.766	321.9
360.148	331.84
360.53	325.51
360.912	318.73
361.294	309.02
361.676	335.23
362.057	326.42
362.439	316.7
362.821	320.54
363.203	330.49
363.584	333.88
363.966	294.33
364.348	318.73
364.729	325.29
365.111	307.21
365.493	302.24
365.874	287.55
366.256	306.98
366.637	304.5
367.019	293.65
367.4	308.11
367.781	292.75
368.163	290.26
368.544	303.59
368.925	290.94
369.306	313.99
369.688	301.56
370.069	287.1
370.45	298.17
370.831	309.92
371.212	304.72
371.593	295.46
371.974	292.29
372.355	298.62
372.736	298.62
373.117	306.31
373.498	322.35
373.879	304.27
374.26	305.18
374.641	315.57
375.021	304.95
375.402	313.31
375.783	315.57
376.163	315.34
376.544	337.27
376.925	312.63
377.305	318.96
377.686	326.42
378.066	313.76
378.447	313.31
378.827	320.32
379.208	348.11
379.588	335.23
379.968	304.5
380.349	323.48
380.729	314.21
381.109	334.78
381.489	333.88
381.87	298.4
382.25	325.06
382.63	341.33
383.01	320.77
383.39	331.39
383.77	344.27
384.15	337.04
384.53	333.42
384.91	354.67
385.29	354.89
385.67	356.47
386.049	346.08
386.429	326.42
386.809	340.43
387.189	345.4
387.568	358.73
387.948	353.08
388.328	354.21
388.707	357.6
389.087	363.93
389.466	335.23
389.846	361.9
390.225	345.17
390.605	357.15
390.984	359.41
391.363	353.08
391.743	355.12
392.122	368
392.501	361.45
392.881	350.37
393.26	369.13
393.639	376.59
394.018	383.14
394.397	371.84
394.776	368.22
395.155	362.12
395.534	362.58
395.913	363.93
396.292	375.46
396.671	387.89
397.05	362.12
397.429	359.64
397.808	381.33
398.186	396.47
398.565	384.72
398.944	382.91
399.323	389.69
399.701	368
400.08	395.12
400.458	380.43
400.837	408.22
401.215	404.61
401.594	403.7
401.972	419.97
402.351	411.39
402.729	411.61
403.107	435.79
403.486	427.21
403.864	435.79
404.242	415.46
404.62	418.17
404.999	443.7
405.377	431.5
405.755	432.4
406.133	452.06
406.511	422.01
406.889	421.33
407.267	463.82
407.645	457.71
408.023	445.06
408.401	456.81
408.779	453.42
409.156	459.97
409.534	464.95
409.912	489.58
410.29	490.71
410.667	530.93
411.045	497.71
411.422	527.32
411.8	499.75
412.178	516.7
412.555	527.77
412.933	524.15
413.31	535.68
413.687	555.11
414.065	525.73
414.442	542.01
414.819	552.63
415.197	555.11
415.574	590.59
415.951	606.86
416.328	577.71
416.705	598.05
417.082	585.85
417.46	590.59
417.837	634.43
418.214	611.38
418.591	597.37
418.967	633.53
419.344	622.23
419.721	648.9
420.098	657.93
420.475	653.87
420.852	661.55
421.228	667.43
421.605	671.04
421.982	658.61
422.358	702.45
422.735	714.88
423.111	724.6
423.488	715.79
423.864	719.18
424.241	709.91
424.617	741.55
424.994	765.73
425.37	772.06
425.746	764.82
426.123	766.63
426.499	800.53
426.875	789
427.251	794.88
427.627	825.16
428.003	815.22
428.379	832.85
428.756	831.94
429.132	850.02
429.507	858.61
429.883	887.99
430.259	867.87
430.635	873.3
431.011	896.12
431.387	923.24
431.763	928.89
432.138	934.31
432.514	960.98
432.89	938.61
433.265	982.9
433.641	975.44
434.016	988.55
434.392	996.46
434.767	1024.03
435.143	1036
435.518	1031.94
435.894	1046.85
436.269	1065.61
436.644	1077.36
437.02	1097.25
437.395	1104.93
437.77	1129.33
438.145	1152.84
438.52	1139.96
438.895	1158.49
439.271	1168.2
439.646	1181.99
440.021	1195.32
440.395	1203.68
440.77	1219.5
441.145	1184.7
441.52	1247.07
441.895	1244.59
442.27	1270.12
442.645	1266.73
443.019	1279.61
443.394	1256.34
443.769	1278.71
444.143	1272.38
444.518	1292.72
444.892	1291.82
445.267	1313.51
445.641	1337.69
446.016	1340.4
446.39	1353.51
446.764	1332.95
447.139	1333.85
447.513	1357.13
447.887	1333.62
448.262	1365.94
448.636	1363.23
449.01	1391.93
449.384	1406.16
449.758	1379.27
450.132	1408.88
450.506	1420.4
450.88	1395.32
451.254	1411.59
451.628	1435.54
452.002	1480.74
452.376	1455.2
452.75	1449.55
453.123	1466.95
453.497	1480.06
453.871	1487.07
454.244	1522.32
454.618	1497.01
454.992	1539.49
455.365	1534.07
455.739	1555.54
456.112	1580.17
456.486	1574.97
456.859	1601.41
457.232	1602.54
457.606	1618.81
457.979	1642.99
458.352	1645.71
458.725	1671.92
459.099	1671.02
459.472	1730
459.845	1727.96
460.218	1694.74
460.591	1734.74
460.964	1728.64
461.337	1779.04
461.71	1775.19
462.083	1804.12
462.456	1805.25
462.829	1817.45
463.201	1856.55
463.574	1843.44
463.947	1870.33
464.32	1922.99
464.692	1906.49
465.065	1923.21
465.438	1934.06
465.81	1945.13
466.183	1955.98
466.555	1992.36
466.928	2022.19
467.3	1999.37
467.672	2017.67
468.045	2077.56
468.417	2064.68
468.789	2063.32
469.161	2103.09
469.534	2127.05
469.906	2193.04
470.278	2159.82
470.65	2195.52
471.022	2223.32
471.394	2218.12
471.766	2217.44
472.138	2256.54
472.51	2290.89
472.882	2305.57
473.253	2358.68
473.625	2373.82
473.997	2375.18
474.369	2425.35
474.74	2402.07
475.112	2463.76
475.484	2539.47
475.855	2524.55
476.227	2529.3
476.598	2598.9
476.97	2612.23
477.341	2647.71
477.713	2675.06
478.084	2693.14
478.455	2768.39
478.827	2770.2
479.198	2776.3
479.569	2806.58
479.94	2866.01
480.311	2919.8
480.682	2932.68
481.053	3004.99
481.424	3031.21
481.795	3027.36
482.166	3081.37
482.537	3097.42
482.908	3162.5
483.279	3200.69
483.65	3224.87
484.021	3286.11
484.391	3233.69
484.762	3283.18
485.133	3290.18
485.503	3360.69
485.874	3422.38
486.244	3420.8
486.615	3476.84
486.985	3486.11
487.356	3529.27
487.726	3569.27
488.097	3658.53
488.467	3646.1
488.837	3673
489.207	3731.53
489.578	3789.38
489.948	3781.69
490.318	3818.98
490.688	3856.27
491.058	3914.8
491.428	3919.77
491.798	3948.24
492.168	4052.42
492.538	3996.15
492.908	4027.79
493.278	4058.07
493.648	4036.83
494.017	4057.17
494.387	4162.02
494.757	4150.72
495.126	4238.41
495.496	4173.77
495.866	4235.02
496.235	4272.98
496.605	4272.98
496.974	4283.38
497.344	4327.67
497.713	4329.7
498.082	4375.13
498.452	4388.68
498.821	4458.51
499.19	4457.38
499.559	4439.53
499.928	4453.77
500.298	4509.81
500.667	4491.05
501.036	4495.57
501.405	4518.85
501.774	4544.39
502.143	4604.95
502.512	4579.19
502.88	4618.51
503.249	4624.38
503.618	4659.19
503.987	4660.32
504.356	4662.12
504.724	4703.25
505.093	4696.25
505.462	4699.41
505.83	4733.08
506.199	4770.82
506.567	4788
506.936	4769.92
507.304	4796.13
507.672	4835.68
508.041	4859.18
508.409	4887.88
508.777	4833.19
509.145	4908.44
509.514	4849.01
509.882	4912.29
510.25	4988.67
510.618	4907.99
510.986	4930.82
511.354	4981.89
511.722	5022.11
512.09	4992.51
512.458	4995.22
512.826	5058.5
513.193	5093.3
513.561	5074.32
513.929	5098.95
514.297	5122
514.664	5117.48
515.032	5126.74
515.4	5129.68
515.767	5162.9
516.135	5124.03
516.502	5145.5
516.869	5170.13
517.237	5214.65
517.604	5187.53
517.972	5237.7
518.339	5208.55
518.706	5225.72
519.073	5256.68
519.44	5291.03
519.808	5304.37
520.175	5275.44
520.542	5335.1
520.909	5329.22
521.276	5366.96
521.643	5345.72
522.009	5380.3
522.376	5400.63
522.743	5361.77
523.11	5506.85
523.477	5483.12
523.843	5542.1
524.21	5520.63
524.577	5564.92
524.943	5543.68
525.31	5601.76
525.676	5578.94
526.043	5638.82
526.409	5620.29
526.776	5717.91
527.142	5708.65
527.508	5678.14
527.874	5746.16
528.241	5743.68
528.607	5793.84
528.973	5780.96
529.339	5837.69
529.705	5888.31
530.071	5864.58
530.437	5891.92
530.803	5897.34
531.169	5879.04
531.535	5858.48
531.901	5866.39
532.267	5877.01
532.632	5921.53
532.998	5992.26
533.364	5947.06
533.73	5994.74
534.095	6044.69
534.461	6010.11
534.826	6047.4
535.192	6060.05
535.557	6067.06
535.923	6028.87
536.288	6076.78
536.653	6138.92
537.019	6058.47
537.384	6115.87
537.749	6117.68
538.114	6133.5
538.479	6172.37
538.845	6199.94
539.21	6175.98
539.575	6197.22
539.94	6224.12
540.305	6248.52
540.67	6220.05
541.034	6211.46
541.399	6246.49
541.764	6242.87
542.129	6281.74
542.494	6248.52
542.858	6309.99
543.223	6329.2
543.587	6376.65
543.952	6342.3
544.316	6369.87
544.681	6340.95
545.045	6391.34
545.41	6448.29
545.774	6427.27
546.138	6424.11
546.503	6457.56
546.867	6445.35
547.231	6486.93
547.595	6436.31
547.959	6455.97
548.324	6480.38
548.688	6505.24
549.052	6532.13
549.416	6566.25
549.779	6537.78
550.143	6542.75
550.507	6566.71
550.871	6553.6
551.235	6526.25
551.599	6596.99
551.962	6619.13
552.326	6548.4
552.689	6587.72
553.053	6555.86
553.417	6651.22
553.78	6637.44
554.143	6680.15
554.507	6682.86
554.87	6641.05
555.234	6729.64
555.597	6689.87
555.96	6654.84
556.323	6784.1
556.686	6729.87
557.05	6799.92
557.413	6796.98
557.776	6757.21
558.139	6825.68
558.502	6842.18
558.865	6846.25
559.228	6866.36
559.59	6897.32
559.953	6871.1
560.316	6991.78
560.679	6939.13
561.041	6986.36
561.404	7006.02
561.767	7045.56
562.129	6977.32
562.492	7074.94
562.854	7068.61
563.217	7082.4
563.579	7113.58
563.941	7085.56
564.304	7131.21
564.666	7191.77
565.028	7172.11
565.39	7179.12
565.753	7289.85
566.115	7262.51
566.477	7310.42
566.839	7297.76
567.201	7333.92
567.563	7324.43
567.925	7361.49
568.287	7396.97
568.648	7407.36
569.01	7451.88
569.372	7478.77
569.734	7459.34
570.095	7490.75
570.457	7627.47
570.819	7576.62
571.18	7589.96
571.542	7640.12
571.903	7635.15
572.265	7760.12
572.626	7667.02
572.987	7667.69
573.349	7729.84
573.71	7856.39
574.071	7796.28
574.432	7866.11
574.794	7969.61
575.155	7954.92
575.516	7864.07
575.877	7939.55
576.238	7985.43
576.599	8028.81
576.96	8046.67
577.32	8091.41
577.681	8079.21
578.042	8130.28
578.403	8152.88
578.763	8172.54
579.124	8240.79
579.485	8314.68
579.845	8352.42
580.206	8344.29
580.566	8435.13
580.927	8467.45
581.287	8544.28
581.648	8532.53
582.008	8593.32
582.368	8562.59
582.728	8737.04
583.089	8721.45
583.449	8747.89
583.809	8822.92
584.169	8900.2
584.529	8904.72
584.889	9015.68
585.249	9010.48
585.609	9067.88
585.969	9155.34
586.329	9133.19
586.688	9213.87
587.048	9332.73
587.408	9407.54
587.768	9401.66
588.127	9486.18
588.487	9527.08
588.846	9615.21
589.206	9640.52
589.565	9654.99
589.925	9827.64
590.284	9854.3
590.643	9917.13
591.003	9923
591.362	10070.12
591.721	10113.96
592.08	10123.67
592.44	10232.37
592.799	10259.26
593.158	10325.03
593.517	10311.92
593.876	10482.76
594.235	10545.81
594.593	10534.29
594.952	10614.96
595.311	10643.21
595.67	10713.49
596.029	10857.21
596.387	10907.83
596.746	11005.46
597.104	10947.16
597.463	11081.16
597.822	11157.55
598.18	11144.44
598.538	11208.17
598.897	11248.39
599.255	11266.7
599.613	11480.47
599.972	11426.47
600.33	11513.69
600.688	11495.39
601.046	11663.97
601.404	11675.95
601.762	11724.99
602.12	11833.01
602.478	11825.55
602.836	11885.44
603.194	11738.1
603.552	11947.36
603.91	11845.44
604.268	12070.74
604.625	12037.07
604.983	12084.07
605.341	12002.04
605.698	12168.37
606.056	12228.48
606.413	12203.39
606.771	12285.65
607.128	12280.91
607.485	12189.16
607.843	12303.28
608.2	12395.25
608.557	12473.22
608.914	12413.78
609.272	12566.32
609.629	12559.54
609.986	12596.15
610.343	12600.22
610.7	12703.27
611.057	12711.4
611.414	12629.37
611.771	12686.77
612.127	12765.64
612.484	12755.02
612.841	12843.83
613.198	12863.26
613.554	12837.73
613.911	12897.39
614.267	12963.37
614.624	12911.85
614.98	12963.15
615.337	13101.68
615.693	13050.83
616.05	13074.78
616.406	13113.88
616.762	13079.53
617.118	13141.45
617.475	13133.99
617.831	13173.09
618.187	13149.81
618.543	13173.76
618.899	13223.03
619.255	13239.52
619.611	13243.59
619.967	13354.1
620.323	13241.56
620.678	13324.04
621.034	13288.11
621.39	13376.24
621.746	13282.46
622.101	13487.2
622.457	13384.38
622.812	13465.06
623.168	13505.51
623.523	13480.42
623.879	13542.12
624.234	13500.08
624.589	13500.31
624.945	13534.21
625.3	13602
625.655	13488.78
626.01	13528.78
626.365	13615.79
626.72	13533.75
627.075	13558.16
627.43	13503.92
627.785	13511.38
628.14	13580.31
628.495	13595.45
628.85	13504.6
629.205	13498.28
629.559	13524.94
629.914	13502.12
630.269	13529.01
630.623	13580.53
630.978	13477.26
631.332	13528.33
631.687	13494.89
632.041	13399.29
632.396	13554.32
632.75	13396.36
633.104	13444.27
633.459	13329.47
633.813	13423.25
634.167	13452.4
634.521	13371.05
634.875	13416.47
635.229	13427.09
635.583	13356.58
635.937	13333.76
636.291	13343.93
636.645	13321.1
636.999	13337.15
637.352	13398.84
637.706	13272.52
638.06	13356.81
638.413	13301.67
638.767	13270.03
639.121	13326.3
639.474	13183.03
639.828	13183.03
640.181	13235.91
640.534	13320.65
640.888	13209.7
641.241	13230.03
641.594	13191.16
641.947	13262.8
642.301	13212.63
642.654	13264.61
643.007	13157.49
643.36	13169.24
643.713	13118.62
644.066	13127.21
644.419	13198.4
644.771	13120.21
645.124	12910.49
645.477	12941.68
645.83	12804.28
646.182	12793.21
646.535	12796.15
646.888	12753.21
647.24	12740.1
647.593	12837.73
647.945	12844.73
648.298	12740.1
648.65	12732.19
649.002	12722.7
649.355	12800.21
649.707	12741.91
650.059	12778.97
650.411	12911.4
650.763	12928.35
651.115	13118.62
651.467	13062.58
651.819	13071.17
652.171	12979.19
652.523	12968.8
652.875	13021.23
653.227	13058.51
653.578	13081.11
653.93	12974.22
654.282	12969.48
654.633	12993.88
654.985	13049.7
655.337	13007.89
655.688	13074.11
656.039	13148.45
656.391	12969.7
656.742	12933.32
657.094	13077.5
657.445	13106.19
657.796	13098.51
658.147	13072.98
658.498	13079.08
658.849	13055.12
659.2	13157.72
659.551	13079.3
659.902	13144.61
660.253	13104.84
660.604	13206.98
660.955	13108
661.306	13031.62
661.656	13115.91
662.007	13153.88
662.358	13118.62
662.708	13190.49
663.059	13092.86
663.409	13020.77
663.76	13213.31
664.11	13240.88
664.461	13143.26
664.811	13208.11
665.161	13143.03
665.511	13131.96
665.862	13181
666.212	13204.5
666.562	13152.97
666.912	13068.68
667.262	13164.95
667.612	13097.38
667.962	13171.96
668.312	13088.12
668.662	13260.99
669.011	13147.55
669.361	13174.44
669.711	13145.06
670.06	13152.75
670.41	13043.6
670.76	13065.29
671.109	13136.48
671.459	13201.56
671.808	13121.11
672.157	13104.61
672.507	13062.35
672.856	13032.52
673.205	13072.07
673.554	13143.93
673.904	13070.26
674.253	13065.07
674.602	13069.59
674.951	12922.7
675.3	12822.13
675.649	13026.65
675.998	13042.69
676.346	12991.62
676.695	12952.3
677.044	12897.16
677.393	12972.87
677.741	13022.58
678.09	12987.33
678.438	12929.93
678.787	12950.94
679.135	12948.46
679.484	12862.59
679.832	12874.34
680.181	12753.44
680.529	12767.9
680.877	12742.59
681.225	12732.42
681.573	12851.74
681.922	12767.67
682.27	12722.02
682.618	12679.99
682.966	12720.22
683.314	12718.18
683.661	12597.73
684.009	12535.59
684.357	12591.86
684.705	12644.51
685.053	12592.31
685.4	12551.18
685.748	12484.74
686.095	12475.48
686.443	12387.12
686.79	12437.51
687.138	12465.99
687.485	12404.29
687.832	12318.42
688.18	12330.62
688.527	12220.79
688.874	12254.24
689.221	12315.71
689.568	12143.06
689.915	12169.95
690.262	12108.93
690.609	12054.7
690.956	12016.51
691.303	11989.61
691.65	11955.49
691.997	11944.64
692.344	11868.26
692.69	11856.06
693.037	11840.92
693.383	11706.46
693.73	11786
694.077	11623.52
694.423	11654.48
694.769	11647.93
695.116	11703.97
695.462	11530.19
695.808	11484.54
696.155	11479.35
696.501	11393.92
696.847	11431.44
697.193	11350.99
697.539	11360.7
697.885	11216.98
698.231	11227.83
698.577	11289.75
698.923	11169.3
699.269	11115.74
699.614	11032.35
699.96	11033.93
700.306	11001.17
700.651	11006.36
700.997	10952.81
701.342	10895.86
701.688	10862.86
702.033	10866.48
702.379	10840.94
702.724	10752.58
703.069	10805.01
703.415	10653.83
703.76	10686.6
704.105	10677.33
704.45	10577.45
704.795	10497.68
705.14	10472.14
705.485	10484.34
705.83	10416.1
706.175	10414.06
706.52	10409.32
706.865	10282.09
707.209	10300.84
707.554	10278.25
707.899	10301.75
708.243	10221.75
708.588	10258.36
708.932	10122.09
709.277	10163.9
709.621	10089.55
709.966	10031.02
710.31	10127.06
710.654	9919.16
710.998	10012.72
711.342	10054.75
711.687	10022.89
712.031	9904.7
712.375	9945.37
712.719	9971.14
713.063	9886.17
713.407	9952.38
713.75	9874.19
714.094	9901.08
714.438	9825.83
714.782	9801.42
715.125	9803
715.469	9792.84
715.812	9792.16
716.156	9633.07
716.499	9681.2
716.843	9735.21
717.186	9727.3
717.53	9737.7
717.873	9655.44
718.216	9633.52
718.559	9657.7
718.902	9522.79
719.246	9577.25
719.589	9581.54
719.932	9510.13
720.275	9522.56
720.617	9504.26
720.96	9516.23
721.303	9533.86
721.646	9533.63
721.989	9456.35
722.331	9525.95
722.674	9454.99
723.016	9541.77
723.359	9397.37
723.701	9457.7
724.044	9348.78
724.386	9366.41
724.729	9382
725.071	9386.29
725.413	9356.69
725.755	9320.98
726.097	9379.51
726.439	9297.03
726.782	9357.14
727.124	9308.78
727.465	9313.53
727.807	9337.03
728.149	9299.52
728.491	9314.2
728.833	9294.54
729.175	9264.71
729.516	9302
729.858	9239.18
730.199	9307.2
730.541	9229.01
730.882	9216.58
731.224	9260.65
731.565	9257.03
731.906	9233.75
732.248	9241.44
732.589	9239.86
732.93	9239.18
733.271	9235.34
733.612	9290.93
733.953	9290.48
734.294	9236.24
734.635	9225.17
734.976	9223.81
735.317	9261.32
735.658	9218.84
735.999	9175.9
736.339	9179.29
736.68	9250.25
737.021	9266.07
737.361	9271.72
737.702	9217.26
738.042	9219.74
738.383	9239.86
738.723	9300.42
739.063	9274.66
739.404	9342.45
739.744	9317.82
740.084	9308.55
740.424	9329.8
740.764	9298.84
741.104	9416.57
741.444	9350.36
741.784	9365.95
742.124	9322.79
742.464	9396.91
742.804	9359.4
743.143	9354.66
743.483	9431.04
743.823	9415.44
744.162	9466.97
744.502	9525.72
744.841	9492.28
745.181	9617.7
745.52	9609.34
745.86	9706.96
746.199	9683.23
746.538	9743.57
746.877	9795.32
747.216	9851.59
747.556	9836
747.895	9890.69
748.234	9920.97
748.573	9879.84
748.911	9984.92
749.25	10117.35
749.589	10090.68
749.928	10158.7
750.267	10321.18
750.605	10354.63
750.944	10361.41
751.283	10499.03
751.621	10620.84
751.96	10592.36
752.298	10728.18
752.636	10801.17
752.975	10908.51
753.313	10958.23
753.651	11110.09
753.989	11110.54
754.327	11267.6
754.666	11358.44
755.004	11559.12
755.342	11618.1
755.679	11715.5
756.017	11742.39
756.355	11945.55
756.693	12067.13
757.031	12169.72
757.368	12308.93
757.706	12457.4
758.044	12617.39
758.381	12720.67
758.719	12737.84
759.056	12981.23
759.394	13117.27
759.731	13164.27
760.068	13283.14
760.405	13429.35
760.743	13529.91
761.08	13726.74
761.417	13880.64
761.754	13940.07
762.091	14112.27
762.428	14160.18
762.765	14349.1
