Data from hue_60_FLMS001491_100.txt Node
Date: Mon Feb 06 15:18:14 GMT 2017
User: dcchb
Spectrometer: FLMS00149
Trigger mode: 0
Integration Time (sec): 2.000000E-2
Scans to average: 10
Electric dark correction enabled: true
Nonlinearity correction enabled: false
Boxcar width: 0
XAxis mode: Wavelengths
Number of Pixels in Spectrum: 2048
>>>>>Begin Spectral Data<<<<<
341.393	11.93
341.776	11.93
342.16	11.93
342.543	-64
342.927	-71.9
343.31	-73.26
343.693	-73.71
344.077	-56.76
344.46	-60.38
344.843	-67.16
345.226	-31.23
345.61	-31.91
345.993	-19.48
346.376	0.41
346.759	11.71
347.142	20.07
347.525	67.53
347.908	53.29
348.291	63.46
348.674	87.41
349.057	110.01
349.44	122.21
349.823	140.29
350.206	169.9
350.588	186.39
350.971	211.93
351.354	242.44
351.737	244.02
352.119	246.05
352.502	278.14
352.884	266.84
353.267	289.89
353.65	317.46
354.032	314.07
354.414	340.06
354.797	327.18
355.179	328.76
355.562	322.44
355.944	312.04
356.326	351.59
356.709	347.97
357.091	343.45
357.473	354.07
357.855	337.12
358.238	338.93
358.62	353.62
359.002	348.42
359.384	361.3
359.766	340.97
360.148	357.69
360.53	338.71
360.912	347.97
361.294	331.93
361.676	344.81
362.057	348.88
362.439	349.1
362.821	338.03
363.203	318.82
363.584	333.73
363.966	345.71
364.348	351.81
364.729	331.93
365.111	335.54
365.493	318.37
365.874	334.19
366.256	334.86
366.637	345.71
367.019	337.12
367.4	340.74
367.781	317.46
368.163	342.55
368.544	316.11
368.925	320.85
369.306	345.49
369.688	340.29
370.069	333.73
370.45	322.21
370.831	338.03
371.212	317.24
371.593	327.41
371.974	331.25
372.355	339.38
372.736	314.98
373.117	311.81
373.498	314.3
373.879	324.47
374.26	324.47
374.641	321.98
375.021	340.06
375.402	341.87
375.783	331.7
376.163	313.85
376.544	356.11
376.925	345.03
377.305	333.73
377.686	332.38
378.066	331.93
378.447	322.89
378.827	330.57
379.208	352.49
379.588	351.36
379.968	340.97
380.349	338.48
380.729	336.22
381.109	346.84
381.489	347.97
381.87	355.88
382.25	352.04
382.63	360.63
383.01	366.95
383.39	351.81
383.77	341.42
384.15	350.46
384.53	350.23
384.91	362.66
385.29	380.29
385.67	332.15
386.049	373.06
386.429	371.02
386.809	339.38
387.189	352.94
387.568	375.31
387.948	357.01
388.328	355.2
388.707	367.86
389.087	372.15
389.466	387.29
389.846	386.39
390.225	370.34
390.605	366.28
390.984	365.6
391.363	401.98
391.743	388.87
392.122	365.82
392.501	403.34
392.881	364.92
393.26	391.81
393.639	390.46
394.018	384.13
394.397	387.74
394.776	400.63
395.155	399.5
395.534	382.55
395.913	398.37
396.292	398.14
396.671	402.21
397.05	398.37
397.429	404.24
397.808	396.33
398.186	411.7
398.565	385.03
398.944	395.2
399.323	406.27
399.701	419.38
400.08	399.04
400.458	406.95
400.837	420.29
401.215	419.38
401.594	408.76
401.972	441.3
402.351	405.14
402.729	428.42
403.107	421.42
403.486	424.35
403.864	414.18
404.242	418.93
404.62	436.1
404.999	420.51
405.377	422.09
405.755	459.38
406.133	454.18
406.511	428.65
406.889	433.62
407.267	452.15
407.645	436.1
408.023	455.09
408.401	458.02
408.779	463.45
409.156	469.55
409.534	465.03
409.912	440.17
410.29	488.31
410.667	452.6
411.045	459.38
411.422	486.27
411.8	482.43
412.178	458.48
412.555	487.85
412.933	458.7
413.31	465.48
413.687	496.67
414.065	487.85
414.442	514.97
414.819	513.16
415.197	494.41
415.574	503.67
415.951	500.96
416.328	519.49
416.705	505.71
417.082	518.14
417.46	525.14
417.837	521.75
418.214	518.59
418.591	521.75
418.967	520.4
419.344	549.77
419.721	546.16
420.098	526.5
420.475	532.37
420.852	546.16
421.228	529.89
421.605	556.55
421.982	557.01
422.358	550.23
422.735	571.47
423.111	575.54
423.488	551.58
423.864	551.36
424.241	584.35
424.617	580.51
424.994	594.52
425.37	585.7
425.746	608.53
426.123	571.02
426.499	619.6
426.875	603.11
427.251	620.96
427.627	623.67
428.003	619.6
428.379	636.1
428.756	644.69
429.132	636.78
429.507	632.48
429.883	651.01
430.259	643.1
430.635	629.09
431.011	661.64
431.387	667.96
431.763	676.55
432.138	684.01
432.514	668.19
432.89	689.21
433.265	683.56
433.641	682.88
434.016	699.6
434.392	720.39
434.767	722.65
435.143	700.05
435.518	709.77
435.894	712.71
436.269	712.03
436.644	725.59
437.02	746.38
437.395	748.86
437.77	753.84
438.145	760.16
438.52	764.23
438.895	769.43
439.271	773.04
439.646	771.46
440.021	795.87
440.395	790.22
440.77	797.45
441.145	787.28
441.52	823.44
441.895	801.52
442.27	820.73
442.645	831.35
443.019	834.74
443.394	798.13
443.769	834.96
444.143	833.83
444.518	847.62
444.892	846.94
445.267	847.62
445.641	847.17
446.016	855.3
446.39	850.78
446.764	874.96
447.139	880.61
447.513	879.71
447.887	878.58
448.262	897.34
448.636	900.72
449.01	883.32
449.384	893.49
449.758	905.02
450.132	935.07
450.506	937.33
450.88	927.62
451.254	926.71
451.628	947.73
452.002	957.67
452.376	949.54
452.75	967.84
453.123	961.06
453.497	989.54
453.871	1000.16
454.244	985.92
454.618	1009.2
454.992	1012.13
455.365	1028.63
455.739	1043.55
456.112	1044.9
456.486	1063.88
456.859	1078.12
457.232	1066.37
457.606	1105.24
457.979	1084.45
458.352	1128.74
458.725	1133.04
459.099	1153.37
459.472	1154.96
459.845	1169.64
460.218	1165.8
460.591	1171.68
460.964	1216.87
461.337	1203.77
461.71	1221.39
462.083	1257.55
462.456	1278.57
462.829	1277.89
463.201	1279.7
463.574	1293.71
463.947	1315.63
464.32	1368.74
464.692	1342.75
465.065	1365.57
465.438	1394.05
465.81	1384.1
466.183	1408.28
466.555	1441.28
466.928	1482.18
467.3	1473.14
467.672	1528.96
468.045	1543.42
468.417	1547.71
468.789	1570.99
469.161	1582.97
469.534	1617.09
469.906	1680.82
470.278	1703.87
470.65	1690.08
471.022	1759.01
471.394	1773.02
471.766	1798.55
472.138	1822.96
472.51	1884.2
472.882	1908.83
473.253	1973.92
473.625	1975.05
473.997	2014.14
474.369	2087.36
474.74	2125.78
475.112	2177.98
475.484	2208.49
475.855	2265.66
476.227	2307.02
476.598	2399.89
476.97	2428.82
477.341	2487.35
477.713	2556.5
478.084	2624.52
478.455	2758.98
478.827	2780.22
479.198	2847.34
479.569	2889.83
479.94	3014.12
480.311	3113.32
480.682	3156.03
481.053	3313.32
481.424	3386.54
481.795	3444.39
482.166	3553.76
482.537	3593.08
482.908	3767.32
483.279	3862.23
483.65	3932.51
484.021	4077.82
484.391	4199.4
484.762	4292.5
485.133	4421.54
485.503	4544.47
485.874	4626.05
486.244	4768.65
486.615	4972.03
486.985	5065.59
487.356	5191.69
487.726	5333.83
488.097	5544.44
488.467	5639.81
488.837	5793.25
489.207	5908.5
489.578	6099.91
489.948	6220.36
490.318	6429.62
490.688	6547.58
491.058	6687.01
491.428	6868.7
491.798	7023.95
492.168	7249.48
492.538	7338.07
492.908	7583.26
493.278	7706.65
493.648	7852.63
494.017	8065.73
494.387	8265.5
494.757	8377.59
495.126	8548.21
495.496	8637.92
495.866	8865.94
496.235	9014.64
496.605	9212.6
496.974	9401.97
497.344	9536.2
497.713	9741.17
498.082	9903.43
498.452	10073.82
498.821	10166.7
499.19	10320.82
499.559	10508.38
499.928	10693.91
500.298	10856.85
500.667	11052.1
501.036	11115.82
501.405	11371.64
501.774	11467.45
502.143	11704.73
502.512	11780.21
502.88	11960.55
503.249	12137.72
503.618	12286.64
503.987	12486.63
504.356	12649.12
504.724	12756.91
505.093	12793.75
505.462	13015.66
505.83	13153.74
506.199	13378.81
506.567	13583.56
506.936	13648.19
507.304	13891.34
507.672	13993.49
508.041	14111
508.409	14315.06
508.777	14461.05
509.145	14690.87
509.514	14704.66
509.882	14955.95
510.25	14956.4
510.618	15194.59
510.986	15341.48
511.354	15566.1
511.722	15672.54
512.09	15886.09
512.458	15988.46
512.826	16119.99
513.193	16324.73
513.561	16393.65
513.929	16508
514.297	16844.49
514.664	16842.23
515.032	16978.95
515.4	17184.59
515.767	17339.16
516.135	17480.18
516.502	17490.8
516.869	17779.15
517.237	17885.14
517.604	17874.74
517.972	18239.93
518.339	18324.22
518.706	18368.29
519.073	18516.53
519.44	18723.08
519.808	18973.7
520.175	18897.54
520.542	19312.22
520.909	19338.66
521.276	19373.23
521.643	19602.38
522.009	19883.5
522.376	19923.05
522.743	20073.78
523.11	20365.07
523.477	20478.74
523.843	20680.32
524.21	20945.85
524.577	21092.06
524.943	21175.67
525.31	21261.77
525.676	21516.91
526.043	21736.11
526.409	21732.49
526.776	22075.76
527.142	22178.81
527.508	22366.6
527.874	22420.39
528.241	22611.34
528.607	22580.83
528.973	22867.83
529.339	22962.29
529.705	23171.78
530.071	23426.91
530.437	23533.12
530.803	23620.13
531.169	23713.01
531.535	23836.39
531.901	23922.49
532.267	23954.58
532.632	24172.43
532.998	24281.81
533.364	24405.19
533.73	24424.63
534.095	24671.85
534.461	24894.44
534.826	25003.37
535.192	24997.04
535.557	25184.38
535.923	25235.23
536.288	25306.41
536.653	25426.18
537.019	25357.93
537.384	25582.79
537.749	25717.47
538.114	25776.46
538.479	25753.4
538.845	25906.17
539.21	26039.05
539.575	26037.69
539.94	26117.69
540.305	26410.79
540.67	26406.72
541.034	26499.15
541.399	26607.17
541.764	26631.12
542.129	26704.79
542.494	26816.65
542.858	26994.73
543.223	26962.64
543.587	27222.52
543.952	27167.6
544.316	27351.33
544.681	27239.92
545.045	27387.49
545.41	27655.95
545.774	27570.08
546.138	27708.16
546.503	27755.39
546.867	27780.7
547.231	28175.49
547.595	28012.33
547.959	28184.08
548.324	28217.29
548.688	28360.57
549.052	28432.66
549.416	28409.38
549.779	28593.78
550.143	28604.4
550.507	28759.2
550.871	28765.53
551.235	29003.26
551.599	29019.31
551.962	29236.93
552.326	29276.93
552.689	29412.74
553.053	29267.21
553.417	29436.47
553.78	29828.1
554.143	29639.63
554.507	29787.65
554.87	29896.57
555.234	30167.3
555.597	30088.43
555.96	30119.17
556.323	30397.12
556.686	30464.92
557.05	30605.71
557.413	30617.01
557.776	30764.8
558.139	31003.89
558.502	31069.42
558.865	31242.53
559.228	31303.32
559.59	31458.34
559.953	31541.73
560.316	31895.39
560.679	31806.35
561.041	31952.11
561.404	32099
561.767	32217.87
562.129	32302.39
562.492	32695.6
562.854	32671.87
563.217	32622.15
563.579	32760.45
563.941	33050.16
564.304	33091.29
564.666	33317.95
565.028	33446.54
565.39	33520.21
565.753	33719.97
566.115	33857.15
566.477	34001.32
566.839	34045.16
567.201	34260.98
567.563	34372.61
567.925	34500.75
568.287	34575.32
568.648	34713.17
569.01	34938.7
569.372	35066.83
569.734	35030.22
570.095	35315.64
570.457	35393.38
570.819	35526.93
571.18	35413.04
571.542	35719.47
571.903	35693.93
572.265	35957.88
572.626	36121.72
572.987	35962.4
573.349	36183.86
573.71	36171.44
574.071	36412.79
574.432	36566.45
574.794	36712.89
575.155	36758.09
575.516	36697.52
575.877	36897.52
576.238	36797.86
576.599	37075.37
576.96	37081.02
577.32	37018.87
577.681	37396.26
578.042	37368.01
578.403	37381.8
578.763	37490.5
579.124	37561.23
579.485	37671.96
579.845	37630.83
580.206	37661.11
580.566	37551.96
580.927	37842.58
581.287	37953.31
581.648	37712.86
582.008	37985.17
582.368	37873.99
582.728	37923.93
583.089	37836.25
583.449	37902.69
583.809	37996.47
584.169	38004.38
584.529	38133.19
584.889	38348.78
585.249	38172.06
585.609	38033.76
585.969	38200.99
586.329	38093.87
586.688	38294.77
587.048	38200.31
587.408	38202.79
587.768	38238.73
588.127	38267.43
588.487	38121.67
588.846	38357.59
589.206	38318.27
589.565	38241.21
589.925	38319.63
590.284	38315.11
590.643	38327.99
591.003	38523.92
591.362	38576.8
591.721	38504.48
592.08	38538.15
592.44	38533.63
592.799	38543.35
593.158	38492.05
593.517	38612.28
593.876	38569.79
594.235	38594.65
594.593	38555.1
594.952	38741.31
595.311	38497.93
595.67	38646.63
596.029	38874.64
596.387	38995.77
596.746	38926.39
597.104	38930.69
597.463	38721.88
597.822	38992.83
598.18	38835.55
598.538	38809.78
598.897	39110.34
599.255	38879.84
599.613	39362.76
599.972	39229.43
600.33	39167.06
600.688	39200.73
601.046	39283.44
601.404	39414.97
601.762	39234.86
602.12	39527.96
602.478	39494.29
602.836	39520.95
603.194	39356.66
603.552	39579.71
603.91	39443.89
604.268	39656.99
604.625	39541.97
604.983	39717.33
605.341	39474.17
605.698	39817.67
606.056	39844.56
606.413	39816.54
606.771	40015.63
607.128	40125
607.485	39935.86
607.843	39882.98
608.2	40312.8
608.557	40372.91
608.914	40342.63
609.272	40345.79
609.629	40529.29
609.986	40620.81
610.343	40464.2
610.7	40958.88
611.057	40638.89
611.414	40716.18
611.771	40838.43
612.127	41021.03
612.484	40940.12
612.841	41112.1
613.198	41049.05
613.554	40959.33
613.911	41296.72
614.267	41319.32
614.624	41336.72
614.98	41320.68
615.337	41518.41
615.693	41476.16
616.05	41395.71
616.406	41831.63
616.762	41634.57
617.118	41622.37
617.475	41638.64
617.831	41882.47
618.187	41800.44
618.543	41862.59
618.899	42185.06
619.255	42048.34
619.611	41962.92
619.967	42170.83
620.323	42324.95
620.678	42031.17
621.034	42086.53
621.39	42145.06
621.746	42078.17
622.101	42535.79
622.457	42248.34
622.812	42305.29
623.168	42339.41
623.523	42606.07
623.879	42633.86
624.234	42336.47
624.589	42482.68
624.945	42572.62
625.3	42629.8
625.655	42547.31
626.01	42657.82
626.365	42650.81
626.72	42615.56
627.075	42624.15
627.43	42729.23
627.785	42619.63
628.14	42674.09
628.495	42663.24
628.85	42644.49
629.205	42552.06
629.559	42778.04
629.914	42563.36
630.269	42629.57
630.623	42581.66
630.978	42559.97
631.332	42596.58
631.687	42702.56
632.041	42595.22
632.396	42702.11
632.75	42527.43
633.104	42670.47
633.459	42518.16
633.813	42492.17
634.167	42497.6
634.521	42402.91
634.875	42501.21
635.229	42556.35
635.583	42378.05
635.937	42425.73
636.291	42275
636.645	42417.37
636.999	42295.34
637.352	42463.93
637.706	42160.88
638.06	42326.75
638.413	42297.83
638.767	42263.48
639.121	42196.36
639.474	42090.38
639.828	42018.29
640.181	42121.56
640.534	42004.05
640.888	42055.12
641.241	41760.22
641.594	41804.96
641.947	42047.89
642.301	41854.22
642.654	41898.07
643.007	42025.07
643.36	41853.77
643.713	41775.13
644.066	41963.37
644.419	41693.78
644.771	41306.22
645.124	41077.75
645.477	41001.14
645.83	40901.71
646.182	40607.48
646.535	40507.82
646.888	40566.35
647.24	40328.39
647.593	40494.03
647.945	40508.95
648.298	40377.65
648.65	40244.55
649.002	40275.28
649.355	40362.06
649.707	40314.38
650.059	40457.65
650.411	40875.27
650.763	40972.21
651.115	41368.81
651.467	41200.23
651.819	41326.55
652.171	41144.64
652.523	41016.96
652.875	40919.33
653.227	40911.65
653.578	41341.7
653.93	41122.72
654.282	40941.03
654.633	40824.65
654.985	40932.44
655.337	40938.32
655.688	40856.74
656.039	40992.78
656.391	40672.33
656.742	40748.26
657.094	40712.33
657.445	40910.29
657.796	40821.26
658.147	40718.21
658.498	40661.26
658.849	40657.87
659.2	40573.35
659.551	40565.22
659.902	40779.45
660.253	40628.27
660.604	40827.36
660.955	40548.72
661.306	40695.16
661.656	40639.34
662.007	40611.32
662.358	40685.44
662.708	40581.04
663.059	40546.24
663.409	40215.85
663.76	40787.81
664.11	40573.13
664.461	40588.27
664.811	40626.46
665.161	40429.86
665.511	40522.06
665.862	40469.85
666.212	40497.42
666.562	40684.31
666.912	40397.31
667.262	40456.52
667.612	40424.66
667.962	40433.92
668.312	40445.9
668.662	40467.82
669.011	40540.81
669.361	40313.47
669.711	40327.26
670.06	40206.13
670.41	40211.78
670.76	40113.25
671.109	40377.65
671.459	40256.75
671.808	40270.31
672.157	40280.03
672.507	39909.42
672.856	40082.97
673.205	40150.99
673.554	40246.36
673.904	40102.18
674.253	40223.98
674.602	40139.69
674.951	39596.88
675.3	39329.77
675.649	39942.86
675.998	39958
676.346	40074.16
676.695	40055.63
677.044	39874.16
677.393	39843.43
677.741	39982.41
678.09	39774.73
678.438	39856.76
678.787	39929.08
679.135	39893.37
679.484	39615.41
679.832	39867.84
680.181	39610.44
680.529	39708.52
680.877	39520.95
681.225	39468.52
681.573	39646.6
681.922	39384.01
682.27	39245.03
682.618	39498.58
682.966	39176.55
683.314	39294.97
683.661	39098.59
684.009	39089.55
684.357	38990.34
684.705	38814.98
685.053	38916.67
685.4	38893.85
685.748	38680.52
686.095	38674.87
686.443	38565.27
686.79	38506.29
687.138	38551.71
687.485	38555.1
687.832	38400.76
688.18	38386.74
688.527	38065.62
688.874	38177.03
689.221	38184.26
689.568	37951.95
689.915	37968.9
690.262	38015.91
690.609	37740.43
690.956	37722.58
691.303	37808.68
691.65	37463.61
691.997	37478.75
692.344	37348.35
692.69	37328.47
693.037	37459.99
693.383	37059.55
693.73	37067.46
694.077	37022.71
694.423	36919.44
694.769	36823.62
695.116	36635.6
695.462	36826.33
695.808	36554.48
696.155	36503.4
696.501	36397.19
696.847	36348.38
697.193	36056.18
697.539	36315.16
697.885	35987.94
698.231	35781.62
698.577	35881.05
698.923	35837.89
699.269	35688.28
699.614	35400.83
699.96	35547.72
700.306	35549.76
700.651	35389.08
700.997	35222.99
701.342	35227.28
701.688	35166.72
702.033	35015.08
702.379	35127.85
702.724	34888.76
703.069	35055.31
703.415	34541.2
703.76	34557.92
704.105	34566.51
704.45	34510.69
704.795	34334.2
705.14	34400.64
705.485	34227.08
705.83	34028.22
706.175	34135.78
706.52	34006.3
706.865	33943.25
707.209	34031.38
707.554	33726.53
707.899	33867.32
708.243	33524.5
708.588	33640.88
708.932	33415.8
709.277	33312.08
709.621	33423.71
709.966	33137.62
710.31	33150.72
710.654	32797.29
710.998	32989.82
711.342	32956.83
711.687	32930.39
712.031	32776.72
712.375	32633.22
712.719	32679.78
713.063	32665.09
713.407	32647.23
713.75	32508.93
714.094	32327.92
714.438	32477.3
714.782	32484.08
715.125	32213.8
715.469	32329.5
715.812	32135.84
716.156	31879.57
716.499	32003.64
716.843	31999.12
717.186	31817.2
717.53	31867.37
717.873	31819.23
718.216	31736.07
718.559	31576.08
718.902	31499.24
719.246	31558.68
719.589	31364.33
719.932	31286.37
720.275	31298.8
720.617	31205.92
720.96	31213.15
721.303	31228.52
721.646	31181.06
721.989	30974.96
722.331	30977.67
722.674	30997.79
723.016	30965.47
723.359	30886.15
723.701	30890.67
724.044	30731.35
724.386	30447.29
724.729	30734.52
725.071	30770.45
725.413	30692.94
725.755	30567.06
726.097	30407.97
726.439	30297.01
726.782	30346.05
727.124	30414.75
727.465	30361.65
727.807	30278.48
728.149	30212.72
728.491	30284.81
728.833	30266.96
729.175	30061.54
729.516	29963.01
729.858	29816.12
730.199	29998.94
730.541	29897.48
730.882	29823.58
731.224	29913.75
731.565	29678.27
731.906	29802.56
732.248	29719.18
732.589	29608.9
732.93	29525.28
733.271	29589.91
733.612	29652.06
733.953	29547.2
734.294	29439.18
734.635	29318.06
734.976	29402.12
735.317	29226.99
735.658	29112.41
735.999	29136.37
736.339	29097.27
736.68	29164.61
737.021	29232.18
737.361	28904.73
737.702	29063.83
738.042	28963.72
738.383	28970.72
738.723	28892.98
739.063	28863.83
739.404	28930.04
739.744	28719.43
740.084	28716.72
740.424	28638.53
740.764	28616.61
741.104	28754.68
741.444	28524.18
741.784	28398.08
742.124	28500
742.464	28430.85
742.804	28257.52
743.143	28337.29
743.483	28420.91
743.823	28135.72
744.162	28147.24
744.502	28231.08
744.841	28130.29
745.181	28133.91
745.52	28027.7
745.86	28006.9
746.199	27982.05
746.538	27940.47
746.877	27910.64
747.216	27791.32
747.556	27797.42
747.895	27831.09
748.234	27635.62
748.573	27538.67
748.911	27613.24
749.25	27554.71
749.589	27436.3
749.928	27445.79
750.267	27539.12
750.605	27459.12
750.944	27276.98
751.283	27171.45
751.621	27184.55
751.96	27009.87
752.298	27195.17
752.636	27068.85
752.975	26951.57
753.313	26864.34
753.651	26917.67
753.989	26829.53
754.327	26727.39
754.666	26636.09
755.004	26575.76
755.342	26638.35
755.679	26622.76
756.017	26449.21
