Data from hue_280_FLMS001491_00051.txt Node
Date: Tue Feb 07 15:55:27 GMT 2017
User: dcchb
Spectrometer: FLMS00149
Trigger mode: 0
Integration Time (sec): 2.000000E-2
Scans to average: 10
Electric dark correction enabled: true
Nonlinearity correction enabled: false
Boxcar width: 0
XAxis mode: Wavelengths
Number of Pixels in Spectrum: 2048
>>>>>Begin Spectral Data<<<<<
341.393	-18.8
341.776	-18.8
342.16	-18.8
342.543	-64
342.927	-62.19
343.31	-40.49
343.693	-64
344.077	-46.14
344.46	-68.97
344.843	-35.3
345.226	-60.61
345.61	-30.1
345.993	-28.06
346.376	22.33
346.759	20.07
347.142	9.67
347.525	25.27
347.908	29.56
348.291	84.93
348.674	71.82
349.057	110.01
349.44	110.92
349.823	144.13
350.206	164.7
350.588	187.07
350.971	201.08
351.354	208.77
351.737	226.39
352.119	221.42
352.502	239.73
352.884	254.87
353.267	263.23
353.65	278.82
354.032	279.72
354.414	291.48
354.797	310.23
355.179	314.53
355.562	300.29
355.944	345.94
356.326	323.11
356.709	328.76
357.091	311.81
357.473	338.93
357.855	315.66
358.238	340.29
358.62	343
359.002	340.51
359.384	321.31
359.766	324.24
360.148	345.26
360.53	328.99
360.912	345.94
361.294	326.73
361.676	348.2
362.057	326.5
362.439	333.96
362.821	326.05
363.203	340.06
363.584	322.66
363.966	307.97
364.348	332.15
364.729	315.43
365.111	322.66
365.493	298.93
365.874	316.79
366.256	298.25
366.637	312.27
367.019	323.56
367.4	290.12
367.781	290.12
368.163	303
368.544	289.44
368.925	314.07
369.306	305.49
369.688	296.45
370.069	305.26
370.45	302.32
370.831	316.33
371.212	293.74
371.593	320.4
371.974	313.17
372.355	311.36
372.736	291.7
373.117	321.76
373.498	316.56
373.879	308.42
374.26	293.74
374.641	288.76
375.021	295.77
375.402	316.79
375.783	306.39
376.163	319.5
376.544	325.6
376.925	320.63
377.305	318.14
377.686	324.69
378.066	336.45
378.447	334.19
378.827	320.4
379.208	334.41
379.588	320.63
379.968	325.82
380.349	322.66
380.729	329.89
381.109	342.77
381.489	343.45
381.87	356.78
382.25	336.67
382.63	337.58
383.01	318.82
383.39	339.84
383.77	357.01
384.15	359.27
384.53	360.4
384.91	362.66
385.29	349.1
385.67	356.11
386.049	351.13
386.429	346.16
386.809	374.86
387.189	354.07
387.568	358.59
387.948	362.89
388.328	367.41
388.707	349.78
389.087	366.73
389.466	368.54
389.846	398.59
390.225	355.88
390.605	368.08
390.984	383.68
391.363	385.48
391.743	358.37
392.122	385.48
392.501	383.45
392.881	373.06
393.26	407.86
393.639	381.19
394.018	371.25
394.397	383
394.776	412.38
395.155	378.93
395.534	377.12
395.913	391.13
396.292	402.43
396.671	417.35
397.05	397.46
397.429	393.85
397.808	412.83
398.186	437.46
398.565	418.03
398.944	413.05
399.323	410.79
399.701	424.13
400.08	397.46
400.458	423.9
400.837	426.84
401.215	427.29
401.594	439.95
401.972	423.9
402.351	446.5
402.729	426.61
403.107	445.6
403.486	444.24
403.864	432.94
404.242	434.3
404.62	456.89
404.999	469.1
405.377	450.57
405.755	456.89
406.133	462.77
406.511	500.51
406.889	496.89
407.267	491.47
407.645	487.63
408.023	516.33
408.401	511.36
408.779	526.5
409.156	507.97
409.534	501.19
409.912	526.72
410.29	528.53
410.667	558.36
411.045	538.93
411.422	540.06
411.8	548.64
412.178	554.07
412.555	566.27
412.933	595.2
413.31	574.41
413.687	567.17
414.065	583.9
414.442	595.2
414.819	613.05
415.197	612.14
415.574	621.64
415.951	628.42
416.328	661.64
416.705	654.4
417.082	638.13
417.46	662.77
417.837	656.89
418.214	677.23
418.591	680.39
418.967	678.58
419.344	692.37
419.721	723.78
420.098	703.44
420.475	740.96
420.852	728.53
421.228	730.33
421.605	745.7
421.982	751.12
422.358	756.55
422.735	771.46
423.111	797
423.488	817.34
423.864	800.16
424.241	810.78
424.617	834.06
424.994	813.27
425.37	840.84
425.746	853.49
426.123	883.32
426.499	854.85
426.875	867.28
427.251	907.05
427.627	890.1
428.003	925.13
428.379	912.93
428.756	928.97
429.132	953.38
429.507	958.8
429.883	965.58
430.259	974.4
430.635	975.3
431.011	995.19
431.387	1002.19
431.763	1032.47
432.138	1053.26
432.514	1062.3
432.89	1069.76
433.265	1099.14
433.641	1111.57
434.016	1112.7
434.392	1114.05
434.767	1165.58
435.143	1167.61
435.518	1182.07
435.894	1193.6
436.269	1198.57
436.644	1198.57
437.02	1250.09
437.395	1251.22
437.77	1258
438.145	1283.09
438.52	1282.86
438.895	1309.53
439.271	1309.08
439.646	1326.25
440.021	1349.75
440.395	1356.08
440.77	1351.33
441.145	1391.79
441.52	1385.91
441.895	1372.58
442.27	1436.76
442.645	1420.49
443.019	1422.07
443.394	1450.09
443.769	1450.54
444.143	1438.11
444.518	1438.34
444.892	1462.29
445.267	1488.28
445.641	1491.22
446.016	1517.88
446.39	1510.43
446.764	1501.84
447.139	1507.26
447.513	1526.47
447.887	1548.84
448.262	1554.72
448.636	1509.52
449.01	1582.51
449.384	1551.56
449.758	1576.41
450.132	1610.76
450.506	1594.27
450.88	1611.44
451.254	1609.63
451.628	1636.3
452.002	1646.69
452.376	1659.8
452.75	1683.53
453.123	1667.71
453.497	1694.38
453.871	1699.35
454.244	1746.8
454.618	1749.06
454.992	1760.14
455.365	1774.15
455.739	1824.77
456.112	1795.16
456.486	1806.46
456.859	1849.63
457.232	1860.93
457.606	1874.71
457.979	1882.85
458.352	1907.93
458.725	1926.91
459.099	1946.8
459.472	1948.61
459.845	1988.61
460.218	1997.19
460.591	2005.33
460.964	2009.17
461.337	2059.79
461.71	2047.14
462.083	2097.53
462.456	2095.72
462.829	2122.84
463.201	2151.54
463.574	2131.65
463.947	2199.9
464.32	2241.93
464.692	2263.63
465.065	2249.84
465.438	2251.88
465.81	2275.6
466.183	2293.46
466.555	2361.93
466.928	2345.88
467.3	2369.39
467.672	2398.54
468.045	2447.58
468.417	2429.95
468.789	2447.58
469.161	2474.24
469.534	2528.93
469.906	2550.63
470.278	2586.78
470.65	2579.1
471.022	2612.09
471.394	2652.77
471.766	2683.5
472.138	2707.01
472.51	2751.07
472.882	2805.31
473.253	2770.28
473.625	2895.7
473.997	2887.79
474.369	2898.64
474.74	2888.24
475.112	2987.22
475.484	3005.98
475.855	3102.7
476.227	3075.13
476.598	3116.26
476.97	3105.19
477.341	3202.13
477.713	3224.28
478.084	3277.61
478.455	3317.38
478.827	3321.45
479.198	3430.38
479.569	3405.97
479.94	3470.6
480.311	3534.78
480.682	3563.93
481.053	3682.8
481.424	3679.41
481.795	3706.53
482.166	3739.75
482.537	3769.8
482.908	3853.64
483.279	3858.39
483.65	3906.52
484.021	3952.62
484.391	4025.39
484.762	4021.09
485.133	4082.34
485.503	4138.61
485.874	4188.32
486.244	4231.48
486.615	4257.92
486.985	4337.47
487.356	4387.64
487.726	4405.27
488.097	4492.04
488.467	4480.29
488.837	4549.22
489.207	4613.85
489.578	4625.82
489.948	4647.75
490.318	4749.21
490.688	4736.56
491.058	4846.61
491.428	4871.92
491.798	4934.29
492.168	4997.79
492.538	4992.14
492.908	5054.51
493.278	5094.06
493.648	5108.75
494.017	5170.44
494.387	5187.62
494.757	5211.57
495.126	5303.32
495.496	5319.82
495.866	5312.36
496.235	5293.38
496.605	5376.99
496.974	5370.89
497.344	5426.48
497.713	5409.98
498.082	5508.06
498.452	5478.46
498.821	5518.91
499.19	5569.98
499.559	5626.25
499.928	5644.33
500.298	5672.8
500.667	5696.08
501.036	5692.01
501.405	5728.62
501.774	5753.03
502.143	5816.98
502.512	5804.55
502.88	5860.82
503.249	5823.53
503.618	5877.09
503.987	5904.89
504.356	5903.98
504.724	5964.32
505.093	5967.94
505.462	6019.01
505.83	5979.01
506.199	6069.63
506.567	6100.59
506.936	6101.04
507.304	6115.05
507.672	6181.04
508.041	6166.8
508.409	6200.25
508.777	6212.45
509.145	6269.85
509.514	6297.87
509.882	6308.04
510.25	6339
510.618	6373.58
510.986	6315.5
511.354	6382.39
511.722	6419.9
512.09	6487.7
512.458	6435.49
512.826	6518.2
513.193	6463.29
513.561	6560.46
513.929	6549.62
514.297	6577.41
514.664	6615.15
515.032	6658.31
515.4	6657.18
515.767	6645.66
516.135	6715.04
516.502	6640.91
516.869	6792.32
517.237	6791.19
517.604	6799.78
517.972	6831.19
518.339	6866.67
518.706	6856.5
519.073	6864.18
519.44	6954.8
519.808	6969.04
520.175	6922.26
520.542	6968.59
520.909	7033.22
521.276	6951.64
521.643	7076.61
522.009	7082.48
522.376	7124.06
522.743	7153.67
523.11	7167
523.477	7271.86
523.843	7232.08
524.21	7297.17
524.577	7341.23
524.943	7340.1
525.31	7333.32
525.676	7486.54
526.043	7481.79
526.409	7476.82
526.776	7647.89
527.142	7543.71
527.508	7591.62
527.874	7658.06
528.241	7725.63
528.607	7654.67
528.973	7766.99
529.339	7739.42
529.705	7842.01
530.071	7872.74
530.437	7857.15
530.803	7915
531.169	7852.86
531.535	7936.02
531.901	7949.35
532.267	7964.95
532.632	7995
532.998	7989.8
533.364	8073.42
533.73	8047.43
534.095	8099.41
534.461	8135.11
534.826	8211.72
535.192	8145.73
535.557	8270.47
535.923	8214.66
536.288	8302.34
536.653	8257.14
537.019	8234.32
537.384	8301.89
537.749	8328.1
538.114	8350.02
538.479	8359.74
538.845	8436.12
539.21	8402.9
539.575	8388.66
539.94	8410.58
540.305	8462.11
540.67	8452.39
541.034	8466.4
541.399	8433.18
541.764	8513.18
542.129	8550.47
542.494	8566.74
542.858	8563.12
543.223	8577.59
543.587	8690.12
543.952	8647.19
544.316	8669.33
544.681	8699.62
545.045	8766.51
545.41	8706.62
545.774	8756.79
546.138	8794.3
546.503	8755.43
546.867	8834.53
547.231	8848.09
547.595	8858.48
547.959	8893.96
548.324	8819.61
548.688	8904.13
549.052	8885.83
549.416	8955.65
549.779	8948.2
550.143	9015.77
550.507	9064.8
550.871	8978.48
551.235	9057.35
551.599	9121.98
551.962	9091.7
552.326	9113.84
552.689	9091.7
553.053	9096.22
553.417	9164.24
553.78	9173.28
554.143	9185.48
554.507	9178.02
554.87	9264.35
555.234	9327.17
555.597	9281.07
555.96	9293.05
556.323	9347.51
556.686	9323.1
557.05	9422.99
557.413	9392.25
557.776	9443.1
558.139	9494.62
558.502	9470.22
558.865	9474.51
559.228	9593.83
559.59	9540.27
559.953	9554.73
560.316	9702.3
560.679	9634.05
561.041	9680.16
561.404	9702.98
561.767	9719.7
562.129	9706.14
562.492	9849.87
562.854	9866.14
563.217	9858.46
563.579	9899.81
563.941	9915.86
564.304	9985.68
564.666	10010.54
565.028	10046.93
565.39	10056.64
565.753	10140.93
566.115	10102.52
566.477	10209.63
566.839	10184.77
567.201	10198.33
567.563	10260.03
567.925	10328.05
568.287	10296.64
568.648	10372.79
569.01	10368.27
569.372	10490.76
569.734	10452.34
570.095	10506.57
570.457	10504.99
570.819	10580.92
571.18	10608.94
571.542	10598.77
571.903	10725.55
572.265	10733.01
572.626	10773.46
572.987	10704.76
573.349	10835.38
573.71	10818.88
574.071	10924.87
574.432	10955.38
574.794	10972.78
575.155	11007.58
575.516	11024.53
575.877	11113.34
576.238	11094.58
576.599	11142.94
576.96	11152.21
577.32	11246.44
577.681	11376.38
578.042	11383.61
578.403	11377.06
578.763	11396.04
579.124	11432.2
579.485	11498.64
579.845	11588.35
580.206	11566.43
580.566	11612.53
580.927	11645.75
581.287	11746.32
581.648	11755.81
582.008	11833.32
582.368	11853.43
582.728	11964.16
583.089	11952.64
583.449	12018.62
583.809	12083.26
584.169	12178.85
584.529	12134.78
584.889	12310.14
585.249	12259.97
585.609	12298.62
585.969	12394.21
586.329	12425.85
586.688	12551.72
587.048	12493.87
587.408	12608.44
587.768	12685.5
588.127	12741.77
588.487	12816.8
588.846	12967.3
589.206	12880.52
589.565	12953.29
589.925	13074.87
590.284	13119.61
590.643	13203.68
591.003	13264.24
591.362	13355.76
591.721	13356.67
592.08	13524.35
592.44	13474.86
592.799	13589.66
593.158	13573.61
593.517	13729.54
593.876	13830.1
594.235	13676.89
594.593	13851.34
594.952	13879.14
595.311	13938.12
595.67	14094.95
596.029	14173.37
596.387	14231
596.746	14292.69
597.104	14278.9
597.463	14262.18
597.822	14344.44
598.18	14320.94
598.538	14434.38
598.897	14534.26
599.255	14442.74
599.613	14646.13
599.972	14637.09
600.33	14789.4
600.688	14720.7
601.046	14792.34
601.404	14987.81
601.762	14970.86
602.12	15029.84
602.478	15048.83
602.836	15150.52
603.194	15048.6
603.552	15151.65
603.91	15169.28
604.268	15254.7
604.625	15213.34
604.983	15400.46
605.341	15322.94
605.698	15433
606.056	15381.25
606.413	15421.02
606.771	15491.53
607.128	15560
607.485	15489.49
607.843	15478.65
608.2	15599.55
608.557	15679.09
608.914	15748.02
609.272	15704.86
609.629	15824.4
609.986	15868.24
610.343	15853.1
610.7	15981.23
611.057	16030.5
611.414	15974
611.771	16009.71
612.127	16012.64
612.484	16029.59
612.841	16141.68
613.198	16016.26
613.554	16124.28
613.911	16239.76
614.267	16339.42
614.624	16279.08
614.98	16379.87
615.337	16438.62
615.693	16401.11
616.05	16342.35
616.406	16491.95
616.762	16382.35
617.118	16368.34
617.475	16425.51
617.831	16489.47
618.187	16450.6
618.543	16499.86
618.899	16688.33
619.255	16632.97
619.611	16540.09
619.967	16684.04
620.323	16711.83
620.678	16658.5
621.034	16627.77
621.39	16631.61
621.746	16703.25
622.101	16862.79
622.457	16636.58
622.812	16711.38
623.168	16745.51
623.523	16789.12
623.879	16855.11
624.234	16875.45
624.589	16813.3
624.945	16904.6
625.3	16869.12
625.655	16787.31
626.01	16839.74
626.365	16864.82
626.72	16908.44
627.075	16795.22
627.43	16805.84
627.785	16753.64
628.14	16855.33
628.495	16791.38
628.85	16731.5
629.205	16696.69
629.559	16833.41
629.914	16751.61
630.269	16771.95
630.623	16780.99
630.978	16722.46
631.332	16779.4
631.687	16790.02
632.041	16786.63
632.396	16731.04
632.75	16707.09
633.104	16764.26
633.459	16665.96
633.813	16794.32
634.167	16660.99
634.521	16685.17
634.875	16606.75
635.229	16635.23
635.583	16657.37
635.937	16577.15
636.291	16555.91
636.645	16597.94
636.999	16601.1
637.352	16587.09
637.706	16424.61
638.06	16615.34
638.413	16458.73
638.767	16436.36
639.121	16412.41
639.474	16396.36
639.828	16450.15
640.181	16338.51
640.534	16470.26
640.888	16369.92
641.241	16272.52
641.594	16294.67
641.947	16492.86
642.301	16356.36
642.654	16341.67
643.007	16376.93
643.36	16355.91
643.713	16179.65
644.066	16433.65
644.419	16285.86
644.771	16147.78
645.124	16059.2
645.477	16143.49
645.83	15893.1
646.182	15854.91
646.535	15849.94
646.888	15834.57
647.24	15686.78
647.593	15752.99
647.945	15757.51
648.298	15689.26
648.65	15607
649.002	15670.96
649.355	15753.44
649.707	15692.2
650.059	15913.44
650.411	16046.99
650.763	16067.56
651.115	16207.44
651.467	16154.34
651.819	16049.03
652.171	16159.98
652.523	16051.74
652.875	16069.82
653.227	16014.45
653.578	16096.03
653.93	16083.15
654.282	16063.94
654.633	16049.48
654.985	15995.92
655.337	16128.57
655.688	16124.96
656.039	16182.81
656.391	16070.04
656.742	16152.53
657.094	16151.4
657.445	16150.27
657.796	16030.5
658.147	16093.77
658.498	16157.05
658.849	16194.11
659.2	16147.56
659.551	16068.69
659.902	16182.13
660.253	16097.16
660.604	16149.14
660.955	16102.59
661.306	16196.59
661.656	16122.25
662.007	16183.26
662.358	16150.95
662.708	16122.47
663.059	16128.35
663.409	16165.41
663.76	16166.54
664.11	16194.56
664.461	16224.16
664.811	16229.36
665.161	16179.19
665.511	16142.36
665.862	16148.46
666.212	16240.43
666.562	16238.17
666.912	16194.79
667.262	16201.34
667.612	16225.75
667.962	16176.48
668.312	16273.88
668.662	16257.61
669.011	16169.93
669.361	16185.52
669.711	16166.09
670.06	16132.41
670.41	16127.67
670.76	16110.49
671.109	16165.86
671.459	16117.73
671.808	16105.97
672.157	16144.17
672.507	15939.43
672.856	16032.08
673.205	16027.56
673.554	16087.67
673.904	16042.25
674.253	16099.87
674.602	16109.14
674.951	15833.44
675.3	15794.57
675.649	15959.99
675.998	15984.85
676.346	16052.64
676.695	15993.44
677.044	15826.21
677.393	15940.56
677.741	16032.53
678.09	15904.17
678.438	15879.77
678.787	15855.81
679.135	15788.92
679.484	15689.94
679.832	15843.16
680.181	15725.87
680.529	15730.84
680.877	15743.72
681.225	15648.36
681.573	15764.74
681.922	15667.79
682.27	15530.17
682.618	15566.55
682.966	15584.86
683.314	15610.85
683.661	15491.98
684.009	15324.75
684.357	15428.7
684.705	15319.33
685.053	15388.93
685.4	15303.28
685.748	15271.65
686.095	15258.09
686.443	15132.67
686.79	15196.85
687.138	15151.2
687.485	15165.21
687.832	15119.79
688.18	15129.28
688.527	14970.86
688.874	14963.41
689.221	14926.57
689.568	14913.01
689.915	14855.84
690.262	14920.92
690.609	14840.92
690.956	14760.02
691.303	14762.51
691.65	14573.36
691.997	14656.3
692.344	14555.06
692.69	14656.3
693.037	14586.92
693.383	14466.24
693.73	14453.14
694.077	14374.04
694.423	14438.67
694.769	14277.77
695.116	14305.57
695.462	14208.62
695.808	14163.88
696.155	14272.58
696.501	14094.5
696.847	14061.73
697.193	13973.38
697.539	14049.76
697.885	13857.9
698.231	13837.11
698.577	13803.44
698.923	13720.95
699.269	13694.06
699.614	13627.4
699.96	13578.36
700.306	13560.96
700.651	13530.22
700.997	13431.69
701.342	13419.94
701.688	13439.6
702.033	13355.54
702.379	13332.04
702.724	13179.05
703.069	13232.6
703.415	13053.63
703.76	13054.53
704.105	13066.96
704.45	13060.86
704.795	12925.72
705.14	12893.63
705.485	12825.84
705.83	12854.08
706.175	12766.18
706.52	12847.98
706.865	12765.05
707.209	12756.91
707.554	12662.45
707.899	12620.42
708.243	12531.61
708.588	12542.68
708.932	12456.58
709.277	12569.34
709.621	12476.24
709.966	12395.79
710.31	12457.71
710.654	12318.73
710.998	12360.31
711.342	12410.7
711.687	12237.15
712.031	12214.33
712.375	12208.9
712.719	12217.72
713.063	12194.89
713.407	12276.92
713.75	12087.32
714.094	12116.25
714.438	12067.44
714.782	12080.32
715.125	11988.57
715.469	12038.06
715.812	12022.01
716.156	11876.26
716.499	11964.61
716.843	11997.61
717.186	11835.13
717.53	11934.33
717.873	11803.49
718.216	11782.02
718.559	11786.54
718.902	11782.25
719.246	11734.11
719.589	11756.94
719.932	11653.21
720.275	11620.44
720.617	11646.21
720.96	11632.87
721.303	11604.4
721.646	11654.34
721.989	11542.48
722.331	11680.33
722.674	11493.67
723.016	11536.83
723.359	11543.61
723.701	11547
724.044	11460.67
724.386	11388.13
724.729	11495.7
725.071	11458.19
725.413	11429.04
725.755	11456.61
726.097	11355.59
726.439	11314.46
726.782	11353.33
727.124	11436.72
727.465	11275.82
727.807	11443.05
728.149	11379.55
728.491	11367.34
728.833	11357.17
729.175	11363.27
729.516	11319.89
729.858	11373.22
730.199	11328.25
730.541	11320.56
730.882	11367.57
731.224	11364.18
731.565	11246.44
731.906	11319.89
732.248	11334.12
732.589	11282.15
732.93	11178.19
733.271	11283.95
733.612	11291.86
733.953	11292.54
734.294	11219.78
734.635	11242.83
734.976	11283.95
735.317	11288.02
735.658	11246.89
735.999	11271.75
736.339	11289.6
736.68	11309.49
737.021	11294.58
737.361	11330.51
737.702	11332.32
738.042	11297.97
738.383	11310.62
738.723	11343.61
739.063	11295.03
739.404	11439.88
739.744	11366.21
740.084	11332.54
740.424	11357.17
740.764	11269.27
741.104	11435.82
741.444	11352.43
741.784	11342.94
742.124	11434.91
742.464	11358.76
742.804	11359.21
743.143	11458.64
743.483	11387.23
743.823	11514.46
744.162	11477.85
744.502	11550.16
744.841	11507.68
745.181	11613.89
745.52	11565.08
745.86	11669.26
746.199	11711.29
746.538	11725.98
746.877	11808.01
747.216	11803.04
747.556	11842.36
747.895	11956.25
748.234	11882.36
748.573	12000.32
748.911	12075.35
749.25	12099.53
749.589	12106.76
749.928	12279.41
750.267	12367.54
750.605	12320.76
750.944	12386.52
751.283	12439.18
751.621	12560.31
751.96	12637.14
752.298	12746.29
752.636	12743.58
752.975	12878.72
753.313	12991.93
753.651	13156.9
753.989	13203.23
754.327	13288.2
754.666	13394.86
755.004	13494.52
755.342	13703.55
755.679	13762.53
756.017	13881.4
756.355	14031
756.693	14138.12
757.031	14328.85
757.368	14355.06
757.706	14485.45
758.044	14553.47
758.381	14786.01
758.719	14924.08
759.056	15083.85
