Data from hue_260_FLMS001491_00081.txt Node
Date: Tue Feb 07 15:59:42 GMT 2017
User: dcchb
Spectrometer: FLMS00149
Trigger mode: 0
Integration Time (sec): 2.000000E-2
Scans to average: 10
Electric dark correction enabled: true
Nonlinearity correction enabled: false
Boxcar width: 0
XAxis mode: Wavelengths
Number of Pixels in Spectrum: 2048
>>>>>Begin Spectral Data<<<<<
341.393	-21.93
341.776	-21.93
342.16	-21.93
342.543	-51.99
342.927	-57.87
343.31	-88.37
343.693	-60.8
344.077	-59.67
344.46	-53.35
344.843	-64.42
345.226	-60.58
345.61	-26.68
345.993	-14.03
346.376	-13.12
346.759	13.32
347.142	37.95
347.525	27.56
347.908	70.49
348.291	64.62
348.674	102.36
349.057	124.73
349.44	124.5
349.823	133.99
350.206	154.11
350.588	197.04
350.971	200.88
351.354	221.22
351.737	247.66
352.119	262.35
352.502	260.32
352.884	251.96
353.267	277.49
353.65	288.34
354.032	303.25
354.414	303.93
354.797	289.7
355.179	310.71
355.562	314.1
355.944	299.64
356.326	329.24
356.709	323.59
357.091	320.2
357.473	326.76
357.855	319.75
358.238	328.56
358.62	334.89
359.002	329.24
359.384	337.6
359.766	334.67
360.148	332.63
360.53	325.85
360.912	331.5
361.294	324.27
361.676	331.95
362.057	321.79
362.439	332.86
362.821	318.4
363.203	316.81
363.584	315.68
363.966	304.84
364.348	307.77
364.729	325.85
365.111	320.43
365.493	306.19
365.874	309.81
366.256	285.85
366.637	301.22
367.019	310.03
367.4	300.09
367.781	295.12
368.163	292.18
368.544	300.32
368.925	308.68
369.306	314.55
369.688	301.67
370.069	293.99
370.45	308
370.831	299.19
371.212	305.06
371.593	314.55
371.974	314.55
372.355	310.03
372.736	297.83
373.117	304.84
373.498	309.81
373.879	315.23
374.26	312.07
374.641	294.89
375.021	317.27
375.402	308
375.783	300.32
376.163	316.59
376.544	316.14
376.925	330.15
377.305	314.55
377.686	311.16
378.066	301.45
378.447	322.92
378.827	325.18
379.208	305.74
379.588	331.05
379.968	324.27
380.349	309.13
380.729	325.4
381.109	329.92
381.489	337.38
381.87	331.5
382.25	315.23
382.63	316.81
383.01	338.51
383.39	342.8
383.77	357.04
384.15	338.06
384.53	344.61
384.91	345.74
385.29	318.17
385.67	335.12
386.049	339.41
386.429	325.63
386.809	345.97
387.189	349.36
387.568	356.36
387.948	348.9
388.328	356.13
388.707	369.47
389.087	345.51
389.466	351.84
389.846	348.68
390.225	355.91
390.605	381.22
390.984	353.2
391.363	353.2
391.743	363.82
392.122	354.33
392.501	362.01
392.881	361.56
393.26	369.69
393.639	386.42
394.018	378.28
394.397	371.5
394.776	392.07
395.155	372.41
395.534	391.84
395.913	380.99
396.292	390.26
396.671	379.64
397.05	390.94
397.429	405.17
397.808	392.07
398.186	388.68
398.565	402.24
398.944	403.14
399.323	404.95
399.701	398.17
400.08	390.26
400.458	416.92
400.837	437.26
401.215	407.66
401.594	418.96
401.972	411.27
402.351	408.11
402.729	428
403.107	428.68
403.486	427.09
403.864	421.22
404.242	428.68
404.62	435.45
404.999	445.17
405.377	457.37
405.755	457.37
406.133	461.22
406.511	452.86
406.889	471.16
407.267	455.34
407.645	466.41
408.023	489.92
408.401	460.76
408.779	486.07
409.156	508.22
409.534	482.91
409.912	499.18
410.29	518.62
410.667	523.36
411.045	526.98
411.422	513.19
411.8	547.77
412.178	550.03
412.555	555.45
412.933	542.12
413.31	550.03
413.687	575.56
414.065	560.65
414.442	572.85
414.819	579.41
415.197	582.8
415.574	586.19
415.951	613.3
416.328	608.11
416.705	616.92
417.082	624.38
417.46	627.99
417.837	641.32
418.214	642.68
418.591	658.05
418.967	652.85
419.344	667.31
419.721	664.83
420.098	670.25
420.475	675.67
420.852	704.83
421.228	716.58
421.605	696.92
421.982	730.59
422.358	741.21
422.735	763.58
423.111	765.84
423.488	775.11
423.864	763.58
424.241	787.31
424.617	797.25
424.994	811.72
425.37	805.16
425.746	826.63
426.123	823.02
426.499	869.34
426.875	869.79
427.251	853.97
427.627	885.16
428.003	880.87
428.379	899.17
428.756	898.72
429.132	909.57
429.507	921.32
429.883	917.02
430.259	956.34
430.635	961.99
431.011	965.16
431.387	973.07
431.763	988.89
432.138	1001.54
432.514	1021.65
432.89	1020.07
433.265	1079.05
433.641	1079.05
434.016	1078.38
434.392	1092.84
434.767	1154.31
435.143	1148.66
435.518	1159.05
435.894	1163.35
436.269	1203.34
436.644	1191.82
437.02	1231.14
437.395	1255.32
437.77	1265.04
438.145	1293.74
438.52	1306.84
438.895	1314.75
439.271	1314.53
439.646	1341.87
440.021	1363.79
440.395	1395.88
440.77	1400.85
441.145	1396.11
441.52	1429.78
441.895	1434.98
442.27	1447.63
442.645	1455.09
443.019	1433.39
443.394	1485.37
443.769	1494.41
444.143	1498.7
444.518	1534.86
444.892	1517.01
445.267	1532.15
445.641	1577.8
446.016	1548.42
446.39	1576.67
446.764	1579.61
447.139	1553.39
447.513	1596.78
447.887	1598.36
448.262	1612.82
448.636	1627.97
449.01	1635.88
449.384	1691.01
449.758	1682.2
450.132	1653.95
450.506	1711.13
450.88	1709.32
451.254	1731.24
451.628	1727.62
452.002	1774.85
452.376	1762.88
452.75	1792.71
453.123	1815.08
453.497	1821.41
453.871	1820.95
454.244	1862.31
454.618	1868.19
454.992	1877
455.365	1894.63
455.739	1931.91
456.112	1966.71
456.486	1898.47
456.859	1985.02
457.232	2012.59
457.606	1998.13
457.979	2048.75
458.352	2088.07
458.725	2074.28
459.099	2090.78
459.472	2162.64
459.845	2146.14
460.218	2182.98
460.591	2199.25
460.964	2210.1
461.337	2248.51
461.71	2302.07
462.083	2293.48
462.456	2298.91
462.829	2320.6
463.201	2328.96
463.574	2370.32
463.947	2355.18
464.32	2432.69
464.692	2469.3
465.065	2489.64
465.438	2512.24
465.81	2531.22
466.183	2549.07
466.555	2620.48
466.928	2643.31
467.3	2603.76
467.672	2673.81
468.045	2718.56
468.417	2712.68
468.789	2794.49
469.161	2756.75
469.534	2813.02
469.906	2888.27
470.278	2871.55
470.65	2905.45
471.022	2985.67
471.394	2986.35
471.766	3036.29
472.138	3079
472.51	3111.99
472.882	3136.63
473.253	3163.97
473.625	3211.2
473.997	3270.41
474.369	3271.54
474.74	3322.16
475.112	3369.39
475.484	3409.16
475.855	3458.88
476.227	3480.35
476.598	3549.27
476.97	3627.01
477.341	3673.79
477.713	3715.14
478.084	3715.37
478.455	3815.03
478.827	3857.74
479.198	3978.86
479.569	3972.31
479.94	4029.48
480.311	4079.65
480.682	4145.41
481.053	4220.44
481.424	4229.03
481.795	4316.03
482.166	4346.54
482.537	4399.87
482.908	4488.68
483.279	4479.42
483.65	4589.47
484.021	4708.34
484.391	4708.34
484.762	4735.68
485.133	4783.59
485.503	4831.95
485.874	4883.47
486.244	4975.45
486.615	5079.4
486.985	5078.5
487.356	5143.35
487.726	5187.65
488.097	5273.07
488.467	5305.61
488.837	5382.9
489.207	5441.88
489.578	5486.62
489.948	5535.43
490.318	5584.47
490.688	5607.07
491.058	5703.34
491.428	5732.26
491.798	5786.27
492.168	5853.84
492.538	5896.55
492.908	5993.73
493.278	6037.12
493.648	6038.92
494.017	6093.84
494.387	6106.27
494.757	6131.58
495.126	6265.81
495.496	6267.17
495.866	6234.17
496.235	6309.65
496.605	6339.71
496.974	6379.93
497.344	6452.47
497.713	6494.5
498.082	6505.8
498.452	6578.57
498.821	6576.76
499.19	6603.43
499.559	6671
499.928	6655.86
500.298	6705.35
500.667	6726.36
501.036	6706.7
501.405	6823.99
501.774	6820.6
502.143	6871.9
502.512	6880.71
502.88	6890.2
503.249	6936.98
503.618	6943.98
503.987	6958
504.356	6981.05
504.724	7002.97
505.093	7004.32
505.462	7057.88
505.83	7059.46
506.199	7092
506.567	7137.43
506.936	7132.91
507.304	7207.48
507.672	7230.76
508.041	7197.08
508.409	7265.56
508.777	7294.48
509.145	7349.62
509.514	7345.56
509.882	7377.64
510.25	7336.52
510.618	7419.68
510.986	7478.66
511.354	7421.26
511.722	7523.86
512.09	7578.09
512.458	7533.12
512.826	7570.18
513.193	7570.63
513.561	7560.47
513.929	7677.52
514.297	7735.83
514.664	7647.69
515.032	7703.51
515.4	7724.75
515.767	7788.48
516.135	7740.35
516.502	7696.28
516.869	7823.06
517.237	7770.4
517.604	7760.69
517.972	7856.95
518.339	7835.71
518.706	7847.01
519.073	7821.48
519.44	7872.1
519.808	7962.94
520.175	7857.41
520.542	7985.99
520.909	7995.48
521.276	7977.86
521.643	8002.71
522.009	8035.25
522.376	8084.07
522.743	8105.08
523.11	8094.91
523.477	8193.89
523.843	8171.75
524.21	8249.03
524.577	8189.6
524.943	8234.12
525.31	8244.51
525.676	8346.21
526.043	8295.81
526.409	8334.46
526.776	8429.59
527.142	8374.23
527.508	8411.29
527.874	8412.65
528.241	8494.45
528.607	8465.75
528.973	8486.09
529.339	8439.76
529.705	8488.35
530.071	8505.52
530.437	8565.64
530.803	8540.1
531.169	8562.47
531.535	8531.74
531.901	8558.18
532.267	8532.19
532.632	8564.96
532.998	8538.52
533.364	8568.8
533.73	8601.12
534.095	8665.29
534.461	8636.14
534.826	8618.29
535.192	8636.82
535.557	8689.47
535.923	8533.32
536.288	8714.78
536.653	8597.95
537.019	8544.62
537.384	8629.36
537.749	8615.8
538.114	8632.53
538.479	8678.4
538.845	8630.95
539.21	8642.02
539.575	8584.62
539.94	8626.2
540.305	8675.92
540.67	8684.73
541.034	8635.92
541.399	8660.1
541.764	8709.81
542.129	8631.4
542.494	8620.32
542.858	8664.62
543.223	8520.89
543.587	8586.88
543.952	8560.21
544.316	8669.36
544.681	8600.66
545.045	8560.21
545.41	8616.71
545.774	8576.26
546.138	8637.27
546.503	8591.62
546.867	8593.43
547.231	8624.84
547.595	8591.17
547.959	8562.25
548.324	8571.51
548.688	8573.09
549.052	8564.05
549.416	8558.4
549.779	8573.09
550.143	8590.95
550.507	8621.68
550.871	8577.84
551.235	8521.57
551.599	8543.94
551.962	8602.25
552.326	8512.08
552.689	8604.73
553.053	8599.99
553.417	8553.21
553.78	8623.94
554.143	8558.63
554.507	8577.16
554.87	8567.9
555.234	8676.14
555.597	8598.63
555.96	8580.1
556.323	8601.79
556.686	8656.03
557.05	8642.47
557.413	8598.18
557.776	8657.84
558.139	8616.48
558.502	8698.97
558.865	8673.88
559.228	8631.85
559.59	8731.96
559.953	8665.52
560.316	8792.07
560.679	8725.86
561.041	8750.94
561.404	8804.27
561.767	8807.21
562.129	8762.47
562.492	8864.39
562.854	8852.18
563.217	8825.52
563.579	8868.23
563.941	8924.95
564.304	8964.04
564.666	8920.43
565.028	8951.16
565.39	8903.25
565.753	9006.75
566.115	9010.14
566.477	9022.57
566.839	9022.8
567.201	9093.08
567.563	9138.73
567.925	9144.83
568.287	9129.01
568.648	9131.27
569.01	9228.67
569.372	9229.12
569.734	9242.68
570.095	9286.75
570.457	9232.74
570.819	9337.82
571.18	9257.37
571.542	9387.99
571.903	9376.91
572.265	9318.38
572.626	9387.99
572.987	9344.82
573.349	9383.47
573.71	9480.41
574.071	9488.32
574.432	9514.76
574.794	9579.17
575.155	9555.67
575.516	9540.53
575.877	9598.83
576.238	9622.56
576.599	9656.46
576.96	9628.89
577.32	9739.16
577.681	9689
578.042	9750.01
578.403	9728.54
578.763	9760.41
579.124	9768.77
579.485	9792.95
579.845	9826.85
580.206	9803.57
580.566	9839.28
580.927	9864.13
581.287	9873.17
581.648	9879.73
582.008	9956.11
582.368	9964.7
582.728	9960.18
583.089	9953.17
583.449	9968.09
583.809	9954.75
584.169	10049.89
584.529	10003.56
584.889	10086.73
585.249	10046.73
585.609	10015.09
585.969	10100.51
586.329	10034.3
586.688	10096.9
587.048	10137.8
587.408	10079.95
587.768	10076.11
588.127	10099.16
588.487	10119.27
588.846	10212.37
589.206	10154.3
589.565	10211.02
589.925	10212.37
590.284	10224.58
590.643	10204.46
591.003	10223.67
591.362	10336.21
591.721	10248.3
592.08	10269.09
592.44	10261.18
592.799	10314.29
593.158	10316.55
593.517	10317.23
593.876	10293.73
594.235	10351.13
594.593	10341.86
594.952	10346.61
595.311	10325.14
595.67	10351.35
596.029	10425.7
596.387	10397.45
596.746	10443.33
597.104	10350.45
597.463	10438.58
597.822	10436.77
598.18	10376.44
598.538	10407.62
598.897	10443.55
599.255	10386.15
599.613	10472.03
599.972	10456.89
600.33	10500.05
600.688	10553.83
601.046	10503.66
601.404	10520.84
601.762	10511.12
602.12	10562.19
602.478	10549.09
602.836	10609.42
603.194	10579.37
603.552	10587.28
603.91	10577.33
604.268	10555.64
604.625	10491.24
604.983	10651.68
605.341	10477
605.698	10564.91
606.056	10646.71
606.413	10652.59
606.771	10571.01
607.128	10582.53
607.485	10534.17
607.843	10524.23
608.2	10635.64
608.557	10675.41
608.914	10623.21
609.272	10683.09
609.629	10724.45
609.986	10750.66
610.343	10606.49
610.7	10827.5
611.057	10687.61
611.414	10742.53
611.771	10745.92
612.127	10810.78
612.484	10753.38
612.841	10805.35
613.198	10727.84
613.554	10719.25
613.911	10839.02
614.267	10786.37
614.624	10792.7
614.98	10745.47
615.337	10857.1
615.693	10831.57
616.05	10843.32
616.406	10891.22
616.762	10783.88
617.118	10894.61
617.475	10894.84
617.831	10895.52
618.187	10866.37
618.543	10956.08
618.899	10947.27
619.255	10918.57
619.611	11049.41
619.967	10928.74
620.323	11046.93
620.678	10946.82
621.034	10933.26
621.39	10930.55
621.746	10940.94
622.101	11060.26
622.457	10989.3
622.812	10938.91
623.168	11009.64
623.523	10994.5
623.879	10985.23
624.234	10974.39
624.589	10980.71
624.945	10977.1
625.3	10999.47
625.655	10956.08
626.01	10952.69
626.365	10977.55
626.72	10996.98
627.075	10978
627.43	10949.53
627.785	10985.91
628.14	10921.28
628.495	10967.83
628.85	10920.83
629.205	10911.56
629.559	10945.23
629.914	10884.22
630.269	10839.93
630.623	10821.62
630.978	10819.14
631.332	10904.33
631.687	10881.73
632.041	10827.72
632.396	10864.56
632.75	10786.59
633.104	10811.68
633.459	10816.2
633.813	10795.63
634.167	10765.13
634.521	10710.44
634.875	10817.33
635.229	10722.87
635.583	10684.68
635.937	10714.05
636.291	10668.86
636.645	10726.94
636.999	10590.22
637.352	10659.59
637.706	10670.89
638.06	10643.55
638.413	10617.33
638.767	10516.77
639.121	10620.05
639.474	10564.68
639.828	10516.32
640.181	10627.96
640.534	10534.62
640.888	10493.5
641.241	10505.47
641.594	10493.72
641.947	10552.48
642.301	10470.67
642.654	10523.1
643.007	10515.64
643.36	10505.47
643.713	10439.71
644.066	10462.31
644.419	10433.84
644.771	10393.38
645.124	10271.58
645.477	10271.81
645.83	10246.95
646.182	10161.3
646.535	10152.49
646.888	10157.91
647.24	10031.13
647.593	10161.53
647.945	10096.67
648.298	10025.71
648.65	9948.42
649.002	9995.2
649.355	10093.51
649.707	10089.89
650.059	10171.02
650.411	10239.26
650.763	10224.12
651.115	10340.96
651.467	10270.68
651.819	10315.19
652.171	10249.89
652.523	10239.49
652.875	10222.99
653.227	10229.55
653.578	10330.11
653.93	10316.1
654.282	10260.51
654.633	10280.85
654.985	10245.14
655.337	10194.07
655.688	10199.72
656.039	10298.02
656.391	10205.59
656.742	10163.56
657.094	10261.41
657.445	10272.71
657.796	10241.52
658.147	10213.28
658.498	10163.79
658.849	10260.96
659.2	10208.76
659.551	10200.17
659.902	10265.7
660.253	10253.28
660.604	10264.12
660.955	10283.56
661.306	10237.23
661.656	10246.5
662.007	10251.69
662.358	10211.69
662.708	10249.21
663.059	10267.29
663.409	10211.47
663.76	10266.38
664.11	10371.01
664.461	10276.33
664.811	10285.82
665.161	10221.41
665.511	10241.3
665.862	10281.52
666.212	10257.8
666.562	10300.73
666.912	10220.73
667.262	10207.4
667.612	10239.49
667.962	10271.13
668.312	10145.03
668.662	10231.36
669.011	10231.36
669.361	10177.8
669.711	10180.28
670.06	10193.39
670.41	10129.44
670.76	10122.43
671.109	10209.66
671.459	10159.27
671.808	10171.24
672.157	10242.65
672.507	10070.68
672.856	10086.05
673.205	10068.65
673.554	10112.49
673.904	10082.21
674.253	10114.75
674.602	10154.97
674.951	9994.07
675.3	9900.97
675.649	10090.79
675.998	10035.43
676.346	10004.24
676.695	10107.74
677.044	10066.84
677.393	10059.38
677.741	10091.02
678.09	9965.37
678.438	9959.05
678.787	9939.61
679.135	9925.15
679.484	9956.33
679.832	9962.66
680.181	9886.28
680.529	9891.03
680.877	9922.89
681.225	9879.27
681.573	9985.94
681.922	9873.17
682.27	9834.3
682.618	9816.68
682.966	9800.86
683.314	9830.69
683.661	9832.72
684.009	9755.89
684.357	9697.13
684.705	9664.59
685.053	9733.06
685.4	9732.61
685.748	9618.49
686.095	9683.8
686.443	9608.32
686.79	9556.8
687.138	9660.3
687.485	9572.16
687.832	9479.96
688.18	9575.55
688.527	9504.37
688.874	9450.36
689.221	9434.77
689.568	9443.81
689.915	9409.68
690.262	9416.01
690.609	9304.15
690.956	9252.17
691.303	9209.46
691.65	9229.8
691.997	9258.27
692.344	9200.65
692.69	9141.21
693.037	9171.95
693.383	9066.87
693.73	9100.76
694.077	8982.35
694.423	9070.26
694.769	9009.92
695.116	8989.13
695.462	9022.12
695.808	8933.31
696.155	8905.51
696.501	8824.39
696.847	8836.59
697.193	8807.89
697.539	8769.47
697.885	8683.83
698.231	8672.3
698.577	8710.49
698.923	8692.64
699.269	8624.17
699.614	8583.04
699.96	8494.45
700.306	8583.71
700.651	8544.39
700.997	8471.18
701.342	8461.91
701.688	8392.31
702.033	8429.82
702.379	8380.33
702.724	8394.79
703.069	8405.87
703.415	8288.36
703.76	8287.68
704.105	8315.93
704.45	8247.45
704.795	8251.97
705.14	8245.87
705.485	8181.01
705.83	8139.43
706.175	8124.29
706.52	8106.67
706.865	8082.71
707.209	8006.1
707.554	8011.75
707.899	7982.37
708.243	7964.3
708.588	8003.17
708.932	7894.24
709.277	7915.03
709.621	7919.55
709.966	7878.87
710.31	7920.46
710.654	7732.66
710.998	7744.19
711.342	7744.42
711.687	7750.29
712.031	7727.92
712.375	7730.4
712.719	7715.94
713.063	7713.23
713.407	7674.81
713.75	7626.45
714.094	7681.37
714.438	7674.59
714.782	7619.45
715.125	7618.77
715.469	7602.05
715.812	7565.21
716.156	7566.79
716.499	7550.97
716.843	7546.45
717.186	7505.33
717.53	7509.84
717.873	7558.66
718.216	7465.78
718.559	7439.34
718.902	7432.33
719.246	7480.47
719.589	7383.29
719.932	7365.67
720.275	7435.72
720.617	7378.1
720.96	7346.23
721.303	7360.7
721.646	7368.15
721.989	7364.54
722.331	7403.86
722.674	7296.29
723.016	7369.51
723.359	7304.2
723.701	7298.33
724.044	7226.01
724.386	7234.82
724.729	7312.79
725.071	7247.25
725.413	7290.64
725.755	7238.44
726.097	7253.58
726.439	7148.5
726.782	7214.03
727.124	7266.24
727.465	7189.63
727.807	7219.68
728.149	7189.63
728.491	7159.57
728.833	7188.5
729.175	7159.12
729.516	7131.32
729.858	7106.92
730.199	7141.04
730.541	7125.22
730.882	7115.96
731.224	7153.02
731.565	7167.03
731.906	7155.28
732.248	7127.93
732.589	7137.88
732.93	7114.6
733.271	7101.49
733.612	7183.53
733.953	7161.15
734.294	7098.1
734.635	7084.55
734.976	7177.65
735.317	7141.72
735.658	7072.57
735.999	7105.56
736.339	7126.13
736.68	7168.84
737.021	7083.87
737.361	7102.85
737.702	7135.17
738.042	7098.78
738.383	7101.72
738.723	7101.04
739.063	7092.91
739.404	7175.39
739.744	7188.27
740.084	7107.82
740.424	7179.01
740.764	7119.57
741.104	7203.41
741.444	7207.48
741.784	7141.72
742.124	7225.11
742.464	7219.01
742.804	7223.07
743.143	7209.06
743.483	7252.9
743.823	7214.94
744.162	7331.77
744.502	7266.24
744.841	7256.07
745.181	7352.33
745.52	7324.09
745.86	7387.14
746.199	7335.61
746.538	7385.55
746.877	7404.99
747.216	7444.76
747.556	7520.24
747.895	7543.29
748.234	7533.35
748.573	7609.05
748.911	7691.99
749.25	7663.97
749.589	7681.59
749.928	7785.77
750.267	7878.2
750.605	7910.96
750.944	7958.65
751.283	7929.72
751.621	8015.37
751.96	8066.44
752.298	8175.59
752.636	8196.61
752.975	8232.54
753.313	8296.26
753.651	8431.85
753.989	8524.96
754.327	8536.03
754.666	8663.03
755.004	8760.43
755.342	8745.52
755.679	8978.28
756.017	8970.82
756.355	9081.33
756.693	9197.94
757.031	9405.61
757.368	9445.39
757.706	9541.43
758.044	9648.32
758.381	9724.7
758.719	9830.24
759.056	10043.11
759.394	10024.81
759.731	10222.99
760.068	10319.71
760.405	10398.13
760.743	10545.25
761.08	10701.85
761.417	10806.48
761.754	10917.44
762.091	10998.34
762.428	11113.37
762.765	11329.18
763.102	11441.27
763.438	11571.88
763.775	11702.73
