Data from hue_36_FLMS001491_00091.txt Node
Date: Tue Feb 07 17:30:32 GMT 2017
User: dcchb
Spectrometer: FLMS00149
Trigger mode: 0
Integration Time (sec): 2.000000E-2
Scans to average: 10
Electric dark correction enabled: true
Nonlinearity correction enabled: false
Boxcar width: 0
XAxis mode: Wavelengths
Number of Pixels in Spectrum: 2048
>>>>>Begin Spectral Data<<<<<
341.393	-31.57
341.776	-31.57
342.16	-31.57
342.543	-70.89
342.927	-89.42
343.31	-58.23
343.693	-67.72
344.077	-81.28
344.46	-64.79
344.843	-79.48
345.226	-29.76
345.61	-21.17
345.993	-20.49
346.376	-8.29
346.759	6.62
347.142	50.69
347.525	41.43
347.908	54.08
348.291	61.99
348.674	107.86
349.057	108.54
349.44	108.32
349.823	139.5
350.206	156.22
350.588	189.44
350.971	201.42
351.354	222.89
351.737	254.53
352.119	247.07
352.502	262.89
352.884	292.04
353.267	266.5
353.65	299.05
354.032	295.2
354.414	311.02
354.797	311.93
355.179	329.55
355.562	313.73
355.944	342.43
356.326	312.6
356.709	318.48
357.091	348.31
357.473	332.72
357.855	342.21
358.238	346.05
358.62	333.17
359.002	341.76
359.384	315.77
359.766	359.84
360.148	326.62
360.53	322.1
360.912	346.28
361.294	333.85
361.676	330.68
362.057	340.17
362.439	337.46
362.821	335.43
363.203	330.91
363.584	309.44
363.966	334.75
364.348	310.57
364.729	327.75
365.111	322.32
365.493	328.88
365.874	306.96
366.256	324.13
366.637	310.34
367.019	294.98
367.4	316.22
367.781	325.26
368.163	293.62
368.544	321.87
368.925	313.96
369.306	305.83
369.688	304.92
370.069	309.44
370.45	297.46
370.831	304.02
371.212	303.34
371.593	323.23
371.974	307.18
372.355	319.61
372.736	304.47
373.117	338.14
373.498	313.73
373.879	326.39
374.26	306.28
374.641	331.14
375.021	304.02
375.402	322.32
375.783	318.25
376.163	349.67
376.544	310.8
376.925	301.98
377.305	306.73
377.686	318.93
378.066	324.13
378.447	328.88
378.827	319.61
379.208	311.25
379.588	334.07
379.968	318.03
380.349	310.34
380.729	315.77
381.109	317.8
381.489	307.41
381.87	326.62
382.25	325.94
382.63	364.81
383.01	339.95
383.39	331.81
383.77	340.4
384.15	344.92
384.53	357.35
384.91	354.41
385.29	347.86
385.67	349.21
386.049	354.64
386.429	363.68
386.809	365.03
387.189	330.46
387.568	340.4
387.948	344.47
388.328	358.48
388.707	347.86
389.087	354.41
389.466	348.99
389.846	353.51
390.225	352.38
390.605	361.42
390.984	349.67
391.363	380.17
391.743	364.13
392.122	375.43
392.501	365.94
392.881	376.11
393.26	360.51
393.639	348.08
394.018	367.29
394.397	376.56
394.776	362.77
395.155	388.99
395.534	353.96
395.913	364.81
396.292	399.16
396.671	378.14
397.05	384.24
397.429	374.52
397.808	354.64
398.186	362.09
398.565	369.33
398.944	399.16
399.323	389.66
399.701	371.13
400.08	390.34
400.458	379.04
400.837	388.76
401.215	388.76
401.594	417.91
401.972	398.25
402.351	397.8
402.729	401.87
403.107	375.2
403.486	391.7
403.864	384.92
404.242	416.78
404.62	399.61
404.999	426.27
405.377	390.79
405.755	422.66
406.133	418.36
406.511	414.75
406.889	436.67
407.267	415.88
407.645	424.24
408.023	406.16
408.401	440.74
408.779	431.25
409.156	445.48
409.534	432.15
409.912	435.09
410.29	446.84
410.667	445.93
411.045	435.77
411.422	442.77
411.8	452.04
412.178	450.68
412.555	457.69
412.933	485.03
413.31	451.58
413.687	468.76
414.065	452.26
414.442	460.62
414.819	467.63
415.197	466.27
415.574	471.47
415.951	480.28
416.328	482.32
416.705	487.06
417.082	504.01
417.46	476.67
417.837	505.59
418.214	486.84
418.591	505.14
418.967	494.97
419.344	511.7
419.721	489.78
420.098	518.93
420.475	519.6
420.852	492.94
421.228	515.99
421.605	545.82
421.982	508.98
422.358	533.39
422.735	531.81
423.111	530.68
423.488	542.2
423.864	525.03
424.241	538.59
424.617	524.8
424.994	548.76
425.37	547.4
425.746	542.43
426.123	561.64
426.499	567.51
426.875	556.67
427.251	551.92
427.627	552.15
428.003	575.2
428.379	600.96
428.756	578.13
429.132	580.17
429.507	568.64
429.883	592.37
430.259	617.91
430.635	621.52
431.011	610
431.387	602.31
431.763	637.79
432.138	619.94
432.514	641.41
432.89	652.26
433.265	650.45
433.641	629.66
434.016	663.33
434.392	654.97
434.767	639.15
435.143	658.58
435.518	664.91
435.894	670.56
436.269	648.42
436.644	694.74
437.02	700.17
437.395	677.79
437.77	721.41
438.145	720.5
438.52	723.67
438.895	732.03
439.271	715.31
439.646	723.22
440.021	750.56
440.395	727.96
440.77	744.01
441.145	743.78
441.52	754.4
441.895	742.42
442.27	744.46
442.645	735.19
443.019	742.88
443.394	762.08
443.769	761.86
444.143	766.6
444.518	767.96
444.892	785.81
445.267	783.78
445.641	777.68
446.016	799.82
446.39	775.87
446.764	787.39
447.139	805.02
447.513	790.11
447.887	831.01
448.262	812.03
448.636	835.08
449.01	803.89
449.384	798.92
449.758	806.38
450.132	853.38
450.506	833.5
450.88	846.6
451.254	850.9
451.628	861.74
452.002	872.14
452.376	885.47
452.75	867.62
453.123	877.56
453.497	878.01
453.871	909.88
454.244	911.91
454.618	920.72
454.992	940.16
455.365	923.89
455.739	927.96
456.112	941.51
456.486	943.77
456.859	980.38
457.232	993.26
457.606	983.77
457.979	996.65
458.352	1017.9
458.725	1011.12
459.099	1023.09
459.472	1040.5
459.845	1057.67
460.218	1049.53
460.591	1062.64
460.964	1075.07
461.337	1094.96
461.71	1113.26
462.083	1109.65
462.456	1145.13
462.829	1140.38
463.201	1139.25
463.574	1188.29
463.947	1175.86
464.32	1185.8
464.692	1222.86
465.065	1194.84
465.438	1227.61
465.81	1231.68
466.183	1261.28
466.555	1280.94
466.928	1304.44
467.3	1304.9
467.672	1334.5
468.045	1348.96
468.417	1367.72
468.789	1357.55
469.161	1380.37
469.534	1429.64
469.906	1461.5
470.278	1447.72
470.65	1459.69
471.022	1536.98
471.394	1565.68
471.766	1559.8
472.138	1586.47
472.51	1597.54
472.882	1646.58
473.253	1683.42
473.625	1689.52
473.997	1731.1
474.369	1750.76
474.74	1785.11
475.112	1846.12
475.484	1887.03
475.855	1923.18
476.227	1940.36
476.598	1985.78
476.97	2057.64
477.341	2064.2
477.713	2162.5
478.084	2167.47
478.455	2187.36
478.827	2273.01
479.198	2341.48
479.569	2393.45
479.94	2459.67
480.311	2512.55
480.682	2574.01
481.053	2638.87
481.424	2711.86
481.795	2754.35
482.166	2816.04
482.537	2877.51
482.908	2955.47
483.279	3014.23
483.65	3108.24
484.021	3194.11
484.391	3289.48
484.762	3369.93
485.133	3421.9
485.503	3456.93
485.874	3613.31
486.244	3679.75
486.615	3807.43
486.985	3828.22
487.356	3973.53
487.726	3989.34
488.097	4110.02
488.467	4204.71
488.837	4339.39
489.207	4390.46
489.578	4500.97
489.948	4603.57
490.318	4693.51
490.688	4746.16
491.058	4853.05
491.428	4969.43
491.798	5049.43
492.168	5232.7
492.538	5272.47
492.908	5347.95
493.278	5423.88
493.648	5527.16
494.017	5624.33
494.387	5723.31
494.757	5804.66
495.126	5933.02
495.496	5992.91
495.866	6096.18
496.235	6177.54
496.605	6284.2
496.974	6323.97
497.344	6396.74
497.713	6512.89
498.082	6598.32
498.452	6659.33
498.821	6745.2
499.19	6803.73
499.559	6922.37
499.928	6990.4
500.298	7017.06
500.667	7193.55
501.036	7239.2
501.405	7256.6
501.774	7315.58
502.143	7413.21
502.512	7482.81
502.88	7591.51
503.249	7625.41
503.618	7673.54
503.987	7759.64
504.356	7897.49
504.724	7956.02
505.093	7951.73
505.462	8071.95
505.83	8130.7
506.199	8198.05
506.567	8260.42
506.936	8312.39
507.304	8449.57
507.672	8471.03
508.041	8552.61
508.409	8605.72
508.777	8699.28
509.145	8785.83
509.514	8762.55
509.882	8834.41
510.25	8943.79
510.618	8935.43
510.986	9032.15
511.354	9100.4
511.722	9185.14
512.09	9247.51
512.458	9276.89
512.826	9366.38
513.193	9388.07
513.561	9456.77
513.929	9541.51
514.297	9624.9
514.664	9678.69
515.032	9749.64
515.4	9823.99
515.767	9816.99
516.135	9887.72
516.502	9901.73
516.869	10099.01
517.237	10041.16
517.604	10085.91
517.972	10183.98
518.339	10160.26
518.706	10266.02
519.073	10278.22
519.44	10377.65
519.808	10424.2
520.175	10437.31
520.542	10624.42
520.909	10662.16
521.276	10638.21
521.643	10777.87
522.009	10768.6
522.376	10875.49
522.743	10905.77
523.11	10991.87
523.477	11106.67
523.843	11114.13
524.21	11319.1
524.577	11350.96
524.943	11358.19
525.31	11397.29
525.676	11527
526.043	11603.61
526.409	11668.92
526.776	11739.87
527.142	11809.48
527.508	11868.46
527.874	11934.9
528.241	12011.28
528.607	12042.92
528.973	12145.74
529.339	12222.12
529.705	12347.77
530.071	12329.69
530.437	12393.64
530.803	12468.67
531.169	12576.69
531.535	12586.41
531.901	12671.15
532.267	12718.61
532.632	12747.76
532.998	12800.86
533.364	12940.07
533.73	12953.4
534.095	13065.26
534.461	13063
534.826	13127.64
535.192	13104.36
535.557	13246.28
535.923	13252.6
536.288	13361.08
536.653	13386.16
537.019	13343
537.384	13460.06
537.749	13592.48
538.114	13528.53
538.479	13653.5
538.845	13684.68
539.21	13763.78
539.575	13744.34
539.94	13897.33
540.305	13969.65
540.67	13909.08
541.034	13965.13
541.399	14058.23
541.764	14081.28
542.129	14126.48
542.494	14175.74
542.858	14297.1
543.223	14301.16
543.587	14340.94
543.952	14391.1
544.316	14425.23
544.681	14458.9
545.045	14588.39
545.41	14513.81
545.774	14701.15
546.138	14649.18
546.503	14768.27
546.867	14698.67
547.231	14866.57
547.595	14881.26
547.959	14946.57
548.324	15034.7
548.688	14961.49
549.052	15118.09
549.416	15134.81
549.779	15193.12
550.143	15200.35
550.507	15313.79
550.871	15430.63
551.235	15361.47
551.599	15515.59
551.962	15555.59
552.326	15536.84
552.689	15674.01
553.053	15652.99
553.417	15665.87
553.78	15770.28
554.143	15767.34
554.507	15867
554.87	15945.87
555.234	16042.81
555.597	16013.89
555.96	16082.81
556.323	16128.69
556.686	16153.32
557.05	16322.35
557.413	16256.82
557.776	16300.66
558.139	16425.63
558.502	16622.23
558.865	16560.09
559.228	16584.04
559.59	16634.21
559.953	16619.75
560.316	16836.01
560.679	16847.09
561.041	16902.68
561.404	16964.6
561.767	17136.12
562.129	17118.04
562.492	17245.49
562.854	17199.17
563.217	17316.68
563.579	17344.47
563.941	17488.65
564.304	17537.91
564.666	17638.48
565.028	17616.1
565.39	17524.58
565.753	17800.96
566.115	17805.25
566.477	17926.83
566.839	17887.74
567.201	18014.06
567.563	18028.98
567.925	18123.66
568.287	18263.09
568.648	18240.72
569.01	18360.49
569.372	18429.42
569.734	18554.61
570.095	18581.73
570.457	18597.1
570.819	18785.57
571.18	18758.45
571.542	18942.62
571.903	18935.62
572.265	19058.55
572.626	19172.9
572.987	19207.02
573.349	19248.38
573.71	19328.38
574.071	19408.37
574.432	19480.01
574.794	19720.46
575.155	19707.35
575.516	19732.66
575.877	19820.34
576.238	20002.03
576.599	20043.84
576.96	20232.53
577.32	20239.31
577.681	20458.29
578.042	20592.98
578.403	20630.26
578.763	20780.32
579.124	21023.02
579.485	21059.4
579.845	21203.81
580.206	21342.56
580.566	21481.54
580.927	21661.87
581.287	21870.46
581.648	21890.34
582.008	22125.14
582.368	22241.75
582.728	22496.65
583.089	22625.92
583.449	22737.33
583.809	22890.99
584.169	23120.14
584.529	23275.39
584.889	23559
585.249	23741.59
585.609	23828.82
585.969	24091.64
586.329	24261.81
586.688	24437.85
587.048	24727.1
587.408	24707.67
587.768	25091.16
588.127	25246.64
588.487	25472.62
588.846	25846.17
589.206	25857.24
589.565	26133.17
589.925	26402.77
590.284	26604.12
590.643	26710.78
591.003	27194.16
591.362	27377.43
591.721	27491.78
592.08	27746.69
592.44	28077.07
592.799	28245.88
593.158	28426.67
593.517	28751.86
593.876	28986.43
594.235	29115.01
594.593	29380.09
594.952	29668.67
595.311	29752.51
595.67	30005.61
596.029	30316.11
596.387	30572.83
596.746	30825.93
597.104	30943.66
597.463	31165.35
597.822	31386.36
598.18	31435.18
598.538	31701.16
598.897	32210.98
599.255	31953.35
599.613	32767.34
599.972	32598.54
600.33	32884.4
600.688	32973.21
601.046	33300.89
601.404	33583.14
601.762	33597.83
602.12	34092.06
602.478	34014.32
602.836	34391.48
603.194	34201.21
603.552	34616.34
603.91	34512.61
604.268	34912.82
604.625	35114.4
604.983	35105.14
605.341	35196.66
605.698	35591.68
606.056	35721.17
606.413	35848.17
606.771	36049.74
607.128	36357.08
607.485	36222.17
607.843	36318.66
608.2	36622.61
608.557	36935.6
608.914	36850.85
609.272	37252.2
609.629	37439.31
609.986	37629.36
610.343	37469.59
610.7	37887.66
611.057	37944.38
611.414	38125.85
611.771	38345.96
612.127	38567.64
612.484	38491.94
612.841	38675.44
613.198	38836.79
613.554	38854.42
613.911	39151.81
614.267	39109.55
614.624	39271.81
614.98	39548.64
615.337	39666.82
615.693	39573.95
616.05	39723.32
616.406	39931.68
616.762	39884.67
617.118	39891.23
617.475	40034.72
617.831	40230.88
618.187	40307.49
618.543	40388.39
618.899	40624.31
619.255	40556.97
619.611	40661.83
619.967	40945.21
620.323	40850.75
620.678	40640.13
621.034	40829.28
621.39	40947.92
621.746	40899.11
622.101	41392.88
622.457	41133
622.812	41329.83
623.168	41518.75
623.523	41448.02
623.879	41638.75
624.234	41480.79
624.589	41590.84
624.945	41840.78
625.3	41893.43
625.655	41796.71
626.01	41822.02
626.365	41820.89
626.72	41917.16
627.075	41963.49
627.43	41968.46
627.785	42035.8
628.14	42012.75
628.495	42049.81
628.85	42014.33
629.205	42016.82
629.559	42283.93
629.914	41959.42
630.269	42168.45
630.623	42143.82
630.978	41994.45
631.332	42329.13
631.687	42327.09
632.041	42117.16
632.396	42198.51
632.75	42091.85
633.104	42267.21
633.459	42100.21
633.813	42176.59
634.167	41963.71
634.521	42229.47
634.875	42150.15
635.229	42331.16
635.583	42077.16
635.937	42125.29
636.291	42083.71
636.645	42062.24
636.999	42201.22
637.352	42271.73
637.706	41881.46
638.06	42220.43
638.413	42160.09
638.767	41943.37
639.121	42008.01
639.474	41739.54
639.828	41851.17
640.181	42030.83
640.534	42007.1
640.888	41906.54
641.241	41782.93
641.594	41932.08
641.947	41848.01
642.301	41729.82
642.654	41846.2
643.007	41850.5
643.36	41870.83
643.713	41701.8
644.066	41878.74
644.419	41624.96
644.771	41330.74
645.124	40932.55
645.477	41026.56
645.83	40695.5
646.182	40693.46
646.535	40688.04
646.888	40646.46
647.24	40541.83
647.593	40757.64
647.945	40639.91
648.298	40491.44
648.65	40395.84
649.002	40332.57
649.355	40392
649.707	40356.52
650.059	40643.07
650.411	41112.89
650.763	41166.45
651.115	41373.22
651.467	41217.07
651.819	41297.97
652.171	41293.67
652.523	41155.37
652.875	41153.34
653.227	41013.46
653.578	41376.16
653.93	41183.39
654.282	41115.15
654.633	40918.77
654.985	40928.71
655.337	40914.02
655.688	41052.1
656.039	41240.12
656.391	40910.63
656.742	41005.77
657.094	40890.07
657.445	41140.91
657.796	41009.39
658.147	40933.46
658.498	40948.37
658.849	41025.43
659.2	41046.67
659.551	40856.17
659.902	41123.74
660.253	40941.37
660.604	41025.66
660.955	40889.16
661.306	40959.9
661.656	40857.75
662.007	40934.81
662.358	41046.9
662.708	40941.37
663.059	40906.34
663.409	40621.15
663.76	41008.03
664.11	40894.81
664.461	40902.95
664.811	40964.87
665.161	40898.43
665.511	40791.09
665.862	40745.89
666.212	40950.63
666.562	40772.33
666.912	40794.03
667.262	40632.9
667.612	40864.98
667.962	40669.96
668.312	40671.32
668.662	40781.15
669.011	40708.38
669.361	40665.22
669.711	40601.26
670.06	40538.67
670.41	40486.92
670.76	40551.09
671.109	40620.25
671.459	40414.83
671.808	40628.61
672.157	40660.7
672.507	40399.91
672.856	40385.68
673.205	40521.49
673.554	40577.08
673.904	40464.09
674.253	40767.36
674.602	40593.35
674.951	39931
675.3	39823.43
675.649	40384.55
675.998	40402.85
676.346	40398.56
676.695	40461.15
677.044	40001.28
677.393	40246.02
677.741	40218.67
678.09	40265.23
678.438	40028.17
678.787	40233.59
679.135	40219.13
679.484	39963.77
679.832	40176.19
680.181	39898.91
680.529	40046.93
680.877	39851.45
681.225	39846.48
681.573	40022.07
681.922	39738.91
682.27	39656.66
682.618	39757.67
682.966	39659.14
683.314	39689.2
683.661	39553.15
684.009	39348.19
684.357	39461.63
684.705	39231.58
685.053	39421.41
685.4	39270
685.748	39055.54
686.095	39156.33
686.443	39042.43
686.79	39039.72
687.138	39084.69
687.485	39117.46
687.832	38868.65
688.18	38967.41
688.527	38664.36
688.874	38690.35
689.221	38639.73
689.568	38407.87
689.915	38463.47
690.262	38484.71
690.609	38226.41
690.956	38144.38
691.303	38275.67
691.65	37903.48
691.997	38044.72
692.344	37877.94
692.69	37701.45
693.037	37701.45
693.383	37479.31
693.73	37587.78
694.077	37425.08
694.423	37396.38
694.769	37155.7
695.116	37249.94
695.462	37149.38
695.808	37016.5
696.155	37103.73
696.501	36801.81
696.847	36804.3
697.193	36655.83
697.539	36711.2
697.885	36473.46
698.231	36362.05
698.577	36367.25
698.923	36325.9
699.269	36106.69
699.614	36023.98
699.96	35875.51
700.306	35948.73
700.651	35771.33
700.997	35637.33
701.342	35663.77
701.688	35662.41
702.033	35536.31
702.379	35618.8
702.724	35351.46
703.069	35458.57
703.415	35125.25
703.76	35032.37
704.105	35009.55
704.45	35083.44
704.795	34825.6
705.14	34701.98
705.485	34619.5
705.83	34448.2
706.175	34471.71
706.52	34472.84
706.865	34328.43
707.209	34316.91
707.554	34299.73
707.899	34248.21
708.243	34014.77
708.588	34005.28
708.932	33675.12
709.277	33789.69
709.621	33784.04
709.966	33582.46
710.31	33666.3
710.654	33502.69
710.998	33493.2
711.342	33576.36
711.687	33361
712.031	33269.25
712.375	33173.44
712.719	33061.8
713.063	33027.45
713.407	33219.76
713.75	32911.75
714.094	33023.84
714.438	32783.62
714.782	32796.5
715.125	32653.45
715.469	32819.55
715.812	32521.7
716.156	32426.79
716.499	32537.29
716.843	32493.91
717.186	32406.9
717.53	32404.42
717.873	32314.48
718.216	32348.6
718.559	31936.41
718.902	31919.01
719.246	32189.96
719.589	31999.68
719.932	31821.61
720.275	31836.75
720.617	31733.7
720.96	31731.21
721.303	31716.52
721.646	31669.52
721.989	31548.85
722.331	31622.52
722.674	31547.26
723.016	31503.42
723.359	31391.56
723.701	31408.51
724.044	31296.42
724.386	31090.33
724.729	31212.13
725.071	31101.4
725.413	31214.39
725.755	31034.96
726.097	30951.57
726.439	30841.97
726.782	30804.01
727.124	30971.69
727.465	30747.28
727.807	30748.64
728.149	30608.53
728.491	30674.74
728.833	30766.49
729.175	30583.9
729.516	30482.88
729.858	30583
730.199	30449.89
730.541	30463.9
730.882	30382.77
731.224	30341.19
731.565	30262.55
731.906	30260.97
732.248	30263.68
732.589	30062.56
732.93	30039.51
733.271	30075.44
733.612	30053.07
733.953	30055.55
734.294	29921.77
734.635	29683.36
734.976	29898.49
735.317	29648.56
735.658	29712.28
735.999	29817.14
736.339	29707.76
736.68	29798.16
737.021	29638.61
737.361	29409.69
737.702	29723.58
738.042	29345.06
738.383	29479.75
738.723	29504.38
739.063	29355.68
739.404	29405.4
739.744	29258.06
740.084	29246.76
740.424	29239.3
740.764	29152.3
741.104	29241.11
741.444	29096.71
741.784	29021.45
742.124	29022.81
742.464	28979.2
742.804	28894.23
743.143	28834.79
743.483	28785.08
743.823	28789.14
744.162	28718.64
744.502	28669.37
744.841	28551.18
745.181	28705.53
745.52	28577.85
745.86	28578.53
746.199	28523.39
746.538	28479.32
746.877	28484.75
747.216	28384.18
747.556	28459.21
747.895	28337.86
748.234	28109.39
748.573	28291.76
748.911	28100.57
749.25	28071.65
749.589	27995.49
749.928	28032.55
750.267	28142.16
750.605	27956.17
750.944	27796.4
751.283	27741.26
751.621	27907.36
751.96	27623.53
752.298	27803.18
752.636	27755.5
752.975	27609.74
753.313	27565
753.651	27648.38
753.989	27501.49
754.327	27394.15
754.666	27262.4
755.004	27281.61
755.342	27241.61
755.679	27238.45
756.017	27104.89
756.355	27089.3
756.693	27071
757.031	27082.75
757.368	26870.78
757.706	26849.31
