Data from hue_70_FLMS001491_77.txt Node
Date: Mon Feb 06 15:21:25 GMT 2017
User: dcchb
Spectrometer: FLMS00149
Trigger mode: 0
Integration Time (sec): 2.000000E-2
Scans to average: 10
Electric dark correction enabled: true
Nonlinearity correction enabled: false
Boxcar width: 0
XAxis mode: Wavelengths
Number of Pixels in Spectrum: 2048
>>>>>Begin Spectral Data<<<<<
341.393	-26.4
341.776	-26.4
342.16	-26.4
342.543	-57.58
342.927	-69.56
343.31	-61.65
343.693	-77.7
344.077	-64.14
344.46	-72.27
344.843	-57.81
345.226	-17.81
345.61	-42.44
345.993	-16.45
346.376	-0.86
346.759	15.86
347.142	27.39
347.525	51.79
347.908	52.92
348.291	85.01
348.674	81.4
349.057	96.76
349.44	118.01
349.823	130.89
350.206	153.71
350.588	192.58
350.971	203.43
351.354	209.98
351.737	242.97
352.119	250.21
352.502	274.39
352.884	276.42
353.267	288.4
353.65	293.14
354.032	301.96
354.414	299.47
354.797	310.32
355.179	320.49
355.562	320.03
355.944	322.97
356.326	308.28
356.709	332.01
357.091	316.19
357.473	328.17
357.855	316.87
358.238	333.82
358.62	339.47
359.002	336.76
359.384	321.16
359.766	349.64
360.148	334.72
360.53	317.55
360.912	346.47
361.294	352.58
361.676	342.86
362.057	347.83
362.439	341.5
362.821	322.52
363.203	323.65
363.584	317.77
363.966	324.78
364.348	319.58
364.729	325.01
365.111	331.11
365.493	303.76
365.874	291.11
366.256	310.32
366.637	330.88
367.019	298.79
367.4	306.93
367.781	292.46
368.163	307.15
368.544	338.79
368.925	294.27
369.306	319.13
369.688	299.02
370.069	300.6
370.45	307.38
370.831	305.35
371.212	323.65
371.593	319.81
371.974	314.38
372.355	314.61
372.736	322.75
373.117	320.49
373.498	317.77
373.879	324.55
374.26	300.15
374.641	312.8
375.021	296.08
375.402	313.71
375.783	316.19
376.163	307.38
376.544	310.32
376.925	333.82
377.305	310.54
377.686	333.37
378.066	312.8
378.447	321.84
378.827	316.42
379.208	323.65
379.588	318.68
379.968	339.24
380.349	315.06
380.729	320.03
381.109	322.97
381.489	334.27
381.87	318.23
382.25	329.98
382.63	301.05
383.01	334.5
383.39	334.04
383.77	343.99
384.15	341.95
384.53	328.17
384.91	322.97
385.29	338.11
385.67	336.76
386.049	332.69
386.429	355.51
386.809	357.55
387.189	332.01
387.568	361.16
387.948	333.59
388.328	335.17
388.707	350.32
389.087	348.96
389.466	360.26
389.846	375.85
390.225	358.45
390.605	358.68
390.984	346.47
391.363	332.69
391.743	356.64
392.122	348.96
392.501	351.45
392.881	358.45
393.26	360.48
393.639	370.43
394.018	373.37
394.397	364.1
394.776	360.94
395.155	361.61
395.534	352.35
395.913	377.66
396.292	384.21
396.671	352.12
397.05	393.25
397.429	365.68
397.808	371.78
398.186	368.17
398.565	370.65
398.944	374.95
399.323	379.69
399.701	384.67
400.08	363.65
400.458	390.77
400.837	374.95
401.215	400.48
401.594	382.18
401.972	389.64
402.351	359.81
402.729	384.21
403.107	386.92
403.486	398.68
403.864	403.65
404.242	400.94
404.62	396.87
404.999	416.53
405.377	389.86
405.755	402.74
406.133	392.12
406.511	409.3
406.889	404.1
407.267	414.04
407.645	431.44
408.023	415.4
408.401	409.07
408.779	411.56
409.156	423.76
409.534	433.25
409.912	411.33
410.29	437.32
410.667	438.9
411.045	437.77
411.422	420.82
411.8	446.58
412.178	453.36
412.555	447.49
412.933	433.48
413.31	452.23
413.687	446.81
414.065	488.62
414.442	454.27
414.819	459.24
415.197	459.24
415.574	457.66
415.951	467.37
416.328	463.76
416.705	477.32
417.082	502.63
417.46	470.76
417.837	494.72
418.214	465.79
418.591	486.36
418.967	482.97
419.344	483.87
419.721	492.01
420.098	506.24
420.475	488.84
420.852	501.72
421.228	494.94
421.605	520.48
421.982	492.91
422.358	505.34
422.735	492.01
423.111	509.63
423.488	506.24
423.864	508.73
424.241	513.48
424.617	531.1
424.994	506.02
425.37	538.79
425.746	511.89
426.123	524.1
426.499	514.61
426.875	528.16
427.251	571.78
427.627	535.17
428.003	545.34
428.379	544.89
428.756	564.1
429.132	536.75
429.507	577.2
429.883	565
430.259	566.13
430.635	570.87
431.011	567.71
431.387	598.9
431.763	583.53
432.138	599.35
432.514	595.96
432.89	621.49
433.265	617.88
433.641	615.62
434.016	605.45
434.392	612.46
434.767	634.38
435.143	632.34
435.518	612.23
435.894	646.58
436.269	653.58
436.644	655.17
437.02	642.74
437.395	646.81
437.77	672.34
438.145	697.43
438.52	665.34
438.895	674.83
439.271	704.2
439.646	660.59
440.021	698.78
440.395	673.92
440.77	692.23
441.145	692
441.52	700.59
441.895	717.09
442.27	711.66
442.645	707.37
443.019	720.7
443.394	728.84
443.769	727.03
444.143	733.13
444.518	737.65
444.892	717.31
445.267	734.71
445.641	742.62
446.016	765.22
446.39	743.98
446.764	782.39
447.139	769.06
447.513	771.1
447.887	736.97
448.262	773.81
448.636	782.39
449.01	774.26
449.384	767.03
449.758	792.34
450.132	823.52
450.506	797.99
450.88	799.12
451.254	825.33
451.628	826.69
452.002	821.49
452.376	831.43
452.75	852.22
453.123	851.32
453.497	849.51
453.871	863.3
454.244	863.3
454.618	887.02
454.992	881.83
455.365	898.32
455.739	920.24
456.112	922.28
456.486	925.44
456.859	931.09
457.232	927.25
457.606	924.76
457.979	940.58
458.352	951.43
458.725	980.13
459.099	1002.5
459.472	958.21
459.845	981.94
460.218	1042.5
460.591	1000.02
460.964	1022.16
461.337	1040.47
461.71	1065.78
462.083	1074.14
462.456	1100.35
462.829	1098.77
463.201	1125.89
463.574	1100.8
463.947	1123.85
464.32	1142.39
464.692	1187.36
465.065	1177.41
465.438	1177.41
465.81	1178.54
466.183	1237.52
466.555	1247.69
466.928	1263.96
467.3	1251.53
467.672	1286.79
468.045	1286.34
468.417	1348.93
468.789	1333.57
469.161	1350.06
469.534	1362.94
469.906	1423.06
470.278	1428.71
470.65	1451.53
471.022	1503.28
471.394	1535.6
471.766	1531.3
472.138	1558.19
472.51	1598.42
472.882	1661.69
473.253	1684.29
473.625	1731.3
473.997	1733.1
474.369	1782.59
474.74	1817.17
475.112	1857.17
475.484	1876.6
475.855	1915.25
476.227	1950.5
476.598	2033.21
476.97	2070.27
477.341	2133.77
477.713	2183.49
478.084	2219.19
478.455	2270.72
478.827	2350.72
479.198	2466.19
479.569	2447.21
479.94	2549.35
480.311	2606.75
480.682	2702.8
481.053	2795.68
481.424	2871.38
481.795	2979.4
482.166	2998.38
482.537	3076.35
482.908	3176
483.279	3249.9
483.65	3382.55
484.021	3474.3
484.391	3528.76
484.762	3663
485.133	3724.69
485.503	3832.48
485.874	3946.83
486.244	4061.18
486.615	4158.13
486.985	4243.55
487.356	4418.68
487.726	4541.62
488.097	4661.84
488.467	4755.17
488.837	4871.1
489.207	5029.06
489.578	5197.42
489.948	5193.58
490.318	5377.3
490.688	5490.75
491.058	5653.68
491.428	5788.59
491.798	5930.06
492.168	6107.45
492.538	6218.18
492.908	6325.98
493.278	6461.79
493.648	6598.29
494.017	6748.79
494.387	6906.3
494.757	7098.84
495.126	7195.56
495.496	7308.78
495.866	7379.51
496.235	7561.65
496.605	7716.22
496.974	7837.58
497.344	8005.48
497.713	8101.75
498.082	8259.94
498.452	8391.46
498.821	8498.35
499.19	8637.1
499.559	8777.66
499.928	8876.19
500.298	8986.02
500.667	9142.63
501.036	9226.01
501.405	9381.49
501.774	9454.26
502.143	9654.25
502.512	9748.26
502.88	9892.89
503.249	9949.39
503.618	10103.96
503.987	10215.37
504.356	10321.58
504.724	10480.44
505.093	10592.98
505.462	10682.7
505.83	10750.49
506.199	10912.07
506.567	11191.61
506.936	11075.68
507.304	11344.6
507.672	11355
508.041	11381.89
508.409	11637.7
508.777	11642.9
509.145	11810.35
509.514	11884.02
509.882	11994.08
510.25	12138.25
510.618	12188.42
510.986	12340.73
511.354	12466.16
511.722	12554.29
512.09	12677.45
512.458	12717.22
512.826	12825.92
513.193	12889.87
513.561	12949.31
513.929	13081.51
514.297	13187.04
514.664	13341.16
515.032	13298.9
515.4	13489.86
515.767	13596.3
516.135	13725.11
516.502	13734.6
516.869	13932.78
517.237	14004.65
517.604	13930.98
517.972	14127.58
518.339	14282.38
518.706	14235.37
519.073	14320.12
519.44	14540
519.808	14549.94
520.175	14661.35
520.542	14830.61
520.909	14885.98
521.276	14856.6
521.643	15038.07
522.009	15231.51
522.376	15236.03
522.743	15285.97
523.11	15477.15
523.477	15586.07
523.843	15630.14
524.21	15744.26
524.577	15840.3
524.943	15933.86
525.31	15890.47
525.676	16127.75
526.043	16103.12
526.409	16254.3
526.776	16442.32
527.142	16453.4
527.508	16588.53
527.874	16680.28
528.241	16720.51
528.607	16729.55
528.973	16822.42
529.339	16894.97
529.705	16984.45
530.071	17135.19
530.437	17158.24
530.803	17308.74
531.169	17252.7
531.535	17368.85
531.901	17365.69
532.267	17437.32
532.632	17566.81
532.998	17489.3
533.364	17625.57
533.73	17650.65
534.095	17758.9
534.461	17738.33
534.826	17903.75
535.192	17842.29
535.557	18018.78
535.923	17923.41
536.288	17981.04
536.653	18026.24
537.019	18039.57
537.384	18103.07
537.749	18159.56
538.114	18216.06
538.479	18067.59
538.845	18213.12
539.21	18142.39
539.575	18211.54
539.94	18281.14
540.305	18360.92
540.67	18251.31
541.034	18266.91
541.399	18407.47
541.764	18328.83
542.129	18471.65
542.494	18439.11
542.858	18522.95
543.223	18388.49
543.587	18648.37
543.952	18572.44
544.316	18621.93
544.681	18519.1
545.045	18668.93
545.41	18708.7
545.774	18676.61
546.138	18737.85
546.503	18679.1
546.867	18755.48
547.231	18830.73
547.595	18769.49
547.959	18773.11
548.324	18783.5
548.688	18762.49
549.052	18859.89
549.416	18858.3
549.779	18881.58
550.143	18896.27
550.507	18981.69
550.871	18846.78
551.235	19032.76
551.599	19110.95
551.962	19043.38
552.326	19117.51
552.689	19118.64
553.053	19032.99
553.417	19124.51
553.78	19324.51
554.143	19132.42
554.507	19266.2
554.87	19328.12
555.234	19377.84
555.597	19265.52
555.96	19411.96
556.323	19379.19
556.686	19319.99
557.05	19539.42
557.413	19487.21
557.776	19520.21
558.139	19730.37
558.502	19644.72
558.865	19726.53
559.228	19716.59
559.59	19865.73
559.953	19932.63
560.316	19978.95
560.679	19975.11
561.041	19991.83
561.404	20087.88
561.767	20284.48
562.129	20160.42
562.492	20324.25
562.854	20274.31
563.217	20327.19
563.579	20364.03
563.941	20415.1
564.304	20507.07
564.666	20623.45
565.028	20505.27
565.39	20619.16
565.753	20827.52
566.115	20703.45
566.477	20853.05
566.839	20990.45
567.201	20995.87
567.563	21001.98
567.925	21129.43
568.287	21149.54
568.648	21007.85
569.01	21312.93
569.372	21255.98
569.734	21199.26
570.095	21444
570.457	21298.47
570.819	21454.17
571.18	21448.52
571.542	21575.52
571.903	21586.14
572.265	21712.92
572.626	21799.24
572.987	21800.83
573.349	21721.51
573.71	21853.25
574.071	21927.83
574.432	21932.35
574.794	22085.11
575.155	22147.71
575.516	22018.67
575.877	22080.59
576.238	22109.29
576.599	22140.93
576.96	22254.82
577.32	22157.43
577.681	22226.12
578.042	22233.13
578.403	22313.13
578.763	22306.8
579.124	22297.76
579.485	22396.29
579.845	22375.05
580.206	22396.29
580.566	22484.42
580.927	22374.6
581.287	22403.07
581.648	22424.09
582.008	22465.89
582.368	22520.81
582.728	22479.9
583.089	22507.7
583.449	22519.22
583.809	22543.18
584.169	22540.47
584.529	22522.16
584.889	22691.2
585.249	22490.52
585.609	22593.57
585.969	22640.35
586.329	22558.32
586.688	22520.35
587.048	22584.76
587.408	22614.14
587.768	22588.37
588.127	22446.46
588.487	22485.78
588.846	22638.09
589.206	22382.73
589.565	22520.35
589.925	22728.03
590.284	22522.61
590.643	22628.37
591.003	22577.3
591.362	22650.07
591.721	22634.48
592.08	22653.68
592.44	22656.85
592.799	22541.6
593.158	22524.42
593.517	22539.56
593.876	22562.39
594.235	22592.89
594.593	22585.66
594.952	22584.31
595.311	22474.71
595.67	22563.29
596.029	22724.42
596.387	22630.86
596.746	22717.19
597.104	22684.19
597.463	22541.14
597.822	22704.08
598.18	22588.6
598.538	22588.37
598.897	22659.11
599.255	22570.3
599.613	22878.76
599.972	22689.62
600.33	22809.39
600.688	22811.87
601.046	22813.45
601.404	22984.97
601.762	22770.52
602.12	22848.48
602.478	22894.36
602.836	22898.2
603.194	22773.45
603.552	22889.61
603.91	22774.13
604.268	22842.61
604.625	22884.64
604.983	23034.92
605.341	22856.62
605.698	22951.3
606.056	22970.96
606.413	22984.52
606.771	22997.63
607.128	23003.51
607.485	22966.9
607.843	23057.74
608.2	23096.38
608.557	23205.31
608.914	23082.83
609.272	23263.39
609.629	23194.23
609.986	23302.71
610.343	23243.05
610.7	23381.35
611.057	23304.74
611.414	23283.27
611.771	23412.53
612.127	23409.14
612.484	23347.68
612.841	23539.31
613.198	23430.39
613.554	23543.15
613.911	23577.05
614.267	23525.75
614.624	23574.79
614.98	23633.77
615.337	23756.25
615.693	23733.2
616.05	23682.81
616.406	23855.46
616.762	23699.53
617.118	23682.36
617.475	23688.69
617.831	23869.47
618.187	23879.19
618.543	23860.66
618.899	23956.25
619.255	23863.37
619.611	23958.28
619.967	23966.42
620.323	24048.9
620.678	24041.67
621.034	23855.23
621.39	23916.93
621.746	23955.34
622.101	24245.73
622.457	24066.3
622.812	24139.29
623.168	24145.4
623.523	24177.26
623.879	24184.04
624.234	23939.07
624.589	24231.5
624.945	24217.71
625.3	24192.4
625.655	24245.28
626.01	24167.32
626.365	24286.64
626.72	24194.21
627.075	24246.64
627.43	24135.9
627.785	24068.34
628.14	24163.25
628.495	24181.33
628.85	24052.74
629.205	24010.71
629.559	24264.26
629.914	24095.68
630.269	24164.6
630.623	24025.63
630.978	24108.34
631.332	24142.91
631.687	24301.32
632.041	24016.81
632.396	24075.79
632.75	24054.33
633.104	24113.08
633.459	23974.78
633.813	23933.65
634.167	23909.24
634.521	23860.21
634.875	23962.12
635.229	23906.98
635.583	23826.53
635.937	23834.22
636.291	23842.81
636.645	23840.09
636.999	23780.43
637.352	23860.43
637.706	23772.98
638.06	23816.14
638.413	23796.93
638.767	23674.45
639.121	23684.39
639.474	23544.73
639.828	23619.99
640.181	23622.7
640.534	23630.38
640.888	23597.61
641.241	23483.94
641.594	23459.31
641.947	23551.51
642.301	23580.67
642.654	23555.13
643.007	23427.22
643.36	23601
643.713	23477.84
644.066	23497.28
644.419	23321.46
644.771	23256.83
645.124	23081.02
645.477	23045.09
645.83	22836.96
646.182	22724.19
646.535	22797.18
646.888	22702.04
647.24	22562.61
647.593	22702.04
647.945	22709.28
648.298	22671.76
648.65	22604.87
649.002	22484.42
649.355	22714.25
649.707	22613.23
650.059	22736.17
650.411	22893
650.763	22876.28
651.115	23286.66
651.467	23112.65
651.819	23172.31
652.171	23128.25
652.523	23096.38
652.875	23098.64
653.227	22939.78
653.578	23153.33
653.93	23129.6
654.282	22959.21
654.633	22926.22
654.985	23037.4
655.337	23116.5
655.688	22969.38
656.039	23114.69
656.391	22864.07
656.742	22996.73
657.094	22942.26
657.445	23068.59
657.796	22969.83
658.147	23014.8
658.498	23000.12
658.849	23034.46
659.2	23040.34
659.551	22929.61
659.902	23003.05
660.253	22967.57
660.604	23065.65
660.955	22858.65
661.306	23005.09
661.656	22941.59
662.007	22987.91
662.358	23014.8
662.708	22935.48
663.059	22984.75
663.409	22725.09
663.76	23024.07
664.11	22947.01
664.461	22968.25
664.811	23020.23
665.161	22936.61
665.511	22866.56
665.862	22983.17
666.212	22955.15
666.562	23099.55
666.912	22854.36
667.262	22933.68
667.612	23008.02
667.962	22959.89
668.312	22934.13
668.662	23063.16
669.011	22932.32
669.361	23018.87
669.711	22885.32
670.06	22890.06
670.41	22831.31
670.76	22777.75
671.109	22980.23
671.459	22930.96
671.808	22777.97
672.157	22821.59
672.507	22768.94
672.856	22817.07
673.205	22817.07
673.554	22794.02
673.904	22857.75
674.253	22830.85
674.602	22680.12
674.951	22482.39
675.3	22373.01
675.649	22769.84
675.998	22660.24
676.346	22753.79
676.695	22884.86
677.044	22672.67
677.393	22576.4
677.741	22637.41
678.09	22543.18
678.438	22493.91
678.787	22608.94
679.135	22645.1
679.484	22381.6
679.832	22532.78
680.181	22397.87
680.529	22479.23
680.877	22333.47
681.225	22387.02
681.573	22466.34
681.922	22245.11
682.27	22189.29
682.618	22171.44
682.966	22180.7
683.314	22272.68
683.661	22044.43
684.009	22026.36
684.357	22043.08
684.705	21983.42
685.053	21992.01
685.4	21860.94
685.748	21748.4
686.095	21799.02
686.443	21727.38
686.79	21766.48
687.138	21701.84
687.485	21722.64
687.832	21487.39
688.18	21674.5
688.527	21446.71
688.874	21429.54
689.221	21382.76
689.568	21361.51
689.915	21234.51
690.262	21239.03
690.609	21140.5
690.956	21188.86
691.303	21143.89
691.65	21145.93
691.997	21053.95
692.344	20907.97
692.69	20826.16
693.037	20896.67
693.383	20689.67
693.73	20794.07
694.077	20686.28
694.423	20601.53
694.769	20495.32
695.116	20442.22
695.462	20502.78
695.808	20441.76
696.155	20418.71
696.501	20238.61
696.847	20279.06
697.193	20093.3
697.539	20143.92
697.885	20074.99
698.231	19934.43
698.577	19905.06
698.923	19872.74
699.269	19745.51
699.614	19664.84
699.96	19627.55
700.306	19561.79
700.651	19595.91
700.997	19414.22
701.342	19423.26
701.688	19332.19
702.033	19293.55
702.379	19370.38
702.724	19214.45
703.069	19257.62
703.415	18993.22
703.76	19029.6
704.105	19005.87
704.45	18940.11
704.795	18726.78
705.14	18795.71
705.485	18718.87
705.83	18651.53
706.175	18735.14
706.52	18615.82
706.865	18447.01
707.209	18511.87
707.554	18408.37
707.899	18498.31
708.243	18370.86
708.588	18343.97
708.932	18043.18
709.277	18207.25
709.621	18149.62
709.966	18063.3
710.31	18231.2
710.654	17932.9
710.998	18082.96
711.342	17985.11
711.687	17950.3
712.031	17803.64
712.375	17703.08
712.719	17822.85
713.063	17708.73
713.407	17809.97
713.75	17690.42
714.094	17710.76
714.438	17597.55
714.782	17553.93
715.125	17505.57
715.469	17495.85
715.812	17392.58
716.156	17348.96
716.499	17375.86
716.843	17467.61
717.186	17277.78
717.53	17349.42
717.873	17260.61
718.216	17257.67
718.559	17160.5
718.902	17028.07
719.246	17085.92
719.589	17090.21
719.932	17008.86
720.275	17038.69
720.617	16993.95
720.96	16981.97
721.303	16934.29
721.646	16976.09
721.989	16889.09
722.331	16989.43
722.674	16933.83
723.016	16852.93
723.359	16805.48
723.701	16827.85
724.044	16776.32
724.386	16599.83
724.729	16719.83
725.071	16636.67
725.413	16754.86
725.755	16678.25
726.097	16631.92
726.439	16506.05
726.782	16614.29
727.124	16604.58
727.465	16539.95
727.807	16440.97
728.149	16534.3
728.491	16541.75
728.833	16482.32
729.175	16434.19
729.516	16501.98
729.858	16437.58
730.199	16467.63
730.541	16374.3
730.882	16342.21
731.224	16409.33
731.565	16345.6
731.906	16308.77
732.248	16297.92
732.589	16247.75
732.93	16256.34
733.271	16326.39
733.612	16318.48
733.953	16236.68
734.294	16232.61
734.635	16214.08
734.976	16289.33
735.317	16187.87
735.658	16184.7
735.999	16186.74
736.339	16195.1
736.68	16238.94
737.021	16193.51
737.361	16110.81
737.702	16169.11
738.042	16208.66
738.383	16042.11
738.723	16151.03
739.063	16118.71
739.404	16116.68
739.744	16059.96
740.084	16042.33
740.424	16138.83
740.764	16071.03
741.104	16167.98
741.444	16136.79
741.784	16085.72
742.124	16183.12
742.464	16031.49
742.804	16095.89
743.143	16105.83
743.483	16135.21
743.823	16126.62
744.162	16175.89
744.502	16129.79
744.841	16198.71
745.181	16226.28
745.52	16246.62
745.86	16236.45
746.199	16227.41
746.538	16255.43
746.877	16336.34
747.216	16316.68
747.556	16306.05
747.895	16488.65
748.234	16398.48
748.573	16438.93
748.911	16487.52
749.25	16539.95
749.589	16527.29
749.928	16574.07
750.267	16615.42
750.605	16597.12
750.944	16703.11
751.283	16643.22
751.621	16745.36
751.96	16686.16
752.298	16902.42
752.636	16893.84
752.975	16818.36
753.313	16946.26
753.651	17001.86
753.989	17080.95
754.327	17148.07
754.666	17154.62
755.004	17239.82
755.342	17402.97
755.679	17292.24
756.017	17279.59
756.355	17528.85
756.693	17519.13
757.031	17632.8
