Data from hue_26_FLMS001491_00052.txt Node
Date: Tue Feb 07 17:14:11 GMT 2017
User: dcchb
Spectrometer: FLMS00149
Trigger mode: 0
Integration Time (sec): 2.000000E-2
Scans to average: 10
Electric dark correction enabled: true
Nonlinearity correction enabled: false
Boxcar width: 0
XAxis mode: Wavelengths
Number of Pixels in Spectrum: 2048
>>>>>Begin Spectral Data<<<<<
341.393	-28.93
341.776	-28.93
342.16	-28.93
342.543	-64.63
342.927	-61.69
343.31	-68.92
343.693	-65.76
344.077	-60.34
344.46	-59.21
344.843	-38.19
345.226	-35.71
345.61	-36.84
345.993	-22.82
346.376	-2.03
346.759	32.09
347.142	31.64
347.525	23.73
347.908	50.17
348.291	77.51
348.674	92.88
349.057	81.81
349.44	138.08
349.823	144.4
350.206	166.55
350.588	182.14
350.971	195.7
351.354	244.97
351.737	242.48
352.119	263.27
352.502	276.6
352.884	257.39
353.267	287
353.65	288.13
354.032	321.57
354.414	314.12
354.797	313.44
355.179	307.11
355.562	333.32
355.944	348.47
356.326	314.57
356.709	333.78
357.091	344.85
357.473	369.26
357.855	353.44
358.238	344.85
358.62	316.6
359.002	347.34
359.384	336.94
359.766	349.14
360.148	340.56
360.53	358.18
360.912	336.26
361.294	332.19
361.676	329.71
362.057	322.03
362.439	321.8
362.821	320.44
363.203	327.67
363.584	312.76
363.966	332.87
364.348	316.15
364.729	308.01
365.111	312.76
365.493	328.58
365.874	305.53
366.256	317.05
366.637	324.06
367.019	322.93
367.4	313.89
367.781	312.08
368.163	325.42
368.544	329.03
368.925	310.05
369.306	325.19
369.688	307.56
370.069	340.33
370.45	322.48
370.831	324.51
371.212	318.41
371.593	338.75
371.974	306.88
372.355	298.07
372.736	308.92
373.117	314.79
373.498	329.26
373.879	314.34
374.26	321.57
374.641	291.29
375.021	316.38
375.402	328.8
375.783	324.96
376.163	319.31
376.544	332.42
376.925	301.69
377.305	305.3
377.686	315.7
378.066	355.92
378.447	333.55
378.827	321.8
379.208	336.94
379.588	320.67
379.968	339.88
380.349	338.07
380.729	345.75
381.109	343.49
381.489	312.99
381.87	339.43
382.25	326.77
382.63	341.23
383.01	341.23
383.39	338.75
383.77	355.24
384.15	333.78
384.53	358.63
384.91	349.82
385.29	351.86
385.67	340.33
386.049	359.31
386.429	341.23
386.809	384.4
387.189	359.99
387.568	365.19
387.948	345.98
388.328	367.45
388.707	334.23
389.087	382.14
389.466	367.9
389.846	368.58
390.225	368.35
390.605	366.54
390.984	376.71
391.363	369.26
391.743	383.04
392.122	368.35
392.501	381.23
392.881	399.99
393.26	372.42
393.639	385.53
394.018	385.3
394.397	400.44
394.776	375.36
395.155	385.3
395.534	379.43
395.913	382.81
396.292	377.39
396.671	400.67
397.05	393.44
397.429	365.64
397.808	401.8
398.186	378.75
398.565	390.72
398.944	400.89
399.323	402.7
399.701	423.49
400.08	402.02
400.458	408.35
400.837	410.16
401.215	395.7
401.594	398.63
401.972	409.25
402.351	412.42
402.729	412.64
403.107	429.14
403.486	412.64
403.864	418.29
404.242	399.76
404.62	403.83
404.999	415.81
405.377	424.62
405.755	425.3
406.133	415.13
406.511	435.47
406.889	440.89
407.267	438.86
407.645	430.72
408.023	429.59
408.401	432.76
408.779	453.55
409.156	465.3
409.534	432.53
409.912	448.12
410.29	461.46
410.667	470.04
411.045	472.3
411.422	469.59
411.8	464.85
412.178	483.38
412.555	461.91
412.933	452.64
413.31	494.68
413.687	468.24
414.065	481.12
414.442	473.89
414.819	481.34
415.197	489.7
415.574	496.03
415.951	510.95
416.328	514.79
416.705	501.46
417.082	499.2
417.46	519.76
417.837	510.04
418.214	525.18
418.591	519.99
418.967	517.05
419.344	505.07
419.721	543.71
420.098	529.48
420.475	542.13
420.852	510.27
421.228	548.23
421.605	539.19
421.982	548.23
422.358	541.45
422.735	559.53
423.111	546.43
423.488	560.44
423.864	563.15
424.241	572.87
424.617	568.35
424.994	588.46
425.37	578.97
425.746	605.63
426.123	588.46
426.499	583.26
426.875	573.77
427.251	591.85
427.627	581.91
428.003	596.82
428.379	583.71
428.756	616.48
429.132	597.5
429.507	622.13
429.883	628.01
430.259	635.92
430.635	630.04
431.011	640.44
431.387	654.9
431.763	662.58
432.138	655.35
432.514	652.86
432.89	666.88
433.265	660.77
433.641	669.59
434.016	681.34
434.392	701.45
434.767	695.35
435.143	699.87
435.518	692.64
435.894	731.28
436.269	737.61
436.644	705.07
437.02	734.22
437.395	728.34
437.77	744.84
438.145	724.73
438.52	728.57
438.895	723.37
439.271	751.39
439.646	749.36
440.021	745.29
440.395	766.53
440.77	765.4
441.145	776.25
441.52	757.49
441.895	783.71
442.27	770.15
442.645	795.01
443.019	786.42
443.394	800.43
443.769	790.71
444.143	815.57
444.518	803.37
444.892	811.05
445.267	797.95
445.641	803.82
446.016	830.26
446.39	827.1
446.764	838.62
447.139	852.18
447.513	829.81
447.887	873.65
448.262	846.76
448.636	864.38
449.01	899.64
449.384	863.48
449.758	878.62
450.132	881.11
450.506	870.71
450.88	887.21
451.254	894.89
451.628	883.59
452.002	898.28
452.376	923.14
452.75	924.04
453.123	908.9
453.497	919.75
453.871	952.74
454.244	950.26
454.618	955.68
454.992	965.4
455.365	983.7
455.739	972.63
456.112	999.97
456.486	1040.88
456.859	1019.41
457.232	1026.64
457.606	1021.44
457.979	1030.71
458.352	1059.41
458.725	1080.65
459.099	1102.8
459.472	1115.68
459.845	1097.6
460.218	1089.01
460.591	1119.74
460.964	1102.12
461.337	1129.69
461.71	1160.42
462.083	1187.09
462.456	1206.97
462.829	1168.1
463.201	1180.08
463.574	1197.71
463.947	1220.08
464.32	1228.22
464.692	1232.74
465.065	1234.09
465.438	1295.33
465.81	1303.02
466.183	1300.76
466.555	1320.87
466.928	1330.59
467.3	1346.18
467.672	1383.24
468.045	1384.14
468.417	1387.31
468.789	1386.63
469.161	1434.99
469.534	1440.41
469.906	1496.01
470.278	1510.02
470.65	1494.65
471.022	1516.8
471.394	1531.03
471.766	1571.26
472.138	1584.14
472.51	1621.43
472.882	1627.75
473.253	1685.83
473.625	1686.96
473.997	1715.44
474.369	1736.68
474.74	1768.77
475.112	1812.38
475.484	1815.77
475.855	1864.81
476.227	1856
476.598	1866.62
476.97	1926.5
477.341	2005.6
477.713	2031.81
478.084	2059.61
478.455	2079.04
478.827	2145.48
479.198	2172.6
479.569	2195.87
479.94	2264.57
480.311	2295.08
480.682	2308.19
481.053	2379.6
481.424	2391.8
481.795	2456.43
482.166	2458.69
482.537	2540.27
482.908	2576.66
483.279	2635.18
483.65	2680.16
484.021	2716.09
484.391	2798.34
484.762	2825.01
485.133	2866.14
485.503	2878.12
485.874	2993.59
486.244	2975.51
486.615	3077.21
486.985	3126.47
487.356	3182.74
487.726	3233.59
488.097	3291.89
488.467	3327.82
488.837	3395.84
489.207	3433.81
489.578	3498.67
489.948	3536.63
490.318	3610.75
490.688	3612.33
491.058	3643.29
491.428	3754.7
491.798	3775.49
492.168	3892.55
492.538	3874.7
492.908	3921.93
493.278	4017.52
493.648	4001.93
494.017	4112.89
494.387	4133.68
494.757	4170.96
495.126	4224.52
495.496	4210.28
495.866	4283.73
496.235	4350.17
496.605	4378.64
496.974	4403.05
497.344	4449.6
497.713	4502.48
498.082	4530.73
498.452	4600.78
498.821	4588.58
499.19	4619.09
499.559	4706.09
499.928	4700.44
500.298	4721.01
500.667	4774.79
501.036	4812.08
501.405	4845.75
501.774	4824.51
502.143	4925.29
502.512	4885.75
502.88	4940.89
503.249	4968.46
503.618	5014.78
503.987	5049.13
504.356	5104.95
504.724	5121
505.093	5129.81
505.462	5145.63
505.83	5151.05
506.199	5196.93
506.567	5238.51
506.936	5274.66
507.304	5345.62
507.672	5376.58
508.041	5385.4
508.409	5419.29
508.777	5419.07
509.145	5491.38
509.514	5460.65
509.882	5476.92
510.25	5566.18
510.618	5586.07
510.986	5631.72
511.354	5596.46
511.722	5727.53
512.09	5677.36
512.458	5720.98
512.826	5772.5
513.193	5787.19
513.561	5755.78
513.929	5821.54
514.297	5890.69
514.664	5882.56
515.032	5880.75
515.4	5968.66
515.767	5938.15
516.135	6029.22
516.502	5933.4
516.869	6093.85
517.237	6037.13
517.604	6052.5
517.972	6101.53
518.339	6099.05
518.706	6148.31
519.073	6147.41
519.44	6183.34
519.808	6261.53
520.175	6246.16
520.542	6308.31
520.909	6394.63
521.276	6319.38
521.643	6381.3
522.009	6424.01
522.376	6395.31
522.743	6523.9
523.11	6495.65
523.477	6580.84
523.843	6661.07
524.21	6720.5
524.577	6694.97
524.943	6677.56
525.31	6786.49
525.676	6796.88
526.043	6834.62
526.409	6845.02
526.776	6916.43
527.142	6913.49
527.508	6962.3
527.874	6976.77
528.241	7050.44
528.607	7045.01
528.973	7107.84
529.339	7208.85
529.705	7218.57
530.071	7202.97
530.437	7268.51
530.803	7316.64
531.169	7302.63
531.535	7369.98
531.901	7360.48
532.267	7402.52
532.632	7455.4
532.998	7496.98
533.364	7612
533.73	7538.56
534.095	7543.53
534.461	7700.36
534.826	7646.58
535.192	7677.31
535.557	7765.45
535.923	7722.06
536.288	7798.66
536.653	7870.08
537.019	7805.44
537.384	7882.05
537.749	8008.83
538.114	7977.87
538.479	7948.27
538.845	8059
539.21	8045.21
539.575	8076.4
539.94	8094.7
540.305	8144.42
540.67	8218.09
541.034	8150.75
541.399	8268.03
541.764	8204.53
542.129	8270.52
542.494	8279.78
542.858	8360.46
543.223	8321.14
543.587	8371.31
543.952	8439.55
544.316	8388.71
544.681	8495.37
545.045	8511.64
545.41	8593.45
545.774	8584.18
546.138	8572.2
546.503	8629.15
546.867	8665.99
547.231	8729.71
547.595	8790.5
547.959	8794.8
548.324	8819.43
548.688	8821.24
549.052	8846.32
549.416	8918.86
549.779	8925.42
550.143	8946.66
550.507	8995.92
550.871	9033.89
551.235	9064.17
551.599	9133.55
551.962	9089.03
552.326	9127.67
552.689	9224.39
553.053	9136.71
553.417	9189.36
553.78	9266.42
554.143	9327.21
554.507	9317.27
554.87	9333.99
555.234	9441.79
555.597	9350.26
555.96	9423.03
556.323	9497.83
556.686	9457.38
557.05	9522.01
557.413	9498.51
557.776	9602.69
558.139	9643.59
558.502	9657.37
558.865	9671.16
559.228	9733.08
559.59	9782.57
559.953	9735.79
560.316	9853.98
560.679	9893.53
561.041	9990.92
561.404	10004.03
561.767	9999.74
562.129	9963.35
562.492	10054.42
562.854	10083.58
563.217	10097.14
563.579	10142.56
563.941	10165.16
564.304	10216.68
564.666	10214.87
565.028	10345.04
565.39	10319.95
565.753	10353.4
566.115	10426.39
566.477	10472.72
566.839	10469.1
567.201	10618.48
567.563	10523.11
567.925	10681.3
568.287	10564.47
568.648	10625.03
569.01	10696.89
569.372	10773.05
569.734	10787.51
570.095	10750.45
570.457	10993.84
570.819	10956.32
571.18	10868.87
571.542	11021.18
571.903	11086.04
572.265	11126.71
572.626	11137.33
572.987	11218.24
573.349	11290.78
573.71	11343.66
574.071	11325.35
574.432	11468.62
574.794	11547.27
575.155	11518.79
575.516	11493.71
575.877	11674.04
576.238	11686.7
576.599	11778.9
576.96	11919.91
577.32	11956.07
577.681	12103.41
578.042	12183.86
578.403	12286.91
578.763	12299.56
579.124	12478.77
579.485	12573.91
579.845	12713.34
580.206	12768.7
580.566	12914.91
580.927	12996.95
581.287	13157.62
581.648	13234.68
582.008	13394
582.368	13592.18
582.728	13760.77
583.089	13872.63
583.449	13999.86
583.809	14191.04
584.169	14381.32
584.529	14537.02
584.889	14857.01
585.249	14898.59
585.609	15126.38
585.969	15290.45
586.329	15538.12
586.688	15640.27
587.048	15940.6
587.408	16088.62
587.768	16321.15
588.127	16579.23
588.487	16789.84
588.846	17132.88
589.206	17253.56
589.565	17603.38
589.925	17873.65
590.284	18172.4
590.643	18504.82
591.003	18685.16
591.362	19003.79
591.721	19162.43
592.08	19465.48
592.44	19860.95
592.799	20133.48
593.158	20430.42
593.517	20539.12
593.876	20966.23
594.235	21250.06
594.593	21582.26
594.952	21854.57
595.311	22216.82
595.67	22372.07
596.029	22844.6
596.387	23175.66
596.746	23405.49
597.104	23626.05
597.463	23976.32
597.822	24256.09
598.18	24515.51
598.538	24874.15
598.897	25260.58
599.255	25258.77
599.613	26016.94
599.972	26020.33
600.33	26461.45
600.688	26622.35
601.046	27086.29
601.404	27477.47
601.762	27644.24
602.12	27996.78
602.478	28250.1
602.836	28437.9
603.194	28682.18
603.552	28950.43
603.91	29128.95
604.268	29561.93
604.625	29732.78
604.983	30034.01
605.341	30123.28
605.698	30671.74
606.056	30844.39
606.413	31024.04
606.771	31457.93
607.128	31579.51
607.485	31838.48
607.843	32106.73
608.2	32382.43
608.557	32779.93
608.914	32865.8
609.272	33202.29
609.629	33373.13
609.986	33706.01
610.343	33691.09
610.7	34052.44
611.057	34315.71
611.414	34276.39
611.771	34710.5
612.127	34792.98
612.484	35068.46
612.841	35402.68
613.198	35400.2
613.554	35644.94
613.911	35771.71
614.267	36013.06
614.624	36153.85
614.98	36391.59
615.337	36677
615.693	36835.42
616.05	36804.23
616.406	37213.48
616.762	37407.6
617.118	37347.72
617.475	37582.97
617.831	37778.89
618.187	37937.31
618.543	38059.11
618.899	38416.17
619.255	38453.68
619.611	38442.83
619.967	38695.93
620.323	38868.81
620.678	38696.61
621.034	38787.91
621.39	38991.29
621.746	39003.49
622.101	39543.82
622.457	39330.49
622.812	39503.37
623.168	39694.78
623.523	39854.77
623.879	39923.92
624.234	39791.04
624.589	39983.58
624.945	39976.58
625.3	40280.75
625.655	40322.33
626.01	40375.66
626.365	40356.23
626.72	40388.54
627.075	40370.24
627.43	40517.8
627.785	40551.7
628.14	40687.07
628.495	40765.26
628.85	40767.06
629.205	40655.65
629.559	40958.92
629.914	40951.92
630.269	40973.61
630.623	41089.54
630.978	40972.48
631.332	41085.93
631.687	41151.69
632.041	41048.41
632.396	41097.22
632.75	41082.54
633.104	41214.51
633.459	41119.6
633.813	41218.8
634.167	41225.13
634.521	41173.83
634.875	41231.91
635.229	41196.43
635.583	41024.01
635.937	41204.79
636.291	41005.25
636.645	41121.86
636.999	41162.53
637.352	41217.67
637.706	41058.36
638.06	41225.36
638.413	41127.96
638.767	41035.53
639.121	41101.52
639.474	40882.31
639.828	41042.08
640.181	41108.07
640.534	41098.13
640.888	40888.19
641.241	40829.43
641.594	40997.11
641.947	41105.59
642.301	40944.46
642.654	41028.98
643.007	41063.1
643.36	41083.89
643.713	40866.27
644.066	41124.34
644.419	40887.29
644.771	40711.02
645.124	40261.99
645.477	40198.04
645.83	40056.8
646.182	39812.96
646.535	39827.43
646.888	39868.33
647.24	39520.99
647.593	39967.08
647.945	39775.9
648.298	39719.86
648.65	39693.19
649.002	39514.22
649.355	39696.36
649.707	39633.31
650.059	39889.8
650.411	40364.81
650.763	40423.34
651.115	40823.11
651.467	40625.37
651.819	40654.07
652.171	40472.16
652.523	40494.98
652.875	40553.51
653.227	40318.94
653.578	40513.06
653.93	40490.46
654.282	40342.44
654.633	40277.81
654.985	40300.41
655.337	40424.7
655.688	40460.18
656.039	40507.41
656.391	40182.9
656.742	40229.9
657.094	40302.22
657.445	40563.23
657.796	40322.1
658.147	40360.07
658.498	40223.12
658.849	40380.86
659.2	40320.97
659.551	40288.43
659.902	40295.66
660.253	40320.97
660.604	40321.43
660.955	40017.03
661.306	40319.84
661.656	40186.29
662.007	40304.93
662.358	40095.89
662.708	40107.19
663.059	40252.05
663.409	39979.29
663.76	40217.25
664.11	40224.03
664.461	40123.92
664.811	40194.65
665.161	40276.23
665.511	40121.43
665.862	40142.22
666.212	40295.66
666.562	40217.25
666.912	40166.85
667.262	40058.83
667.612	40149.23
667.962	40213.63
668.312	40054.54
668.662	40270.81
669.011	40146.06
669.361	39999.85
669.711	40075.78
670.06	39989.23
670.41	39928.89
670.76	39918.95
671.109	39985.84
671.459	39958.95
671.808	39878.27
672.157	39954.2
672.507	39651.39
672.856	39744.72
673.205	39812.51
673.554	39987.2
673.904	39809.57
674.253	40003.47
674.602	39843.25
674.951	39403.26
675.3	39227.67
675.649	39679.18
675.998	39751.95
676.346	39695.68
676.695	39841.89
677.044	39503.14
677.393	39657.49
677.741	39770.71
678.09	39644.16
678.438	39582.24
678.787	39512.41
679.135	39568.45
679.484	39292.98
679.832	39457.04
680.181	39327.1
680.529	39436.48
680.877	39365.52
681.225	39177.27
681.573	39387.21
681.922	39156.71
682.27	39067.22
682.618	39177.73
682.966	38928.47
683.314	39072.87
683.661	38872.42
684.009	38672.2
684.357	38638.08
684.705	38641.47
685.053	38683.05
685.4	38597.18
685.748	38433.79
686.095	38468.82
686.443	38377.97
686.79	38336.85
687.138	38444.19
687.485	38396.05
687.832	38166.23
688.18	38167.81
688.527	38074.71
688.874	38087.81
689.221	38074.48
689.568	37905.44
689.915	37716.3
690.262	37720.36
690.609	37683.98
690.956	37500.71
691.303	37507.04
691.65	37246.03
691.997	37410.99
692.344	37041.29
692.69	37157.44
693.037	36984.11
693.383	36818.24
693.73	36931.01
694.077	36655.31
694.423	36750.9
694.769	36590.9
695.116	36548.64
695.462	36589.55
695.808	36315.2
696.155	36419.83
696.501	36069.33
696.847	36108.66
697.193	35976.68
697.539	36081.31
697.885	35753.41
698.231	35639.29
698.577	35726.97
698.923	35684.49
699.269	35453.08
699.614	35208.79
699.96	35210.15
700.306	35260.09
700.651	35122.92
700.997	35035.24
701.342	35006.99
701.688	34858.07
702.033	34836.15
702.379	34784.85
702.724	34791.85
703.069	34688.35
703.415	34338.53
703.76	34446.55
704.105	34446.1
704.45	34374.69
704.795	34158.42
705.14	33978.09
705.485	33984.64
705.83	33878.21
706.175	33977.86
706.52	33795.95
706.865	33645.67
707.209	33717.76
707.554	33463.75
707.899	33572
708.243	33497.42
708.588	33286.36
708.932	33203.65
709.277	33162.97
709.621	33078.23
709.966	32906.48
710.31	32956.65
710.654	32783.32
710.998	32775.41
711.342	32760.27
711.687	32670.33
712.031	32496.32
712.375	32384.46
712.719	32520.5
713.063	32377.91
713.407	32532.48
713.75	32411.58
714.094	32306.72
714.438	32160.74
714.782	32258.36
715.125	31971.14
715.469	32083.22
715.812	31791.93
716.156	31791.48
716.499	31873.06
716.843	31937.69
717.186	31736.34
717.53	31802.33
717.873	31859.28
718.216	31629.22
718.559	31530.02
718.902	31353.07
719.246	31385.84
719.589	31369.34
719.932	31077.37
720.275	31170.48
720.617	31126.87
720.96	31040.31
721.303	31052.29
721.646	31041.22
721.989	30891.17
722.331	30949.24
722.674	30870.37
723.016	30860.88
723.359	30834.44
723.701	30897.94
724.044	30608.91
724.386	30618.63
724.729	30661.34
725.071	30558.52
725.413	30544.96
725.755	30432.19
726.097	30314.46
726.439	30195.36
726.782	30224.52
727.124	30336.6
727.465	30192.65
727.807	30139.55
728.149	30097.51
728.491	30015.93
728.833	30063.62
729.175	30010.74
729.516	29915.6
729.858	29877.63
730.199	29704.08
730.541	29914.24
730.882	29664.3
731.224	29855.49
731.565	29685.32
731.906	29686.68
732.248	29698.88
732.589	29526.68
732.93	29412.56
733.271	29345.22
733.612	29399.9
733.953	29441.71
734.294	29307.03
734.635	29197.88
734.976	29338.44
735.317	29074.04
735.658	29224.54
735.999	29100.25
736.339	29116.97
736.68	29207.82
737.021	29046.47
737.361	28891.67
737.702	29093.7
738.042	28887.38
738.383	28914.49
738.723	28994.94
739.063	28789.07
739.404	28925.57
739.744	28797.66
740.084	28723.76
740.424	28713.6
740.764	28524.67
741.104	28777.32
741.444	28499.82
741.784	28494.84
742.124	28571.9
742.464	28545.01
742.804	28427.5
743.143	28315.64
743.483	28457.56
743.823	28216.66
744.162	28222.08
744.502	28171.91
744.841	28137.34
745.181	28270.67
745.52	28001.07
745.86	28119.26
746.199	27976.44
746.538	28009.88
746.877	28105.25
747.216	27996.78
747.556	27797.46
747.895	28009.66
748.234	27848.31
748.573	27761.3
748.911	27793.62
749.25	27845.6
749.589	27577.81
749.928	27568.54
750.267	27688.76
750.605	27586.62
750.944	27492.38
751.283	27297.59
751.621	27476.79
751.96	27338.49
752.298	27396.57
752.636	27389.79
752.975	27129.68
753.313	27172.62
753.651	27297.81
753.989	27107.76
754.327	27198.83
754.666	26975.11
755.004	26998.16
755.342	27037.26
755.679	26857.37
756.017	26787.09
756.355	26828.67
756.693	26803.82
757.031	26786.64
757.368	26712.52
757.706	26602.69
758.044	26509.81
758.381	26537.38
758.719	26503.48
759.056	26493.31
759.394	26401.79
