Data from hue_240_FLMS001491_00040.txt Node
Date: Tue Feb 07 16:35:25 GMT 2017
User: dcchb
Spectrometer: FLMS00149
Trigger mode: 0
Integration Time (sec): 2.000000E-2
Scans to average: 10
Electric dark correction enabled: true
Nonlinearity correction enabled: false
Boxcar width: 0
XAxis mode: Wavelengths
Number of Pixels in Spectrum: 2048
>>>>>Begin Spectral Data<<<<<
341.393	-15.01
341.776	-15.01
342.16	-15.01
342.543	-53.88
342.927	-74.67
343.31	-55.46
343.693	-75.58
344.077	-77.84
344.46	-57.95
344.843	-48.23
345.226	-65.86
345.61	-34.67
345.993	-6.88
346.376	1.93
346.759	-8.91
347.142	10.07
347.525	55.72
347.908	71.99
348.291	74.48
348.674	107.02
349.057	110.18
349.44	134.59
349.823	146.79
350.206	135.72
350.588	212.55
350.971	211.87
351.354	221.14
351.737	214.81
352.119	247.58
352.502	257.97
352.884	270.85
353.267	264.98
353.65	268.59
354.032	271.31
354.414	293
354.797	305.88
355.179	331.19
355.562	318.31
355.944	315.83
356.326	334.36
356.709	319.21
357.091	328.25
357.473	339.1
357.855	342.49
358.238	332.55
358.62	333.68
359.002	334.58
359.384	336.62
359.766	320.34
360.148	325.77
360.53	351.53
360.912	341.81
361.294	315.83
361.676	326.9
362.057	325.99
362.439	317.63
362.821	320.34
363.203	302.94
363.584	318.76
363.966	328.03
364.348	291.87
364.729	326.67
365.111	314.47
365.493	321.02
365.874	325.99
366.256	309.72
366.637	301.14
367.019	288.71
367.4	295.26
367.781	315.37
368.163	312.44
368.544	293.9
368.925	288.71
369.306	328.25
369.688	289.61
370.069	319.67
370.45	310.4
370.831	292.32
371.212	284.87
371.593	315.37
371.974	297.07
372.355	323.96
372.736	320.57
373.117	325.54
373.498	324.41
373.879	309.72
374.26	312.89
374.641	316.95
375.021	313.11
375.402	314.7
375.783	331.64
376.163	314.24
376.544	335.94
376.925	341.14
377.305	313.57
377.686	320.34
378.066	310.18
378.447	333.23
378.827	306.11
379.208	338.42
379.588	328.03
379.968	311.76
380.349	333.68
380.729	324.64
381.109	318.31
381.489	329.38
381.87	330.74
382.25	340.23
382.63	338.42
383.01	330.06
383.39	349.5
383.77	344.75
384.15	328.71
384.53	332.77
384.91	336.62
385.29	346.56
385.67	345.88
386.049	332.77
386.429	350.4
386.809	343.62
387.189	345.88
387.568	313.34
387.948	351.76
388.328	343.62
388.707	368.93
389.087	343.62
389.466	366.67
389.846	354.92
390.225	358.08
390.605	368.93
390.984	364.64
391.363	365.77
391.743	376.61
392.122	350.17
392.501	359.21
392.881	379.55
393.26	365.54
393.639	371.19
394.018	368.7
394.397	371.19
394.776	365.77
395.155	356.95
395.534	384.07
395.913	371.87
396.292	367.35
396.671	380
397.05	416.16
397.429	385.88
397.808	390.4
398.186	395.82
398.565	394.92
398.944	408.93
399.323	380.23
399.701	408.03
400.08	408.03
400.458	417.52
400.837	421.36
401.215	412.77
401.594	422.94
401.972	397.4
402.351	413
402.729	421.36
403.107	403.05
403.486	421.13
403.864	420.91
404.242	436.73
404.62	435.6
404.999	436.95
405.377	425.2
405.755	442.38
406.133	445.09
406.511	434.24
406.889	455.03
407.267	445.99
407.645	459.78
408.023	441.47
408.401	465.88
408.779	469.27
409.156	462.94
409.534	473.34
409.912	481.24
410.29	483.96
410.667	495.03
411.045	483.73
411.422	519.44
411.8	507.46
412.178	515.14
412.555	489.15
412.933	526.89
413.31	539.77
413.687	532.09
414.065	535.93
414.442	525.09
414.819	560.34
415.197	554.46
415.574	559.89
415.951	572.32
416.328	579.32
416.705	575.25
417.082	573.45
417.46	613.44
417.837	598.08
418.214	617.51
418.591	603.95
418.967	615.48
419.344	622.03
419.721	611.18
420.098	652.31
420.475	643.27
420.852	650.73
421.228	670.17
421.605	668.13
421.982	663.39
422.358	694.12
422.735	684.4
423.111	697.06
423.488	718.07
423.864	714.01
424.241	730.96
424.617	743.84
424.994	720.79
425.37	759.88
425.746	793.78
426.123	782.03
426.499	777.06
426.875	777.73
427.251	797.39
427.627	811.63
428.003	828.35
428.379	834
428.756	826.09
429.132	833.1
429.507	836.72
429.883	845.98
430.259	874
430.635	875.36
431.011	867.67
431.387	901.35
431.763	921.01
432.138	937.96
432.514	939.09
432.89	942.25
433.265	970.72
433.641	966.66
434.016	962.36
434.392	1007.56
434.767	1022.25
435.143	978.18
435.518	1029.93
435.894	1036.94
436.269	1034.45
436.644	1086.43
437.02	1090.04
437.395	1109.25
437.77	1117.16
438.145	1126.65
438.52	1160.77
438.895	1149.48
439.271	1180.44
439.646	1203.26
440.021	1208.46
440.395	1203.71
440.77	1200.55
441.145	1239.64
441.52	1272.86
441.895	1261.79
442.27	1273.77
442.645	1286.42
443.019	1290.26
443.394	1282.13
443.769	1309.92
444.143	1316.7
444.518	1327.1
444.892	1318.28
445.267	1350.6
445.641	1365.06
446.016	1358.96
446.39	1387.44
446.764	1396.02
447.139	1375.91
447.513	1423.59
447.887	1423.59
448.262	1430.15
448.636	1417.94
449.01	1444.83
449.384	1447.09
449.758	1473.31
450.132	1477.15
450.506	1467.21
450.88	1519.41
451.254	1466.08
451.628	1523.7
452.002	1557.37
452.376	1547.66
452.75	1561.67
453.123	1597.37
453.497	1612.97
453.871	1606.19
454.244	1611.16
454.618	1635.79
454.992	1663.81
455.365	1653.42
455.739	1698.84
456.112	1698.84
456.486	1725.05
456.859	1747.43
457.232	1780.65
457.606	1788.55
457.979	1807.99
458.352	1817.48
458.725	1813.86
459.099	1857.48
459.472	1902.45
459.845	1887.76
460.218	1932.96
460.591	1961.66
460.964	1935.22
461.337	1961.66
461.71	2015.89
462.083	2021.77
462.456	2040.3
462.829	2063.8
463.201	2042.11
463.574	2072.84
463.947	2099.51
464.32	2138.38
464.692	2165.49
465.065	2157.81
465.438	2194.65
465.81	2233.29
466.183	2258.37
466.555	2256.79
466.928	2295.89
467.3	2314.19
467.672	2321.2
468.045	2428.99
468.417	2382.21
468.789	2412.49
469.161	2435.09
469.534	2482.32
469.906	2525.03
470.278	2485.03
470.65	2534.07
471.022	2607.74
471.394	2635.31
471.766	2645.26
472.138	2687.29
472.51	2700.85
472.882	2755.08
473.253	2787.62
473.625	2842.99
473.997	2875.76
474.369	2872.82
474.74	2900.39
475.112	2960.5
475.484	2992.59
475.855	3049.09
476.227	3087.96
476.598	3147.61
476.97	3174.51
477.341	3223.09
477.713	3335.18
478.084	3289.76
478.455	3319.81
478.827	3400.26
479.198	3466.48
479.569	3468.51
479.94	3588.51
480.311	3564.1
480.682	3633.25
481.053	3692.46
481.424	3773.36
481.795	3794.83
482.166	3824.89
482.537	3939.46
482.908	3959.57
483.279	4006.35
483.65	4055.84
484.021	4129.06
484.391	4160.24
484.762	4194.14
485.133	4237.3
485.503	4252.44
485.874	4345.1
486.244	4390.75
486.615	4477.07
486.985	4525.88
487.356	4570.63
487.726	4566.56
488.097	4712.32
488.467	4686.33
488.837	4813.56
489.207	4794.8
489.578	4880.22
489.948	4946.89
490.318	4985.08
490.688	4969.94
491.058	5064.85
491.428	5109.6
491.798	5155.7
492.168	5197.5
492.538	5245.64
492.908	5322.25
493.278	5338.74
493.648	5381.45
494.017	5425.75
494.387	5399.31
494.757	5548.23
495.126	5566.31
495.496	5592.97
495.866	5573.99
496.235	5680.43
496.605	5669.36
496.974	5730.15
497.344	5721.11
497.713	5734.89
498.082	5799.52
498.452	5865.06
498.821	5873.42
499.19	5812.63
499.559	5914.55
499.928	5924.27
500.298	6005.39
500.667	6013.75
501.036	6023.02
501.405	6103.47
501.774	6104.37
502.143	6100.98
502.512	6104.6
502.88	6174.65
503.249	6170.13
503.618	6157.71
503.987	6194.54
504.356	6216.91
504.724	6278.15
505.093	6286.52
505.462	6267.76
505.83	6314.31
506.199	6412.16
506.567	6466.85
506.936	6329.9
507.304	6504.59
507.672	6423.46
508.041	6526.96
508.409	6566.28
508.777	6541.42
509.145	6604.25
509.514	6548.88
509.882	6571.25
510.25	6605.15
510.618	6683.34
510.986	6653.51
511.354	6745.94
511.722	6745.26
512.09	6808.31
512.458	6717.69
512.826	6782.77
513.193	6803.56
513.561	6837.91
513.929	6839.04
514.297	6872.49
514.664	6935.54
515.032	6865.48
515.4	6984.8
515.767	6961.98
516.135	6971.47
516.502	6953.16
516.869	6997.68
517.237	7084.46
517.604	7001.07
517.972	7048.3
518.339	7075.42
518.706	7110
519.073	7080.84
519.44	7122.2
519.808	7123.33
520.175	7093.27
520.542	7174.18
520.909	7167.17
521.276	7142.09
521.643	7183.44
522.009	7278.58
522.376	7255.98
522.743	7258.02
523.11	7305.25
523.477	7371.23
523.843	7371.68
524.21	7417.79
524.577	7406.71
524.943	7448.74
525.31	7431.57
525.676	7496.2
526.043	7488.52
526.409	7513.83
526.776	7549.08
527.142	7578.46
527.508	7599.48
527.874	7571
528.241	7644.67
528.607	7566.26
528.973	7657.55
529.339	7638.12
529.705	7689.42
530.071	7694.39
530.437	7750.66
530.803	7689.19
531.169	7757.89
531.535	7704.11
531.901	7762.63
532.267	7765.57
532.632	7751.79
532.998	7751.34
533.364	7730.55
533.73	7731.68
534.095	7792.69
534.461	7822.97
534.826	7776.87
535.192	7775.52
535.557	7792.01
535.923	7811
536.288	7825.91
536.653	7797.89
537.019	7720.15
537.384	7798.34
537.749	7784.33
538.114	7731.45
538.479	7722.18
538.845	7828.17
539.21	7777.1
539.575	7818.45
539.94	7813.26
540.305	7850.54
540.67	7756.76
541.034	7740.26
541.399	7792.92
541.764	7814.16
542.129	7755.4
542.494	7681.73
542.858	7754.73
543.223	7757.89
543.587	7755.4
543.952	7731
544.316	7740.49
544.681	7653.03
545.045	7678.34
545.41	7725.8
545.774	7683.31
546.138	7636.31
546.503	7705.24
546.867	7636.31
547.231	7757.89
547.595	7669.76
547.959	7682.41
548.324	7713.37
548.688	7691.68
549.052	7604.45
549.416	7685.35
549.779	7641.73
550.143	7634.28
550.507	7663.43
550.871	7692.13
551.235	7581.4
551.599	7614.16
551.962	7604.45
552.326	7584.11
552.689	7666.82
553.053	7621.17
553.417	7592.7
553.78	7713.6
554.143	7664.78
554.507	7556.99
554.87	7594.28
555.234	7691.45
555.597	7618.01
555.96	7677.89
556.323	7681.28
556.686	7648.29
557.05	7636.54
557.413	7668.4
557.776	7670.89
558.139	7703.2
558.502	7699.81
558.865	7658.68
559.228	7677.44
559.59	7732.13
559.953	7685.12
560.316	7801.73
560.679	7746.82
561.041	7831.56
561.404	7821.62
561.767	7792.01
562.129	7807.83
562.492	7871.33
562.854	7829.3
563.217	7877.66
563.579	7849.64
563.941	7858.68
564.304	7941.61
564.666	7924.66
565.028	7967.38
565.39	7938.45
565.753	7943.65
566.115	8055.96
566.477	8056.86
566.839	8052.57
567.201	8108.16
567.563	8097.09
567.925	8028.84
568.287	8138.9
568.648	8153.13
569.01	8198.1
569.372	8207.59
569.734	8152.91
570.095	8262.96
570.457	8208.5
570.819	8245.79
571.18	8280.59
571.542	8312.45
571.903	8261.83
572.265	8316.29
572.626	8340.47
572.987	8396.74
573.349	8383.86
573.71	8316.07
574.071	8372.11
574.432	8406.91
574.794	8492.79
575.155	8447.36
575.516	8492.33
575.877	8498.43
576.238	8510.86
576.599	8453.01
576.96	8547.7
577.32	8478.32
577.681	8532.33
578.042	8645.78
578.403	8675.38
578.763	8626.79
579.124	8660.01
579.485	8678.09
579.845	8666.11
580.206	8705.66
580.566	8683.06
580.927	8673.35
581.287	8744.76
581.648	8715.6
582.008	8742.5
582.368	8799.67
582.728	8863.4
583.089	8761.03
583.449	8801.93
583.809	8862.72
584.169	8826.11
584.529	8832.21
584.889	8815.49
585.249	8797.41
585.609	8805.77
585.969	8896.39
586.329	8853.91
586.688	8918.99
587.048	8909.72
587.408	8937.97
587.768	8914.02
588.127	8935.26
588.487	8933.9
588.846	8918.99
589.206	8934.13
589.565	8960.12
589.925	8988.14
590.284	8929.16
590.643	8955.6
591.003	9013
591.362	8996.73
591.721	8991.08
592.08	8963.28
592.44	9053.22
592.799	9004.18
593.158	8993.79
593.517	8980.23
593.876	8971.42
594.235	9051.41
594.593	9021.36
594.952	9081.92
595.311	9045.99
595.67	9062.26
596.029	9145.65
596.387	9112.88
596.746	9093
597.104	9104.52
597.463	9059.55
597.822	9134.12
598.18	9134.12
598.538	9061.81
598.897	9155.82
599.255	9036.73
599.613	9234.23
599.972	9144.97
600.33	9176.16
600.688	9135.93
601.046	9243.73
601.404	9174.58
601.762	9168.25
602.12	9194.01
602.478	9188.81
602.836	9187.23
603.194	9177.06
603.552	9178.64
603.91	9199.21
604.268	9187.46
604.625	9213.67
604.983	9215.03
605.341	9202.82
605.698	9288.7
606.056	9242.37
606.413	9310.39
606.771	9236.72
607.128	9246.89
607.485	9280.79
607.843	9278.75
608.2	9319.66
608.557	9296.61
608.914	9292.99
609.272	9300.22
609.629	9419.54
609.986	9431.52
610.343	9272.2
610.7	9397.62
611.057	9392.42
611.414	9340.45
611.771	9403.72
612.127	9416.15
612.484	9484.62
612.841	9472.19
613.198	9429.26
613.554	9445.98
613.911	9522.14
614.267	9466.32
614.624	9436.04
614.98	9441.91
615.337	9442.59
615.693	9492.98
616.05	9439.65
616.406	9570.27
616.762	9414.57
617.118	9558.07
617.475	9520.1
617.831	9519.88
618.187	9552.19
618.543	9559.2
618.899	9542.48
619.255	9516.94
619.611	9598.07
619.967	9605.75
620.323	9621.8
620.678	9558.29
621.034	9558.97
621.39	9523.94
621.746	9550.16
622.101	9607.33
622.457	9538.63
622.812	9594
623.168	9574.11
623.523	9570.27
623.879	9585.64
624.234	9551.06
624.589	9552.42
624.945	9538.63
625.3	9539.99
625.655	9617.28
626.01	9564.85
626.365	9519.42
626.72	9545.41
627.075	9629.93
627.43	9556.26
627.785	9542.25
628.14	9548.12
628.495	9554.9
628.85	9546.54
629.205	9557.39
629.559	9492.08
629.914	9506.54
630.269	9490.05
630.623	9538.18
630.978	9478.3
631.332	9491.18
631.687	9430.39
632.041	9459.09
632.396	9450.27
632.75	9435.59
633.104	9450.27
633.459	9402.37
633.813	9364.17
634.167	9387.45
634.521	9358.75
634.875	9367.34
635.229	9438.52
635.583	9386.77
635.937	9358.3
636.291	9322.59
636.645	9303.84
636.999	9300.67
637.352	9248.47
637.706	9284.4
638.06	9338.41
638.413	9310.84
638.767	9274.91
639.121	9281.69
639.474	9177.29
639.828	9250.05
640.181	9212.54
640.534	9218.87
640.888	9203.05
641.241	9151.75
641.594	9204.63
641.947	9153.56
642.301	9136.61
642.654	9165.76
643.007	9131.86
643.36	9088.02
643.713	9129.6
644.066	9139.32
644.419	9165.08
644.771	9081.92
645.124	8976.39
645.477	8973.22
645.83	8902.94
646.182	8776.62
646.535	8819.1
646.888	8860.01
647.24	8818.43
647.593	8862.49
647.945	8843.06
648.298	8754.93
648.65	8761.25
649.002	8719.9
649.355	8748.37
649.707	8732.1
650.059	8794.02
650.411	8950.17
650.763	8887.35
651.115	8978.42
651.467	8961.02
651.819	8949.5
652.171	8881.7
652.523	8901.14
652.875	8915.6
653.227	8907.01
653.578	8888.25
653.93	8906.79
654.282	8908.59
654.633	8832.21
654.985	8888.48
655.337	8889.61
655.688	8869.95
656.039	8945.43
656.391	8914.47
656.742	8908.37
657.094	8943.62
657.445	8919.67
657.796	8905.43
658.147	8949.04
658.498	8931.42
658.849	8866.11
659.2	8894.58
659.551	8840.12
659.902	8872.44
660.253	8883.06
660.604	8911.31
660.955	8867.01
661.306	8876.28
661.656	8898.88
662.007	8906.11
662.358	8896.84
662.708	8864.53
663.059	8862.94
663.409	8850.97
663.76	8820.01
664.11	8948.37
664.461	8916.28
664.811	8908.14
665.161	8886.67
665.511	8907.01
665.862	8891.42
666.212	8902.72
666.562	8894.13
666.912	8872.21
667.262	8867.46
667.612	8947.91
667.962	8897.07
668.312	8884.41
668.662	8897.29
669.011	8899.55
669.361	8907.01
669.711	8879.89
670.06	8863.17
670.41	8850.74
670.76	8853.23
671.109	8843.28
671.459	8813.45
671.808	8824.53
672.157	8788.14
672.507	8778.43
672.856	8785.43
673.205	8834.25
673.554	8826.79
673.904	8841.93
674.253	8889.84
674.602	8808.94
674.951	8645.1
675.3	8594.93
675.649	8762.61
675.998	8734.36
676.346	8777.52
676.695	8765.55
677.044	8688.03
677.393	8692.33
677.741	8788.14
678.09	8698.2
678.438	8693.46
678.787	8726.45
679.135	8721.71
679.484	8658.88
679.832	8665.89
680.181	8611.88
680.529	8607.81
680.877	8655.04
681.225	8633.8
681.573	8663.18
681.922	8596.29
682.27	8534.14
682.618	8592.44
682.966	8522.84
683.314	8548.6
683.661	8479
684.009	8428.61
684.357	8436.97
684.705	8441.49
685.053	8350.64
685.4	8457.98
685.748	8361.94
686.095	8401.26
686.443	8321.72
686.79	8312.45
687.138	8382.28
687.485	8281.72
687.832	8266.8
688.18	8253.7
688.527	8212.57
688.874	8251.21
689.221	8155.84
689.568	8189.06
689.915	8225.45
690.262	8139.12
690.609	8116.07
690.956	8062.97
691.303	8050.76
691.65	8027.03
691.997	8021.39
692.344	8014.15
692.69	7983.65
693.037	8048.73
693.383	7914.72
693.73	7959.01
694.077	7919.92
694.423	7876.08
694.769	7872.24
695.116	7835.4
695.462	7803.54
695.808	7726.93
696.155	7825.23
696.501	7801.5
696.847	7710.66
697.193	7717.21
697.539	7749.3
697.885	7627.72
698.231	7629.31
698.577	7583.66
698.923	7561.06
699.269	7530.55
699.614	7495.3
699.96	7451.91
700.306	7493.49
700.651	7391.57
700.997	7409.42
701.342	7389.31
701.688	7329.43
702.033	7343.66
702.379	7310.44
702.724	7329.88
703.069	7316.09
703.415	7208.53
703.76	7238.81
704.105	7222.54
704.45	7221.41
704.795	7159.94
705.14	7186.83
705.485	7120.39
705.83	7115.42
706.175	7108.64
706.52	7101.86
706.865	7083.78
707.209	7043.11
707.554	6981.64
707.899	7032.48
708.243	7008.76
708.588	6947.06
708.932	6869.1
709.277	6869.55
709.621	6938.7
709.966	6833.39
710.31	6899.15
710.654	6782.1
710.998	6796.33
711.342	6849.21
711.687	6781.19
712.031	6802.66
712.375	6760.18
712.719	6779.84
713.063	6754.3
713.407	6705.49
713.75	6754.53
714.094	6708.88
714.438	6676.34
714.782	6681.31
715.125	6697.13
715.469	6679.73
715.812	6665.49
716.156	6548.66
716.499	6631.37
716.843	6581.87
717.186	6489.9
717.53	6649.67
717.873	6595.21
718.216	6582.1
718.559	6543.46
718.902	6516.57
719.246	6563.34
719.589	6480.18
719.932	6458.49
720.275	6486.51
720.617	6533.51
720.96	6510.01
721.303	6453.52
721.646	6473.63
721.989	6427.08
722.331	6450.35
722.674	6428.66
723.016	6459.62
723.359	6460.75
723.701	6451.93
724.044	6420.98
724.386	6400.18
724.729	6379.39
725.071	6433.4
725.413	6407.19
725.755	6386.63
726.097	6350.92
726.439	6354.54
726.782	6361.99
727.124	6371.26
727.465	6324.48
727.807	6339.17
728.149	6371.71
728.491	6345.95
728.833	6359.51
729.175	6354.31
729.516	6284.26
729.858	6370.81
730.199	6361.99
730.541	6294.42
730.882	6318.83
731.224	6301.88
731.565	6282.45
731.906	6325.61
732.248	6318.61
732.589	6231.83
732.93	6258.04
733.271	6250.13
733.612	6306.85
733.953	6307.76
734.294	6270.7
734.635	6236.12
734.976	6279.28
735.317	6221.43
735.658	6251.94
735.999	6253.52
736.339	6204.94
736.68	6282.45
737.021	6237.7
737.361	6274.99
737.702	6282.67
738.042	6240.42
738.383	6236.12
738.723	6255.1
739.063	6224.14
739.404	6265.05
739.744	6299.4
740.084	6267.31
740.424	6265.73
740.764	6247.65
741.104	6359.51
741.444	6300.75
741.784	6289.68
742.124	6293.75
742.464	6303.46
742.804	6300.3
743.143	6293.52
743.483	6316.12
743.823	6313.18
744.162	6388.66
744.502	6348.66
744.841	6395.67
745.181	6453.74
745.52	6470.69
745.86	6457.13
746.199	6486.06
746.538	6504.14
746.877	6500.97
747.216	6510.01
747.556	6585.72
747.895	6636.79
748.234	6580.75
748.573	6578.26
748.911	6632.72
749.25	6623.46
749.589	6651.7
749.928	6753.62
750.267	6786.39
750.605	6892.15
750.944	6858.93
751.283	6867.29
751.621	6939.15
751.96	7008.53
752.298	7009.66
752.636	7083.56
752.975	7182.54
753.313	7183.44
753.651	7277.22
753.989	7318.13
754.327	7366.94
754.666	7443.77
755.004	7550.66
755.342	7591.34
755.679	7684.44
756.017	7739.58
756.355	7776.87
756.693	7893.25
757.031	7989.07
757.368	8003.98
757.706	8122.4
758.044	8160.14
758.381	8287.14
758.719	8358.55
759.056	8483.75
759.394	8518.55
759.731	8549.73
760.068	8736.17
760.405	8738.65
760.743	8829.27
761.08	8951.76
761.417	9005.77
761.754	9174.35
762.091	9212.54
762.428	9393.78
762.765	9416.83
763.102	9525.75
763.438	9556.26
763.775	9669.03
764.112	9776.37
764.449	9887.1
764.785	9966.87
765.122	9946.31
765.458	10040.54
765.795	10205.51
766.131	10193.76
766.467	10302.46
766.804	10344.49
767.14	10402.79
767.476	10432.85
767.812	10526.18
768.148	10633.07
768.485	10681.65
768.821	10752.16
769.157	10834.64
769.492	10918.48
