Data from hue_60_FLMS001491_92.txt Node
Date: Mon Feb 06 15:18:12 GMT 2017
User: dcchb
Spectrometer: FLMS00149
Trigger mode: 0
Integration Time (sec): 2.000000E-2
Scans to average: 10
Electric dark correction enabled: true
Nonlinearity correction enabled: false
Boxcar width: 0
XAxis mode: Wavelengths
Number of Pixels in Spectrum: 2048
>>>>>Begin Spectral Data<<<<<
341.393	-28.06
341.776	-28.06
342.16	-28.06
342.543	-44.11
342.927	-64.67
343.31	-77.55
343.693	-71.23
344.077	-62.87
344.46	-60.61
344.843	-37.33
345.226	-51.79
345.61	-46.37
345.993	-13.38
346.376	-15.64
346.759	25.72
347.142	29.79
347.525	50.13
347.908	54.19
348.291	91.48
348.674	69.56
349.057	115.89
349.44	121.08
349.823	151.82
350.206	158.6
350.588	187.52
350.971	229.78
351.354	218.48
351.737	246.28
352.119	261.65
352.502	276.56
352.884	284.92
353.267	296.45
353.65	297.12
354.032	313.85
354.414	291.93
354.797	319.5
355.179	330.57
355.562	347.29
355.944	312.49
356.326	337.12
356.709	342.77
357.091	353.85
357.473	335.99
357.855	358.59
358.238	354.75
358.62	346.39
359.002	349.33
359.384	356.33
359.766	333.73
360.148	330.34
360.53	364.92
360.912	365.82
361.294	339.61
361.676	339.38
362.057	348.2
362.439	325.82
362.821	326.73
363.203	340.97
363.584	333.06
363.966	344.13
364.348	328.76
364.729	331.93
365.111	347.07
365.493	312.04
365.874	297.58
366.256	329.89
366.637	310.91
367.019	332.6
367.4	310.68
367.781	302.55
368.163	341.64
368.544	317.24
368.925	325.82
369.306	339.84
369.688	329.21
370.069	314.75
370.45	320.4
370.831	315.66
371.212	325.37
371.593	312.27
371.974	298.71
372.355	287.63
372.736	309.1
373.117	345.03
373.498	327.86
373.879	343
374.26	330.34
374.641	314.98
375.021	332.38
375.402	340.06
375.783	323.79
376.163	347.29
376.544	326.73
376.925	331.93
377.305	347.29
377.686	325.37
378.066	326.5
378.447	353.17
378.827	358.37
379.208	346.16
379.588	335.54
379.968	345.71
380.349	323.34
380.729	345.49
381.109	353.39
381.489	350.46
381.87	351.13
382.25	337.12
382.63	354.98
383.01	329.67
383.39	338.71
383.77	350.46
384.15	364.92
384.53	358.37
384.91	376.22
385.29	366.05
385.67	371.02
386.049	369.67
386.429	372.38
386.809	352.94
387.189	363.34
387.568	355.43
387.948	360.63
388.328	368.31
388.707	358.59
389.087	369.67
389.466	384.13
389.846	373.73
390.225	367.63
390.605	368.76
390.984	370.57
391.363	362.21
391.743	361.3
392.122	398.59
392.501	369.67
392.881	378.93
393.26	372.38
393.639	368.08
394.018	373.28
394.397	360.4
394.776	387.29
395.155	369.67
395.534	399.5
395.913	406.05
396.292	387.29
396.671	370.57
397.05	393.17
397.429	400.85
397.808	393.62
398.186	387.97
398.565	413.73
398.944	383.22
399.323	421.19
399.701	414.86
400.08	402.43
400.458	377.8
400.837	395.65
401.215	394.98
401.594	420.29
401.972	416.9
402.351	411.92
402.729	411.92
403.107	412.83
403.486	419.38
403.864	405.6
404.242	416.44
404.62	418.03
404.999	425.26
405.377	420.51
405.755	432.04
406.133	414.41
406.511	435.43
406.889	434.97
407.267	425.26
407.645	448.99
408.023	445.37
408.401	442.66
408.779	466.84
409.156	454.41
409.534	459.38
409.912	441.53
410.29	477.69
410.667	459.83
411.045	465.26
411.422	467.74
411.8	481.98
412.178	466.84
412.555	479.04
412.933	496.22
413.31	499.61
413.687	488.98
414.065	486.72
414.442	498.02
414.819	502.09
415.197	505.03
415.574	496.67
415.951	512.03
416.328	514.29
416.705	525.82
417.082	527.18
417.46	512.94
417.837	521.07
418.214	534.18
418.591	539.38
418.967	524.69
419.344	533.5
419.721	550.9
420.098	536.44
420.475	540.73
420.852	526.5
421.228	547.97
421.605	545.71
421.982	549.1
422.358	547.74
422.735	565.59
423.111	555.42
423.488	567.4
423.864	576.67
424.241	569.43
424.617	573.28
424.994	562.43
425.37	602.2
425.746	592.94
426.123	596.78
426.499	585.03
426.875	584.58
427.251	598.81
427.627	596.33
428.003	618.02
428.379	625.03
428.756	639.94
429.132	636.33
429.507	631.13
429.883	642.2
430.259	649.88
430.635	629.77
431.011	653.05
431.387	667.51
431.763	665.48
432.138	651.01
432.514	683.33
432.89	674.74
433.265	677.68
433.641	711.13
434.016	672.26
434.392	710
434.767	707.28
435.143	699.37
435.518	708.41
435.894	733.95
436.269	746.15
436.644	727.17
437.02	732.37
437.395	759.03
437.77	754.06
438.145	760.62
438.52	779.6
438.895	771.91
439.271	751.58
439.646	784.12
440.021	787.28
440.395	772.59
440.77	778.24
441.145	810.11
441.52	818.92
441.895	793.84
442.27	811.46
442.645	814.17
443.019	823.21
443.394	813.5
443.769	830.9
444.143	819.82
444.518	851.69
444.892	848.07
445.267	849.43
445.641	847.62
446.016	864.34
446.39	858.92
446.764	856.66
447.139	879.26
447.513	874.51
447.887	880.84
448.262	855.98
448.636	873.83
449.01	901.18
449.384	886.49
449.758	888.3
450.132	903.66
450.506	924.23
450.88	935.3
451.254	920.16
451.628	938.46
452.002	938.69
452.376	915.87
452.75	954.73
453.123	968.97
453.497	966.49
453.871	1001.51
454.244	1009.2
454.618	1008.74
454.992	996.09
455.365	1027.28
455.739	1055.98
456.112	1039.7
456.486	1058.69
456.859	1082.64
457.232	1091
457.606	1094.39
457.979	1103.21
458.352	1092.13
458.725	1123.32
459.099	1131.68
459.472	1150.44
459.845	1157.22
460.218	1174.39
460.591	1180.72
460.964	1168.29
461.337	1217.1
461.71	1233.37
462.083	1258.91
462.456	1246.93
462.829	1260.72
463.201	1276.76
463.574	1280.38
463.947	1309.08
464.32	1355.63
464.692	1322.63
465.065	1370.32
465.438	1387.72
465.81	1417.77
466.183	1428.85
466.555	1456.87
466.928	1474.27
467.3	1493.25
467.672	1490.54
468.045	1535.74
468.417	1570.76
468.789	1561.95
469.161	1581.61
469.534	1622.29
469.906	1655.73
470.278	1677.88
470.65	1705.68
471.022	1768.72
471.394	1797.65
471.766	1815.05
472.138	1845.78
472.51	1887.14
472.882	1906.57
473.253	1907.48
473.625	1997.65
473.997	2049.85
474.369	2079.68
474.74	2107.92
475.112	2155.38
475.484	2239.67
475.855	2256.85
476.227	2330.74
476.598	2359.44
476.97	2439.67
477.341	2528.93
477.713	2575.71
478.084	2608.48
478.455	2714.46
478.827	2805.99
479.198	2821.58
479.569	2927.79
479.94	2999.2
480.311	3078.07
480.682	3199.42
481.053	3266.99
481.424	3428.34
481.795	3506.08
482.166	3593.99
482.537	3635.12
482.908	3777.94
483.279	3878.5
483.65	3986.75
484.021	4142.45
484.391	4181.54
484.762	4291.82
485.133	4401.88
485.503	4527.07
485.874	4677.57
486.244	4800.96
486.615	4975.42
486.985	5043.21
487.356	5182.42
487.726	5329.54
488.097	5574.73
488.467	5646.14
488.837	5804.1
489.207	5957.54
489.578	6108.72
489.948	6250.87
490.318	6399.11
490.688	6541.93
491.058	6698.31
491.428	6915.71
491.798	7043.84
492.168	7264.63
492.538	7427.78
492.908	7593.43
493.278	7777.38
493.648	7916.81
494.017	8115.22
494.387	8255.11
494.757	8471.6
495.126	8599.96
495.496	8715.21
495.866	8917.01
496.235	9071.81
496.605	9264.8
496.974	9434.29
497.344	9607.39
497.713	9742.3
498.082	9942.97
498.452	10039.47
498.821	10253.02
499.19	10373.92
499.559	10531.66
499.928	10695.95
500.298	10948.37
500.667	11068.14
501.036	11142.72
501.405	11400.11
501.774	11544.51
502.143	11719.2
502.512	11863.15
502.88	12034.22
503.249	12159.41
503.618	12293.42
503.987	12389.91
504.356	12607.54
504.724	12747.19
505.093	12907.41
505.462	13072.16
505.83	13200.29
506.199	13390.57
506.567	13621.29
506.936	13685.93
507.304	13853.83
507.672	14000.04
508.041	14208.4
508.409	14372.01
508.777	14556.86
509.145	14747.82
509.514	14783.98
509.882	14982.16
510.25	15034.82
510.618	15261.7
510.986	15368.37
511.354	15609.04
511.722	15699.88
512.09	15915.02
512.458	16035.92
512.826	16212.86
513.193	16352.97
513.561	16339.42
513.929	16486.08
514.297	16733.08
514.664	16926.97
515.032	17056.91
515.4	17255.1
515.767	17306.62
516.135	17436.79
516.502	17402.21
516.869	17808.75
517.237	18009.2
517.604	17947.28
517.972	18221.4
518.339	18335.29
518.706	18342.98
519.073	18573.25
519.44	18715.62
519.808	18892.79
520.175	18916.3
520.542	19245.33
520.909	19424.08
521.276	19436.73
521.643	19680.12
522.009	19897.06
522.376	19925.76
522.743	20168.92
523.11	20300.44
523.477	20645.74
523.843	20691.39
524.21	20950.14
524.577	21135.9
524.943	21142
525.31	21337.02
525.676	21484.14
526.043	21674.42
526.409	21822.89
526.776	22085.93
527.142	22136.55
527.508	22298.35
527.874	22437.11
528.241	22502.42
528.607	22723.88
528.973	22968.62
529.339	22966.36
529.705	23130.65
530.071	23437.31
530.437	23514.37
530.803	23587.81
531.169	23816.96
531.535	23762.04
531.901	23870.52
532.267	23990.97
532.632	24125.65
532.998	24234.35
533.364	24458.98
533.73	24477.73
534.095	24767.67
534.461	24772.19
534.826	24953.65
535.192	24959.53
535.557	25238.62
535.923	25309.57
536.288	25312.96
536.653	25505.5
537.019	25388.67
537.384	25533.98
537.749	25705.95
538.114	25709.56
538.479	25874.31
538.845	25938.94
539.21	25926.06
539.575	26214.41
539.94	26118.37
540.305	26439.94
540.67	26339.38
541.034	26455.76
541.399	26502.54
541.764	26647.39
542.129	26800.61
542.494	26789.76
542.858	27051.45
543.223	26986.14
543.587	27229.07
543.952	27155.18
544.316	27171.67
544.681	27339.13
545.045	27406.24
545.41	27569.85
545.774	27559.68
546.138	27627.71
546.503	27809.85
546.867	27800.13
547.231	28005.55
547.595	28121.48
547.959	28185.43
548.324	28309.72
548.688	28263.4
549.052	28375.03
549.416	28480.79
549.779	28508.81
550.143	28673.1
550.507	28769.14
550.871	28744.51
551.235	28840.56
551.599	29050.95
551.962	29140.21
552.326	29164.16
552.689	29451.61
553.053	29345.85
553.417	29389.47
553.78	29807.08
554.143	29713.07
554.507	29822.9
554.87	29861.32
555.234	30197.13
555.597	30022.9
555.96	30161.65
556.323	30327.3
556.686	30307.86
557.05	30545.37
557.413	30756.44
557.776	30745.82
558.139	31010.89
558.502	31115.98
558.865	31180.38
559.228	31366.59
559.59	31468.28
559.953	31457.44
560.316	31837.76
560.679	31870.53
561.041	32106.68
561.404	32118.66
561.767	32312.1
562.129	32347.81
562.492	32570.4
562.854	32665.31
563.217	32757.97
563.579	32750.96
563.941	32872.09
564.304	33134.45
564.666	33311.4
565.028	33410.15
565.39	33562.24
565.753	33712.97
566.115	33809.24
566.477	33997.03
566.839	33948.22
567.201	34317.25
567.563	34340.98
567.925	34584.36
568.287	34657.35
568.648	34643.11
569.01	34801.98
569.372	35023.44
569.734	35037.68
570.095	35239.03
570.457	35342.53
570.819	35454.17
571.18	35321.29
571.542	35678.34
571.903	35699.58
572.265	35920.82
572.626	35940.26
572.987	36031.33
573.349	36013.25
573.71	36275.84
574.071	36416.63
574.432	36432.45
574.794	36640.58
575.155	36647.58
575.516	36543.18
575.877	36752.21
576.238	36954.69
576.599	37058.64
576.96	36980.91
577.32	37077.85
577.681	37278.07
578.042	37324.63
578.403	37292.54
578.763	37475.36
579.124	37395.58
579.485	37582.25
579.845	37545.64
580.206	37529.59
580.566	37615.92
580.927	37633.32
581.287	37792.18
581.648	37652.98
582.008	37895.68
582.368	37859.98
582.728	37900.88
583.089	37929.36
583.449	37863.37
583.809	37928
584.169	38032.63
584.529	37983.37
584.889	38225.39
585.249	38050.71
585.609	38074.66
585.969	38282.57
586.329	38072.18
586.688	38146.53
587.048	38191.95
587.408	38223.13
587.768	38240.08
588.127	38281.66
588.487	38175
588.846	38436.01
589.206	38153.98
589.565	38159.41
589.925	38371.6
590.284	38263.81
590.643	38212.96
591.003	38410.47
591.362	38629.68
591.721	38482.56
592.08	38409.57
592.44	38442.11
592.799	38588.32
593.158	38581.54
593.517	38454.09
593.876	38502.22
594.235	38441.66
594.593	38536.35
594.952	38638.26
595.311	38476.69
595.67	38797.13
596.029	39007.97
596.387	38847.98
596.746	39074.41
597.104	38775.66
597.463	38829.9
597.822	39003.45
598.18	38804.36
598.538	38863.34
598.897	38981.53
599.255	38800.97
599.613	39364.57
599.972	39127.52
600.33	39141.53
600.688	39121.64
601.046	39181.07
601.404	39331.58
601.762	39250.68
602.12	39412.48
602.478	39521.18
602.836	39569.09
603.194	39375.42
603.552	39402.76
603.91	39421.29
604.268	39567.05
604.625	39474.85
604.983	39696.99
605.341	39637.79
605.698	39744.9
606.056	39744.68
606.413	39826.26
606.771	40071.9
607.128	40080.94
607.485	39842.07
607.843	40029.19
608.2	40315.51
608.557	40395.51
608.914	40186.7
609.272	40395.96
609.629	40505.33
609.986	40581.94
610.343	40414.04
610.7	40740.81
611.057	40680.47
611.414	40775.38
611.771	40836.4
612.127	40943.51
612.484	40978.09
612.841	41122.49
613.198	40842.95
613.554	40958.65
613.911	41152.1
614.267	41338.98
614.624	41118.2
614.98	41436.61
615.337	41612.42
615.693	41328.81
616.05	41438.42
616.406	41595.47
616.762	41513.67
617.118	41537.4
617.475	41777.84
617.831	41715.24
618.187	41677.96
618.543	41788.24
618.899	42065.74
619.255	41837.28
619.611	42017.16
619.967	42209.92
620.323	42271.61
620.678	42234.33
621.034	42010.38
621.39	42148.91
621.746	42093.09
622.101	42575.79
622.457	42145.29
622.812	42316.81
623.168	42464.38
623.523	42433.19
623.879	42521.33
624.234	42325.85
624.589	42526.75
624.945	42594.54
625.3	42558.61
625.655	42541.21
626.01	42502.79
626.365	42688.55
626.72	42542.34
627.075	42643.13
627.43	42682
627.785	42565.62
628.14	42603.13
628.495	42663.47
628.85	42651.27
629.205	42409.92
629.559	42605.62
629.914	42552.96
630.269	42670.47
630.623	42558.84
630.978	42523.36
631.332	42836.35
631.687	42832.05
632.041	42530.59
632.396	42688.55
632.75	42579.63
633.104	42613.07
633.459	42454.89
633.813	42486.52
634.167	42460.99
634.521	42506.18
634.875	42486.3
635.229	42422.12
635.583	42310.48
635.937	42263.03
636.291	42232.52
636.645	42436.13
636.999	42314.55
637.352	42464.38
637.706	42172.18
638.06	42329.92
638.413	42066.87
638.767	42127.44
639.121	41970.83
639.474	42014.9
639.828	42032.75
640.181	41952.75
640.534	42004.05
640.888	41868.46
641.241	41824.85
641.594	41741.68
641.947	41872.08
642.301	41778.97
642.654	41840.44
643.007	41834.79
643.36	41781.46
643.713	41759.31
644.066	41913.21
644.419	41665.75
644.771	41475.03
645.124	40986.45
645.477	40995.94
645.83	40740.58
646.182	40632.79
646.535	40587.37
646.888	40638.66
647.24	40204.1
647.593	40500.36
647.945	40524.09
648.298	40319.35
648.65	40230.09
649.002	40167.94
649.355	40427.14
649.707	40303.08
650.059	40381.04
650.411	40850.18
650.763	41022.38
651.115	41340.57
651.467	41179.67
651.819	41131.76
652.171	41127.92
652.523	41022.61
652.875	40947.81
653.227	40832.33
653.578	41114.81
653.93	40966.79
654.282	40976.51
654.633	40844.31
654.985	40963.17
655.337	40918.43
655.688	40946
656.039	41095.83
656.391	40698.1
656.742	40820.13
657.094	40715.95
657.445	40831.65
657.796	40719.11
658.147	40734.25
658.498	40677.98
658.849	40774.03
659.2	40708.94
659.551	40537.65
659.902	40727.7
660.253	40685.67
660.604	40749.17
660.955	40559.8
661.306	40579.68
661.656	40562.51
662.007	40585.11
662.358	40593.92
662.708	40536.29
663.059	40630.53
663.409	40327.94
663.76	40582.17
664.11	40596.18
664.461	40674.37
664.811	40628.27
665.161	40530.64
665.511	40614.26
665.862	40513.02
666.212	40604.09
666.562	40529.29
666.912	40530.42
667.262	40456.07
667.612	40324.1
667.962	40408.16
668.312	40397.99
668.662	40569.51
669.011	40459.23
669.361	40392.57
669.711	40264.66
670.06	40387.37
670.41	40183.31
670.76	40216.98
671.109	40183.53
671.459	40416.75
671.808	40221.72
672.157	40306.92
672.507	39868.74
672.856	40068.51
673.205	40075.29
673.554	40150.77
673.904	40013.14
674.253	40310.76
674.602	39992.8
674.951	39712.59
675.3	39371.58
675.649	40023.99
675.998	39953.03
676.346	39946.48
676.695	40025.57
677.044	39803.66
677.393	40005.01
677.741	40065.34
678.09	39822.19
678.438	39899.25
678.787	39957.78
679.135	39911
679.484	39696.77
679.832	39790.55
680.181	39522.31
680.529	39736.31
680.877	39412.48
681.225	39341.75
681.573	39679.14
681.922	39403.22
682.27	39218.59
682.618	39329.54
682.966	39140.62
683.314	39140.62
683.661	39222.88
684.009	39018.14
684.357	38992.15
684.705	38836.68
685.053	38880.97
685.4	38782.21
685.748	38666.96
686.095	38665.61
686.443	38455.44
686.79	38570.47
687.138	38590.58
687.485	38529.57
687.832	38335.22
688.18	38373.86
688.527	38152.4
688.874	38079.18
689.221	38190.37
689.568	37943.14
689.915	38048
690.262	37932.75
690.609	37963.71
690.956	37814.78
691.303	37697.95
691.65	37603.94
691.997	37412.53
692.344	37225.87
692.69	37311.29
693.037	37257.06
693.383	37117.4
693.73	37290.5
694.077	37061.58
694.423	36899.55
694.769	36798.09
695.116	36753.79
695.462	36721.03
695.808	36486.46
696.155	36656.85
696.501	36340.02
696.847	36340.25
697.193	36087.14
697.539	36228.16
697.885	36037.43
698.231	35979.8
698.577	35918.56
698.923	35820.26
699.269	35552.92
699.614	35409.2
699.96	35486.26
700.306	35458.23
700.651	35289.88
700.997	35342.76
701.342	35137.56
701.688	34981.86
702.033	34975.31
702.379	34976.44
702.724	34767.41
703.069	34931.02
703.415	34598.14
703.76	34525.83
704.105	34586.62
704.45	34379.39
704.795	34355.89
705.14	34279.51
705.485	34289.68
705.83	34189.12
706.175	34077.71
706.52	33976.69
706.865	34007.88
707.209	33708.9
707.554	33737.38
707.899	33908.9
708.243	33714.78
708.588	33611.5
708.932	33311.4
709.277	33446.08
709.621	33351.4
709.966	33135.58
710.31	33155.92
710.654	32967.23
710.998	33013.78
711.342	32991.41
711.687	32845.2
712.031	32791.41
712.375	32619.21
712.719	32699.89
713.063	32601.36
713.407	32604.75
713.75	32528.14
714.094	32451.31
714.438	32276.62
714.782	32384.64
715.125	32132.67
715.469	32333.12
715.812	32129.73
716.156	31978.55
716.499	31887.48
716.843	31974.48
717.186	31873.24
717.53	31857.65
717.873	31819.69
718.216	31866.69
718.559	31634.15
718.902	31392.13
719.246	31359.59
719.589	31423.76
719.932	31198.91
720.275	31205.69
720.617	31253.6
720.96	31207.27
721.303	31176.54
721.646	31101.51
721.989	30983.1
722.331	30991.91
722.674	30953.72
723.016	30877.34
723.359	30899.94
723.701	30837.11
724.044	30773.84
724.386	30552.6
724.729	30866.04
725.071	30574.52
725.413	30619.49
725.755	30571.13
726.097	30470.79
726.439	30272.61
726.782	30281.65
727.124	30452.26
727.465	30247.52
727.807	30216.34
728.149	30144.48
728.491	30129.11
728.833	30164.81
729.175	30064.48
729.516	29908.32
729.858	29996.68
730.199	29933.63
730.541	29902
730.882	29787.42
731.224	29896.57
731.565	29682.34
731.906	29758.5
732.248	29771.38
732.589	29442.8
732.93	29448.67
733.271	29494.1
733.612	29391.5
733.953	29559.18
734.294	29433.08
734.635	29325.74
734.976	29403.25
735.317	29143.82
735.658	29120.1
735.999	29195.57
736.339	29271.05
736.68	29157.16
737.021	28987.44
737.361	28802.36
737.702	29107.67
738.042	29009.82
738.383	28945.19
738.723	28899.54
739.063	28805.08
739.404	28702.03
739.744	28760.33
740.084	28547
740.424	28703.61
740.764	28565.31
741.104	28751.07
741.444	28372.77
741.784	28349.95
742.124	28506.1
742.464	28386.56
742.804	28294.81
743.143	28246.45
743.483	28248.93
743.823	28169.84
744.162	28132.1
744.502	28262.04
744.841	28029.5
745.181	28135.49
745.52	28052.78
745.86	28060.69
746.199	27994.93
746.538	27975.72
746.877	27967.58
747.216	27863.63
747.556	27822.05
747.895	27868.38
748.234	27604.88
748.573	27642.39
748.911	27603.3
749.25	27579.57
749.589	27402.63
749.928	27448.95
750.267	27591.55
750.605	27264.1
750.944	27297.54
751.283	27194.95
751.621	27275.62
751.96	27140.03
752.298	27097.78
752.636	27001.06
752.975	26897.33
753.313	26909.53
753.651	26965.12
753.989	26676.54
754.327	26811.91
754.666	26667.96
755.004	26681.74
755.342	26677
755.679	26604.23
756.017	26438.36
756.355	26455.53
