Data from hue_270_FLMS001491_00050.txt Node
Date: Tue Feb 07 15:57:15 GMT 2017
User: dcchb
Spectrometer: FLMS00149
Trigger mode: 0
Integration Time (sec): 2.000000E-2
Scans to average: 10
Electric dark correction enabled: true
Nonlinearity correction enabled: false
Boxcar width: 0
XAxis mode: Wavelengths
Number of Pixels in Spectrum: 2048
>>>>>Begin Spectral Data<<<<<
341.393	-4.76
341.776	-4.76
342.16	-4.76
342.543	-72.78
342.927	-70.29
343.31	-71.42
343.693	-74.59
344.077	-67.81
344.46	-52.44
344.843	-61.26
345.226	-32.1
345.61	-31.88
345.993	-16.51
346.376	-0.69
346.759	8.8
347.142	26.65
347.525	47.89
347.908	66.42
348.291	81.11
348.674	81.57
349.057	96.25
349.44	116.14
349.823	133.32
350.206	159.3
350.588	171.96
350.971	198.4
351.354	218.96
351.737	210.83
352.119	234.33
352.502	261.67
352.884	251.96
353.267	267.1
353.65	274.55
354.032	281.11
354.414	290.83
354.797	313.65
355.179	279.53
355.562	315.91
355.944	295.12
356.326	312.29
356.709	330.37
357.091	320.43
357.473	313.42
357.855	328.11
358.238	326.76
358.62	320.88
359.002	322.69
359.384	330.6
359.766	303.03
360.148	323.82
360.53	324.5
360.912	346.19
361.294	336.47
361.676	310.94
362.057	322.69
362.439	288.34
362.821	319.98
363.203	300.09
363.584	319.53
363.966	324.95
364.348	316.59
364.729	327.66
365.111	317.49
365.493	309.81
365.874	299.64
366.256	313.42
366.637	298.06
367.019	300.09
367.4	279.53
367.781	296.93
368.163	317.27
368.544	291.96
368.925	320.88
369.306	305.06
369.688	298.51
370.069	287.66
370.45	295.8
370.831	300.54
371.212	295.35
371.593	320.66
371.974	312.52
372.355	313.42
372.736	305.06
373.117	319.3
373.498	313.65
373.879	308
374.26	331.05
374.641	315.68
375.021	322.92
375.402	318.4
375.783	332.41
376.163	317.27
376.544	316.14
376.925	330.37
377.305	334.21
377.686	318.4
378.066	318.62
378.447	316.36
378.827	320.43
379.208	327.21
379.588	320.66
379.968	310.71
380.349	309.13
380.729	329.69
381.109	324.95
381.489	329.69
381.87	311.39
382.25	328.56
382.63	336.02
383.01	332.63
383.39	363.59
383.77	335.12
384.15	341.9
384.53	332.63
384.91	326.53
385.29	344.84
385.67	365.63
386.049	350.94
386.429	346.87
386.809	334.89
387.189	363.82
387.568	343.71
387.948	359.75
388.328	356.13
388.707	357.26
389.087	366.3
389.466	352.07
389.846	363.82
390.225	347.55
390.605	355.46
390.984	365.85
391.363	360.88
391.743	355.23
392.122	364.95
392.501	374.67
392.881	383.7
393.26	365.4
393.639	369.24
394.018	375.8
394.397	378.06
394.776	354.78
395.155	384.83
395.534	390.03
395.913	391.61
396.292	400.2
396.671	408.34
397.05	411.5
397.429	392.29
397.808	404.72
398.186	407.66
398.565	397.72
398.944	379.64
399.323	404.04
399.701	414.89
400.08	405.4
400.458	406.53
400.837	425.29
401.215	409.69
401.594	430.93
401.972	403.82
402.351	427.55
402.729	421.44
403.107	430.93
403.486	451.73
403.864	435.68
404.242	424.38
404.62	416.92
404.999	440.65
405.377	431.84
405.755	433.87
406.133	464.38
406.511	460.99
406.889	482.46
407.267	471.84
407.645	466.19
408.023	455.34
408.401	481.56
408.779	485.85
409.156	513.64
409.534	509.35
409.912	528.56
410.29	523.81
410.667	503.02
411.045	519.07
411.422	537.6
411.8	532.4
412.178	555
412.555	564.04
412.933	549.8
413.31	554.77
413.687	564.94
414.065	569.46
414.442	571.27
414.819	587.99
415.197	592.06
415.574	612.85
415.951	606.52
416.328	633.87
416.705	591.61
417.082	618.73
417.46	642.91
417.837	663.92
418.214	652.62
418.591	643.58
418.967	657.82
419.344	677.71
419.721	674.32
420.098	667.31
420.475	684.26
420.852	693.75
421.228	697.37
421.605	713.64
421.982	734.66
422.358	728.55
422.735	729.46
423.111	732.4
423.488	760.87
423.864	749.57
424.241	764.03
424.617	769.68
424.994	792.06
425.37	795.67
425.746	799.74
426.123	840.87
426.499	829.57
426.875	857.82
427.251	862.79
427.627	896.23
428.003	874.77
428.379	891.04
428.756	902.56
429.132	929.45
429.507	893.52
429.883	942.11
430.259	959.06
430.635	952.5
431.011	960.19
431.387	994.99
431.763	986.63
432.138	1020.98
432.514	1007.19
432.89	1033.18
433.265	1052.39
433.641	1071.82
434.016	1082.9
434.392	1092.61
434.767	1127.87
435.143	1129
435.518	1146.62
435.894	1161.09
436.269	1154.31
436.644	1187.75
437.02	1186.62
437.395	1199.73
437.77	1233.85
438.145	1284.92
438.52	1260.97
438.895	1301.19
439.271	1293.29
439.646	1311.59
440.021	1350.01
440.395	1353.62
440.77	1340.29
441.145	1370.57
441.52	1417.35
441.895	1392.72
442.27	1404.02
442.645	1405.82
443.019	1413.51
443.394	1451.93
443.769	1452.6
444.143	1430
444.518	1480.85
444.892	1473.17
445.267	1502.77
445.641	1511.81
446.016	1507.97
446.39	1521.75
446.764	1536.22
447.139	1524.69
447.513	1534.86
447.887	1554.07
448.262	1549.55
448.636	1575.09
449.01	1577.8
449.384	1602.2
449.758	1599.72
450.132	1645.82
450.506	1624.58
450.88	1650.11
451.254	1645.37
451.628	1673.84
452.002	1677.23
452.376	1694.4
452.75	1693.27
453.123	1702.09
453.497	1757.91
453.871	1750
454.244	1780.05
454.618	1782.76
454.992	1825.25
455.365	1839.71
455.739	1879.94
456.112	1862.54
456.486	1860.5
456.859	1880.39
457.232	1942.08
457.606	1908.64
457.979	1915.42
458.352	1970.56
458.725	1975.53
459.099	2025.24
459.472	2051.23
459.845	2037.67
460.218	2062.08
460.591	2080.38
460.964	2114.05
461.337	2139.82
461.71	2150.44
462.083	2185.69
462.456	2163.09
462.829	2187.72
463.201	2209.65
463.574	2199.93
463.947	2261.85
464.32	2281.06
464.692	2300.26
465.065	2322.41
465.438	2342.75
465.81	2386.36
466.183	2398.11
466.555	2453.48
466.928	2446.25
467.3	2435.85
467.672	2500.71
468.045	2526.93
468.417	2554.95
468.789	2561.73
469.161	2585
469.534	2638.79
469.906	2681.72
470.278	2665.68
470.65	2699.58
471.022	2737.54
471.394	2778.44
471.766	2807.14
472.138	2790.19
472.51	2863.87
472.882	2916.29
473.253	2939.34
473.625	2940.47
473.997	3021.83
474.369	3055.72
474.74	3042.39
475.112	3101.83
475.484	3157.87
475.855	3178.21
476.227	3229.28
476.598	3224.31
476.97	3299.56
477.341	3350.86
477.713	3426.79
478.084	3412.78
478.455	3479.67
478.827	3467.47
479.198	3603.51
479.569	3535.71
479.94	3689.15
480.311	3678.08
480.682	3738.87
481.053	3848.47
481.424	3869.04
481.795	3860.22
482.166	3942.93
482.537	4003.04
482.908	4066.32
483.279	4081.91
483.65	4128.92
484.021	4225.86
484.391	4222.02
484.762	4287.56
485.133	4281.91
485.503	4328.23
485.874	4421.79
486.244	4483.03
486.615	4550.15
486.985	4577.72
487.356	4655.46
487.726	4679.86
488.097	4760.99
488.467	4732.74
488.837	4817.49
489.207	4920.99
489.578	4939.52
489.948	4996.46
490.318	4989.46
490.688	5021.77
491.058	5124.14
491.428	5166.4
491.798	5236.01
492.168	5309.45
492.538	5312.16
492.908	5308.09
493.278	5342.9
493.648	5377.7
494.017	5473.51
494.387	5487.98
494.757	5482.55
495.126	5597.8
495.496	5518.94
495.866	5618.6
496.235	5658.14
496.605	5679.16
496.974	5716.9
497.344	5732.94
497.713	5819.95
498.082	5800.74
498.452	5834.86
498.821	5861.75
499.19	5831.7
499.559	5940.17
499.928	5953.05
500.298	5980.17
500.667	6035.53
501.036	6007.96
501.405	6078.24
501.774	6030.79
502.143	6086.38
502.512	6099.03
502.88	6160.05
503.249	6165.47
503.618	6148.98
503.987	6197.11
504.356	6170.22
504.724	6220.84
505.093	6261.97
505.462	6257.9
505.83	6341.97
506.199	6304.45
506.567	6398.46
506.936	6379.48
507.304	6409.31
507.672	6424.9
508.041	6441.62
508.409	6473.04
508.777	6532.02
509.145	6557.55
509.514	6504.9
509.882	6597.78
510.25	6592.81
510.618	6614.73
510.986	6615.63
511.354	6610.66
511.722	6683.65
512.09	6742.18
512.458	6666.48
512.826	6728.17
513.193	6709.41
513.561	6756.19
513.929	6880.93
514.297	6804.55
514.664	6862.86
515.032	6841.61
515.4	6942.85
515.767	6880.26
516.135	6945.34
516.502	6827.15
516.869	6941.5
517.237	6985.11
517.604	6934.94
517.972	6998.67
518.339	7011.55
518.706	6984.43
519.073	7037.09
519.44	7079.12
519.808	7069.18
520.175	7085.68
520.542	7108.5
520.909	7080.03
521.276	7125.67
521.643	7194.37
522.009	7209.51
522.376	7257.65
522.743	7197.31
523.11	7254.26
523.477	7315.73
523.843	7332.67
524.21	7406.34
524.577	7428.72
524.943	7370.64
525.31	7435.5
525.676	7520.24
526.043	7568.6
526.409	7456.51
526.776	7567.24
527.142	7602.72
527.508	7555.95
527.874	7639.11
528.241	7652.21
528.607	7646.56
528.973	7659.22
529.339	7690.63
529.705	7786.67
530.071	7748.03
530.437	7796.62
530.803	7799.55
531.169	7815.15
531.535	7816.28
531.901	7780.57
532.267	7915.26
532.632	7883.39
532.998	7841.81
533.364	7930.17
533.73	7932.43
534.095	7985.09
534.461	7941.02
534.826	7998.65
535.192	7990.28
535.557	8073.22
535.923	8052.88
536.288	8089.72
536.653	8058.53
537.019	8055.82
537.384	8067.34
537.749	8103.95
538.114	8134.91
538.479	8084.75
538.845	8175.59
539.21	8036.84
539.575	8148.92
539.94	8087.68
540.305	8138.08
540.67	8171.07
541.034	8162.03
541.399	8171.3
541.764	8181.47
542.129	8166.32
542.494	8240.45
542.858	8216.27
543.223	8228.47
543.587	8265.08
543.952	8198.41
544.316	8271.63
544.681	8249.26
545.045	8290.39
545.41	8323.38
545.774	8267.34
546.138	8287
546.503	8308.47
546.867	8324.29
547.231	8347.11
547.595	8329.03
547.959	8341.46
548.324	8355.25
548.688	8301.91
549.052	8315.7
549.416	8359.09
549.779	8345.3
550.143	8392.53
550.507	8445.19
550.871	8406.77
551.235	8378.97
551.599	8487.45
551.962	8493.32
552.326	8463.94
552.689	8555.02
553.053	8411.97
553.417	8477.96
553.78	8545.98
554.143	8582.36
554.507	8590.27
554.87	8609.7
555.234	8615.13
555.597	8611.74
555.96	8588.01
556.323	8632.3
556.686	8589.82
557.05	8654
557.413	8660.55
557.776	8687.44
558.139	8727.67
558.502	8743.71
558.865	8775.12
559.228	8828.45
559.59	8788
559.953	8807.44
560.316	8852.86
560.679	8943.48
561.041	8959.07
561.404	8919.3
561.767	9057.6
562.129	8973.08
562.492	9104.38
562.854	9101.44
563.217	9050.6
563.579	9153.19
563.941	9119.97
564.304	9159.75
564.666	9163.59
565.028	9208.56
565.39	9213.75
565.753	9341.89
566.115	9323.81
566.477	9314.32
566.839	9345.05
567.201	9466.18
567.563	9453.97
567.925	9432.05
568.287	9480.19
568.648	9463.01
569.01	9542.79
569.372	9689.45
569.734	9553.63
570.095	9652.39
570.457	9729.45
570.819	9659.62
571.18	9660.75
571.542	9808.32
571.903	9745.94
572.265	9827.07
572.626	9857.58
572.987	9863.46
573.349	9922.89
573.71	9905.26
574.071	9954.75
574.432	10025.94
574.794	10136.89
575.155	10046.5
575.516	10072.72
575.877	10128.99
576.238	10167.63
576.599	10176.67
576.96	10197.01
577.32	10259.38
577.681	10301.64
578.042	10268.19
578.403	10322.43
578.763	10317.91
579.124	10380.28
579.485	10360.39
579.845	10452.37
580.206	10470.45
580.566	10437
580.927	10517.9
581.287	10540.05
581.648	10514.51
582.008	10692.81
582.368	10659.82
582.728	10685.81
583.089	10633.15
583.449	10748.63
583.809	10719.7
584.169	10750.21
584.529	10787.27
584.889	10914.05
585.249	10839.25
585.609	10745.92
585.969	10976.42
586.329	10885.12
586.688	10920.15
587.048	10945.91
587.408	10971.67
587.768	11002.63
588.127	10986.82
588.487	10949.75
588.846	11122.63
589.206	11087.38
589.565	11077.21
589.925	11141.16
590.284	11146.59
590.643	11156.08
591.003	11214.38
591.362	11281.5
591.721	11282.63
592.08	11246.92
592.44	11345.68
592.799	11361.27
593.158	11290.76
593.517	11380.93
593.876	11425
594.235	11419.8
594.593	11428.39
594.952	11485.33
595.311	11439.23
595.67	11488.95
596.029	11524.65
596.387	11527.82
596.746	11585.22
597.104	11574.37
597.463	11577.31
597.822	11619.79
598.18	11579.57
598.538	11599.68
598.897	11699.79
599.255	11648.49
599.613	11711.54
599.972	11731.88
600.33	11740.47
600.688	11750.86
601.046	11746.34
601.404	11829.05
601.762	11787.47
602.12	11846.45
602.478	11813.69
602.836	11876.74
603.194	11825.89
603.552	11853.01
603.91	11774.37
604.268	11863.85
604.625	11820.92
604.983	11888.71
605.341	11840.13
605.698	11919.22
606.056	11895.27
606.413	11879
606.771	11977.75
607.128	12014.13
607.485	11935.49
607.843	11898.2
608.2	12045.77
608.557	12075.83
608.914	11947.02
609.272	12033.34
609.629	12039.67
609.986	12104.53
610.343	12024.3
610.7	12161.47
611.057	12124.86
611.414	12136.84
611.771	12150.63
612.127	12178.87
612.484	12232.66
612.841	12220.46
613.198	12219.33
613.554	12192.66
613.911	12227.46
614.267	12271.08
614.624	12221.13
614.98	12271.08
615.337	12351.53
615.693	12324.41
616.05	12253.9
616.406	12298.87
616.762	12309.49
617.118	12344.52
617.475	12354.24
617.831	12358.98
618.187	12422.48
618.543	12451.18
618.899	12445.53
619.255	12481.69
619.611	12488.92
619.967	12485.08
620.323	12484.4
620.678	12409.15
621.034	12436.72
621.39	12353.11
621.746	12434.01
622.101	12514.91
622.457	12397.63
622.812	12517.17
623.168	12433.78
623.523	12412.77
623.879	12534.12
624.234	12411.86
624.589	12431.07
624.945	12435.82
625.3	12511.75
625.655	12471.52
626.01	12478.3
626.365	12465.65
626.72	12487.34
627.075	12422.48
627.43	12438.98
627.785	12359.89
628.14	12504.29
628.495	12421.35
628.85	12444.63
629.205	12374.35
629.559	12463.16
629.914	12314.92
630.269	12509.94
630.623	12367.34
630.978	12375.25
631.332	12456.61
631.687	12414.12
632.041	12386.55
632.396	12420
632.75	12294.8
633.104	12370.96
633.459	12253.22
633.813	12254.8
634.167	12252.55
634.521	12249.38
634.875	12294.35
635.229	12221.81
635.583	12166.67
635.937	12177.07
636.291	12186.56
636.645	12234.24
636.999	12202.6
637.352	12171.87
637.706	12119.22
638.06	12121.02
638.413	12121.48
638.767	12059.33
639.121	12058.65
639.474	12006.45
639.828	12027.47
640.181	12071.31
640.534	11992.21
640.888	11951.76
641.241	11954.7
641.594	11990.18
641.947	12058.65
642.301	12045.32
642.654	11955.83
643.007	11923.97
643.36	11967.35
643.713	11955.83
644.066	11983.63
644.419	11853.23
644.771	11869.05
645.124	11768.26
645.477	11746.12
645.83	11632.67
646.182	11587.03
646.535	11524.2
646.888	11620.25
647.24	11542.28
647.593	11535.95
647.945	11580.02
648.298	11483.07
648.65	11442.4
649.002	11429.06
649.355	11503.41
649.707	11502.96
650.059	11592
650.411	11694.82
650.763	11695.27
651.115	11746.12
651.467	11773.91
651.819	11784.31
652.171	11751.99
652.523	11721.94
652.875	11757.42
653.227	11724.2
653.578	11760.35
653.93	11694.37
654.282	11695.72
654.633	11639.91
654.985	11716.97
655.337	11687.14
655.688	11671.32
656.039	11757.64
656.391	11636.52
656.742	11627.48
657.094	11703.86
657.445	11753.58
657.796	11692.79
658.147	11745.67
658.498	11707.25
658.849	11787.92
659.2	11710.64
659.551	11715.16
659.902	11740.02
660.253	11746.34
660.604	11780.02
660.955	11684.2
661.306	11700.7
661.656	11726.68
662.007	11721.49
662.358	11747.93
662.708	11718.32
663.059	11799.68
663.409	11672
663.76	11758.55
664.11	11796.96
664.461	11689.85
664.811	11743.18
665.161	11702.05
665.511	11720.36
665.862	11715.38
666.212	11687.81
666.562	11752.45
666.912	11705.44
667.262	11698.21
667.612	11743.18
667.962	11777.53
668.312	11717.19
668.662	11772.78
669.011	11730.07
669.361	11797.42
669.711	11695.5
670.06	11674.71
670.41	11633.13
670.76	11680.36
671.109	11680.81
671.459	11693.92
671.808	11704.76
672.157	11639.45
672.507	11604.43
672.856	11609.4
673.205	11616.86
673.554	11692.79
673.904	11647.59
674.253	11680.36
674.602	11609.85
674.951	11410.99
675.3	11394.04
675.649	11621.38
675.998	11522.62
676.346	11511.1
676.695	11580.47
677.044	11511.1
677.393	11468.38
677.741	11454.15
678.09	11496.63
678.438	11454.15
678.787	11548.61
679.135	11435.17
679.484	11383.42
679.832	11353.81
680.181	11402.4
680.529	11452.11
680.877	11374.38
681.225	11361.95
681.573	11428.84
681.922	11336.64
682.27	11269.75
682.618	11327.6
682.966	11293.25
683.314	11331.21
683.661	11229.75
684.009	11202.18
684.357	11172.57
684.705	11150.43
685.053	11126.47
685.4	11135.51
685.748	11092.8
686.095	11040.15
686.443	10990.21
686.79	10970.32
687.138	10991.79
687.485	10940.04
687.832	10915.41
688.18	10989.75
688.527	10874.28
688.874	10904.11
689.221	10811.45
689.568	10824.11
689.915	10840.15
690.262	10737.1
690.609	10737.56
690.956	10687.84
691.303	10633.38
691.65	10664.11
691.997	10590.22
692.344	10502.31
692.69	10528.07
693.037	10499.37
693.383	10448.98
693.73	10538.24
694.077	10373.05
694.423	10416.21
694.769	10399.49
695.116	10349.32
695.462	10322.43
695.808	10209.43
696.155	10244.24
696.501	10167.63
696.847	10174.63
697.193	10165.82
697.539	10175.99
697.885	10016.9
698.231	10001.08
698.577	10006.28
698.923	10006.05
699.269	9922.44
699.614	9886.51
699.96	9831.37
700.306	9881.99
700.651	9772.61
700.997	9729.22
701.342	9758.37
701.688	9679.73
702.033	9611.94
702.379	9707.98
702.724	9580.75
703.069	9657.13
703.415	9580.75
703.76	9515.22
704.105	9545.5
704.45	9515.44
704.795	9424.37
705.14	9418.95
705.485	9375.78
705.83	9333.53
706.175	9355.22
706.52	9316.13
706.865	9269.12
707.209	9276.8
707.554	9165.39
707.899	9203.81
708.243	9191.83
708.588	9129.92
708.932	9118.39
709.277	9099.41
709.621	9130.14
709.966	9032.97
710.31	9054.89
710.654	8987.09
710.998	9018.05
711.342	8976.7
711.687	8945.51
712.031	8864.84
712.375	8885.4
712.719	8922.92
713.063	8816.25
713.407	8862.35
713.75	8804.95
714.094	8809.02
714.438	8738.74
714.782	8806.99
715.125	8722.92
715.469	8750.94
715.812	8737.16
716.156	8705.29
716.499	8744.84
716.843	8758.17
717.186	8659.65
717.53	8754.78
717.873	8724.28
718.216	8667.33
718.559	8612.41
718.902	8573.55
719.246	8611.96
719.589	8535.58
719.932	8527.9
720.275	8474.57
720.617	8561.12
720.96	8510.27
721.303	8563.15
721.646	8525.19
721.989	8496.94
722.331	8544.85
722.674	8480.67
723.016	8522.02
723.359	8475.24
723.701	8461.46
724.044	8370.84
724.386	8377.62
724.729	8430.72
725.071	8383.27
725.413	8386.43
725.755	8422.59
726.097	8352.99
726.439	8295.36
726.782	8304.4
727.124	8376.94
727.465	8319.54
727.807	8343.95
728.149	8331.07
728.491	8275.25
728.833	8348.47
729.175	8316.6
729.516	8243.84
729.858	8254.23
730.199	8266.89
730.541	8318.41
730.882	8246.32
731.224	8280.9
731.565	8214.46
731.906	8277.96
732.248	8283.38
732.589	8239.32
732.93	8207.23
733.271	8265.76
733.612	8178.08
733.953	8230.28
734.294	8162.48
734.635	8211.07
734.976	8179.21
735.317	8156.16
735.658	8192.76
735.999	8242.26
736.339	8155.48
736.68	8226.89
737.021	8228.02
737.361	8164.74
737.702	8235.48
738.042	8230.05
738.383	8197.28
738.723	8282.03
739.063	8242.71
739.404	8283.84
739.744	8279.54
740.084	8303.27
740.424	8265.08
740.764	8211.52
741.104	8314.8
741.444	8315.47
741.784	8244.29
742.124	8282.93
742.464	8305.08
742.804	8305.53
743.143	8300.33
743.483	8317.51
743.823	8309.82
744.162	8302.14
744.502	8415.58
744.841	8419.2
745.181	8436.15
745.52	8463.49
745.86	8511.17
746.199	8508.01
746.538	8588.91
746.877	8594.56
747.216	8661
747.556	8618.74
747.895	8649.25
748.234	8675.46
748.573	8723.37
748.911	8757.72
749.25	8855.35
749.589	8878.4
749.928	8879.98
750.267	9071.39
750.605	9048.34
750.944	9166.75
751.283	9162.23
751.621	9266.41
751.96	9263.7
752.298	9373.52
752.636	9485.39
752.975	9482
753.313	9566.29
753.651	9684.93
753.989	9773.74
754.327	9836.56
754.666	9973.06
755.004	10086.73
755.342	10235.42
755.679	10276.1
756.017	10296.66
756.355	10485.81
756.693	10629.54
757.031	10725.35
757.368	10868.4
757.706	10927.38
758.044	11074.27
758.381	11239.01
758.719	11340.93
759.056	11523.3
759.394	11623.18
759.731	11710.86
760.068	11876.28
760.405	12020.69
760.743	12132.55
761.08	12391.98
761.417	12528.47
761.754	12560.79
762.091	12820.89
762.428	12887.33
