Data from hue_38_FLMS001491_00095.txt Node
Date: Tue Feb 07 17:32:14 GMT 2017
User: dcchb
Spectrometer: FLMS00149
Trigger mode: 0
Integration Time (sec): 2.000000E-2
Scans to average: 10
Electric dark correction enabled: true
Nonlinearity correction enabled: false
Boxcar width: 0
XAxis mode: Wavelengths
Number of Pixels in Spectrum: 2048
>>>>>Begin Spectral Data<<<<<
341.393	-3.79
341.776	-3.79
342.16	-3.79
342.543	-57.12
342.927	-73.84
343.31	-65.7
343.693	-71.35
344.077	-74.52
344.46	-58.7
344.843	-28.19
345.226	-43.33
345.61	-11.02
345.993	-42.65
346.376	-18.47
346.759	-0.17
347.142	17.01
347.525	64.91
347.908	71.02
348.291	73.73
348.674	74.18
349.057	113.27
349.44	111.24
349.823	144.69
350.206	154.63
350.588	202.99
350.971	214.51
351.354	231.01
351.737	250.9
352.119	273.95
352.502	259.48
352.884	273.04
353.267	302.42
353.65	314.4
354.032	310.1
354.414	317.56
354.797	324.34
355.179	313.49
355.562	328.86
355.944	328.18
356.326	337.67
356.709	339.03
357.091	340.39
357.473	362.98
357.855	335.19
358.238	358.24
358.62	356.66
359.002	344.23
359.384	345.81
359.766	350.56
360.148	350.1
360.53	353.49
360.912	337
361.294	327.05
361.676	337.9
362.057	342.19
362.439	335.64
362.821	338.13
363.203	332.48
363.584	324.57
363.966	333.38
364.348	329.54
364.729	316.43
365.111	323.21
365.493	342.42
365.874	319.82
366.256	339.03
366.637	333.61
367.019	318.47
367.4	319.82
367.781	325.47
368.163	311.46
368.544	316.21
368.925	334.74
369.306	329.31
369.688	335.64
370.069	323.21
370.45	317.79
370.831	330.67
371.212	315.08
371.593	340.84
371.974	332.7
372.355	328.18
372.736	336.32
373.117	320.27
373.498	312.82
373.879	320.05
374.26	351.69
374.641	328.41
375.021	315.53
375.402	344.23
375.783	324.57
376.163	323.89
376.544	338.13
376.925	335.19
377.305	357.11
377.686	347.62
378.066	332.03
378.447	345.81
378.827	337.22
379.208	345.13
379.588	338.35
379.968	331.12
380.349	319.6
380.729	336.54
381.109	324.79
381.489	352.59
381.87	335.64
382.25	351.46
382.63	360.72
383.01	351.69
383.39	346.49
383.77	366.15
384.15	354.4
384.53	372.02
384.91	371.57
385.29	360.72
385.67	370.67
386.049	377.67
386.429	359.14
386.809	365.92
387.189	356.88
387.568	359.6
387.948	362.98
388.328	345.81
388.707	377.45
389.087	356.43
389.466	370.44
389.846	375.87
390.225	373.61
390.605	361.85
390.984	365.02
391.363	388.29
391.743	384.91
392.122	375.87
392.501	384.91
392.881	383.78
393.26	363.21
393.639	368.63
394.018	394.85
394.397	395.98
394.776	377.45
395.155	405.47
395.534	387.16
395.913	411.57
396.292	419.03
396.671	385.13
397.05	409.54
397.429	391.91
397.808	419.48
398.186	404.11
398.565	418.8
398.944	403.44
399.323	413.83
399.701	406.83
400.08	421.51
400.458	413.38
400.837	425.36
401.215	420.84
401.594	429.2
401.972	425.13
402.351	436.66
402.729	436.2
403.107	440.72
403.486	433.49
403.864	439.37
404.242	447.95
404.62	448.63
404.999	442.98
405.377	444.79
405.755	427.39
406.133	431.01
406.511	434.62
406.889	442.53
407.267	461.06
407.645	456.54
408.023	443.43
408.401	468.52
408.779	469.42
409.156	467.16
409.534	469.2
409.912	466.26
410.29	479.14
410.667	468.97
411.045	504.45
411.422	491.79
411.8	502.87
412.178	522.75
412.555	461.29
412.933	487.73
413.31	501.51
413.687	517.78
414.065	500.16
414.442	504.9
414.819	519.36
415.197	536.09
415.574	527.95
415.951	514.85
416.328	548.97
416.705	510.78
417.082	538.8
417.46	517.56
417.837	530.66
418.214	529.08
418.591	546.48
418.967	537.9
419.344	553.71
419.721	533.6
420.098	540.83
420.475	562.75
420.852	547.84
421.228	564.56
421.605	573.83
421.982	578.35
422.358	592.58
422.735	581.28
423.111	572.7
423.488	593.04
423.864	590.1
424.241	592.36
424.617	601.62
424.994	607.72
425.37	600.94
425.746	625.12
426.123	593.26
426.499	618.8
426.875	640.27
427.251	632.13
427.627	639.14
428.003	635.07
428.379	662.19
428.756	641.62
429.132	672.13
429.507	663.99
429.883	668.51
430.259	654.5
430.635	696.31
431.011	682.52
431.387	686.59
431.763	706.25
432.138	716.87
432.514	694.73
432.89	688.17
433.265	722.52
433.641	703.99
434.016	729.3
434.392	732.01
434.767	723.2
435.143	724.56
435.518	744.67
435.894	755.52
436.269	750.32
436.644	777.89
437.02	777.44
437.395	775.86
437.77	757.32
438.145	786.93
438.52	805.69
438.895	816.31
439.271	803.88
439.646	801.62
440.021	832.35
440.395	815.18
440.77	825.12
441.145	817.89
441.52	860.15
441.895	856.98
442.27	841.39
442.645	859.47
443.019	860.6
443.394	864.67
443.769	875.29
444.143	861.5
444.518	856.31
444.892	885.91
445.267	872.35
445.641	888.17
446.016	885.46
446.39	882.52
446.764	912.8
447.139	894.5
447.513	906.7
447.887	930.43
448.262	917.09
448.636	921.84
449.01	931.78
449.384	930.43
449.758	960.03
450.132	990.76
450.506	964.32
450.88	958.22
451.254	962.52
451.628	982.63
452.002	972.91
452.376	1020.37
452.75	974.49
453.123	1012.46
453.497	1003.65
453.871	1038.22
454.244	1052.91
454.618	1055.85
454.992	1070.31
455.365	1080.48
455.739	1090.2
456.112	1108.05
456.486	1103.53
456.859	1092.91
457.232	1138.33
457.606	1157.09
457.979	1142.17
458.352	1161.61
458.725	1171.78
459.099	1202.51
459.472	1208.61
459.845	1206.8
460.218	1207.71
460.591	1225.56
460.964	1240.02
461.337	1280.02
461.71	1291.55
462.083	1305.56
462.456	1341.94
462.829	1335.61
463.201	1365.22
463.574	1372
463.947	1359.79
464.32	1405.22
464.692	1440.24
465.065	1433.47
465.438	1463.75
465.81	1488.83
466.183	1466.91
466.555	1501.49
466.928	1516.4
467.3	1483.41
467.672	1559.56
468.045	1592.78
468.417	1596.4
468.789	1626.68
469.161	1619.45
469.534	1654.02
469.906	1697.41
470.278	1696.06
470.65	1727.24
471.022	1789.39
471.394	1821.7
471.766	1835.94
472.138	1846.79
472.51	1902.38
472.882	1942.83
473.253	1925.2
473.625	1996.84
473.997	2058.31
474.369	2080.68
474.74	2112.54
475.112	2151.64
475.484	2192.99
475.855	2259.43
476.227	2278.64
476.598	2359.09
476.97	2383.27
477.341	2436.38
477.713	2503.04
478.084	2512.53
478.455	2592.08
478.827	2609.03
479.198	2757.05
479.569	2753.2
479.94	2856.48
480.311	2898.74
480.682	2981.22
481.053	3035.46
481.424	3157.04
481.795	3192.06
482.166	3277.71
482.537	3383.24
482.908	3435.22
483.279	3508.21
483.65	3600.87
484.021	3669.79
484.391	3792.27
484.762	3818.71
485.133	3861.42
485.503	3999.73
485.874	4104.36
486.244	4232.94
486.615	4310
486.985	4389.09
487.356	4448.53
487.726	4596.09
488.097	4703.21
488.467	4775.52
488.837	4926.93
489.207	5008.51
489.578	5108.17
489.948	5185.91
490.318	5336.19
490.688	5370.76
491.058	5520.14
491.428	5572.11
491.798	5719.23
492.168	5869.51
492.538	5917.64
492.908	6049.84
493.278	6168.26
493.648	6260.91
494.017	6344.97
494.387	6432.66
494.757	6577.96
495.126	6655.47
495.496	6734.12
495.866	6834.91
496.235	6872.42
496.605	6993.32
496.974	7076.25
497.344	7188.57
497.713	7337.04
498.082	7368.22
498.452	7521.44
498.821	7547.2
499.19	7638.73
499.559	7763.69
499.928	7858.15
500.298	7913.75
500.667	8045.49
501.036	8101.54
501.405	8163.23
501.774	8182.44
502.143	8351.7
502.512	8402.77
502.88	8533.62
503.249	8522.54
503.618	8667.17
503.987	8698.58
504.356	8742.65
504.724	8873.04
505.093	8951.91
505.462	8967.05
505.83	9106.26
506.199	9186.93
506.567	9316.87
506.936	9321.62
507.304	9470.54
507.672	9450.88
508.041	9525.46
508.409	9652.68
508.777	9814.49
509.145	9864.66
509.514	9880.25
509.882	9898.78
510.25	9989.4
510.618	9981.94
510.986	10108.94
511.354	10241.37
511.722	10273.46
512.09	10354.81
512.458	10428.03
512.826	10472.55
513.193	10523.17
513.561	10573.79
513.929	10720.9
514.297	10767.91
514.664	10880
515.032	10917.74
515.4	11014
515.767	11017.17
516.135	11185.07
516.502	11056.26
516.869	11306.43
517.237	11395.46
517.604	11314.56
517.972	11453.77
518.339	11515.91
518.706	11501.9
519.073	11627.55
519.44	11681.56
519.808	11753.19
520.175	11791.61
520.542	11910.93
520.909	12022.34
521.276	12064.37
521.643	12151.15
522.009	12260.07
522.376	12302.11
522.743	12384.82
523.11	12551.14
523.477	12505.04
523.843	12659.16
524.21	12818.25
524.577	12855.76
524.943	12911.58
525.31	12911.36
525.676	13044.23
526.043	13151.58
526.409	13204.23
526.776	13324
527.142	13342.98
527.508	13418.01
527.874	13582.75
528.241	13580.49
528.607	13633.14
528.973	13774.61
529.339	13773.71
529.705	14003.3
530.071	14075.39
530.437	14191.1
530.803	14187.03
531.169	14306.8
531.535	14271.09
531.901	14300.02
532.267	14416.63
532.632	14533.69
532.998	14526.68
533.364	14638.99
533.73	14735.71
534.095	14824.75
534.461	14857.74
534.826	14940
535.192	15006.22
535.557	15077.4
535.923	15049.15
536.288	15173.89
536.653	15328.69
537.019	15145.87
537.384	15342.48
537.749	15385.64
538.114	15425.19
538.479	15512.87
538.845	15563.04
539.21	15589.48
539.575	15658.63
539.94	15685.75
540.305	15722.35
540.67	15792.86
541.034	15849.58
541.399	16029.69
541.764	15927.55
542.129	15949.02
542.494	16135.45
542.858	16215.9
543.223	16245.51
543.587	16312.17
543.952	16252.28
544.316	16414.31
544.681	16426.97
545.045	16543.12
545.41	16612.28
545.774	16630.35
546.138	16657.92
546.503	16814.3
546.867	16857.01
547.231	16986.73
547.595	16889.1
547.959	16968.2
548.324	17076.9
548.688	17085.03
549.052	17120.51
549.416	17148.31
549.779	17250.9
550.143	17283.44
550.507	17389.2
550.871	17433.5
551.235	17370.67
551.599	17588.97
551.962	17546.71
552.326	17795.29
552.689	17729.08
553.053	17707.16
553.417	17745.35
553.78	18015.18
554.143	17943.77
554.507	18061.28
554.87	18024.44
555.234	18325
555.597	18108.51
555.96	18289.07
556.323	18289.29
556.686	18341.27
557.05	18467.14
557.413	18466.24
557.776	18670.53
558.139	18679.79
558.502	18734.71
558.865	18691.77
559.228	18966.56
559.59	18919.56
559.953	18900.8
560.316	19239.32
560.679	19133.34
561.041	19316.84
561.404	19330.62
561.767	19441.58
562.129	19414.69
562.492	19587.56
562.854	19528.58
563.217	19520.9
563.579	19536.27
563.941	19775.81
564.304	19914.79
564.666	20036.82
565.028	19973.54
565.39	20095.8
565.753	20130.6
566.115	20164.05
566.477	20293.53
566.839	20419.63
567.201	20467.31
567.563	20510.48
567.925	20727.2
568.287	20633.19
568.648	20783.46
569.01	20910.69
569.372	21072.27
569.734	20929.45
570.095	21119.05
570.457	21243.34
570.819	21236.56
571.18	21341.64
571.542	21444.46
571.903	21467.74
572.265	21488.31
572.626	21667.74
572.987	21696.21
573.349	21834.51
573.71	21854.85
574.071	21994.05
574.432	22106.14
574.794	22259.36
575.155	22331.45
575.516	22412.35
575.877	22509.75
576.238	22632
576.599	22822.73
576.96	22867.03
577.32	22951.77
577.681	23028.83
578.042	23269.28
578.403	23319.22
578.763	23501.36
579.124	23623.39
579.485	23804.4
579.845	23990.39
580.206	23942.93
580.566	24091.4
580.927	24384.05
581.287	24529.36
581.648	24522.58
582.008	24800.99
582.368	24832.17
582.728	25028.32
583.089	25174.54
583.449	25398.26
583.809	25577.92
584.169	25686.84
584.529	25832.37
584.889	26168.86
585.249	26299.93
585.609	26334.51
585.969	26700.6
586.329	26798.22
586.688	27197.99
587.048	27230.53
587.408	27342.16
587.768	27650.63
588.127	27971.07
588.487	28080.9
588.846	28470.95
589.206	28477.5
589.565	28632.3
589.925	29045.17
590.284	29102.79
590.643	29304.37
591.003	29611.93
591.362	29891.7
591.721	30010.34
592.08	30171.01
592.44	30442.65
592.799	30575.07
593.158	30626.6
593.517	30946.36
593.876	31265.22
594.235	31324.43
594.593	31638.55
594.952	31707.25
595.311	31855.94
595.67	32212.99
596.029	32659.54
596.387	32715.58
596.746	32933.65
597.104	32971.39
597.463	33221.56
597.822	33504.71
598.18	33529.12
598.538	33788.77
598.897	34045.49
599.255	33974.76
599.613	34581.52
599.972	34516.44
600.33	34791.68
600.688	34765.24
601.046	35024.45
601.404	35367.26
601.762	35454.27
602.12	35752.11
602.478	35853.58
602.836	35979
603.194	35982.16
603.552	36203.62
603.91	36167.02
604.268	36506.89
604.625	36541.02
604.983	36926.32
605.341	36870.95
605.698	37118.63
606.056	37307.78
606.413	37362.46
606.771	37685.39
607.128	37920.64
607.485	37771.49
607.843	37967.19
608.2	38185.72
608.557	38468.2
608.914	38448.09
609.272	38514.3
609.629	38744.35
609.986	39046.49
610.343	38892.37
610.7	39264.79
611.057	39257.1
611.414	39288.06
611.771	39496.19
612.127	39744.32
612.484	39733.7
612.841	39950.87
613.198	39947.93
613.554	40068.38
613.911	40267.25
614.267	40390.41
614.624	40290.3
614.98	40559.67
615.337	40756.72
615.693	40867.68
616.05	40867.23
616.406	41005.53
616.762	41091.18
617.118	41204.62
617.475	41216.37
617.831	41318.97
618.187	41452.98
618.543	41501.34
618.899	41671.96
619.255	41701.56
619.611	41908.33
619.967	42050.25
620.323	42051.61
620.678	42011.38
621.034	41796.92
621.39	41960.99
621.746	42051.61
622.101	42616.56
622.457	42274.88
622.812	42341.32
623.168	42528.66
623.523	42583.8
623.879	42649.33
624.234	42450.47
624.589	42609.56
624.945	42719.84
625.3	42812.49
625.655	42777.46
626.01	42948.53
626.365	42914.18
626.72	42849.33
627.075	42806.84
627.43	42847.29
627.785	42843.9
628.14	42966.61
628.495	43141.3
628.85	43004.12
629.205	43025.37
629.559	43164.8
629.914	43091.35
630.269	43104.91
630.623	43053.16
630.978	43048.87
631.332	43098.58
631.687	43250.9
632.041	42991.24
632.396	43148.98
632.75	43098.81
633.104	43221.29
633.459	43041.18
633.813	43013.39
634.167	42974.97
634.521	43068.53
634.875	43088.64
635.229	43172.93
635.583	42818.59
635.937	42900.17
636.291	42958.02
636.645	42998.25
636.999	42870.57
637.352	43144.46
637.706	42784.24
638.06	42973.16
638.413	42927.06
638.767	42866.95
639.121	42928.87
639.474	42685.49
639.828	42797.12
640.181	42806.61
640.534	42722.55
640.888	42553.74
641.241	42375.44
641.594	42529.79
641.947	42675.32
642.301	42632.16
642.654	42602.78
643.007	42574.53
643.36	42634.19
643.713	42551.48
644.066	42581.08
644.419	42453.18
644.771	42206.86
645.124	41934.77
645.477	41758.51
645.83	41629.47
646.182	41398.06
646.535	41265.64
646.888	41488.46
647.24	41271.74
647.593	41332.76
647.945	41357.16
648.298	41146.77
648.65	41215.7
649.002	41057.73
649.355	41294.34
649.707	41180.67
650.059	41342.92
650.411	41772.52
650.763	41829.24
651.115	42262
651.467	42114.66
651.819	42160.76
652.171	41967.77
652.523	41951.04
652.875	41881.22
653.227	41689.58
653.578	41941.1
653.93	41781.56
654.282	41849.35
654.633	41883.47
654.985	41876.92
655.337	41877.37
655.688	41850.26
656.039	41874.21
656.391	41601
656.742	41782.01
657.094	41697.49
657.445	41822.69
657.796	41779.97
658.147	41589.25
658.498	41691.39
658.849	41706.98
659.2	41668.79
659.551	41481
659.902	41530.04
660.253	41577.49
660.604	41655.91
660.955	41410.04
661.306	41666.08
661.656	41521.22
662.007	41600.32
662.358	41572.75
662.708	41585.18
663.059	41685.97
663.409	41417.27
663.76	41689.58
664.11	41712.86
664.461	41552.64
664.811	41499.3
665.161	41462.92
665.511	41405.52
665.862	41433.09
666.212	41518.96
666.562	41438.97
666.912	41453.2
667.262	41343.6
667.612	41473.32
667.962	41530.04
668.312	41345.64
668.662	41685.29
669.011	41503.82
669.361	41466.76
669.711	41312.19
670.06	41370.72
670.41	41223.83
670.76	41223.83
671.109	41352.87
671.459	41388.57
671.808	41250.5
672.157	41345.86
672.507	41187
672.856	41056.38
673.205	41248.24
673.554	41335.92
673.904	41262.47
674.253	41454.56
674.602	41186.32
674.951	40778.42
675.3	40511.31
675.649	41127.34
675.998	40997.85
676.346	41220.44
676.695	41269.71
677.044	40895.03
677.393	41055.7
677.741	41072.87
678.09	41057.51
678.438	40802.15
678.787	40954.46
679.135	40744.75
679.484	40625.2
679.832	40810.28
680.181	40645.09
680.529	40642.15
680.877	40622.49
681.225	40474.02
681.573	40685.77
681.922	40367.81
682.27	40349.96
682.618	40539.78
682.966	40125.33
683.314	40252.56
683.661	40235.83
684.009	40082.39
684.357	40098.66
684.705	39990.87
685.053	40093.47
685.4	40120.13
685.748	39683.08
686.095	39849.18
686.443	39634.04
686.79	39582.07
687.138	39776.19
687.485	39619.58
687.832	39287.61
688.18	39509.98
688.527	39293.49
688.874	39163.77
689.221	39321.06
689.568	39077
689.915	39114.06
690.262	39030.22
690.609	39011.01
690.956	38796.78
691.303	38851.01
691.65	38620.28
691.997	38683.33
692.344	38379.39
692.69	38340.74
693.037	38383.23
693.383	38042.22
693.73	38220.97
694.077	38006.29
694.423	37951.6
694.769	37808.33
695.116	37884.94
695.462	37710.25
695.808	37553.19
696.155	37656.47
696.501	37475
696.847	37347.55
697.193	37206.08
697.539	37347.1
697.885	37118.18
698.231	36999.08
698.577	37054.22
698.923	36853.78
699.269	36769.71
699.614	36551.64
699.96	36522.03
700.306	36529.27
700.651	36270.06
700.997	36319.78
701.342	36247.46
701.688	36166.11
702.033	36037.08
702.379	36046.79
702.724	35861.26
703.069	36029.17
703.415	35647.93
703.76	35533.59
704.105	35600.93
704.45	35419.92
704.795	35338.79
705.14	35227.83
705.485	35247.04
705.83	35101.73
706.175	34997.78
706.52	34959.36
706.865	34783.32
707.209	34757.79
707.554	34655.19
707.899	34787.62
708.243	34647.51
708.588	34484.12
708.932	34372.49
709.277	34289.55
709.621	34267.18
709.966	34060.86
710.31	34346.72
710.654	33963.01
710.998	34090.91
711.342	34007.07
711.687	33971.59
712.031	33633.07
712.375	33724.14
712.719	33727.08
713.063	33601.88
713.407	33686.4
713.75	33483.24
714.094	33502
714.438	33303.59
714.782	33330.03
715.125	33125.74
715.469	33165.74
715.812	32963.03
716.156	32834.9
716.499	32889.14
716.843	32993.31
717.186	32652.53
717.53	32780.21
717.873	32785.18
718.216	32710.38
718.559	32457.96
718.902	32404.63
719.246	32506.55
719.589	32522.82
719.932	32223.16
720.275	32246.67
720.617	32290.51
720.96	32129.83
721.303	32239.66
721.646	32192.43
721.989	31892.33
722.331	32063.17
722.674	32002.38
723.016	31958.31
723.359	31943.4
723.701	31911.53
724.044	31784.76
724.386	31697.08
724.729	31767.36
725.071	31619.79
725.413	31541.83
725.755	31523.52
726.097	31496.4
726.439	31339.57
726.782	31341.38
727.124	31449.63
727.465	31251.21
727.807	31263.19
728.149	31004.66
728.491	31175.28
728.833	31118.33
729.175	31002.41
729.516	30870.21
729.858	30895.06
730.199	30958.79
730.541	30912.92
730.882	30806.7
731.224	30852.35
731.565	30605.13
731.906	30712.24
732.248	30689.65
732.589	30416.21
732.93	30335.53
733.271	30429.99
733.612	30545.02
733.953	30483.32
734.294	30270.67
734.635	30389.77
734.976	30306.6
735.317	30044.69
735.658	30072.94
735.999	29994.07
736.339	30032.26
736.68	30135.54
737.021	29893.28
737.361	29788.88
737.702	29993.39
738.042	29894.86
738.383	29775.54
738.723	29866.39
739.063	29742.78
739.404	29848.99
739.744	29645.6
740.084	29569.67
740.424	29509.79
740.764	29543.23
741.104	29684.93
741.444	29334.2
741.784	29497.59
742.124	29490.81
742.464	29378.49
742.804	29299.85
743.143	29255.56
743.483	29339.85
743.823	29120.19
744.162	29145.5
744.502	29159.74
744.841	29087.65
745.181	29162.23
745.52	28981.44
745.86	29206.52
746.199	28940.54
746.538	28869.35
746.877	28948
747.216	28937.15
747.556	28863.7
747.895	28855.34
748.234	28653.31
748.573	28753.88
748.911	28741
749.25	28602.47
749.589	28273.66
749.928	28528.35
750.267	28575.58
750.605	28462.13
750.944	28453.55
751.283	28259.65
751.621	28329.26
751.96	28179.2
752.298	28144.18
752.636	28215.59
752.975	28149.37
753.313	27990.51
753.651	28054.91
753.989	27818.31
754.327	27768.59
754.666	27736.73
755.004	27872.77
755.342	27722.94
755.679	27615.83
756.017	27556.17
756.355	27639.78
756.693	27418.54
757.031	27542.38
757.368	27340.81
