Data from hue_30_FLMS001491_98.txt Node
Date: Mon Feb 06 15:06:25 GMT 2017
User: dcchb
Spectrometer: FLMS00149
Trigger mode: 0
Integration Time (sec): 2.000000E-2
Scans to average: 10
Electric dark correction enabled: true
Nonlinearity correction enabled: false
Boxcar width: 0
XAxis mode: Wavelengths
Number of Pixels in Spectrum: 2048
>>>>>Begin Spectral Data<<<<<
341.393	-20.69
341.776	-20.69
342.16	-20.69
342.543	-66.79
342.927	-70.18
343.31	-66.11
343.693	-83.51
344.077	-67.7
344.46	-41.03
344.843	-49.17
345.226	-51.65
345.61	-21.82
345.993	-15.49
346.376	4.62
346.759	-8.04
347.142	3.94
347.525	38.74
347.908	60.44
348.291	74.22
348.674	124.62
349.057	97.95
349.44	122.58
349.823	137.27
350.206	159.42
350.588	184.05
350.971	218.4
351.354	221.79
351.737	241.45
352.119	265.4
352.502	265.63
352.884	267.44
353.267	283.03
353.65	301.79
354.032	315.8
354.414	309.47
354.797	300.88
355.179	323.03
355.562	323.25
355.944	310.83
356.326	334.33
356.709	337.49
357.091	322.8
357.473	341.78
357.855	337.72
358.238	343.59
358.62	328.23
359.002	357.6
359.384	307.21
359.766	344.04
360.148	352.18
360.53	346.3
360.912	321.9
361.294	332.97
361.676	326.87
362.057	336.81
362.439	328.68
362.821	344.72
363.203	333.2
363.584	329.58
363.966	341.56
364.348	337.27
364.729	328.23
365.111	312.18
365.493	333.42
365.874	303.59
366.256	326.64
366.637	311.05
367.019	311.96
367.4	306.98
367.781	299.53
368.163	322.35
368.544	312.41
368.925	290.94
369.306	316.47
369.688	327.55
370.069	301.56
370.45	292.97
370.831	309.02
371.212	305.85
371.593	322.35
371.974	299.75
372.355	313.31
372.736	307.44
373.117	319.19
373.498	325.97
373.879	322.12
374.26	313.08
374.641	320.09
375.021	309.02
375.402	315.8
375.783	310.37
376.163	324.38
376.544	311.96
376.925	320.54
377.305	312.41
377.686	312.41
378.066	324.38
378.447	339.75
378.827	312.86
379.208	359.86
379.588	341.11
379.968	334.55
380.349	326.19
380.729	322.12
381.109	330.03
381.489	323.71
381.87	327.32
382.25	316.25
382.63	324.38
383.01	342.69
383.39	343.14
383.77	335.91
384.15	329.81
384.53	343.14
384.91	335.23
385.29	338.4
385.67	319.41
386.049	350.37
386.429	348.79
386.809	353.76
387.189	356.25
387.568	345.17
387.948	348.11
388.328	354.89
388.707	350.15
389.087	358.51
389.466	351.28
389.846	349.24
390.225	351.95
390.605	356.02
390.984	354.21
391.363	349.02
391.743	350.15
392.122	375.46
392.501	368.68
392.881	350.82
393.26	375.46
393.639	360.32
394.018	384.04
394.397	366.42
394.776	353.99
395.155	358.06
395.534	372.52
395.913	372.97
396.292	363.71
396.671	378.39
397.05	377.94
397.429	373.87
397.808	381.56
398.186	384.72
398.565	374.1
398.944	392.18
399.323	362.58
399.701	381.33
400.08	383.37
400.458	379.75
400.837	375
401.215	381.78
401.594	377.04
401.972	385.4
402.351	384.5
402.729	402.35
403.107	386.53
403.486	391.28
403.864	399.41
404.242	405.96
404.62	405.29
404.999	411.39
405.377	407.77
405.755	413.42
406.133	377.49
406.511	411.84
406.889	417.49
407.267	409.35
407.645	409.58
408.023	419.07
408.401	434.21
408.779	394.21
409.156	418.62
409.534	414.33
409.912	414.55
410.29	409.13
410.667	429.01
411.045	445.28
411.422	435.12
411.8	448
412.178	427.43
412.555	442.12
412.933	457.49
413.31	473.98
413.687	452.97
414.065	455.23
414.442	472.4
414.819	446.19
415.197	476.02
415.574	455.45
415.951	469.69
416.328	473.08
416.705	465.62
417.082	481.44
417.46	480.54
417.837	480.54
418.214	471.05
418.591	482.35
418.967	498.39
419.344	480.54
419.721	495.68
420.098	485.06
420.475	506.53
420.852	488
421.228	490.03
421.605	515.34
421.982	503.14
422.358	512.63
422.735	512.85
423.111	505.85
423.488	508.11
423.864	495.23
424.241	509.46
424.617	526.86
424.994	516.02
425.37	511.72
425.746	525.96
426.123	546.07
426.499	527.99
426.875	523.93
427.251	551.27
427.627	546.53
428.003	532.29
428.379	551.72
428.756	568.45
429.132	569.58
429.507	541.1
429.883	588.33
430.259	558.05
430.635	584.94
431.011	562.57
431.387	598.95
431.763	597.15
432.138	617.94
432.514	589.01
432.89	600.54
433.265	611.16
433.641	615.68
434.016	591.72
434.392	605.05
434.767	640.08
435.143	636.24
435.518	621.78
435.894	618.84
436.269	640.76
436.644	668.1
437.02	638.05
437.395	647.09
437.77	642.57
438.145	665.39
438.52	680.53
438.895	669.91
439.271	709.23
439.646	699.52
440.021	692.96
440.395	712.62
440.77	678.5
441.145	679.63
441.52	706.97
441.895	705.17
442.27	712.17
442.645	704.94
443.019	711.04
443.394	690.02
443.769	700.19
444.143	742.68
444.518	727.31
444.892	738.84
445.267	731.61
445.641	727.76
446.016	715.79
446.39	756.92
446.764	728.67
447.139	727.99
447.513	749.91
447.887	745.39
448.262	767.99
448.636	740.64
449.01	774.99
449.384	766.86
449.758	773.64
450.132	768.89
450.506	768.44
450.88	787.2
451.254	791.49
451.628	809.57
452.002	799.85
452.376	800.08
452.75	818.83
453.123	793.52
453.497	845.05
453.871	854.31
454.244	852.96
454.618	876.46
454.992	874.2
455.365	850.7
455.739	866.29
456.112	862
456.486	875.33
456.859	889.79
457.232	871.26
457.606	898.38
457.979	920.3
458.352	907.42
458.725	956.68
459.099	945.61
459.472	945.61
459.845	965.95
460.218	974.08
460.591	990.81
460.964	981.09
461.337	986.74
461.71	1025.83
462.083	1012.73
462.456	1033.52
462.829	1022.22
463.201	1036.91
463.574	1076.68
463.947	1067.87
464.32	1072.61
464.692	1105.38
465.065	1114.19
465.438	1105.83
465.81	1103.8
466.183	1137.92
466.555	1163.46
466.928	1149.45
467.3	1156.23
467.672	1183.12
468.045	1211.59
468.417	1183.8
468.789	1208.2
469.161	1260.86
469.534	1244.81
469.906	1316
470.278	1301.31
470.65	1296.56
471.022	1343.79
471.394	1339.05
471.766	1390.12
472.138	1419.27
472.51	1427.86
472.882	1445.71
473.253	1456.56
473.625	1473.28
473.997	1524.8
474.369	1488.2
474.74	1542.43
475.112	1567.06
475.484	1597.57
475.855	1627.85
476.227	1630.11
476.598	1725.7
476.97	1695.65
477.341	1738.81
477.713	1788.07
478.084	1800.5
478.455	1838.02
478.827	1880.95
479.198	1939.26
479.569	1954.17
479.94	2023.1
480.311	2023.55
480.682	2093.83
481.053	2118.01
481.424	2205.01
481.795	2237.55
482.166	2263.99
482.537	2293.37
482.908	2377.44
483.279	2366.82
483.65	2441.16
484.021	2516.19
484.391	2525.46
484.762	2563.42
485.133	2591.22
485.503	2683.64
485.874	2744.89
486.244	2761.61
486.615	2831.44
486.985	2908.27
487.356	2936.97
487.726	2992.56
488.097	3048.83
488.467	3070.07
488.837	3172.9
489.207	3223.97
489.578	3279.33
489.948	3304.42
490.318	3398.43
490.688	3402.72
491.058	3491.76
491.428	3579.44
491.798	3576.05
492.168	3694.92
492.538	3703.5
492.908	3809.04
493.278	3798.87
493.648	3841.81
494.017	3942.82
494.387	3943.5
494.757	4021.69
495.126	4073.44
495.496	4092.65
495.866	4151.63
496.235	4244.06
496.605	4268.69
496.974	4325.86
497.344	4391.17
497.713	4407.67
498.082	4474.56
498.452	4494.44
498.821	4495.8
499.19	4549.36
499.559	4616.25
499.928	4678.62
500.298	4715.23
500.667	4760.88
501.036	4701.67
501.405	4807.66
501.774	4828.9
502.143	4893.98
502.512	4889.91
502.88	4980.76
503.249	4965.84
503.618	5046.75
503.987	5052.4
504.356	5123.35
504.724	5105.28
505.093	5111.15
505.462	5200.19
505.83	5208.78
506.199	5204.93
506.567	5331.26
506.936	5366.74
507.304	5380.97
507.672	5392.27
508.041	5432.5
508.409	5458.03
508.777	5502.78
509.145	5569.67
509.514	5572.16
509.882	5606.05
510.25	5612.83
510.618	5641.08
510.986	5671.36
511.354	5737.8
511.722	5751.81
512.09	5841.08
512.458	5860.06
512.826	5900.28
513.193	5852.15
513.561	5891.47
513.929	5968.76
514.297	5980.73
514.664	6055.53
515.032	6034.97
515.4	6068.41
515.767	6067.28
516.135	6147.06
516.502	6102.76
516.869	6161.07
517.237	6247.84
517.604	6218.92
517.972	6244.68
518.339	6305.7
518.706	6275.41
519.073	6303.44
519.44	6320.61
519.808	6419.37
520.175	6415.52
520.542	6511.79
520.909	6519.48
521.276	6476.54
521.643	6609.87
522.009	6579.13
522.376	6629.76
522.743	6724.44
523.11	6721.05
523.477	6757.89
523.843	6815.29
524.21	6819.35
524.577	6891.67
524.943	6899.58
525.31	6915.62
525.676	6922.85
526.043	7001.04
526.409	7028.16
526.776	7130.76
527.142	7161.49
527.508	7163.3
527.874	7241.72
528.241	7252.79
528.607	7314.26
528.973	7346.57
529.339	7379.34
529.705	7357.65
530.071	7477.87
530.437	7502.27
530.803	7511.09
531.169	7595.83
531.535	7556.28
531.901	7557.87
532.267	7602.84
532.632	7692.1
532.998	7725.32
533.364	7707.47
533.73	7700.69
534.095	7846.45
534.461	7892.77
534.826	7906.33
535.192	7969.15
535.557	7993.56
535.923	8005.09
536.288	8008.93
536.653	8080.34
537.019	8013.9
537.384	8115.14
537.749	8149.94
538.114	8122.15
538.479	8156.27
538.845	8213.89
539.21	8233.1
539.575	8311.07
539.94	8270.84
540.305	8322.82
540.67	8325.08
541.034	8389.71
541.399	8390.61
541.764	8409.82
542.129	8538.18
542.494	8468.58
542.858	8543.6
543.223	8517.62
543.587	8662.02
543.952	8645.97
544.316	8709.02
544.681	8756.03
545.045	8781.56
545.41	8767.78
545.774	8846.42
546.138	8801.45
546.503	8925.51
546.867	8857.49
547.231	8971.84
547.595	8961.9
547.959	9037.6
548.324	9039.64
548.688	9061.1
549.052	9100.88
549.416	9144.72
549.779	9122.34
550.143	9193.3
550.507	9206.86
550.871	9246.41
551.235	9216.81
551.599	9300.65
551.962	9354.66
552.326	9385.84
552.689	9382
553.053	9457.93
553.417	9388.33
553.78	9571.82
554.143	9535.22
554.507	9591.26
554.87	9594.65
555.234	9732.72
555.597	9672.84
555.96	9684.14
556.323	9732.27
556.686	9785.83
557.05	9767.53
557.413	9843.68
557.776	9923.68
558.139	9930.01
558.502	9917.35
558.865	9949.89
559.228	10029.67
559.59	10032.6
559.953	10073.28
560.316	10165.26
560.679	10071.7
561.041	10202.99
561.404	10230.56
561.767	10207.29
562.129	10272.37
562.492	10332.93
562.854	10403.22
563.217	10321.64
563.579	10407.28
563.941	10391.69
564.304	10534.51
564.666	10494.74
565.028	10555.08
565.39	10561.86
565.753	10706.71
566.115	10681.17
566.477	10734.73
566.839	10785.8
567.201	10831.23
567.563	10736.54
567.925	10916.87
568.287	10867.61
568.648	10941.51
569.01	10930.43
569.372	11007.95
569.734	11073.25
570.095	11095.17
570.457	11168.84
570.819	11177.88
571.18	11189.41
571.542	11313.47
571.903	11300.82
572.265	11370.65
572.626	11357.31
572.987	11501.49
573.349	11534.03
573.71	11623.75
574.071	11658.1
574.432	11732.45
574.794	11856.06
575.155	11860.13
575.516	11876.4
575.877	12024.64
576.238	11991.42
576.599	12210.17
576.96	12284.52
577.32	12283.39
577.681	12444.29
578.042	12502.14
578.403	12595.93
578.763	12736.26
579.124	12849.25
579.485	12957.95
579.845	13099.42
580.206	13159.98
580.566	13267.09
580.927	13403.59
581.287	13488.78
581.648	13662.34
582.008	13793.86
582.368	13880.41
582.728	14148.43
583.089	14381.19
583.449	14461.87
583.809	14598.59
584.169	14670.22
584.529	14855.98
584.889	15191.11
585.249	15368.73
585.609	15461.39
585.969	15688.05
586.329	15897.31
586.688	16123.52
587.048	16327.81
587.408	16438.99
587.768	16868.58
588.127	16851.41
588.487	17085.3
588.846	17392.64
589.206	17584.95
589.565	17819.97
589.925	18088.44
590.284	18297.7
590.643	18513.28
591.003	18803.9
591.362	19168.18
591.721	19280.95
592.08	19620.15
592.44	19788.05
592.799	20120.25
593.158	20373.12
593.517	20567.47
593.876	20901.92
594.235	21225.08
594.593	21481.57
594.952	21770.6
595.311	21838.85
595.67	22194.54
596.029	22563.35
596.387	22798.14
596.746	23011.25
597.104	23156.55
597.463	23432.48
597.822	23843.77
598.18	23893.71
598.538	24229.52
598.897	24546.8
599.255	24538.66
599.613	25163.05
599.972	25231.53
600.33	25519.2
600.688	25654.57
601.046	25847.55
601.404	26268.56
601.762	26368.45
602.12	26722.11
602.478	27044.13
602.836	27138.37
603.194	27275.31
603.552	27617.23
603.91	27689.31
604.268	27974.73
604.625	28189.64
604.983	28398.67
605.341	28503.98
605.698	28833.69
606.056	29140.58
606.413	29066.23
606.771	29436.39
607.128	29574.01
607.485	29624.4
607.843	29936.49
608.2	30128.8
608.557	30494.44
608.914	30533.53
609.272	30693.08
609.629	31020.53
609.986	31272.5
610.343	31218.26
610.7	31652.83
611.057	31676.55
611.414	31860.5
611.771	31883.55
612.127	32196.09
612.484	32282.87
612.841	32559.92
613.198	32547.49
613.554	32670.43
613.911	32916.07
614.267	33145.44
614.624	33184.99
614.98	33250.3
615.337	33453.68
615.693	33631.98
616.05	33743.62
616.406	34028.13
616.762	33845.99
617.118	34008.92
617.475	34157.84
617.831	34397.39
618.187	34532.52
618.543	34531.62
618.899	35073.53
619.255	34867.88
619.611	35001.44
619.967	35064.26
620.323	35255.9
620.678	35258.15
621.034	35191.72
621.39	35220.64
621.746	35332.05
622.101	35859.04
622.457	35628.31
622.812	35700.18
623.168	35936.78
623.523	35892.49
623.879	36134.97
624.234	35889.78
624.589	36126.38
624.945	36160.96
625.3	36282.99
625.655	36283.89
626.01	36383.55
626.365	36471.91
626.72	36384.23
627.075	36579.93
627.43	36478.46
627.785	36475.3
628.14	36584.22
628.495	36631.45
628.85	36705.57
629.205	36679.36
629.559	36736.08
629.914	36681.39
630.269	36780.15
630.623	36739.7
630.978	36736.76
631.332	36947.15
631.687	36971.78
632.041	36870.54
632.396	36958.45
632.75	36774.5
633.104	36934.27
633.459	36780.37
633.813	36731.56
634.167	36910.31
634.521	36840.71
634.875	36901.95
635.229	36788.51
635.583	36718.46
635.937	36900.6
636.291	36840.94
636.645	36837.32
636.999	36791.67
637.352	36968.39
637.706	36740.6
638.06	36809.98
638.413	36785.57
638.767	36698.12
639.121	36770.43
639.474	36622.64
639.828	36699.7
640.181	36795.97
640.534	36690.89
640.888	36822.63
641.241	36551
641.594	36580.83
641.947	36734.5
642.301	36581.06
642.654	36765.69
643.007	36636.2
643.36	36561.62
643.713	36421.74
644.066	36544.22
644.419	36315.08
644.771	36109.43
645.124	35862.21
645.477	35704.02
645.83	35441.65
646.182	35505.83
646.535	35477.13
646.888	35575.43
647.24	35282.56
647.593	35569.11
647.945	35478.26
648.298	35323.01
648.65	35269.23
649.002	35377.7
649.355	35338.15
649.707	35353.75
650.059	35563.68
650.411	35864.01
650.763	35901.75
651.115	36318.24
651.467	36221.52
651.819	36240.28
652.171	36083.9
652.523	35931.36
652.875	35993.28
653.227	35858.14
653.578	36073.05
653.93	36064.91
654.282	35885.71
654.633	35924.58
654.985	35761.87
655.337	35917.12
655.688	35874.41
656.039	35937.01
656.391	35642.78
656.742	35787.86
657.094	35720.97
657.445	35872.6
657.796	35927.52
658.147	35718.26
658.498	35802.32
658.849	35893.62
659.2	35732.49
659.551	35652.04
659.902	35881.87
660.253	35647.07
660.604	35821.3
660.955	35598.03
661.306	35850.68
661.656	35830.8
662.007	35674.19
662.358	35704.7
662.708	35633.74
663.059	35664.02
663.409	35534.53
663.76	35645.94
664.11	35673.74
664.461	35618.82
664.811	35635.77
665.161	35690.69
665.511	35536.34
665.862	35777.69
666.212	35712.83
666.562	35651.59
666.912	35735.88
667.262	35541.09
667.612	35582.44
667.962	35548.99
668.312	35535.66
668.662	35663.34
669.011	35527.07
669.361	35617.24
669.711	35624.25
670.06	35439.17
670.41	35406.17
670.76	35424.48
671.109	35568.66
671.459	35615.89
671.808	35366.63
672.157	35379.28
672.507	35200.3
672.856	35208.44
673.205	35288.44
673.554	35425.16
673.904	35338.83
674.253	35392.61
674.602	35322.33
674.951	34842.12
675.3	34739.98
675.649	35318.72
675.998	35222.22
676.346	35255.67
676.695	35355.78
677.044	35029.46
677.393	35193.98
677.741	35133.86
678.09	35055.9
678.438	34891.84
678.787	35042.57
679.135	35042.34
679.484	34896.81
679.832	34975.9
680.181	34778.62
680.529	34841.22
680.877	34764.83
681.225	34739.75
681.573	34853.19
681.922	34646.19
682.27	34583.37
682.618	34501.79
682.966	34509.02
683.314	34515.8
683.661	34382.92
684.009	34227.45
684.357	34113.1
684.705	34211.4
685.053	34226.32
685.4	34233.78
685.748	34116.49
686.095	34112.87
686.443	33864.07
686.79	33813.45
687.138	33914.69
687.485	33942.94
687.832	33893.67
688.18	33937.29
688.527	33646.67
688.874	33594.7
689.221	33469.73
689.568	33532.1
689.915	33449.61
690.262	33450.74
690.609	33326.45
690.956	33100.92
691.303	33065.44
691.65	32996.75
691.997	32977.76
692.344	32808.95
692.69	32889.86
693.037	32805.56
693.383	32504.55
693.73	32716.98
694.077	32526.25
694.423	32475.86
694.769	32443.77
695.116	32296.88
695.462	32300.49
695.808	32185.92
696.155	32222.3
696.501	31891.01
696.847	32061.4
697.193	31747.74
697.539	31946.38
697.885	31650.79
698.231	31524.24
698.577	31505.94
698.923	31411.93
699.269	31371.7
699.614	31267.75
699.96	31175.1
700.306	31133.52
700.651	31006.29
700.997	30929.23
701.342	30934.2
701.688	30826.86
702.033	30683.81
702.379	30748.44
702.724	30559.52
703.069	30692.17
703.415	30277.49
703.76	30349.13
704.105	30298.96
704.45	30229.59
704.795	30123.6
705.14	30084.05
705.485	30008.58
705.83	29799.77
706.175	29887
706.52	29849.48
706.865	29684.06
707.209	29664.4
707.554	29656.72
707.899	29523.84
708.243	29456.27
708.588	29411.3
708.932	29209.73
709.277	29263.96
709.621	29189.39
709.966	29004.99
710.31	29219.9
710.654	28891.77
710.998	28954.37
711.342	29030.07
711.687	28882.5
712.031	28773.13
712.375	28627.14
712.719	28701.49
713.063	28713.02
713.407	28708.72
713.75	28553.02
714.094	28491.55
714.438	28324.33
714.782	28417.66
715.125	28126.14
715.469	28263.99
715.812	28180.83
716.156	27965.01
716.499	28033.26
716.843	28140.15
717.186	27835.3
717.53	28017.44
717.873	27956.2
718.216	27911.91
718.559	27884.11
718.902	27628.3
719.246	27671.91
719.589	27665.81
719.932	27507.85
720.275	27433.73
720.617	27410.9
720.96	27341.98
721.303	27504.23
721.646	27330
721.989	27114.19
722.331	27243.9
722.674	27106.96
723.016	27179.72
723.359	27201.19
723.701	27120.06
724.044	27047.75
724.386	26892.05
724.729	26995.55
725.071	26723.46
725.413	26792.16
725.755	26834.87
726.097	26695.89
726.439	26615.22
726.782	26518.27
727.124	26633.07
727.465	26488.22
727.807	26450.48
728.149	26459.52
728.491	26474.88
728.833	26434.21
729.175	26389.01
729.516	26255.68
729.858	26341.1
730.199	26372.51
730.541	26305.4
730.882	26184.04
731.224	26242.12
731.565	25984.95
731.906	26088.45
732.248	26021.34
732.589	25995.57
732.93	25744.05
733.271	25944.5
733.612	25894.56
733.953	25971.62
734.294	25769.59
734.635	25652.31
734.976	25893.2
735.317	25688.91
735.658	25689.37
735.999	25659.76
736.339	25508.13
736.68	25724.17
737.021	25642.81
737.361	25494.57
737.702	25545.42
738.042	25434.01
738.383	25365.99
738.723	25418.41
739.063	25334.12
739.404	25351.52
739.744	25381.8
740.084	25267.46
740.424	25302.48
740.764	25161.92
741.104	25345.2
741.444	25169.38
741.784	25036.73
742.124	25105.43
742.464	24937.07
742.804	25050.51
743.143	24813.46
743.483	24942.95
743.823	24858.65
744.162	24723.52
744.502	24799.22
744.841	24622.73
745.181	24754.02
745.52	24615.04
745.86	24671.77
746.199	24678.32
746.538	24687.81
746.877	24675.61
747.216	24594.25
747.556	24527.14
747.895	24570.53
748.234	24377.09
748.573	24431.55
748.911	24334.6
749.25	24380.93
749.589	24252.34
749.928	24283.3
750.267	24422.28
750.605	24243.98
750.944	24193.81
751.283	24165.11
751.621	24297.31
751.96	24051.9
752.298	24004.89
752.636	24109.52
752.975	23940.49
753.313	23824.78
753.651	23946.36
753.989	23839.47
754.327	23775.97
754.666	23686.71
755.004	23604.68
755.342	23665.24
755.679	23622.3
756.017	23564
756.355	23544.34
756.693	23398.58
757.031	23415.3
757.368	23294.18
757.706	23269.77
758.044	23281.07
758.381	23265.48
758.719	23202.2
759.056	23119.94
759.394	23116.78
759.731	23009.44
760.068	22909.55
