Data from hue_340_FLMS001491_86.txt Node
Date: Mon Feb 06 15:43:44 GMT 2017
User: dcchb
Spectrometer: FLMS00149
Trigger mode: 0
Integration Time (sec): 2.000000E-2
Scans to average: 10
Electric dark correction enabled: true
Nonlinearity correction enabled: false
Boxcar width: 0
XAxis mode: Wavelengths
Number of Pixels in Spectrum: 2048
>>>>>Begin Spectral Data<<<<<
341.393	-26.81
341.776	-26.81
342.16	-26.81
342.543	-47.37
342.927	-93.92
343.31	-56.64
343.693	-44.66
344.077	-82.17
344.46	-49.18
344.843	-44.66
345.226	-43.53
345.61	-35.39
345.993	-26.36
346.376	-16.64
346.759	20.65
347.142	32.63
347.525	28.11
347.908	55.45
348.291	75.11
348.674	85.96
349.057	101.33
349.44	130.25
349.823	151.27
350.206	133.19
350.588	196.69
350.971	217.25
351.354	212.06
351.737	219.74
352.119	264.03
352.502	255.45
352.884	272.85
353.267	265.84
353.65	303.13
354.032	299.06
354.414	290.02
354.797	295.9
355.179	312.84
355.562	308.1
355.944	323.69
356.326	321.88
356.709	312.39
357.091	321.88
357.473	332.05
357.855	317.82
358.238	324.82
358.62	339.74
359.002	336.35
359.384	349.45
359.766	366.4
360.148	345.84
360.53	339.74
360.912	330.02
361.294	318.95
361.676	320.53
362.057	351.04
362.439	311.04
362.821	327.53
363.203	321.88
363.584	308.1
363.966	315.1
364.348	306.74
364.729	306.52
365.111	313.52
365.493	314.65
365.874	305.39
366.256	300.64
366.637	307.2
367.019	300.19
367.4	288.89
367.781	307.2
368.163	301.55
368.544	305.16
368.925	293.18
369.306	304.03
369.688	280.98
370.069	312.17
370.45	302.22
370.831	282.34
371.212	297.25
371.593	320.75
371.974	285.5
372.355	322.56
372.736	307.2
373.117	299.51
373.498	299.96
373.879	293.18
374.26	337.03
374.641	307.2
375.021	323.92
375.402	295.44
375.783	302.9
376.163	321.43
376.544	323.24
376.925	321.43
377.305	320.53
377.686	305.84
378.066	317.14
378.447	315.1
378.827	334.09
379.208	344.03
379.588	325.5
379.968	326.4
380.349	321.88
380.729	333.18
381.109	325.5
381.489	329.57
381.87	351.71
382.25	333.18
382.63	314.65
383.01	349.91
383.39	320.53
383.77	320.53
384.15	339.28
384.53	323.92
384.91	337.48
385.29	327.76
385.67	337.25
386.049	333.86
386.429	326.18
386.809	323.69
387.189	333.41
387.568	339.74
387.948	327.31
388.328	349.45
388.707	349.91
389.087	352.62
389.466	349
389.846	329.57
390.225	356.23
390.605	350.36
390.984	323.69
391.363	360.75
391.743	352.17
392.122	355.78
392.501	366.4
392.881	376.8
393.26	371.83
393.639	361.88
394.018	358.72
394.397	370.7
394.776	374.54
395.155	373.41
395.534	364.82
395.913	347.65
396.292	355.78
396.671	379.51
397.05	367.31
397.429	367.53
397.808	382.45
398.186	371.6
398.565	373.41
398.944	387.42
399.323	388.32
399.701	402.33
400.08	374.76
400.458	374.31
400.837	374.54
401.215	394.88
401.594	384.93
401.972	404.14
402.351	400.07
402.729	376.35
403.107	400.98
403.486	394.88
403.864	383.35
404.242	390.36
404.62	407.31
404.999	393.52
405.377	403.01
405.755	399.62
406.133	421.54
406.511	426.51
406.889	419.06
407.267	405.05
407.645	414.54
408.023	430.81
408.401	419.96
408.779	431.71
409.156	421.09
409.534	425.61
409.912	453.18
410.29	424.71
410.667	450.47
411.045	414.99
411.422	447.98
411.8	449.56
412.178	436.01
412.555	482.56
412.933	467.64
413.31	470.35
413.687	479.62
414.065	463.8
414.442	489.11
414.819	505.83
415.197	488.21
415.574	489.79
415.951	481.65
416.328	504.03
416.705	510.81
417.082	508.55
417.46	530.92
417.837	518.72
418.214	529.56
418.591	527.08
418.967	533.4
419.344	521.88
419.721	514.65
420.098	538.38
420.475	555.78
420.852	576.11
421.228	546.96
421.605	560.97
421.982	563.01
422.358	563.46
422.735	553.97
423.111	581.76
423.488	563.69
423.864	577.02
424.241	580.18
424.617	583.12
424.994	590.13
425.37	586.06
425.746	613.63
426.123	607.3
426.499	600.52
426.875	627.64
427.251	618.15
427.627	593.06
428.003	620.41
428.379	632.38
428.756	628.77
429.132	639.62
429.507	654.08
429.883	670.12
430.259	650.01
430.635	653.85
431.011	642.55
431.387	690.01
431.763	675.1
432.138	697.47
432.514	698.6
432.89	697.92
433.265	735.43
433.641	723.68
434.016	723
434.392	728.65
434.767	737.24
435.143	735.88
435.518	736.34
435.894	751.03
436.269	761.19
436.644	781.76
437.02	768.88
437.395	752.83
437.77	771.14
438.145	776.79
438.52	791.48
438.895	806.17
439.271	791.02
439.646	827.41
440.021	804.13
440.395	815.2
440.77	815.88
441.145	805.71
441.52	835.77
441.895	820.18
442.27	852.27
442.645	852.04
443.019	829.89
443.394	848.2
443.769	866.5
444.143	856.79
444.518	885.03
444.892	867.18
445.267	882.55
445.641	876.22
446.016	896.11
446.39	886.62
446.764	881.19
447.139	873.51
447.513	884.81
447.887	879.84
448.262	874.41
448.636	901.53
449.01	925.03
449.384	946.27
449.758	927.74
450.132	932.26
450.506	914.86
450.88	932.04
451.254	938.14
451.628	951.02
452.002	969.1
452.376	969.78
452.75	990.12
453.123	995.99
453.497	984.01
453.871	983.34
454.244	1021.07
454.618	1002.54
454.992	1013.84
455.365	1031.92
455.739	1023.33
456.112	1069.44
456.486	1037.8
456.859	1032.37
457.232	1048.64
457.606	1053.62
457.979	1057.23
458.352	1102.43
458.725	1100.85
459.099	1111.24
459.472	1122.77
459.845	1140.39
460.218	1127.29
460.591	1153.95
460.964	1134.74
461.337	1159.6
461.71	1165.03
462.083	1193.27
462.456	1205.7
462.829	1201.86
463.201	1184.46
463.574	1204.57
463.947	1219.94
464.32	1240.73
464.692	1251.58
465.065	1239.37
465.438	1257.45
465.81	1297.23
466.183	1299.94
466.555	1348.75
466.928	1343.55
467.3	1327.73
467.672	1339.71
468.045	1362.99
468.417	1373.83
468.789	1382.65
469.161	1369.31
469.534	1421.74
469.906	1440.27
470.278	1442.53
470.65	1448.63
471.022	1456.54
471.394	1543.32
471.766	1499.93
472.138	1543.55
472.51	1559.59
472.882	1568.41
473.253	1606.37
473.625	1610.44
473.997	1638.46
474.369	1655.18
474.74	1641.62
475.112	1687.95
475.484	1707.84
475.855	1748.74
476.227	1748.29
476.598	1778.12
476.97	1794.84
477.341	1816.53
477.713	1828.74
478.084	1903.09
478.455	1946.7
478.827	1965
479.198	2004.55
479.569	1982.41
479.94	2034.16
480.311	2070.76
480.682	2085.45
481.053	2121.84
481.424	2123.42
481.795	2152.12
482.166	2207.94
482.537	2247.26
482.908	2278.44
483.279	2285.45
483.65	2362.28
484.021	2410.87
484.391	2372.68
484.762	2412.45
485.133	2434.37
485.503	2482.73
485.874	2526.12
486.244	2512.34
486.615	2593.01
486.985	2604.99
487.356	2667.81
487.726	2669.39
488.097	2737.19
488.467	2717.98
488.837	2778.77
489.207	2800.46
489.578	2845.89
489.948	2853.57
490.318	2934.92
490.688	2946.9
491.058	2993.23
491.428	3015.82
491.798	3049.27
492.168	3079.33
492.538	3073
492.908	3126.78
493.278	3194.13
493.648	3171.75
494.017	3221.02
494.387	3223.28
494.757	3250.17
495.126	3302.37
495.496	3272.32
495.866	3319.32
496.235	3354.8
496.605	3370.39
496.974	3405.19
497.344	3397.06
497.713	3442.71
498.082	3462.82
498.452	3508.02
498.821	3521.12
499.19	3520.44
499.559	3604.96
499.928	3569.03
500.298	3594.79
500.667	3616.94
501.036	3611.52
501.405	3613.55
501.774	3641.8
502.143	3693.32
502.512	3712.76
502.88	3728.12
503.249	3740.55
503.618	3767.44
503.987	3791.62
504.356	3817.39
504.724	3794.79
505.093	3849.93
505.462	3851.51
505.83	3863.03
506.199	3892.19
506.567	3921.11
506.936	3912.07
507.304	3916.14
507.672	3988.45
508.041	3957.95
508.409	4049.47
508.777	3988.45
509.145	4021.67
509.514	4043.14
509.882	4044.72
510.25	4107.1
510.618	4043.59
510.986	4093.08
511.354	4090.15
511.722	4159.98
512.09	4164.72
512.458	4118.85
512.826	4165.62
513.193	4197.94
513.561	4199.97
513.929	4204.27
514.297	4256.92
514.664	4263.02
515.032	4308.45
515.4	4276.13
515.767	4311.38
516.135	4315.23
516.502	4326.75
516.869	4412.17
517.237	4357.94
517.604	4396.35
517.972	4381.21
518.339	4415.34
518.706	4428.44
519.073	4449.23
519.44	4430.93
519.808	4442.68
520.175	4511.38
520.542	4535.78
520.909	4504.6
521.276	4516.35
521.643	4548.44
522.009	4583.24
522.376	4571.94
522.743	4613.07
523.11	4612.17
523.477	4695.78
523.843	4688.32
524.21	4699.17
524.577	4759.28
524.943	4771.03
525.31	4765.38
525.676	4827.08
526.043	4813.74
526.409	4822.1
526.776	4854.65
527.142	4892.39
527.508	4949.79
527.874	4898.71
528.241	5014.42
528.607	4981.65
528.973	4991.59
529.339	5027.75
529.705	5081.53
530.071	5105.94
530.437	5118.59
530.803	5146.62
531.169	5172.38
531.535	5199.95
531.901	5232.72
532.267	5166.73
532.632	5245.37
532.998	5246.5
533.364	5278.36
533.73	5327.4
534.095	5340.28
534.461	5284.24
534.826	5369.44
535.192	5398.81
535.557	5403.11
535.923	5441.52
536.288	5467.06
536.653	5477.68
537.019	5450.11
537.384	5495.31
537.749	5533.95
538.114	5578.7
538.479	5556.1
538.845	5632.93
539.21	5605.36
539.575	5637.45
539.94	5696.88
540.305	5700.95
540.67	5714.51
541.034	5722.19
541.399	5746.37
541.764	5736.66
542.129	5771.01
542.494	5844
542.858	5806.03
543.223	5853.26
543.587	5917.22
543.952	5857.78
544.316	5937.56
544.681	5906.82
545.045	5949.31
545.41	5970.32
545.774	5986.59
546.138	6002.86
546.503	6071.56
546.867	6045.58
547.231	6121.05
547.595	6107.49
547.959	6135.74
548.324	6200.37
548.688	6153.37
549.052	6167.15
549.416	6199.02
549.779	6307.26
550.143	6218.23
550.507	6302.29
550.871	6283.54
551.235	6309.07
551.599	6344.32
551.962	6309.75
552.326	6369.86
552.689	6431.1
553.053	6374.83
553.417	6419.58
553.78	6519.46
554.143	6501.83
554.507	6535.96
554.87	6527.14
555.234	6593.13
555.597	6573.25
555.96	6591.78
556.323	6595.39
556.686	6604.88
557.05	6686.24
557.413	6695.95
557.776	6632.9
558.139	6743.41
558.502	6669.97
558.865	6764.88
559.228	6764.65
559.59	6812.56
559.953	6807.14
560.316	6813.69
560.679	6872.67
561.041	6880.36
561.404	6982.95
561.767	6936.17
562.129	6935.95
562.492	7021.14
562.854	7011.88
563.217	6961.71
563.579	7035.15
563.941	6998.77
564.304	7041.71
564.666	7081.93
565.028	7124.42
565.39	7158.54
565.753	7107.69
566.115	7210.06
566.477	7181.59
566.839	7232.44
567.201	7311.08
567.563	7230.4
567.925	7315.37
568.287	7347.01
568.648	7400.12
569.01	7429.95
569.372	7485.31
569.734	7443.73
570.095	7481.92
570.457	7559.89
570.819	7541.81
571.18	7539.77
571.542	7564.18
571.903	7669.94
572.265	7718.3
572.626	7738.86
572.987	7759.88
573.349	7845.08
573.71	7871.06
574.071	7930.05
574.432	7969.59
574.794	8056.37
575.155	8071.06
575.516	8021.12
575.877	8191.73
576.238	8234.22
576.599	8259.98
576.96	8288.91
577.32	8389.02
577.681	8441.67
578.042	8551.27
578.403	8647.54
578.763	8729.35
579.124	8777.71
579.485	8927.53
579.845	8985.84
580.206	9048.89
580.566	9129.11
580.927	9322.33
581.287	9395.77
581.648	9448.2
582.008	9708.08
582.368	9767.74
582.728	9894.51
583.089	10012.48
583.449	10205.92
583.809	10313.26
584.169	10464.89
584.529	10589.41
584.889	10857.65
585.249	10941.04
585.609	11128.83
585.969	11360.92
586.329	11436.62
586.688	11655.6
587.048	11880.9
587.408	12076.83
587.768	12202.02
588.127	12456.25
588.487	12589.13
588.846	12997.03
589.206	13070.25
589.565	13391.37
589.925	13669.56
590.284	13848.31
590.643	14205.59
591.003	14401.74
591.362	14778.23
591.721	14852.8
592.08	15181.15
592.44	15410.08
592.799	15678.54
593.158	15906.33
593.517	16208.25
593.876	16501.12
594.235	16722.58
594.593	17080.09
594.952	17326.86
595.311	17627.87
595.67	17785.38
596.029	18205.26
596.387	18535.42
596.746	18786.94
597.104	19033.93
597.463	19247.04
597.822	19604.54
598.18	19870.07
598.538	20050.41
598.897	20441.58
599.255	20702.14
599.613	21147.1
599.972	21228.68
600.33	21486.07
600.688	21769.91
601.046	22129.45
601.404	22512.49
601.762	22658.02
602.12	23039.48
602.478	23280.38
602.836	23532.57
603.194	23681.27
603.552	24019.11
603.91	24152.9
604.268	24437.41
604.625	24669.27
604.983	24923.05
605.341	25054.57
605.698	25501.34
606.056	25788.33
606.413	25892.96
606.771	26216.34
607.128	26452.72
607.485	26492.72
607.843	26821.3
608.2	27111.01
608.557	27419.48
608.914	27457.44
609.272	27784.21
609.629	28131.77
609.986	28321.37
610.343	28359.57
610.7	28701.7
611.057	28887.46
611.414	29067.57
611.771	29341.01
612.127	29576.26
612.484	29587.33
612.841	29880.43
613.198	29957.49
613.554	30175.56
613.911	30461.43
614.267	30500.98
614.624	30634.76
614.98	30927.18
615.337	31087.18
615.693	31205.82
616.05	31413.27
616.406	31718.35
616.762	31662.76
617.118	31856.65
617.475	31908.85
617.831	32151.78
618.187	32226.58
618.543	32435.84
618.899	32608.27
619.255	32723.07
619.611	32857.75
619.967	33054.13
620.323	33126.9
620.678	33245.09
621.034	33280.34
621.39	33457.51
621.746	33580.9
622.101	33891.4
622.457	33695.02
622.812	33886.43
623.168	33970.72
623.523	34134.1
623.879	34203.25
624.234	34125.97
624.589	34243.25
624.945	34337.71
625.3	34482.57
625.655	34530.25
626.01	34704.03
626.365	34730.92
626.72	34706.06
627.075	34765.05
627.43	34712.62
627.785	34845.04
628.14	34989.22
628.495	35033.29
628.85	35192.15
629.205	35054.76
629.559	35346.5
629.914	35169.78
630.269	35338.14
630.623	35294.98
630.978	35192.61
631.332	35399.15
631.687	35444.12
632.041	35367.97
632.396	35472.37
632.75	35429.44
633.104	35519.6
633.459	35238.03
633.813	35513.5
634.167	35412.26
634.521	35446.84
634.875	35565.7
635.229	35495.42
635.583	35469.66
635.937	35503.33
636.291	35411.81
636.645	35559.83
636.999	35402.54
637.352	35474.41
637.706	35311.47
638.06	35595.08
638.413	35553.5
638.767	35381.08
639.121	35464.46
639.474	35434.63
639.828	35394.41
640.181	35472.15
640.534	35521.64
640.888	35323.22
641.241	35320.51
641.594	35348.76
641.947	35451.58
642.301	35439.15
642.654	35450.68
643.007	35313.05
643.36	35382.88
643.713	35403.9
644.066	35453.16
644.419	35165.94
644.771	35106.05
645.124	34684.14
645.477	34624.03
645.83	34460.65
646.182	34320.99
646.535	34219.3
646.888	34367.54
647.24	34258.62
647.593	34482.12
647.945	34368.9
648.298	34182.46
648.65	34094.33
649.002	34164.38
649.355	34275.12
649.707	34147.89
650.059	34281.44
650.411	34780.87
650.763	34676.91
651.115	35138.82
651.467	34939.51
651.819	35064.02
652.171	35097.02
652.523	34999.84
652.875	34810.69
653.227	34801.43
653.578	35023.34
653.93	34901.99
654.282	34864.48
654.633	34766.63
654.985	34799.17
655.337	34802.11
655.688	34792.84
656.039	34831.49
656.391	34561.44
656.742	34675.11
657.094	34734.54
657.445	34779.96
657.796	34718.72
658.147	34678.49
658.498	34638.04
658.849	34737.25
659.2	34689.79
659.551	34642.11
659.902	34767.76
660.253	34670.13
660.604	34674.2
660.955	34463.81
661.306	34657.7
661.656	34660.87
662.007	34601.89
662.358	34527.54
662.708	34470.36
663.059	34597.14
663.409	34462.91
663.76	34541.32
664.11	34647.54
664.461	34560.31
664.811	34612.73
665.161	34580.19
665.511	34503.36
665.862	34560.53
666.212	34563.24
666.562	34588.1
666.912	34624.26
667.262	34556.46
667.612	34501.55
667.962	34639.85
668.312	34503.58
668.662	34641.21
669.011	34554.88
669.361	34498.84
669.711	34357.83
670.06	34333.19
670.41	34313.53
670.76	34318.05
671.109	34457.03
671.459	34379.75
671.808	34182.46
672.157	34463.59
672.507	34224.27
672.856	34272.63
673.205	34331.39
673.554	34301.33
673.904	34248.45
674.253	34514.66
674.602	34509.91
674.951	33809.37
675.3	33655.92
675.649	34136.81
675.998	34126.65
676.346	34186.3
676.695	34282.12
677.044	33921.23
677.393	34151.05
677.741	34132.29
678.09	34109.02
678.438	34009.59
678.787	34014.56
679.135	34109.7
679.484	33864.96
679.832	33905.41
680.181	33837.39
680.529	33955.12
680.877	33818.63
681.225	33741.34
681.573	33985.86
681.922	33644.17
682.27	33564.63
682.618	33629.26
682.966	33573.89
683.314	33655.02
683.661	33436.95
684.009	33287.12
684.357	33195.37
684.705	33304.75
685.053	33279.66
685.4	33326.44
685.748	33087.8
686.095	33220.91
686.443	32878.99
686.79	32897.98
687.138	33003.51
687.485	32981.14
687.832	32855.04
688.18	32892.55
688.527	32658.66
688.874	32648.04
689.221	32591.77
689.568	32587.25
689.915	32413.7
690.262	32450.3
690.609	32234.94
690.956	32174.15
691.303	32145
691.65	32126.47
691.997	32091.44
692.344	31905.46
692.69	31940.26
693.037	31928.74
693.383	31658.91
693.73	31725.35
694.077	31551.8
694.423	31517.45
694.769	31628.63
695.116	31441.07
695.462	31485.36
695.808	31401.52
696.155	31359.49
696.501	31185.71
696.847	31043.11
697.193	30875.66
697.539	30983
697.885	30698.49
698.231	30620.07
698.577	30707.53
698.923	30535.1
699.269	30521.32
699.614	30261.89
699.96	30449
700.306	30363.13
700.651	30177.37
700.997	30069.12
701.342	30023.48
701.688	30056.7
702.033	29808.11
702.379	29885.4
702.724	29816.25
703.069	29877.72
703.415	29581
703.76	29605.86
704.105	29518.86
704.45	29530.61
704.795	29257.85
705.14	29288.13
705.485	29284.96
705.83	29054.46
706.175	29073.9
706.52	28952.32
706.865	28911.19
707.209	28930.85
707.554	28947.35
707.899	28853.11
708.243	28716.17
708.588	28625.09
708.932	28544.64
709.277	28539
709.621	28533.35
709.966	28259.91
710.31	28348.27
710.654	28244.77
710.998	28237.31
711.342	28099.91
711.687	28078.89
712.031	28073.24
712.375	27965.9
712.719	28040.25
713.063	27762.74
713.407	27945.56
713.75	27808.17
714.094	27844.78
714.438	27665.8
714.782	27690.43
715.125	27495.86
715.469	27637.1
715.812	27326.37
716.156	27395.97
716.499	27278.24
716.843	27329.08
717.186	27357.56
717.53	27400.04
717.873	27245.92
718.216	27084.34
718.559	27064.23
718.902	26870.11
719.246	26959.38
719.589	26751.02
719.932	26718.7
720.275	26730.91
720.617	26659.72
720.96	26704.47
721.303	26718.25
721.646	26704.24
721.989	26509.22
722.331	26568.65
722.674	26543.12
723.016	26529.33
723.359	26570.46
723.701	26403.91
724.044	26161.2
724.386	26203.24
724.729	26253.86
725.071	26146.52
725.413	26211.37
725.755	26187.19
726.097	26094.77
726.439	25928.22
726.782	25978.84
727.124	26065.39
727.465	25935.67
727.807	25864.04
728.149	25813.19
728.491	25860.42
728.833	25832.17
729.175	25726.19
729.516	25589.47
729.858	25568.23
730.199	25596.47
730.541	25525.06
730.882	25598.96
731.224	25561.45
731.565	25392.64
731.906	25418.4
732.248	25508.57
732.589	25224.51
732.93	25150.61
733.271	25402.13
733.612	25314.45
733.953	25285.97
734.294	25143.83
734.635	25116.71
734.976	25196.03
735.317	25023.61
735.658	25043.49
735.999	24973.21
736.339	24951.07
736.68	24989.94
737.021	24885.08
737.361	24768.7
737.702	24952.2
738.042	24808.7
738.383	24684.63
738.723	24697.97
739.063	24587.01
739.404	24702.49
739.744	24576.16
740.084	24558.08
740.424	24520.34
740.764	24445.77
741.104	24666.55
741.444	24457.97
741.784	24326
742.124	24430.4
742.464	24370.97
742.804	24380.01
743.143	24330.74
743.483	24251.2
743.823	24224.76
744.162	24185.44
744.502	24161.71
744.841	24033.13
745.181	24053.46
745.52	24008.94
745.86	23982.28
746.199	23941.38
746.538	23976.63
746.877	24044.88
747.216	23954.94
747.556	23896.41
747.895	23825
748.234	23776.86
748.573	23674.49
748.911	23757.2
749.25	23684.89
749.589	23510.2
749.928	23590.65
750.267	23565.34
750.605	23502.52
750.944	23431.79
751.283	23361.5
751.621	23393.59
751.96	23395.18
752.298	23265.46
752.636	23262.3
752.975	23094.62
753.313	23182.07
753.651	23175.52
753.989	23136.43
754.327	23026.15
754.666	22961.29
755.004	22965.58
755.342	22972.81
755.679	22827.96
756.017	22723.56
756.355	22864.12
756.693	22633.39
757.031	22723.33
757.368	22571.47
757.706	22550.68
758.044	22437.01
758.381	22516.78
758.719	22446.05
759.056	22388.2
759.394	22301.42
759.731	22310.68
760.068	22247.86
760.405	22124.7
