Data from hue_220_FLMS001491_00085.txt Node
Date: Tue Feb 07 16:40:03 GMT 2017
User: dcchb
Spectrometer: FLMS00149
Trigger mode: 0
Integration Time (sec): 2.000000E-2
Scans to average: 10
Electric dark correction enabled: true
Nonlinearity correction enabled: false
Boxcar width: 0
XAxis mode: Wavelengths
Number of Pixels in Spectrum: 2048
>>>>>Begin Spectral Data<<<<<
341.393	-18.29
341.776	-18.29
342.16	-18.29
342.543	-57.61
342.927	-56.26
343.31	-48.12
343.693	-74.56
344.077	-72.3
344.46	-56.48
344.843	-48.12
345.226	-62.13
345.61	-25.52
345.993	-33.21
346.376	-5.18
346.759	4.31
347.142	25.1
347.525	48.15
347.908	56.51
348.291	63.97
348.674	96.51
349.057	131.08
349.44	114.36
349.823	143.06
350.206	174.25
350.588	206.11
350.971	214.92
351.354	221.7
351.737	228.93
352.119	241.36
352.502	260.8
352.884	282.49
353.267	276.17
353.65	296.5
354.032	292.44
354.414	293.11
354.797	316.62
355.179	332.43
355.562	319.33
355.944	300.8
356.326	324.07
356.709	329.72
357.091	319.33
357.473	333.79
357.855	335.82
358.238	349.16
358.62	325.43
359.002	335.6
359.384	346.9
359.766	331.53
360.148	327.24
360.53	332.66
360.912	312.32
361.294	330.85
361.676	335.6
362.057	330.63
362.439	336.05
362.821	320.46
363.203	319.55
363.584	334.47
363.966	312.1
364.348	319.33
364.729	327.69
365.111	339.67
365.493	313
365.874	320.46
366.256	319.55
366.637	304.86
367.019	300.12
367.4	302.38
367.781	307.12
368.163	325.43
368.544	315.94
368.925	299.67
369.306	326.33
369.688	312.55
370.069	313.68
370.45	330.4
370.831	309.61
371.212	321.81
371.593	315.49
371.974	304.64
372.355	339.44
372.736	318.65
373.117	297.18
373.498	307.58
373.879	305.77
374.26	325.66
374.641	320.01
375.021	327.46
375.402	323.85
375.783	298.99
376.163	329.27
376.544	336.95
376.925	308.93
377.305	312.77
377.686	338.76
378.066	321.81
378.447	318.42
378.827	323.4
379.208	323.62
379.588	354.58
379.968	332.89
380.349	326.56
380.729	338.76
381.109	334.69
381.489	345.32
381.87	322.72
382.25	327.24
382.63	324.3
383.01	352.55
383.39	359.55
383.77	349.16
384.15	347.58
384.53	337.86
384.91	337.86
385.29	323.85
385.67	334.47
386.049	342.38
386.429	331.3
386.809	362.04
387.189	350.06
387.568	364.98
387.948	346.45
388.328	344.19
388.707	357.07
389.087	346.45
389.466	369.95
389.846	353.9
390.225	374.69
390.605	351.19
390.984	367.91
391.363	353.68
391.743	347.58
392.122	394.35
392.501	378.08
392.881	371.3
393.26	357.74
393.639	399.1
394.018	384.18
394.397	369.04
394.776	381.92
395.155	385.77
395.534	381.25
395.913	374.24
396.292	365.65
396.671	371.76
397.05	384.64
397.429	405.65
397.808	393.45
398.186	396.61
398.565	395.03
398.944	392.32
399.323	399.33
399.701	396.39
400.08	409.27
400.458	404.98
400.837	402.49
401.215	428.48
401.594	409.27
401.972	417.18
402.351	434.35
402.729	402.04
403.107	424.64
403.486	425.31
403.864	435.93
404.242	443.62
404.62	447.91
404.999	464.41
405.377	449.95
405.755	444.75
406.133	454.01
406.511	460.12
406.889	443.84
407.267	469.61
407.645	467.57
408.023	468.02
408.401	489.04
408.779	482.26
409.156	489.49
409.534	499.44
409.912	493.11
410.29	518.87
410.667	514.12
411.045	551.19
411.422	533.33
411.8	522.26
412.178	542.6
412.555	552.09
412.933	556.61
413.31	549.38
413.687	583.73
414.065	581.92
414.442	566.1
414.819	588.93
415.197	615.82
415.574	607.91
415.951	619.21
416.328	627.79
416.705	647.45
417.082	669.38
417.46	653.1
417.837	670.96
418.214	673.67
418.591	684.06
418.967	685.19
419.344	706.89
419.721	720.22
420.098	714.8
420.475	727
420.852	720
421.228	745.98
421.605	778.52
421.982	736.49
422.358	779.88
422.735	773.1
423.111	804.96
423.488	815.13
423.864	837.05
424.241	834.12
424.617	845.64
424.994	864.17
425.37	862.14
425.746	882.48
426.123	885.19
426.499	899.88
426.875	901.69
427.251	935.13
427.627	935.58
428.003	948.92
428.379	953.21
428.756	981.68
429.132	983.94
429.507	1000.89
429.883	1005.86
430.259	1043.6
430.635	1040.21
431.011	1038.86
431.387	1059.42
431.763	1098.06
432.138	1100.1
432.514	1135.8
432.89	1127.22
433.265	1158.63
433.641	1169.93
434.016	1175.12
434.392	1202.69
434.767	1224.84
435.143	1234.78
435.518	1262.81
435.894	1266.2
436.269	1320.66
436.644	1362.46
437.02	1361.56
437.395	1394.78
437.77	1397.49
438.145	1397.49
438.52	1412.63
438.895	1457.83
439.271	1471.39
439.646	1496.7
440.021	1549.13
440.395	1531.73
440.77	1526.98
441.145	1564.27
441.52	1597.71
441.895	1609.01
442.27	1642.68
442.645	1636.58
443.019	1627.09
443.394	1655.34
443.769	1674.32
444.143	1680.87
444.518	1709.12
444.892	1699.86
445.267	1734.43
445.641	1741.21
446.016	1753.64
446.39	1769.01
446.764	1755
447.139	1794.77
447.513	1803.36
447.887	1820.76
448.262	1823.92
448.636	1826.41
449.01	1874.54
449.384	1875.22
449.758	1899.4
450.132	1908.21
450.506	1962.9
450.88	1918.38
451.254	1926.07
451.628	1961.77
452.002	2013.52
452.376	2019.62
452.75	1989.79
453.123	2042.45
453.497	2051.94
453.871	2100.98
454.244	2127.64
454.618	2135.55
454.992	2169.9
455.365	2133.52
455.739	2208.54
456.112	2244.02
456.486	2235.44
456.859	2218.49
457.232	2321.99
457.606	2291.93
457.979	2328.54
458.352	2397.69
458.725	2388.43
459.099	2385.71
459.472	2445.15
459.845	2460.06
460.218	2483.11
460.591	2507.74
460.964	2501.87
461.337	2557.46
461.71	2609.66
462.083	2654.18
462.456	2616.44
462.829	2674.97
463.201	2699.15
463.574	2726.5
463.947	2705.93
464.32	2768.98
464.692	2814.86
465.065	2853.05
465.438	2830.67
465.81	2873.38
466.183	2898.47
466.555	3007.84
466.928	2962.65
467.3	2978.92
467.672	3069.54
468.045	3105.47
468.417	3070.67
468.789	3130.33
469.161	3183.21
469.534	3207.61
469.906	3258.69
470.278	3314.05
470.65	3328.74
471.022	3344.11
471.394	3438.12
471.766	3462.07
472.138	3500.04
472.51	3575.06
472.882	3600.82
473.253	3665.91
473.625	3668.62
473.997	3719.24
474.369	3747.26
474.74	3795.39
475.112	3868.39
475.484	3917.88
475.855	3943.41
476.227	3946.8
476.598	4127.59
476.97	4125.1
477.341	4150.64
477.713	4200.81
478.084	4272.67
478.455	4350.63
478.827	4396.96
479.198	4500.91
479.569	4493.91
479.94	4590.4
480.311	4642.38
480.682	4714.24
481.053	4826.33
481.424	4903.16
481.795	4906.33
482.166	4942.48
482.537	5045.98
482.908	5131.18
483.279	5154
483.65	5225.19
484.021	5350.83
484.391	5301.12
484.762	5436.93
485.133	5444.62
485.503	5478.51
485.874	5618.62
486.244	5613.43
486.615	5760.77
486.985	5790.37
487.356	5852.29
487.726	5900.65
488.097	5998.73
488.467	6031.72
488.837	6171.6
489.207	6226.52
489.578	6291.6
489.948	6355.33
490.318	6431.26
490.688	6386.51
491.058	6501.09
491.428	6543.34
491.798	6599.61
492.168	6753.51
492.538	6694.53
492.908	6770.46
493.278	6830.57
493.648	6881.19
494.017	6941.98
494.387	6986.5
494.757	7005.93
495.126	7077.57
495.496	7105.36
495.866	7140.62
496.235	7186.04
496.605	7247.51
496.974	7229.65
497.344	7255.19
497.713	7315.3
498.082	7353.49
498.452	7424.68
498.821	7474.85
499.19	7412.25
499.559	7475.75
499.928	7567.72
500.298	7572.24
500.667	7630.55
501.036	7598.23
501.405	7646.82
501.774	7707.61
502.143	7687.95
502.512	7722.52
502.88	7749.64
503.249	7755.97
503.618	7745.57
503.987	7824.67
504.356	7845.91
504.724	7913.48
505.093	7930.43
505.462	7906.47
505.83	7939.01
506.199	7958.9
506.567	8103.53
506.936	8031.22
507.304	8083.19
507.672	8056.98
508.041	8088.84
508.409	8188.95
508.777	8204.09
509.145	8185.56
509.514	8223.3
509.882	8183.75
510.25	8226.24
510.618	8302.62
510.986	8292.9
511.354	8284.99
511.722	8280.7
512.09	8374.26
512.458	8354.37
512.826	8399.34
513.193	8394.6
513.561	8390.53
513.929	8394.82
514.297	8468.72
514.664	8510.75
515.032	8450.64
515.4	8465.55
515.767	8568.15
516.135	8501.94
516.502	8485.44
516.869	8591.43
517.237	8558.66
517.604	8480.02
517.972	8560.92
518.339	8554.59
518.706	8500.13
519.073	8506.91
519.44	8581.71
519.808	8678.2
520.175	8567.25
520.542	8635.27
520.909	8638.43
521.276	8634.14
521.643	8723.17
522.009	8658.09
522.376	8685.66
522.743	8678.43
523.11	8728.82
523.477	8723.17
523.843	8832.1
524.21	8816.05
524.577	8843.4
524.943	8799.33
525.31	8855.83
525.676	8931.53
526.043	8897.86
526.409	8874.58
526.776	8871.19
527.142	8823.28
527.508	8836.62
527.874	8933.79
528.241	8878.42
528.607	8848.14
528.973	8880.91
529.339	8845.66
529.705	8940.8
530.071	8955.26
530.437	8894.92
530.803	8885.43
531.169	8887.46
531.535	8912.55
531.901	8815.38
532.267	8898.54
532.632	8935.6
532.998	8889.27
533.364	8927.46
533.73	8863.28
534.095	8887.24
534.461	8872.55
534.826	8862.15
535.192	8871.42
535.557	8861.48
535.923	8784.87
536.288	8822.16
536.653	8816.51
537.019	8732.67
537.384	8749.61
537.749	8778.77
538.114	8725.66
538.479	8725.43
538.845	8717.53
539.21	8677.98
539.575	8666.68
539.94	8677.98
540.305	8716.62
540.67	8600.69
541.034	8645.21
541.399	8591.2
541.764	8593.91
542.129	8527.7
542.494	8532.67
542.858	8534.48
543.223	8485.89
543.587	8524.54
543.952	8498.1
544.316	8408.15
544.681	8421.94
545.045	8388.95
545.41	8412.9
545.774	8366.35
546.138	8268.72
546.503	8282.73
546.867	8234.37
547.231	8294.94
547.595	8268.5
547.959	8294.94
548.324	8252.45
548.688	8223.75
549.052	8200.02
549.416	8211.78
549.779	8148.27
550.143	8108.05
550.507	8102.85
550.871	8110.54
551.235	8122.29
551.599	8152.79
551.962	8064.89
552.326	8071.89
552.689	8058.33
553.053	7965.91
553.417	8004.78
553.78	8009.07
554.143	7956.64
554.507	7986.47
554.87	7937.21
555.234	7998.22
555.597	7938.34
555.96	7905.12
556.323	7954.38
556.686	7929.07
557.05	7930.88
557.413	7882.52
557.776	7880.26
558.139	7880.48
558.502	7852.69
558.865	7832.58
559.228	7892.24
559.59	7885.91
559.953	7865.8
560.316	7893.14
560.679	7895.17
561.041	7901.95
561.404	7897.21
561.767	7886.13
562.129	7826.25
562.492	7862.41
562.854	7924.1
563.217	7871.22
563.579	7925.23
563.941	7923.2
564.304	7861.73
564.666	7938.34
565.028	7914.16
565.39	7896.08
565.753	7983.76
566.115	7869.64
566.477	7972.46
566.839	7934.27
567.201	8015.85
567.563	8003.87
567.925	7994.38
568.287	8045.23
568.648	7997.09
569.01	8069.63
569.372	8045.68
569.734	8026.7
570.095	8105.56
570.457	8035.28
570.819	8104.43
571.18	8121.38
571.542	8057.43
571.903	8077.32
572.265	8113.93
572.626	8181.72
572.987	8145.11
573.349	8172.68
573.71	8190.53
574.071	8202.28
574.432	8165.45
574.794	8240.25
575.155	8300.81
575.516	8212.68
575.877	8315.95
576.238	8241.83
576.599	8340.36
576.96	8318.44
577.32	8311.89
577.681	8345.11
578.042	8407.48
578.403	8335.84
578.763	8367.48
579.124	8397.31
579.485	8418.55
579.845	8466.91
580.206	8428.72
580.566	8479.11
580.927	8461.94
581.287	8436.63
581.648	8477.98
582.008	8521.82
582.368	8554.59
582.728	8483.18
583.089	8536.96
583.449	8557.98
583.809	8574.7
584.169	8586
584.529	8575.61
584.889	8664.19
585.249	8608.83
585.609	8623.06
585.969	8651.76
586.329	8632.78
586.688	8656.51
587.048	8677.3
587.408	8678.88
587.768	8705.1
588.127	8637.53
588.487	8698.32
588.846	8795.04
589.206	8724.76
589.565	8840.01
589.925	8838.2
590.284	8786.9
590.643	8821.48
591.003	8789.39
591.362	8876.16
591.721	8833.23
592.08	8858.09
592.44	8860.12
592.799	8903.51
593.158	8863.06
593.517	8941.02
593.876	8968.37
594.235	8940.57
594.593	8864.64
594.952	8984.64
595.311	8836.62
595.67	8969.72
596.029	8973.11
596.387	9003.39
596.746	8951.42
597.104	8974.92
597.463	8962.04
597.822	8969.72
598.18	8938.54
598.538	8955.94
598.897	9069.83
599.255	9020.79
599.613	9058.53
599.972	9011.53
600.33	9082.26
600.688	9007.23
601.046	9049.49
601.404	9109.61
601.762	8993.22
602.12	9097.18
602.478	9130.85
602.836	9101.92
603.194	9037.74
603.552	9074.58
603.91	9057.86
604.268	9094.24
604.625	9011.75
604.983	9148.47
605.341	9083.17
605.698	9141.02
606.056	9076.39
606.413	9119.32
606.771	9094.92
607.128	9114.58
607.485	9112.77
607.843	9152.54
608.2	9204.07
608.557	9203.39
608.914	9170.62
609.272	9195.25
609.629	9202.26
609.986	9271.18
610.343	9113.67
610.7	9233.22
611.057	9227.79
611.414	9217.4
611.771	9228.25
612.127	9292.2
612.484	9211.3
612.841	9335.81
613.198	9241.35
613.554	9293.56
613.911	9324.51
614.267	9325.19
614.624	9225.76
614.98	9341.69
615.337	9358.86
615.693	9371.07
616.05	9355.02
616.406	9397.73
616.762	9359.99
617.118	9392.76
617.475	9353.89
617.831	9404.06
618.187	9417.17
618.543	9404.96
618.899	9406.55
619.255	9401.8
619.611	9428.24
619.967	9416.72
620.323	9442.48
620.678	9505.53
621.034	9424.4
621.39	9409.71
621.746	9375.36
622.101	9491.29
622.457	9439.09
622.812	9450.84
623.168	9442.48
623.523	9430.73
623.879	9440.67
624.234	9406.55
624.589	9415.36
624.945	9451.07
625.3	9468.92
625.655	9469.14
626.01	9487.9
626.365	9454
626.72	9427.11
627.075	9458.52
627.43	9417.62
627.785	9415.36
628.14	9438.18
628.495	9449.03
628.85	9392.99
629.205	9388.69
629.559	9471.63
629.914	9375.81
630.269	9404.74
630.623	9369.03
630.978	9381.69
631.332	9371.07
631.687	9346.66
632.041	9268.47
632.396	9327
632.75	9265.08
633.104	9301.24
633.459	9236.61
633.813	9221.92
634.167	9260.56
634.521	9289.49
634.875	9332.88
635.229	9290.62
635.583	9226.21
635.937	9166.55
636.291	9172.2
636.645	9195.7
636.999	9106.22
637.352	9131.75
637.706	9155.71
638.06	9181.24
638.413	9108.25
638.767	9212.65
639.121	9168.59
639.474	9154.12
639.828	9148.25
640.181	9109.83
640.534	9098.53
640.888	9064.63
641.241	9049.95
641.594	9039.78
641.947	9111.41
642.301	9038.65
642.654	8975.6
643.007	9038.87
643.36	9017.4
643.713	9002.94
644.066	9072.54
644.419	9028.03
644.771	8939.89
645.124	8875.26
645.477	8841.36
645.83	8829.39
646.182	8757.52
646.535	8779.22
646.888	8753.91
647.24	8688.6
647.593	8719.33
647.945	8686.57
648.298	8710.52
648.65	8682.95
649.002	8668.26
649.355	8740.35
649.707	8726.56
650.059	8763.4
650.411	8891.76
650.763	8826.45
651.115	8931.08
651.467	8904.64
651.819	8928.59
652.171	8877.07
652.523	8856.73
652.875	8918.2
653.227	8900.35
653.578	8852.66
653.93	8905.54
654.282	8841.82
654.633	8866.45
654.985	8832.32
655.337	8894.7
655.688	8895.37
656.039	8942.15
656.391	8854.92
656.742	8887.01
657.094	8862.38
657.445	8880.68
657.796	8888.82
658.147	8810.4
658.498	8911.64
658.849	8922.04
659.2	8925.43
659.551	8948.25
659.902	8992.77
660.253	8965.88
660.604	8931.08
660.955	8847.24
661.306	8958.65
661.656	8905.32
662.007	8978.76
662.358	8953.9
662.708	8913
663.059	8998.87
663.409	8908.48
663.76	8920.68
664.11	8950.06
664.461	8988.7
664.811	8991.87
665.161	8983.96
665.511	8910.29
665.862	8931.53
666.212	9017.63
666.562	8917.75
666.912	8956.61
667.262	8976.73
667.612	8973.79
667.962	9023.51
668.312	8949.61
668.662	8956.84
669.011	8958.65
669.361	8914.36
669.711	8944.64
670.06	8949.38
670.41	8946.9
670.76	8936.73
671.109	8953
671.459	8931.08
671.808	8862.38
672.157	8983.73
672.507	8900.57
672.856	8843.85
673.205	8890.18
673.554	8964.3
673.904	8834.13
674.253	8925.88
674.602	8959.78
674.951	8718.88
675.3	8767.02
675.649	8850.63
675.998	8809.5
676.346	8854.92
676.695	8878.42
677.044	8792.78
677.393	8786.9
677.741	8827.35
678.09	8763.4
678.438	8749.16
678.787	8792.33
679.135	8762.5
679.484	8740.12
679.832	8735.38
680.181	8668.26
680.529	8668.94
680.877	8677.07
681.225	8698.77
681.573	8771.31
681.922	8684.76
682.27	8624.19
682.618	8585.33
682.966	8600.92
683.314	8649.73
683.661	8544.42
684.009	8528.15
684.357	8518.66
684.705	8432.56
685.053	8461.26
685.4	8481.83
685.748	8447.93
686.095	8420.13
686.443	8409.74
686.79	8365.67
687.138	8478.21
687.485	8401.38
687.832	8382.17
688.18	8331.09
688.527	8310.98
688.874	8315.73
689.221	8228.5
689.568	8197.99
689.915	8268.05
690.262	8229.85
690.609	8157.99
690.956	8110.99
691.303	8131.78
691.65	8096.75
691.997	8147.37
692.344	8038.22
692.69	7993.7
693.037	8000.26
693.383	7901.05
693.73	7922.29
694.077	7895.4
694.423	7876.64
694.769	7860.15
695.116	7838.45
695.462	7820.83
695.808	7772.92
696.155	7780.37
696.501	7728.85
696.847	7766.82
697.193	7609.53
697.539	7672.13
697.885	7637.1
698.231	7641.4
698.577	7556.88
698.923	7532.25
699.269	7535.64
699.614	7481.85
699.96	7441.4
700.306	7423.32
700.651	7407.73
700.997	7359.82
701.342	7406.15
701.688	7322.08
702.033	7331.57
702.379	7283.89
702.724	7297.22
703.069	7320.5
703.415	7143.56
703.76	7180.84
704.105	7134.29
704.45	7143.33
704.795	7096.1
705.14	7101.3
705.485	7008.42
705.83	7049.77
706.175	7039.6
706.52	7033.28
706.865	7025.14
707.209	7010.68
707.554	6908.08
707.899	6916.89
708.243	6862.88
708.588	6886.16
708.932	6806.84
709.277	6829.21
709.621	6879.38
709.966	6757.8
710.31	6852.04
710.654	6727.07
710.998	6780.85
711.342	6745.15
711.687	6675.77
712.031	6642.1
712.375	6640.29
712.719	6611.14
713.063	6667.41
713.407	6698.14
713.75	6609.56
714.094	6613.85
714.438	6583.34
714.782	6642.78
715.125	6589.45
715.469	6573.85
715.812	6550.58
716.156	6540.41
716.499	6490.24
716.843	6502.89
717.186	6512.16
717.53	6529.11
717.873	6483.91
718.216	6522.55
718.559	6442.56
718.902	6389
719.246	6469.9
719.589	6421.31
719.932	6440.75
720.275	6410.47
720.617	6390.58
720.96	6375.21
721.303	6376.8
721.646	6405.27
721.989	6321.43
722.331	6327.98
722.674	6365.27
723.016	6386.06
723.359	6339.51
723.701	6333.41
724.044	6319.62
724.386	6295.44
724.729	6359.17
725.071	6228.32
725.413	6319.17
725.755	6266.29
726.097	6266.06
726.439	6265.84
726.782	6261.54
727.124	6249.12
727.465	6279.62
727.807	6261.09
728.149	6293.86
728.491	6247.31
728.833	6260.64
729.175	6227.65
729.516	6247.76
729.858	6210.25
730.199	6232.62
730.541	6208.44
730.882	6251.15
731.224	6207.76
731.565	6222.45
731.906	6232.17
732.248	6222.45
732.589	6218.38
732.93	6229
733.271	6186.52
733.612	6215.9
733.953	6231.04
734.294	6209.57
734.635	6220.42
734.976	6204.14
735.317	6244.14
735.658	6236.01
735.999	6298.15
736.339	6245.95
736.68	6271.04
737.021	6217.93
737.361	6212.73
737.702	6272.62
738.042	6264.48
738.383	6271.49
738.723	6288.44
739.063	6257.7
739.404	6283.46
739.744	6296.8
740.084	6333.63
740.424	6372.95
740.764	6375.44
741.104	6361.43
741.444	6295.44
741.784	6321.88
742.124	6377.47
742.464	6439.17
742.804	6423.35
743.143	6401.65
743.483	6426.74
743.823	6415.89
744.162	6497.02
744.502	6551.71
744.841	6530.92
745.181	6602.78
745.52	6600.29
745.86	6645.94
746.199	6688.88
746.538	6641.87
746.877	6773.17
747.216	6830.12
747.556	6794.64
747.895	6879.61
748.234	6833.05
748.573	6930.45
748.911	7011.81
749.25	6990.11
749.589	7094.06
749.928	7172.93
750.267	7164.57
750.605	7305.58
750.944	7324.57
751.283	7334.96
751.621	7482.53
751.96	7566.82
752.298	7627.38
752.636	7739.7
752.975	7839.36
753.313	7879.13
753.651	8007.94
753.989	8056.98
754.327	8164.77
754.666	8275.05
755.004	8406.8
755.342	8587.36
755.679	8636.62
756.017	8736.51
756.355	8896.5
756.693	9075.93
757.031	9177.85
757.368	9278.87
757.706	9390.73
758.044	9515.92
758.381	9760.21
758.719	9913.2
759.056	10010.15
759.394	10211.5
759.731	10261.67
760.068	10444.71
760.405	10542.34
760.743	10752.05
761.08	10931.7
761.417	11078.59
761.754	11236.1
762.091	11405.14
762.428	11596.77
762.765	11728.29
763.102	11953.82
763.438	12076.53
763.775	12262.97
764.112	12386.36
764.449	12645.11
764.785	12709.06
765.122	12819.56
765.458	13090.97
765.795	13147.01
766.131	13388.36
766.467	13513.33
766.804	13644.85
767.14	13805.07
767.476	13918.74
767.812	14031.51
768.148	14215.91
768.485	14254.55
768.821	14401.9
769.157	14571.61
