Data from hue_260_FLMS001491_00068.txt Node
Date: Tue Feb 07 15:59:24 GMT 2017
User: dcchb
Spectrometer: FLMS00149
Trigger mode: 0
Integration Time (sec): 2.000000E-2
Scans to average: 10
Electric dark correction enabled: true
Nonlinearity correction enabled: false
Boxcar width: 0
XAxis mode: Wavelengths
Number of Pixels in Spectrum: 2048
>>>>>Begin Spectral Data<<<<<
341.393	-22.2
341.776	-22.2
342.16	-22.2
342.543	-52.71
342.927	-74.18
343.31	-58.13
343.693	-48.87
344.077	-78.7
344.46	-66.5
344.843	-52.71
345.226	-50.68
345.61	-34.86
345.993	-15.65
346.376	-2.32
346.759	8.53
347.142	15.76
347.525	19.83
347.908	68.42
348.291	64.8
348.674	102.99
349.057	128.08
349.44	125.82
349.823	160.17
350.206	177.34
350.588	204.46
350.971	217.11
351.354	220.95
351.737	228.19
352.119	213.95
352.502	239.03
352.884	276.32
353.267	272.7
353.65	305.47
354.032	277.45
354.414	305.02
354.797	309.54
355.179	327.62
355.562	309.31
355.944	307.73
356.326	302.99
356.709	327.84
357.091	314.51
357.473	332.14
357.855	325.36
358.238	336.43
358.62	341.63
359.002	336.66
359.384	327.62
359.766	320.61
360.148	336.43
360.53	326.26
360.912	324
361.294	297.11
361.676	340.27
362.057	323.1
362.439	328.3
362.821	326.94
363.203	326.26
363.584	327.17
363.966	312.48
364.348	331.69
364.729	306.15
365.111	307.73
365.493	312.7
365.874	314.29
366.256	300.27
366.637	328.3
367.019	306.38
367.4	319.94
367.781	308.86
368.163	308.86
368.544	301.63
368.925	327.62
369.306	314.29
369.688	314.06
370.069	322.19
370.45	303.66
370.831	320.39
371.212	318.81
371.593	330.33
371.974	300.27
372.355	320.84
372.736	306.38
373.117	318.35
373.498	303.89
373.879	317.22
374.26	312.7
374.641	312.93
375.021	303.89
375.402	310.67
375.783	303.89
376.163	314.06
376.544	322.42
376.925	329.2
377.305	326.04
377.686	325.81
378.066	308.86
378.447	311.8
378.827	310.67
379.208	339.82
379.588	310.67
379.968	331.23
380.349	331.01
380.729	348.18
381.109	338.92
381.489	328.07
381.87	322.42
382.25	314.96
382.63	324.23
383.01	317.22
383.39	353.15
383.77	312.48
384.15	346.6
384.53	326.49
384.91	327.17
385.29	332.59
385.67	338.69
386.049	350.44
386.429	343.89
386.809	341.86
387.189	346.38
387.568	347.73
387.948	351.8
388.328	357.67
388.707	382.53
389.087	345.7
389.466	369.65
389.846	363.55
390.225	357.45
390.605	379.59
390.984	378.46
391.363	385.24
391.743	366.26
392.122	357.45
392.501	382.76
392.881	369.65
393.26	378.46
393.639	353.38
394.018	373.27
394.397	392.02
394.776	372.82
395.155	385.92
395.534	393.15
395.913	368.07
396.292	394.51
396.671	403.1
397.05	392.25
397.429	386.15
397.808	387.96
398.186	388.63
398.565	394.51
398.944	409.88
399.323	362.42
399.701	408.75
400.08	389.76
400.458	400.16
400.837	419.59
401.215	422.76
401.594	411.01
401.972	418.46
402.351	413.04
402.729	433.38
403.107	414.4
403.486	418.46
403.864	429.08
404.242	435.41
404.62	455.07
404.999	430.67
405.377	442.64
405.755	447.16
406.133	450.78
406.511	450.1
406.889	457.11
407.267	457.56
407.645	455.07
408.023	493.26
408.401	486.94
408.779	470.67
409.156	459.14
409.534	466.82
409.912	504.79
410.29	513.15
410.667	505.01
411.045	525.35
411.422	528.74
411.8	525.13
412.178	537.1
412.555	526.71
412.933	533.71
413.31	574.62
413.687	562.64
414.065	563.32
414.442	570.55
414.819	571
415.197	582.53
415.574	611.9
415.951	607.39
416.328	599.7
416.705	617.78
417.082	625.69
417.46	626.59
417.837	626.59
418.214	638.34
418.591	628.85
418.967	673.6
419.344	651
419.721	646.03
420.098	651
420.475	678.8
420.852	692.58
421.228	701.85
421.605	712.69
421.982	708.85
422.358	720.15
422.735	729.87
423.111	747.27
423.488	745.46
423.864	770.32
424.241	758.57
424.617	796.31
424.994	812.58
425.37	808.28
425.746	820.94
426.123	822.29
426.499	848.73
426.875	843.76
427.251	856.87
427.627	878.11
428.003	874.04
428.379	909.3
428.756	905
429.132	927.83
429.507	929.41
429.883	932.8
430.259	953.14
430.635	938.9
431.011	944.1
431.387	959.01
431.763	985.68
432.138	988.17
432.514	999.24
432.89	1048.28
433.265	1062.74
433.641	1057.54
434.016	1076.75
434.392	1102.06
434.767	1109.74
435.143	1104.77
435.518	1118.33
435.894	1173.7
436.269	1161.49
436.644	1191.78
437.02	1209.63
437.395	1192.23
437.77	1232.23
438.145	1239.01
438.52	1262.28
438.895	1274.49
439.271	1291.66
439.646	1290.31
440.021	1322.62
440.395	1350.64
440.77	1347.25
441.145	1366.91
441.52	1408.27
441.895	1383.86
442.27	1401.49
442.645	1403.75
443.019	1438.32
443.394	1430.87
443.769	1455.27
444.143	1497.08
444.518	1472.22
444.892	1476.29
445.267	1501.15
445.641	1517.64
446.016	1508.83
446.39	1524.42
446.764	1548.38
447.139	1566.68
447.513	1572.56
447.887	1578.21
448.262	1565.33
448.636	1587.47
449.01	1593.57
449.384	1615.27
449.758	1610.07
450.132	1603.97
450.506	1641.71
450.88	1643.29
451.254	1629.51
451.628	1660.92
452.002	1698.43
452.376	1724.64
452.75	1706.34
453.123	1756.51
453.497	1756.28
453.871	1789.05
454.244	1800.12
454.618	1810.74
454.992	1839.9
455.365	1844.41
455.739	1895.71
456.112	1887.8
456.486	1887.35
456.859	1932.55
457.232	1969.16
457.606	1971.64
457.979	2017.97
458.352	2027.01
458.725	2029.49
459.099	2067.91
459.472	2082.83
459.845	2106.33
460.218	2130.51
460.591	2156.95
460.964	2144.75
461.337	2155.59
461.71	2220.9
462.083	2218.64
462.456	2250.05
462.829	2303.39
463.201	2264.97
463.574	2290.96
463.947	2336.61
464.32	2350.62
464.692	2353.78
465.065	2396.04
465.438	2403.5
465.81	2460.22
466.183	2501.57
466.555	2511.52
466.928	2542.25
467.3	2550.61
467.672	2581.34
468.045	2634.9
468.417	2650.04
468.789	2634
469.161	2678.29
469.534	2720.55
469.906	2765.29
470.278	2787.89
470.65	2820.66
471.022	2886.42
471.394	2946.98
471.766	2952.86
472.138	2984.5
472.51	2996.25
472.882	3063.82
473.253	3070.82
473.625	3166.87
473.997	3173.87
474.369	3172.52
474.74	3224.27
475.112	3286.41
475.484	3326.64
475.855	3356.92
476.227	3344.04
476.598	3463.81
476.97	3514.65
477.341	3576.35
477.713	3585.39
478.084	3656.12
478.455	3684.14
478.827	3734.31
479.198	3806.85
479.569	3837.58
479.94	3873.97
480.311	3965.04
480.682	4038.26
481.053	4091.81
481.424	4115.09
481.795	4183.11
482.166	4239.15
482.537	4281.86
482.908	4346.5
483.279	4367.29
483.65	4429.21
484.021	4504.91
484.391	4582.2
484.762	4644.12
485.133	4650.22
485.503	4705.36
485.874	4741.06
486.244	4795.3
486.615	4928.85
486.985	4899.93
487.356	4982.19
487.726	4984.9
488.097	5174.04
488.467	5134.27
488.837	5228.73
489.207	5289.3
489.578	5325.91
489.948	5386.24
490.318	5443.42
490.688	5481.38
491.058	5543.07
491.428	5587.82
491.798	5607.48
492.168	5691.77
492.538	5752.33
492.908	5760.02
493.278	5845.44
493.648	5876.17
494.017	5913.23
494.387	5972.22
494.757	5991.42
495.126	6026.68
495.496	6056.96
495.866	6114.58
496.235	6101.7
496.605	6180.8
496.974	6215.15
497.344	6294.47
497.713	6268.25
498.082	6337.63
498.452	6386.22
498.821	6382.6
499.19	6403.84
499.559	6468.25
499.928	6457.17
500.298	6494.69
500.667	6549.38
501.036	6509.38
501.405	6578.3
501.774	6579.66
502.143	6607.23
502.512	6644.97
502.88	6727.9
503.249	6735.13
503.618	6765.19
503.987	6804.06
504.356	6753.66
504.724	6799.31
505.093	6806.32
505.462	6897.16
505.83	6837.05
506.199	6901
506.567	6988.23
506.936	6972.42
507.304	6981.68
507.672	7056.26
508.041	7034.33
508.409	7103.94
508.777	7126.76
509.145	7197.72
509.514	7153.2
509.882	7161.79
510.25	7137.61
510.618	7192.75
510.986	7210.6
511.354	7237.27
511.722	7303.71
512.09	7278.17
512.458	7365.63
512.826	7308
513.193	7384.16
513.561	7403.82
513.929	7440.43
514.297	7470.26
514.664	7488.33
515.032	7483.36
515.4	7476.58
515.767	7480.65
516.135	7540.08
516.502	7488.33
516.869	7543.25
517.237	7533.98
517.604	7556.35
517.972	7618.95
518.339	7603.81
518.706	7632.51
519.073	7632.29
519.44	7636.58
519.808	7741.43
520.175	7681.78
520.542	7785.95
520.909	7720.19
521.276	7728.33
521.643	7781.66
522.009	7786.41
522.376	7804.26
522.743	7838.83
523.11	7879.06
523.477	7914.31
523.843	7968.55
524.21	7909.57
524.577	7988.89
524.943	7979.62
525.31	7973.29
525.676	8086.28
526.043	8093.52
526.409	8067.3
526.776	8095.32
527.142	8134.19
527.508	8092.61
527.874	8123.12
528.241	8118.83
528.607	8140.07
528.973	8233.4
529.339	8138.94
529.705	8229.56
530.071	8227.3
530.437	8155.66
530.803	8268.43
531.169	8274.08
531.535	8267.52
531.901	8261.87
532.267	8224.59
532.632	8248.31
532.998	8280.63
533.364	8302.55
533.73	8342.1
534.095	8265.04
534.461	8267.3
534.826	8341.87
535.192	8308.43
535.557	8301.65
535.923	8289.22
536.288	8359.05
536.653	8322.44
537.019	8299.39
537.384	8311.36
537.749	8355.43
538.114	8291.93
538.479	8238.37
538.845	8303.45
539.21	8242.66
539.575	8313.17
539.94	8267.52
540.305	8283.34
540.67	8237.24
541.034	8244.02
541.399	8251.25
541.764	8277.92
542.129	8282.89
542.494	8233.85
542.858	8248.54
543.223	8229.78
543.587	8206.28
543.952	8193.85
544.316	8259.61
544.681	8185.94
545.045	8227.75
545.41	8249.9
545.774	8224.81
546.138	8209.67
546.503	8185.72
546.867	8115.89
547.231	8219.39
547.595	8186.17
547.959	8169.9
548.324	8206.28
548.688	8161.99
549.052	8162.44
549.416	8110.92
549.779	8122.67
550.143	8139.84
550.507	8189.33
550.871	8159.73
551.235	8142.78
551.599	8158.83
551.962	8168.32
552.326	8207.19
552.689	8192.27
553.053	8161.99
553.417	8109.33
553.78	8143.91
554.143	8126.28
554.507	8158.83
554.87	8119.05
555.234	8166.73
555.597	8146.17
555.96	8111.14
556.323	8156.11
556.686	8106.17
557.05	8145.94
557.413	8189.56
557.776	8159.28
558.139	8145.72
558.502	8134.64
558.865	8187.3
559.228	8221.87
559.59	8239.5
559.953	8158.83
560.316	8258.03
560.679	8264.58
561.041	8293.06
561.404	8255.32
561.767	8260.07
562.129	8310.23
562.492	8314.53
562.854	8317.92
563.217	8352.04
563.579	8318.37
563.941	8318.14
564.304	8326.28
564.666	8401.3
565.028	8429.55
565.39	8414.19
565.753	8478.14
566.115	8495.77
566.477	8495.31
566.839	8512.71
567.201	8542.32
567.563	8562.88
567.925	8598.59
568.287	8557.91
568.648	8611.47
569.01	8610.34
569.372	8693.5
569.734	8616.67
570.095	8643.78
570.457	8717.45
570.819	8744.12
571.18	8689.21
571.542	8761.07
571.903	8741.18
572.265	8762.2
572.626	8830.67
572.987	8872.7
573.349	8826.15
573.71	8855.3
574.071	8868.64
574.432	8890.78
574.794	8942.31
575.155	8934.4
575.516	8944.57
575.877	8919.48
576.238	8984.34
576.599	9098.69
576.96	9005.36
577.32	9091.23
577.681	9126.26
578.042	9068.63
578.403	9085.35
578.763	9101.17
579.124	9070.21
579.485	9119.48
579.845	9131.68
580.206	9198.57
580.566	9212.81
580.927	9191.57
581.287	9267.72
581.648	9259.59
582.008	9286.93
582.368	9295.97
582.728	9346.36
583.089	9310.21
583.449	9367.38
583.809	9335.97
584.169	9405.57
584.529	9345.69
584.889	9505.68
585.249	9433.14
585.609	9401.73
585.969	9418.45
586.329	9483.99
586.688	9497.32
587.048	9458.45
587.408	9461.16
587.768	9475.17
588.127	9522.4
588.487	9507.26
588.846	9578.22
589.206	9527.83
589.565	9593.14
589.925	9572.12
590.284	9578.67
590.643	9673.81
591.003	9581.84
591.362	9669.29
591.721	9634.49
592.08	9630.88
592.44	9675.17
592.799	9695.73
593.158	9747.48
593.517	9694.15
593.876	9707.26
594.235	9661.84
594.593	9737.77
594.952	9691.67
595.311	9716.98
595.67	9761.95
596.029	9804.21
596.387	9744.32
596.746	9821.15
597.104	9802.17
597.463	9761.95
597.822	9792
598.18	9796.52
598.538	9694.83
598.897	9837.65
599.255	9726.47
599.613	9908.38
599.972	9817.31
600.33	9836.07
600.688	9824.54
601.046	9864.99
601.404	9876.29
601.762	9923.52
602.12	9858.89
602.478	9934.37
602.836	9936.63
603.194	9871.32
603.552	9889.18
603.91	9865.9
604.268	9907.71
604.625	9826.58
604.983	9916.29
605.341	9856.41
605.698	9917.65
606.056	10011.21
606.413	9951.09
606.771	9992.45
607.128	9988.83
607.485	9896.41
607.843	9967.14
608.2	10026.57
608.557	9987.25
608.914	9955.61
609.272	10034.93
609.629	10023.63
609.986	10086.68
610.343	9971.88
610.7	10052.11
611.057	10083.07
611.414	10057.08
611.771	10057.76
612.127	10138.66
612.484	10108.83
612.841	10180.24
613.198	10152.22
613.554	10148.6
613.911	10138.89
614.267	10158.55
614.624	10076.29
614.98	10106.57
615.337	10180.92
615.693	10214.36
616.05	10168.94
616.406	10261.37
616.762	10148.15
617.118	10169.39
617.475	10206.45
617.831	10180.01
618.187	10259.33
618.543	10170.52
618.899	10262.27
619.255	10257.07
619.611	10216.85
619.967	10306.57
620.323	10270.18
620.678	10285.32
621.034	10242.84
621.39	10245.55
621.746	10298.2
622.101	10302.05
622.457	10324.64
622.812	10318.09
623.168	10277.41
623.523	10270.63
623.879	10311.08
624.234	10302.05
624.589	10340.24
624.945	10331.88
625.3	10314.47
625.655	10307.7
626.01	10305.66
626.365	10286.9
626.72	10298.88
627.075	10269.96
627.43	10275.61
627.785	10268.6
628.14	10249.62
628.495	10277.41
628.85	10210.3
629.205	10136.4
629.559	10242.61
629.914	10179.56
630.269	10217.08
630.623	10215.27
630.978	10154.48
631.332	10156.29
631.687	10345.66
632.041	10234.93
632.396	10148.38
632.75	10152.9
633.104	10167.59
633.459	10107.25
633.813	10037.19
634.167	10101.82
634.521	10053.24
634.875	10046.68
635.229	10042.62
635.583	10006.01
635.937	10002.84
636.291	10063.86
636.645	10057.08
636.999	9966.46
637.352	9979.34
637.706	9910.64
638.06	10005.78
638.413	9912.68
638.767	9964.2
639.121	9949.74
639.474	9875.16
639.828	9894.37
640.181	9918.55
640.534	9888.72
640.888	9851.44
641.241	9780.03
641.594	9829.29
641.947	9834.49
642.301	9839.01
642.654	9761.95
643.007	9872.23
643.36	9772.12
643.713	9800.82
644.066	9854.15
644.419	9685.56
644.771	9700.71
645.124	9640.82
645.477	9608.73
645.83	9535.06
646.182	9484.21
646.535	9453.93
646.888	9492.58
647.24	9441.96
647.593	9452.58
647.945	9435.63
648.298	9433.37
648.65	9447.38
649.002	9348.17
649.355	9487.38
649.707	9404.67
650.059	9503.2
650.411	9558.56
650.763	9631.1
651.115	9768.73
651.467	9675.62
651.819	9573.48
652.171	9620.71
652.523	9617.09
652.875	9639.92
653.227	9586.13
653.578	9757.2
653.93	9646.47
654.282	9644.66
654.633	9588.84
654.985	9637.43
655.337	9559.92
655.688	9676.53
656.039	9654.83
656.391	9621.16
656.742	9578.67
657.094	9606.24
657.445	9611.67
657.796	9584.32
658.147	9518.56
658.498	9605.57
658.849	9591.33
659.2	9615.51
659.551	9599.47
659.902	9630.2
660.253	9636.53
660.604	9705.9
660.955	9592.69
661.306	9621.84
661.656	9637.43
662.007	9661.38
662.358	9618
662.708	9639.92
663.059	9633.81
663.409	9570.31
663.76	9664.1
664.11	9670.88
664.461	9648.73
664.811	9695.28
665.161	9635.85
665.511	9598.56
665.862	9681.5
666.212	9685.79
666.562	9604.44
666.912	9713.36
667.262	9570.99
667.612	9558.11
667.962	9664.1
668.312	9599.01
668.662	9726.24
669.011	9516.3
669.361	9593.14
669.711	9609.18
670.06	9564.66
670.41	9564.21
670.76	9555.4
671.109	9591.33
671.459	9644.21
671.808	9582.06
672.157	9683.98
672.507	9512.46
672.856	9535.29
673.205	9511.56
673.554	9586.81
673.904	9578.22
674.253	9553.14
674.602	9530.77
674.951	9347.49
675.3	9366.25
675.649	9471.33
675.998	9460.03
676.346	9439.7
676.695	9469.07
677.044	9418
677.393	9502.52
677.741	9372.8
678.09	9377.78
678.438	9315.86
678.787	9416.19
679.135	9393.14
679.484	9303.65
679.832	9429.3
680.181	9306.14
680.529	9363.99
680.877	9277.67
681.225	9311.11
681.573	9361.96
681.922	9220.04
682.27	9241.73
682.618	9269.53
682.966	9206.26
683.314	9241.96
683.661	9196.99
684.009	9152.92
684.357	9108.86
684.705	9116.99
685.053	9122.87
685.4	9123.32
685.748	9089.87
686.095	9064.11
686.443	9006.71
686.79	8996.77
687.138	9022.53
687.485	9002.19
687.832	8896.21
688.18	8996.09
688.527	8876.32
688.874	8868.41
689.221	8825.7
689.568	8863.67
689.915	8772.37
690.262	8806.72
690.609	8733.95
690.956	8739.37
691.303	8712.71
691.65	8626.61
691.997	8647.63
692.344	8676.33
692.69	8678.36
693.037	8594.07
693.383	8512.71
693.73	8549.78
694.077	8519.04
694.423	8438.14
694.769	8477.91
695.116	8448.08
695.462	8399.5
695.808	8351.59
696.155	8401.3
696.501	8310.46
696.847	8304.81
697.193	8292.15
697.539	8216
697.885	8242.44
698.231	8141.65
698.577	8172.38
698.923	8180.52
699.269	8136
699.614	8066.62
699.96	8003.57
700.306	8061.43
700.651	7993.18
700.997	7918.38
701.342	7982.33
701.688	7906.63
702.033	7914.76
702.379	7878.61
702.724	7907.08
703.069	7837.25
703.415	7824.14
703.76	7773.07
704.105	7705.96
704.45	7703.02
704.795	7652.85
705.14	7709.57
705.485	7635.9
705.83	7576.69
706.175	7605.39
706.52	7620.53
706.865	7568.78
707.209	7540.08
707.554	7445.85
707.899	7490.82
708.243	7465.28
708.588	7439.97
708.932	7457.83
709.277	7430.03
709.621	7433.42
709.966	7322.46
710.31	7350.71
710.654	7308.9
710.998	7301.22
711.342	7302.12
711.687	7310.71
712.031	7211.51
712.375	7216.48
712.719	7221
713.063	7223.93
713.407	7229.81
713.75	7162.92
714.094	7156.82
714.438	7165.63
714.782	7130.83
715.125	7143.94
715.469	7101.9
715.812	7064.39
716.156	7082.24
716.499	7111.17
716.843	7010.83
717.186	7009.25
717.53	7101
717.873	7030.95
718.216	7015.58
718.559	7004.96
718.902	6937.39
719.246	6950.72
719.589	6937.84
719.932	6908.01
720.275	6942.81
720.617	6894.9
720.96	6872.76
721.303	6890.84
721.646	6890.38
721.989	6867.56
722.331	6894.68
722.674	6890.84
723.016	6905.98
723.359	6793.89
723.701	6862.81
724.044	6785.98
724.386	6797.28
724.729	6772.42
725.071	6809.03
725.413	6823.04
725.755	6809.71
726.097	6759.31
726.439	6768.58
726.782	6733.1
727.124	6818.97
727.465	6774
727.807	6730.39
728.149	6729.71
728.491	6731.52
728.833	6732.87
729.175	6762.7
729.516	6718.18
729.858	6701.01
730.199	6756.38
730.541	6798.86
730.882	6672.31
731.224	6737.85
731.565	6705.08
731.906	6697.85
732.248	6735.13
732.589	6715.25
732.93	6666.43
733.271	6685.64
733.612	6705.3
733.953	6658.98
734.294	6731.29
734.635	6688.13
734.976	6703.5
735.317	6667.34
735.658	6661.69
735.999	6652.42
736.339	6701.46
736.68	6722.93
737.021	6657.17
737.361	6697.39
737.702	6699.88
738.042	6635.93
738.383	6676.15
738.723	6720.22
739.063	6750.73
739.404	6757.96
739.744	6775.36
740.084	6743.5
740.424	6730.84
740.764	6752.53
741.104	6750.05
741.444	6767
741.784	6761.8
742.124	6811.06
742.464	6799.09
742.804	6783.72
743.143	6763.83
743.483	6768.13
743.823	6794.57
744.162	6776.04
744.502	6894.45
744.841	6820.56
745.181	6901.91
745.52	6870.72
745.86	6972.87
746.199	6949.82
746.538	6960.66
746.877	7048.8
747.216	7089.47
747.556	7155.01
747.895	7143.71
748.234	7147.55
748.573	7134.45
748.911	7231.39
749.25	7223.48
749.589	7250.83
749.928	7296.47
750.267	7429.13
750.605	7425.51
750.944	7439.97
751.283	7538.28
751.621	7625.05
751.96	7707.09
752.298	7708.44
752.636	7859.4
752.975	7894.2
753.313	7998.38
753.651	8022.33
753.989	8088.32
754.327	8153.4
754.666	8242.89
755.004	8293.06
755.342	8465.71
755.679	8527.4
756.017	8610.56
756.355	8727.85
756.693	8788.86
757.031	8883.55
757.368	8977.79
757.706	9067.28
758.044	9163.32
758.381	9429.07
758.719	9439.92
759.056	9545.68
759.394	9628.16
759.731	9689.41
760.068	9860.7
760.405	9927.82
760.743	10103.41
761.08	10249.39
761.417	10312.67
761.754	10504.53
762.091	10591.3
762.428	10610.29
762.765	10813.67
763.102	10928.24
763.438	11094.12
763.775	11147.67
764.112	11308.35
764.449	11440.09
764.785	11545.4
765.122	11568.9
765.458	11646.64
765.795	11803.7
766.131	11960.53
766.467	12009.12
766.804	12096.57
767.14	12224.71
767.476	12322.78
767.812	12479.16
768.148	12519.84
