Data from hue_300_FLMS001491_00069.txt Node
Date: Tue Feb 07 15:51:04 GMT 2017
User: dcchb
Spectrometer: FLMS00149
Trigger mode: 0
Integration Time (sec): 2.000000E-2
Scans to average: 10
Electric dark correction enabled: true
Nonlinearity correction enabled: false
Boxcar width: 0
XAxis mode: Wavelengths
Number of Pixels in Spectrum: 2048
>>>>>Begin Spectral Data<<<<<
341.393	-23.71
341.776	-23.71
342.16	-23.71
342.543	-41.57
342.927	-56.26
343.31	-75.01
343.693	-58.06
344.077	-66.42
344.46	-71.62
344.843	-50.83
345.226	-39.08
345.61	-32.75
345.993	-22.81
346.376	-2.7
346.759	9.51
347.142	31.65
347.525	45.66
347.908	66.91
348.291	80.92
348.674	72.1
349.057	112.55
349.44	103.06
349.823	130.18
350.206	177.86
350.588	195.72
350.971	194.59
351.354	212.66
351.737	242.04
352.119	218.54
352.502	261.02
352.884	257.86
353.267	273.45
353.65	277.29
354.032	283.4
354.414	298.31
354.797	322.04
355.179	313.9
355.562	310.29
355.944	325.43
356.326	314.13
356.709	329.95
357.091	321.59
357.473	320.91
357.855	347.12
358.238	338.31
358.62	328.82
359.002	324.07
359.384	343.28
359.766	335.37
360.148	316.62
360.53	329.05
360.912	329.5
361.294	340.34
361.676	309.84
362.057	338.54
362.439	322.94
362.821	335.37
363.203	338.99
363.584	338.76
363.966	319.78
364.348	322.04
364.729	311.64
365.111	328.37
365.493	323.4
365.874	302.38
366.256	314.13
366.637	314.58
367.019	300.8
367.4	315.49
367.781	308.25
368.163	308.93
368.544	303.06
368.925	319.78
369.306	319.1
369.688	328.82
370.069	324.75
370.45	325.88
370.831	316.62
371.212	302.61
371.593	309.61
371.974	325.88
372.355	330.17
372.736	314.36
373.117	314.13
373.498	305.99
373.879	300.57
374.26	315.26
374.641	301.7
375.021	312.55
375.402	327.01
375.783	313.23
376.163	318.2
376.544	326.79
376.925	342.83
377.305	329.27
377.686	332.89
378.066	331.3
378.447	324.53
378.827	330.85
379.208	343.96
379.588	349.38
379.968	344.41
380.349	328.37
380.729	332.21
381.109	333.34
381.489	336.73
381.87	322.94
382.25	325.2
382.63	348.71
383.01	354.13
383.39	328.37
383.77	342.6
384.15	352.32
384.53	334.69
384.91	346.9
385.29	336.95
385.67	327.46
386.049	348.71
386.429	349.16
386.809	343.73
387.189	352.77
387.568	347.12
387.948	350.74
388.328	371.08
388.707	347.35
389.087	371.08
389.466	383.05
389.846	364.07
390.225	363.62
390.605	371.08
390.984	362.26
391.363	374.24
391.743	362.04
392.122	363.62
392.501	375.15
392.881	390.06
393.26	404.3
393.639	379.67
394.018	376.95
394.397	389.16
394.776	384.64
395.155	399.55
395.534	386.44
395.913	421.02
396.292	385.31
396.671	400.68
397.05	384.86
397.429	412.21
397.808	401.59
398.186	405.43
398.565	417.4
398.944	403.39
399.323	398.65
399.701	405.2
400.08	419.44
400.458	421.25
400.837	414.01
401.215	418.08
401.594	418.53
401.972	438.87
402.351	419.44
402.729	441.36
403.107	456.05
403.486	428.03
403.864	445.2
404.242	438.19
404.62	431.87
404.999	454.47
405.377	474.58
405.755	465.76
406.133	475.93
406.511	441.36
406.889	461.24
407.267	478.19
407.645	494.01
408.023	492.66
408.401	471.19
408.779	486.78
409.156	524.52
409.534	478.19
409.912	529.27
410.29	539.66
410.667	528.36
411.045	540.34
411.422	522.49
411.8	550.51
412.178	561.13
412.555	567.91
412.933	563.84
413.31	592.77
413.687	607.23
414.065	603.84
414.442	591.41
414.819	588.7
415.197	620.11
415.574	640.45
415.951	654.69
416.328	669.6
416.705	675.48
417.082	661.69
417.46	680.45
417.837	684.97
418.214	667.57
418.591	671.86
418.967	711.86
419.344	706.21
419.721	727.68
420.098	736.27
420.475	755.7
420.852	775.36
421.228	745.08
421.605	778.75
421.982	769.26
422.358	780.78
422.735	799.54
423.111	767.9
423.488	804.51
423.864	816.49
424.241	841.57
424.617	852.2
424.994	836.83
425.37	868.47
425.746	874.12
426.123	881.35
426.499	884.06
426.875	884.06
427.251	890.16
427.627	932.19
428.003	928.58
428.379	933.32
428.756	938.52
429.132	957.05
429.507	959.76
429.883	964.51
430.259	993.21
430.635	994.34
431.011	988.01
431.387	1012.87
431.763	1057.84
432.138	1062.81
432.514	1054.9
432.89	1050.61
433.265	1090.61
433.641	1093.54
434.016	1117.95
434.392	1136.03
434.767	1142.36
435.143	1134.45
435.518	1189.81
435.894	1188.91
436.269	1177.61
436.644	1192.53
437.02	1201.34
437.395	1227.1
437.77	1228.23
438.145	1241.79
438.52	1234.78
438.895	1258.51
439.271	1269.13
439.646	1291.05
440.021	1290.6
440.395	1285.18
440.77	1297.16
441.145	1287.21
441.52	1338.06
441.895	1340.32
442.27	1336.93
442.645	1348
443.019	1349.13
443.394	1370.15
443.769	1340.09
444.143	1362.69
444.518	1392.29
444.892	1383.93
445.267	1417.15
445.641	1410.82
446.016	1388.9
446.39	1369.24
446.764	1409.69
447.139	1416.02
447.513	1385.51
447.887	1435.23
448.262	1421.9
448.636	1429.81
449.01	1453.76
449.384	1462.8
449.758	1474.33
450.132	1472.74
450.506	1490.14
450.88	1482.91
451.254	1485.85
451.628	1489.01
452.002	1489.47
452.376	1509.13
452.75	1509.58
453.123	1523.59
453.497	1528.34
453.871	1561.1
454.244	1566.98
454.618	1575.11
454.992	1596.13
455.365	1578.73
455.739	1585.51
456.112	1630.03
456.486	1620.76
456.859	1675.9
457.232	1651.04
457.606	1634.55
457.979	1680.2
458.352	1708.44
458.725	1719.06
459.099	1711.61
459.472	1754.09
459.845	1780.08
460.218	1760.19
460.591	1777.82
460.964	1776.01
461.337	1802.23
461.71	1830.25
462.083	1844.49
462.456	1828.67
462.829	1849.23
463.201	1874.09
463.574	1878.83
463.947	1891.94
464.32	1947.53
464.692	1935.33
465.065	1949.34
465.438	1952.28
465.81	1988.89
466.183	1981.66
466.555	2043.8
466.928	2030.24
467.3	2010.58
467.672	2046.97
468.045	2116.57
468.417	2085.16
468.789	2096
469.161	2130.58
469.534	2147.3
469.906	2178.04
470.278	2185.95
470.65	2172.84
471.022	2244.02
471.394	2246.06
471.766	2270.24
472.138	2265.49
472.51	2312.04
472.882	2313.17
473.253	2361.53
473.625	2379.84
473.997	2397.47
474.369	2405.15
474.74	2437.69
475.112	2492.38
475.484	2506.61
475.855	2539.16
476.227	2541.42
476.598	2611.92
476.97	2592.26
477.341	2650.34
477.713	2674.52
478.084	2688.53
478.455	2777.12
478.827	2737.34
479.198	2807.17
479.569	2823.89
479.94	2896.89
480.311	2896.89
480.682	2907.51
481.053	2978.47
481.424	3016.21
481.795	3039.93
482.166	3055.08
482.537	3116.09
482.908	3131.23
483.279	3166.48
483.65	3210.1
484.021	3252.58
484.391	3290.1
484.762	3274.05
485.133	3334.84
485.503	3320.6
485.874	3390.43
486.244	3378.46
486.615	3442.86
486.985	3470.66
487.356	3548.62
487.726	3531.9
488.097	3591.33
488.467	3557.66
488.837	3635.17
489.207	3697.77
489.578	3754.04
489.948	3769.41
490.318	3793.13
490.688	3782.97
491.058	3805.11
491.428	3857.31
491.798	3918.1
492.168	3946.8
492.538	3989.29
492.908	3979.8
493.278	4083.07
493.648	4061.6
494.017	4080.13
494.387	4089.62
494.757	4122.62
495.126	4169.62
495.496	4183.18
495.866	4219.11
496.235	4237.64
496.605	4274.7
496.974	4251.43
497.344	4306.57
497.713	4305.66
498.082	4286.91
498.452	4415.72
498.821	4385.44
499.19	4419.33
499.559	4441.93
499.928	4469.05
500.298	4481.03
500.667	4468.15
501.036	4494.59
501.405	4582.72
501.774	4500.23
502.143	4542.27
502.512	4523.06
502.88	4616.39
503.249	4641.7
503.618	4617.75
503.987	4627.92
504.356	4663.62
504.724	4696.16
505.093	4685.31
505.462	4711.53
505.83	4744.97
506.199	4768.48
506.567	4823.16
506.936	4823.16
507.304	4864.07
507.672	4857.29
508.041	4822.49
508.409	4848.02
508.777	4900.22
509.145	4973.22
509.514	4946.78
509.882	4922.82
510.25	4933.44
510.618	4992.43
510.986	4950.39
511.354	5015.93
511.722	5042.82
512.09	5083.04
512.458	5042.82
512.826	5052.31
513.193	5088.69
513.561	5081.46
513.929	5166.43
514.297	5222.48
514.664	5206.2
515.032	5158.75
515.4	5233.1
515.767	5262.47
516.135	5238.07
516.502	5230.84
516.869	5314.68
517.237	5302.7
517.604	5271.97
517.972	5275.36
518.339	5346.77
518.706	5360.78
519.073	5368.01
519.44	5364.17
519.808	5394.9
520.175	5391.28
520.542	5418.4
520.909	5464.28
521.276	5457.72
521.643	5515.12
522.009	5563.94
522.376	5580.43
522.743	5560.09
523.11	5575.91
523.477	5639.87
523.843	5698.17
524.21	5714.89
524.577	5746.3
524.943	5794.44
525.31	5768.9
525.676	5795.57
526.043	5851.16
526.409	5806.19
526.776	5903.81
527.142	5949.69
527.508	6038.95
527.874	6057.03
528.241	6057.03
528.607	6053.64
528.973	6122.57
529.339	6083.92
529.705	6107.42
530.071	6156.46
530.437	6239.62
530.803	6228.32
531.169	6242.79
531.535	6215.22
531.901	6226.97
532.267	6265.84
532.632	6345.84
532.998	6392.61
533.364	6423.12
533.73	6461.31
534.095	6478.71
534.461	6413.63
534.826	6572.27
535.192	6544.02
535.557	6584.25
535.923	6565.27
536.288	6578.6
536.653	6630.12
537.019	6636.68
537.384	6674.87
537.749	6668.77
538.114	6703.57
538.479	6686.62
538.845	6734.07
539.21	6707.18
539.575	6758.71
539.94	6808.87
540.305	6872.6
540.67	6879.38
541.034	6909.44
541.399	6952.15
541.764	6970.9
542.129	7025.59
542.494	7016.78
542.858	7085.7
543.223	7027.4
543.587	7115.53
543.952	7090.68
544.316	7088.87
544.681	7159.83
545.045	7192.14
545.41	7308.3
545.774	7285.47
546.138	7287.51
546.503	7287.05
546.867	7318.47
547.231	7398.24
547.595	7326.15
547.959	7421.51
548.324	7376.09
548.688	7485.92
549.052	7489.31
549.416	7502.64
549.779	7497.9
550.143	7583.54
550.507	7593.49
550.871	7618.8
551.235	7586.71
551.599	7629.87
551.962	7682.52
552.326	7684.33
552.689	7733.6
553.053	7650.66
553.417	7756.42
553.78	7837.55
554.143	7801.84
554.507	7791.45
554.87	7888.17
555.234	7927.04
555.597	7901.95
555.96	7933.36
556.323	7940.6
556.686	7915.51
557.05	7999.35
557.413	7940.14
557.776	8033.93
558.139	8099.01
558.502	8046.81
558.865	8054.27
559.228	8156.18
559.59	8182.62
559.953	8193.25
560.316	8272.34
560.679	8240.02
561.041	8301.49
561.404	8339
561.767	8378.1
562.129	8320.47
562.492	8383.75
562.854	8383.07
563.217	8450.87
563.579	8435.27
563.941	8440.92
564.304	8478.44
564.666	8565.66
565.028	8537.19
565.39	8595.49
565.753	8588.26
566.115	8690.18
566.477	8733.34
566.839	8680.92
567.201	8727.24
567.563	8776.51
567.925	8833.45
568.287	8882.04
568.648	8895.6
569.01	8903.96
569.372	8926.56
569.734	8959.1
570.095	8990.51
570.457	9026.67
570.819	9127.46
571.18	9105.99
571.542	9096.72
571.903	9218.75
572.265	9235.48
572.626	9299.43
572.987	9292.88
573.349	9479.99
573.71	9470.05
574.071	9463.49
574.432	9545.07
574.794	9639.99
575.155	9654.9
575.516	9644.28
575.877	9778.97
576.238	9792.53
576.599	9937.15
576.96	9978.96
577.32	10036.59
577.681	10188.9
578.042	10298.73
578.403	10296.92
578.763	10427.08
579.124	10489.91
579.485	10632.95
579.845	10735.55
580.206	10818.94
580.566	10925.15
580.927	11045.6
581.287	11258.93
581.648	11281.75
582.008	11469.77
582.368	11635.87
582.728	11785.47
583.089	11942.98
583.449	12105.23
583.809	12298.22
584.169	12433.81
584.529	12636.07
584.889	12900.69
585.249	13015.72
585.609	13183.85
585.969	13488.7
586.329	13528.7
586.688	13898.41
587.048	14065.18
587.408	14360.54
587.768	14609.12
588.127	14731.38
588.487	14944.48
588.846	15362.32
589.206	15504.01
589.565	15777.68
589.925	16065.35
590.284	16274.39
590.643	16689.52
591.003	16911.66
591.362	17131.54
591.721	17487.24
592.08	17656.95
592.44	18111.85
592.799	18286.99
593.158	18578.73
593.517	18844.26
593.876	19110.47
594.235	19400.63
594.593	19628.42
594.952	20089.2
595.311	20305.69
595.67	20626.14
596.029	20980.25
596.387	21292.56
596.746	21662.5
597.104	21968.02
597.463	22130.28
597.822	22561
598.18	22788.79
598.538	22946.98
598.897	23326.63
599.255	23434.65
599.613	24116.89
599.972	24153.96
600.33	24617.67
600.688	24798.23
601.046	25024.67
601.404	25358.67
601.762	25695.16
602.12	26089.95
602.478	26280.91
602.836	26530.62
603.194	26617.85
603.552	26938.74
603.91	27089.7
604.268	27401.55
604.625	27794.99
604.983	28040.63
605.341	28062.78
605.698	28468.42
606.056	28647.85
606.413	28863.89
606.771	29263.43
607.128	29443.76
607.485	29474.27
607.843	29840.81
608.2	30207.36
608.557	30314.92
608.914	30493
609.272	30787.23
609.629	31107.22
609.986	31386.76
610.343	31487.32
610.7	31798.27
611.057	31961.21
611.414	32068.55
611.771	32413.63
612.127	32734.52
612.484	32874.86
612.841	33065.81
613.198	33030.56
613.554	33305.35
613.911	33533.37
614.267	33751.22
614.624	33816.53
614.98	34087.25
615.337	34346.91
615.693	34251.54
616.05	34475.72
616.406	34731.3
616.762	34729.95
617.118	34867.8
617.475	34993.9
617.831	35195.7
618.187	35322.02
618.543	35456.71
618.899	35803.37
619.255	35773.99
619.611	35894.89
619.967	36087.65
620.323	36395.89
620.678	36338.49
621.034	36357.02
621.39	36430.02
621.746	36584.59
622.101	37069.55
622.457	36668.88
622.812	37101.19
623.168	37296.21
623.523	37172.14
623.879	37474.96
624.234	37138.25
624.589	37495.3
624.945	37617.78
625.3	37631.57
625.655	37695.07
626.01	37789.3
626.365	37721.06
626.72	37827.49
627.075	37748.63
627.43	37922.41
627.785	37794.27
628.14	37988.17
628.495	38082.85
628.85	38037.43
629.205	38083.31
629.559	38268.61
629.914	38195.39
630.269	38311.55
630.623	38251.66
630.978	38333.7
631.332	38404.65
631.687	38413.02
632.041	38460.7
632.396	38595.61
632.75	38383.19
633.104	38483.3
633.459	38286.47
633.813	38420.47
634.167	38383.19
634.521	38427.48
634.875	38504.31
635.229	38566.46
635.583	38285.79
635.937	38526.46
636.291	38424.77
636.645	38453.69
636.999	38222.06
637.352	38510.19
637.706	38197.2
638.06	38422.51
638.413	38325.11
638.767	38275.62
639.121	38459.12
639.474	38211.89
639.828	38382.73
640.181	38462.51
640.534	38384.09
640.888	38344.77
641.241	38029.75
641.594	38221.16
641.947	38352.23
642.301	38310.87
642.654	38362.17
643.007	38384.77
643.36	38353.58
643.713	38308.61
644.066	38316.52
644.419	38178.67
644.771	38035.4
645.124	37636.99
645.477	37587.05
645.83	37448.75
646.182	37305.93
646.535	37107.06
646.888	37292.14
647.24	37252.14
647.593	37251.46
647.945	37305.93
648.298	36953.62
648.65	36997.01
649.002	37135.99
649.355	37019.83
649.707	37069.55
650.059	37233.84
650.411	37656.43
650.763	37648.74
651.115	38175.06
651.467	37932.35
651.819	37872.01
652.171	37923.08
652.523	37955.85
652.875	37784.11
653.227	37798.34
653.578	38030.65
653.93	38003.31
654.282	37853.03
654.633	37799.92
654.985	37868.4
655.337	37878.57
655.688	37779.13
656.039	37942.29
656.391	37574.62
656.742	37725.12
657.094	37764.22
657.445	37767.38
657.796	37751.11
658.147	37717.67
658.498	37671.11
658.849	37863.65
659.2	37596.99
659.551	37647.84
659.902	37763.77
660.253	37626.14
660.604	37717.21
660.955	37547.5
661.306	37681.51
661.656	37575.52
662.007	37580.49
662.358	37666.59
662.708	37749.76
663.059	37697.78
663.409	37382.08
663.76	37648.97
664.11	37678.35
664.461	37560.83
664.811	37631.57
665.161	37659.36
665.511	37459.59
665.862	37502.76
666.212	37548.41
666.562	37558.35
666.912	37495.98
667.262	37591.12
667.612	37524.45
667.962	37784.11
668.312	37477.67
668.662	37692.36
669.011	37626.82
669.361	37529.65
669.711	37644.22
670.06	37561.06
670.41	37375.98
670.76	37276.1
671.109	37586.14
671.459	37408.3
671.808	37392.93
672.157	37537.33
672.507	37268.86
672.856	37205.82
673.205	37325.13
673.554	37377.56
673.904	37284.23
674.253	37464.57
674.602	37299.82
674.951	36822.32
675.3	36608.32
675.649	37211.92
675.998	37133.05
676.346	37131.47
676.695	37366.72
677.044	36957.23
677.393	37119.26
677.741	37264.8
678.09	37158.81
678.438	36952.94
678.787	37070.45
679.135	36995.43
679.484	36952.94
679.832	37085.14
680.181	36690.35
680.529	36898.93
680.877	36693.96
681.225	36687.19
681.573	36850.34
681.922	36554.31
682.27	36647.19
682.618	36611.93
682.966	36523.57
683.314	36617.58
683.661	36436.8
684.009	36353.18
684.357	36267.31
684.705	36206.52
685.053	36243.13
685.4	36207.65
685.748	36072.29
686.095	35978.73
686.443	35844.95
686.79	35784.16
687.138	35971.5
687.485	35969.46
687.832	35541.23
688.18	35804.04
688.527	35538.29
688.874	35389.37
689.221	35463.71
689.568	35444.96
689.915	35178.07
690.262	35172.2
690.609	35104.18
690.956	35025.31
691.303	34878.87
691.65	34921.13
691.997	34821.25
692.344	34624.41
692.69	34670.51
693.037	34630.52
693.383	34441.14
693.73	34661.25
694.077	34276.85
694.423	34386.23
694.769	34132
695.116	34149.4
695.462	34059.01
695.808	33917.09
696.155	34054.71
696.501	33769.52
696.847	33810.65
697.193	33608.4
697.539	33625.12
697.885	33320.72
698.231	33380.38
698.577	33327.5
698.923	33306.26
699.269	33087.51
699.614	33014.51
699.96	32863.78
700.306	32941.29
700.651	32760.73
700.997	32765.48
701.342	32565.26
701.688	32554.41
702.033	32410.24
702.379	32500.85
702.724	32328.66
703.069	32373.4
703.415	32067.65
703.76	32090.7
704.105	32128.66
704.45	31835.34
704.795	31838.95
705.14	31765.28
705.485	31640.31
705.83	31712.85
706.175	31672.18
706.52	31508.79
706.865	31428.79
707.209	31433.54
707.554	31315.8
707.899	31372.97
708.243	31135.69
708.588	31203.49
708.932	30984.06
709.277	30785.87
709.621	30923.95
709.966	30756.49
710.31	30744.29
710.654	30392.66
710.998	30604.63
711.342	30603.28
711.687	30484.41
712.031	30421.36
712.375	30254.59
712.719	30353.11
713.063	30318.09
713.407	30327.8
713.75	30136.62
714.094	30291.2
714.438	29821.83
714.782	30035.38
715.125	29903.86
715.469	29992.22
715.812	29766.92
716.156	29543.87
716.499	29700.25
716.843	29701.83
717.186	29441.73
717.53	29708.39
717.873	29664.32
718.216	29510.42
718.559	29370.09
718.902	29146.37
719.246	29309.07
719.589	29075.63
719.932	29133.94
720.275	29110.89
720.617	29052.58
720.96	28990.44
721.303	28974.17
721.646	29000.61
721.989	28865.02
722.331	28894.62
722.674	28845.36
723.016	28889.65
723.359	28754.51
723.701	28743.89
724.044	28481.98
724.386	28321.08
724.729	28550.22
725.071	28462.54
725.413	28328.76
725.755	28386.16
726.097	28303.68
726.439	28186.39
726.782	28246.28
727.124	28359.27
727.465	28073.17
727.807	28135.55
728.149	28137.58
728.491	27978.71
728.833	27969.67
729.175	27980.75
729.516	27961.09
729.858	27804.93
730.199	27953.4
730.541	27822.79
730.882	27782.79
731.224	27863.46
731.565	27623.69
731.906	27679.29
732.248	27656.46
732.589	27485.39
732.93	27479.52
733.271	27479.97
733.612	27556.58
733.953	27546.86
734.294	27339.63
734.635	27368.79
734.976	27343.25
735.317	27204.72
735.658	27293.99
735.999	27300.09
736.339	27206.98
736.68	27253.53
737.021	27092.64
737.361	27197.72
737.702	27171.5
738.042	27099.41
738.383	27143.26
738.723	27052.86
739.063	26856.94
739.404	26995.91
739.744	26910.49
740.084	26741.46
740.424	26915.92
740.764	26767.45
741.104	26825.3
741.444	26672.76
741.784	26504.4
742.124	26607.45
742.464	26588.02
742.804	26480
743.143	26497.17
743.483	26491.75
743.823	26423.27
744.162	26408.13
744.502	26461.69
744.841	26368.36
745.181	26365.65
745.52	26322.94
745.86	26291.98
746.199	26348.02
746.538	26400
746.877	26248.82
747.216	26327.91
747.556	26162.26
747.895	26154.81
748.234	26084.07
748.573	25916.39
748.911	25920.24
749.25	26058.09
749.589	26007.92
749.928	26139.67
750.267	26020.12
750.605	25929.28
750.944	25925.66
751.283	25855.38
751.621	26002.95
751.96	25828.26
752.298	25751.43
752.636	25669.85
752.975	25659
753.313	25594.82
753.651	25666.23
753.989	25598.66
754.327	25616.29
754.666	25432.34
755.004	25543.75
755.342	25489.51
755.679	25326.58
756.017	25343.53
756.355	25450.64
756.693	25364.54
757.031	25379.46
757.368	25254.27
757.706	25125.23
758.044	25103.99
758.381	25156.64
758.719	24991.67
759.056	25022.18
