Data from hue_32_FLMS001491_00011.txt Node
Date: Tue Feb 07 17:22:57 GMT 2017
User: dcchb
Spectrometer: FLMS00149
Trigger mode: 0
Integration Time (sec): 2.000000E-2
Scans to average: 10
Electric dark correction enabled: true
Nonlinearity correction enabled: false
Boxcar width: 0
XAxis mode: Wavelengths
Number of Pixels in Spectrum: 2048
>>>>>Begin Spectral Data<<<<<
341.393	-5.58
341.776	-5.58
342.16	-5.58
342.543	-48.74
342.927	-53.94
343.31	-69.08
343.693	-75.86
344.077	-65.92
344.46	-54.84
344.843	-57.78
345.226	-34.05
345.61	-39.93
345.993	-15.52
346.376	-13.71
346.759	0.97
347.142	39.62
347.525	30.8
347.908	54.08
348.291	74.64
348.674	103.8
349.057	122.78
349.44	119.16
349.823	161.2
350.206	141.76
350.588	204.59
350.971	240.06
351.354	228.31
351.737	238.48
352.119	258.82
352.502	271.7
352.884	279.84
353.267	268.31
353.65	283.45
354.032	298.59
354.414	297.01
354.797	318.48
355.179	327.75
355.562	329.78
355.944	334.98
356.326	330.46
356.709	337.69
357.091	329.55
357.473	357.8
357.855	344.47
358.238	333.85
358.62	348.31
359.002	358.25
359.384	332.27
359.766	323.68
360.148	334.3
360.53	339.04
360.912	343.79
361.294	320.51
361.676	332.49
362.057	331.59
362.439	335.88
362.821	321.42
363.203	339.95
363.584	334.98
363.966	334.53
364.348	317.35
364.729	309.44
365.111	334.07
365.493	336.56
365.874	311.93
366.256	306.73
366.637	296.56
367.019	316.22
367.4	311.93
367.781	311.93
368.163	314.64
368.544	304.02
368.925	311.7
369.306	315.99
369.688	309.22
370.069	317.35
370.45	318.93
370.831	321.64
371.212	294.3
371.593	308.76
371.974	296.33
372.355	314.41
372.736	314.86
373.117	306.5
373.498	317.12
373.879	310.12
374.26	329.1
374.641	340.85
375.021	335.43
375.402	319.61
375.783	325.94
376.163	323
376.544	322.77
376.925	337.24
377.305	329.1
377.686	301.31
378.066	339.04
378.447	333.17
378.827	331.36
379.208	340.4
379.588	326.62
379.968	339.5
380.349	342.43
380.729	347.63
381.109	346.28
381.489	346.73
381.87	341.98
382.25	338.59
382.63	346.05
383.01	350.34
383.39	338.82
383.77	341.98
384.15	329.33
384.53	367.07
384.91	356.9
385.29	346.05
385.67	337.24
386.049	365.26
386.429	347.41
386.809	345.6
387.189	357.58
387.568	326.62
387.948	339.95
388.328	368.65
388.707	357.58
389.087	371.59
389.466	359.16
389.846	364.35
390.225	356.67
390.605	369.55
390.984	362.09
391.363	354.41
391.743	373.39
392.122	378.14
392.501	373.85
392.881	384.24
393.26	364.58
393.639	384.02
394.018	377.69
394.397	351.7
394.776	355.54
395.155	387.86
395.534	384.02
395.913	388.08
396.292	386.95
396.671	400.06
397.05	381.08
397.429	387.18
397.808	386.28
398.186	405.26
398.565	412.04
398.944	383.11
399.323	394.41
399.701	390.79
400.08	408.65
400.458	379.27
400.837	393.96
401.215	414.3
401.594	396.67
401.972	430.34
402.351	405.48
402.729	406.39
403.107	406.61
403.486	392.83
403.864	426.73
404.242	433.73
404.62	416.56
404.999	429.89
405.377	443.45
405.755	419.49
406.133	443.45
406.511	435.31
406.889	436.9
407.267	421.98
407.645	432.83
408.023	430.12
408.401	446.61
408.779	426.73
409.156	441.41
409.534	456.1
409.912	447.06
410.29	444.8
410.667	461.08
411.045	474.63
411.422	470.11
411.8	454.97
412.178	468.53
412.555	479.83
412.933	462.43
413.31	493.84
413.687	478.25
414.065	507.18
414.442	493.84
414.819	484.8
415.197	492.26
415.574	491.81
415.951	492.71
416.328	503.33
416.705	503.11
417.082	510.79
417.46	497.46
417.837	497.01
418.214	521.86
418.591	517.57
418.967	510.57
419.344	521.86
419.721	520.51
420.098	532.94
420.475	503.11
420.852	553.73
421.228	550.56
421.605	535.88
421.982	539.72
422.358	562.54
422.735	541.3
423.111	540.62
423.488	566.16
423.864	545.14
424.241	540.62
424.617	560.51
424.994	557.12
425.37	589.66
425.746	579.72
426.123	584.91
426.499	588.98
426.875	587.17
427.251	586.5
427.627	594.18
428.003	607.96
428.379	597.57
428.756	617
429.132	614.74
429.507	601.41
429.883	593.05
430.259	616.33
430.635	613.84
431.011	621.3
431.387	650.22
431.763	622.65
432.138	664.01
432.514	661.52
432.89	626.49
433.265	687.96
433.641	670.34
434.016	677.11
434.392	681.18
434.767	682.54
435.143	704.23
435.518	711.46
435.894	695.19
436.269	690
436.644	718.7
437.02	705.59
437.395	722.09
437.77	715.53
438.145	709.43
438.52	729.99
438.895	740.84
439.271	737.68
439.646	773.16
440.021	747.62
440.395	762.54
440.77	766.38
441.145	777.9
441.52	792.14
441.895	794.63
442.27	794.85
442.645	760.05
443.019	809.77
443.394	769.99
443.769	787.17
444.143	812.48
444.518	781.52
444.892	826.49
445.267	829.65
445.641	808.41
446.016	829.2
446.39	809.09
446.764	820.84
447.139	838.24
447.513	844.79
447.887	838.47
448.262	852.7
448.636	865.81
449.01	850.9
449.384	858.58
449.758	870.56
450.132	881.86
450.506	873.27
450.88	895.19
451.254	897.67
451.628	875.3
452.002	893.38
452.376	908.3
452.75	918.01
453.123	909.65
453.497	947.62
453.871	951.46
454.244	973.83
454.618	962.31
454.992	984
455.365	954.85
455.739	979.71
456.112	984.68
456.486	995.98
456.859	1049.53
457.232	1012.47
457.606	1035.75
457.979	1040.04
458.352	1031
458.725	1082.98
459.099	1090.21
459.472	1104
459.845	1094.73
460.218	1098.57
460.591	1095.64
460.964	1112.36
461.337	1138.8
461.71	1146.93
462.083	1172.24
462.456	1166.37
462.829	1205.91
463.201	1198.46
463.574	1175.41
463.947	1237.55
464.32	1246.59
464.692	1252.24
465.065	1267.83
465.438	1280.49
465.81	1296.53
466.183	1319.13
466.555	1316.87
466.928	1342.86
467.3	1339.47
467.672	1370.88
468.045	1408.17
468.417	1435.51
468.789	1435.97
469.161	1431.22
469.534	1464.21
469.906	1479.35
470.278	1519.13
470.65	1532.91
471.022	1595.06
471.394	1609.75
471.766	1614.27
472.138	1624.66
472.51	1677.31
472.882	1715.96
473.253	1692.91
473.625	1729.06
473.997	1772
474.369	1795.73
474.74	1848.61
475.112	1887.93
475.484	1907.14
475.855	1942.62
476.227	1989.62
476.598	2042.5
476.97	2058.1
477.341	2110.98
477.713	2148.71
478.084	2185.55
478.455	2232.33
478.827	2259.22
479.198	2335.6
479.569	2376.96
479.94	2484.75
480.311	2485.43
480.682	2578.53
481.053	2652.88
481.424	2710.73
481.795	2696.5
482.166	2767.23
482.537	2865.53
482.908	2915.25
483.279	2952.31
483.65	3057.62
484.021	3137.39
484.391	3209.7
484.762	3270.95
485.133	3303.94
485.503	3382.58
485.874	3507.55
486.244	3541.9
486.615	3645.17
486.985	3691.72
487.356	3817.15
487.726	3877.26
488.097	3986.18
488.467	4047.42
488.837	4070.25
489.207	4191.82
489.578	4282.9
489.948	4333.74
490.318	4466.62
490.688	4462.33
491.058	4605.83
491.428	4701.87
491.798	4701.64
492.168	4870.45
492.538	4959.49
492.908	5068.19
493.278	5119.48
493.648	5150.67
494.017	5261.4
494.387	5296.65
494.757	5429.31
495.126	5520.38
495.496	5550.43
495.866	5599.02
496.235	5692.12
496.605	5790.65
496.974	5790.88
497.344	5935.51
497.713	5938.67
498.082	6002.4
498.452	6087.82
498.821	6170.53
499.19	6213.92
499.559	6341.15
499.928	6365.55
500.298	6459.56
500.667	6515.83
501.036	6513.57
501.405	6630.18
501.774	6737.29
502.143	6746.11
502.512	6810.51
502.88	6882.6
503.249	6891.87
503.618	6997.85
503.987	7029.04
504.356	7085.31
504.724	7155.59
505.093	7155.14
505.462	7243.27
505.83	7292.99
506.199	7341.12
506.567	7467.22
506.936	7474
507.304	7548.12
507.672	7592.64
508.041	7644.62
508.409	7716.93
508.777	7757.15
509.145	7821.33
509.514	7820.43
509.882	7898.39
510.25	7941.1
510.618	8029.92
510.986	8079.41
511.354	8144.04
511.722	8286.86
512.09	8230.59
512.458	8269.91
512.826	8303.36
513.193	8349.91
513.561	8401.21
513.929	8486.4
514.297	8544.48
514.664	8546.29
515.032	8604.59
515.4	8679.39
515.767	8612.73
516.135	8765.94
516.502	8691.82
516.869	8859.72
517.237	8830.35
517.604	8862.89
517.972	8955.32
518.339	8997.57
518.706	9034.41
519.073	9082.32
519.44	9108.31
519.808	9190.79
520.175	9207.96
520.542	9299.26
520.909	9325.93
521.276	9330.67
521.643	9380.61
522.009	9449.09
522.376	9532.02
522.743	9601.4
523.11	9673.94
523.477	9668.97
523.843	9826.93
524.21	9904.67
524.577	9944.22
524.943	9999.36
525.31	9962.75
525.676	10127.71
526.043	10162.97
526.409	10228.73
526.776	10337.88
527.142	10300.14
527.508	10394.6
527.874	10412.23
528.241	10476.41
528.607	10563.41
528.973	10668.49
529.339	10651.54
529.705	10766.12
530.071	10756.85
530.437	10876.17
530.803	10898.32
531.169	11003.17
531.535	10895.83
531.901	10985.32
532.267	11131.08
532.632	11160.23
532.998	11149.16
533.364	11304.63
533.73	11317.97
534.095	11392.09
534.461	11415.82
534.826	11520.9
535.192	11548.69
535.557	11577.39
535.923	11607
536.288	11649.26
536.653	11744.85
537.019	11694.9
537.384	11658.97
537.749	11814
538.114	11852.41
538.479	11869.82
538.845	11908.01
539.21	11891.06
539.575	11969.47
539.94	12068.91
540.305	12190.71
540.67	12108.9
541.034	12222.57
541.399	12235.46
541.764	12294.21
542.129	12340.54
542.494	12378.28
542.858	12447.88
543.223	12383.02
543.587	12499.63
543.952	12499.63
544.316	12660.98
544.681	12626.18
545.045	12691.71
545.41	12728.78
545.774	12828.43
546.138	12916.34
546.503	12931.26
546.867	12813.07
547.231	12985.49
547.595	12989.11
547.959	13079.27
548.324	13152.95
548.688	13140.06
549.052	13120.86
549.416	13195.43
549.779	13202.21
550.143	13255.09
550.507	13380.28
550.871	13471.58
551.235	13368.53
551.599	13581.63
551.962	13578.02
552.326	13641.97
552.689	13680.39
553.053	13725.13
553.417	13711.12
553.78	13891.68
554.143	13764.45
554.507	13803.78
554.87	13919.48
555.234	14140.94
555.597	13965.13
555.96	14116.08
556.323	14093.71
556.686	14151.34
557.05	14179.81
557.413	14223.65
557.776	14241.96
558.139	14285.57
558.502	14332.58
558.865	14448.73
559.228	14507.03
559.59	14528.5
559.953	14612.12
560.316	14680.14
560.679	14788.83
561.041	14834.03
561.404	14853.24
561.767	14964.2
562.129	14930.07
562.492	15135.72
562.854	15046.91
563.217	14955.84
563.579	15108.6
563.941	15241.03
564.304	15234.47
564.666	15326.45
565.028	15385.65
565.39	15432.89
565.753	15409.38
566.115	15499.55
566.477	15588.14
566.839	15567.12
567.201	15768.02
567.563	15734.8
567.925	15919.65
568.287	15840.33
568.648	15877.39
569.01	15922.59
569.372	16073.09
569.734	16080.33
570.095	16258.63
570.457	16168.91
570.819	16238.97
571.18	16308.57
571.542	16418.85
571.903	16530.71
572.265	16559.18
572.626	16649.35
572.987	16671.04
573.349	16812.51
573.71	16946.97
574.071	17059.28
574.432	16965.5
574.794	17183.57
575.155	17220.63
575.516	17248.88
575.877	17370.69
576.238	17391.03
576.599	17630.79
576.96	17691.81
577.32	17692.94
577.681	17925.25
578.042	18017.22
578.403	18093.83
578.763	18198.69
579.124	18347.16
579.485	18489.3
579.845	18779.24
580.206	18813.14
580.566	18908.27
580.927	19111.43
581.287	19399.33
581.648	19475.72
582.008	19666.67
582.368	19781.7
582.728	20021.69
583.089	20230.73
583.449	20289.48
583.809	20559.76
584.169	20687.66
584.529	20841.33
584.889	21246.97
585.249	21357.93
585.609	21437.7
585.969	21782.32
586.329	22058.02
586.688	22234.29
587.048	22469.76
587.408	22593.6
587.768	22904.33
588.127	23123.3
588.487	23368.27
588.846	23748.82
589.206	23855.94
589.565	24076.73
589.925	24423.38
590.284	24656.82
590.643	24981.79
591.003	25143.59
591.362	25512.62
591.721	25778.38
592.08	26036.22
592.44	26355.31
592.799	26648.86
593.158	26852.92
593.517	27147.83
593.876	27451.1
594.235	27663.3
594.593	27984.42
594.952	28320
595.311	28404.52
595.67	28680.9
596.029	29215.35
596.387	29416.92
596.746	29640.87
597.104	29786.18
597.463	30081.09
597.822	30401.98
598.18	30497.57
598.538	30753.61
598.897	31235.41
599.255	31196.09
599.613	31848.72
599.972	31963.75
600.33	32170.98
600.688	32255.72
601.046	32610.51
601.404	33018.41
601.762	33175.02
602.12	33556.48
602.478	33694.78
602.836	33964.38
603.194	34032.4
603.552	34251.6
603.91	34350.13
604.268	34788.53
604.625	34839.15
604.983	35123.89
605.341	35284.11
605.698	35696.99
606.056	35879.13
606.413	35881.84
606.771	36261.94
607.128	36374.71
607.485	36441.37
607.843	36772.89
608.2	36982.83
608.557	37187.34
608.914	37304.63
609.272	37630.04
609.629	37791.85
609.986	38021.9
610.343	38004.95
610.7	38455.1
611.057	38578.72
611.414	38544.37
611.771	38844.7
612.127	39071.81
612.484	39233.62
612.841	39306.38
613.198	39382.99
613.554	39452.82
613.911	39846.48
614.267	39926.7
614.624	39920.15
614.98	40227.26
615.337	40363.98
615.693	40523.3
616.05	40475.39
616.406	40810.75
616.762	40812.56
617.118	40996.28
617.475	40991.08
617.831	41313.11
618.187	41365.31
618.543	41394.69
618.899	41969.81
619.255	41736.83
619.611	41883.04
619.967	41972.07
620.323	42169.13
620.678	42193.31
621.034	42146.31
621.39	42156.93
621.746	42204.84
622.101	42715.56
622.457	42546.52
622.812	42704.94
623.168	42870.81
623.523	42700.42
623.879	42960.52
624.234	42784.03
624.589	42904.03
624.945	43103.57
625.3	43034.19
625.655	43137.02
626.01	43191.25
626.365	43397.12
626.72	43297.24
627.075	43457.69
627.43	43410
627.785	43500.17
628.14	43635.53
628.495	43608.42
628.85	43579.49
629.205	43388.08
629.559	43778.35
629.914	43676.66
630.269	43689.54
630.623	43740.39
630.978	43479.15
631.332	43900.84
631.687	43885.47
632.041	43725.7
632.396	43847.96
632.75	43704.68
633.104	43790.56
633.459	43581.75
633.813	43646.15
634.167	43767.28
634.521	43647.74
634.875	43786.94
635.229	43770.22
635.583	43586.95
635.937	43631.92
636.291	43554.86
636.645	43556.89
636.999	43549.21
637.352	43726.6
637.706	43415.65
638.06	43763.21
638.413	43804.79
638.767	43556.21
639.121	43675.76
639.474	43481.19
639.828	43497.23
640.181	43595.08
640.534	43486.61
640.888	43446.16
641.241	43252.94
641.594	43530.68
641.947	43508.98
642.301	43363.68
642.654	43564.12
643.007	43537.46
643.36	43539.72
643.713	43396.67
644.066	43609.77
644.419	43300.18
644.771	43096.11
645.124	42673.98
645.477	42614.09
645.83	42272.41
646.182	42219.3
646.535	42189.92
646.888	42213.65
647.24	42023.6
647.593	42338.39
647.945	42095.69
648.298	42033.09
648.65	41950.83
649.002	41913.77
649.355	42215.46
649.707	42164.16
650.059	42296.13
650.411	42736.35
650.763	42537.94
651.115	43048.43
651.467	42964.36
651.819	42837.14
652.171	42854.31
652.523	42769.79
652.875	42774.54
653.227	42676.24
653.578	42866.74
653.93	42901.77
654.282	42756.91
654.633	42684.37
654.985	42664.94
655.337	42791.71
655.688	42587.65
656.039	42877.36
656.391	42534.09
656.742	42542.68
657.094	42624.49
657.445	42790.13
657.796	42687.99
658.147	42467.2
658.498	42517.6
658.849	42547.2
659.2	42582
659.551	42513.53
659.902	42453.19
660.253	42498.84
660.604	42550.36
660.955	42369.35
661.306	42538.16
661.656	42452.29
662.007	42495.22
662.358	42333.42
662.708	42461.55
663.059	42457.94
663.409	42344.04
663.76	42580.42
664.11	42493.64
664.461	42497.94
664.811	42381.33
665.161	42464.49
665.511	42284.61
665.862	42430.37
666.212	42576.8
666.562	42430.14
666.912	42357.15
667.262	42227.89
667.612	42296.59
667.962	42383.81
668.312	42457.26
668.662	42432.85
669.011	42267.66
669.361	42334.55
669.711	42216.81
670.06	42138.85
670.41	42164.84
670.76	42144.95
671.109	42312.18
671.459	42230.15
671.808	42222.46
672.157	42211.39
672.507	42029.7
672.856	42094.33
673.205	42097.72
673.554	42135.01
673.904	42043.71
674.253	42210.26
674.602	42122.13
674.951	41629.03
675.3	41429.94
675.649	42052.07
675.998	42111.51
676.346	42033.77
676.695	42137.95
677.044	41855.24
677.393	42019.98
677.741	42026.76
678.09	41873.77
678.438	41736.15
678.787	41776.6
679.135	41885.52
679.484	41542.03
679.832	41730.27
680.181	41528.02
680.529	41700.67
680.877	41573.67
681.225	41375.03
681.573	41735.7
681.922	41339.32
682.27	41316.5
682.618	41176.39
682.966	41139.78
683.314	41306.33
683.661	41182.72
684.009	41051.42
684.357	40958.77
684.705	40863.4
685.053	40840.58
685.4	40913.57
685.748	40700.24
686.095	40666.8
686.443	40634.93
686.79	40421.83
687.138	40575.27
687.485	40476.75
687.832	40396.52
688.18	40496.86
688.527	40260.25
688.874	40164.89
689.221	40091.22
689.568	40008.51
689.915	39841.28
690.262	39879.25
690.609	39794.73
690.956	39594.96
691.303	39634.06
691.65	39510.9
691.997	39523.78
692.344	39351.35
692.69	39167.85
693.037	39215.99
693.383	39023
693.73	39214.86
694.077	38989.78
694.423	38831.37
694.769	38729
695.116	38736
695.462	38719.28
695.808	38559.06
696.155	38651.03
696.501	38234.09
696.847	38186.19
697.193	38054.44
697.539	38189.12
697.885	37874.55
698.231	37848.34
698.577	37729.02
698.923	37817.38
699.269	37557.73
699.614	37524.51
699.96	37435.02
700.306	37345.3
700.651	37182.14
700.997	37033.67
701.342	37041.13
701.688	37092.88
702.033	36812.44
702.379	36789.84
702.724	36787.8
703.069	36780.35
703.415	36405.67
703.76	36511.88
704.105	36518.88
704.45	36296.74
704.795	36041.38
705.14	36092.23
705.485	36100.36
705.83	35812.24
706.175	35878.22
706.52	35917.77
706.865	35682.07
707.209	35653.37
707.554	35439.36
707.899	35625.12
708.243	35330.67
708.588	35205.7
708.932	35145.14
709.277	35185.59
709.621	35196.89
709.966	34877.57
710.31	34935.88
710.654	34666.96
710.998	34786.27
711.342	34752.6
711.687	34602.1
712.031	34510.58
712.375	34346.96
712.719	34509.22
713.063	34454.76
713.407	34515.1
713.75	34182.67
714.094	34324.82
714.438	34109.68
714.782	34241.88
715.125	33967.09
715.469	34158.95
715.812	33923.02
716.156	33622.01
716.499	33569.58
716.843	33756.7
717.186	33615.91
717.53	33702.01
717.873	33699.98
718.216	33692.29
718.559	33492.3
718.902	33178.86
719.246	33373.66
719.589	33246.88
719.932	32996.27
720.275	33013.44
720.617	33065.42
720.96	32996.04
721.303	32928.02
721.646	33036.49
721.989	32596.05
722.331	32723.96
722.674	32718.76
723.016	32605.54
723.359	32641.92
723.701	32696.61
724.044	32488.03
724.386	32326.23
724.729	32531.64
725.071	32408.03
725.413	32405.09
725.755	32356.96
726.097	32133.24
726.439	32017.99
726.782	32082.62
727.124	32116.51
727.465	31897.31
727.807	32040.58
728.149	31835.62
728.491	31860.48
728.833	31898.21
729.175	31806.01
729.516	31660.48
729.858	31713.59
730.199	31660.03
730.541	31494.16
730.882	31527.38
731.224	31676.75
731.565	31455.74
731.906	31395.4
732.248	31429.98
732.589	31277.67
732.93	31231.79
733.271	31213.71
733.612	31374.39
733.953	31192.02
734.294	30974.4
734.635	31084.68
734.976	31087.84
735.317	31020.95
735.658	30902.31
735.999	30824.57
736.339	30778.24
736.68	30856.66
737.021	30803.33
737.361	30704.8
737.702	30787.28
738.042	30715.87
738.383	30615.99
738.723	30661.19
739.063	30466.39
739.404	30720.84
739.744	30511.13
740.084	30345.26
740.424	30477.24
740.764	30340.97
741.104	30418.93
741.444	30261.65
741.784	30148.88
742.124	30188.43
742.464	30086.96
742.804	30064.14
743.143	30052.61
743.483	30030.92
743.823	29838.16
744.162	29851.72
744.502	29858.95
744.841	29802.22
745.181	29761.1
745.52	29732.17
745.86	29763.36
746.199	29597.26
746.538	29688.1
746.877	29805.16
747.216	29775.33
747.556	29485.62
747.895	29609.46
748.234	29455.57
748.573	29440.43
748.911	29249.7
749.25	29395.23
749.589	29226.19
749.928	29174.44
750.267	29302.8
750.605	29179.42
750.944	29200.43
751.283	29074.33
751.621	29077.72
751.96	28910.95
752.298	28963.38
752.636	29067.33
752.975	28746.43
753.313	28687.9
753.651	28733.78
753.989	28729.26
754.327	28709.37
754.666	28537.85
755.004	28364.75
755.342	28458.31
755.679	28500.11
756.017	28281.59
756.355	28389.15
756.693	28191.87
757.031	28211.08
757.368	28071.2
757.706	28074.36
758.044	27930.64
