Data from hue_280_FLMS001491_00087.txt Node
Date: Tue Feb 07 15:55:55 GMT 2017
User: dcchb
Spectrometer: FLMS00149
Trigger mode: 0
Integration Time (sec): 2.000000E-2
Scans to average: 10
Electric dark correction enabled: true
Nonlinearity correction enabled: false
Boxcar width: 0
XAxis mode: Wavelengths
Number of Pixels in Spectrum: 2048
>>>>>Begin Spectral Data<<<<<
341.393	-27.85
341.776	-27.85
342.16	-27.85
342.543	-65.82
342.927	-66.5
343.31	-64.69
343.693	-69.21
344.077	-70.11
344.46	-53.61
344.843	-54.07
345.226	-36.67
345.61	-27.63
345.993	-21.3
346.376	-8.42
346.759	-16.1
347.142	22.77
347.525	46.27
347.908	62.99
348.291	80.62
348.674	90.56
349.057	118.58
349.44	121.3
349.823	150
350.206	162.2
350.588	197.23
350.971	216.43
351.354	241.52
351.737	239.49
352.119	235.64
352.502	257.56
352.884	257.79
353.267	268.64
353.65	290.11
354.032	289.43
354.414	294.4
354.797	284.46
355.179	306.15
355.562	318.81
355.944	320.84
356.326	335.75
356.709	310.44
357.091	334.4
357.473	327.62
357.855	324
358.238	345.47
358.62	329.65
359.002	327.62
359.384	321.74
359.766	346.83
360.148	353.61
360.53	354.51
360.912	334.62
361.294	307.96
361.676	319.03
362.057	337.56
362.439	324
362.821	335.75
363.203	344.57
363.584	332.14
363.966	313.16
364.348	312.93
364.729	309.31
365.111	326.04
365.493	304.57
365.874	306.38
366.256	311.8
366.637	305.7
367.019	314.29
367.4	323.55
367.781	306.6
368.163	315.42
368.544	331.01
368.925	307.05
369.306	313.61
369.688	328.97
370.069	334.17
370.45	299.37
370.831	301.63
371.212	313.16
371.593	308.86
371.974	306.38
372.355	293.72
372.736	325.81
373.117	306.6
373.498	306.6
373.879	293.04
374.26	293.5
374.641	313.38
375.021	329.65
375.402	328.3
375.783	319.03
376.163	340.73
376.544	319.71
376.925	348.63
377.305	322.19
377.686	310.44
378.066	315.64
378.447	316.32
378.827	322.87
379.208	318.35
379.588	343.21
379.968	342.08
380.349	330.56
380.729	324.91
381.109	341.86
381.489	344.57
381.87	352.7
382.25	340.05
382.63	328.97
383.01	354.74
383.39	324
383.77	341.18
384.15	345.02
384.53	321.97
384.91	361.97
385.29	340.95
385.67	347.5
386.049	362.65
386.429	345.7
386.809	341.18
387.189	341.4
387.568	342.53
387.948	377.11
388.328	349.99
388.707	354.74
389.087	357.22
389.466	373.04
389.846	354.28
390.225	361.29
390.605	369.2
390.984	373.04
391.363	353.61
391.743	372.14
392.122	359.26
392.501	385.24
392.881	381.18
393.26	366.49
393.639	383.66
394.018	367.17
394.397	388.41
394.776	396.54
395.155	389.09
395.534	415.3
395.913	370.1
396.292	387.5
396.671	385.92
397.05	389.99
397.429	385.47
397.808	403.55
398.186	391.8
398.565	398.58
398.944	389.31
399.323	400.16
399.701	392.25
400.08	429.08
400.458	416.88
400.837	419.82
401.215	408.97
401.594	431.12
401.972	392.93
402.351	440.16
402.729	419.59
403.107	432.25
403.486	432.7
403.864	412.36
404.242	421.85
404.62	402.42
404.999	446.94
405.377	442.87
405.755	443.1
406.133	447.84
406.511	425.24
406.889	430.67
407.267	461.17
407.645	441.29
408.023	478.57
408.401	484.9
408.779	493.04
409.156	486.71
409.534	472.93
409.912	467.05
410.29	509.08
410.667	509.76
411.045	519.03
411.422	505.24
411.8	506.37
412.178	495.3
412.555	509.76
412.933	555.86
413.31	557.89
413.687	555.64
414.065	561.28
414.442	569.42
414.819	547.73
415.197	598.57
415.574	578.69
415.951	580.95
416.328	593.37
416.705	587.72
417.082	600.38
417.46	615.52
417.837	595.41
418.214	610.32
418.591	624.33
418.967	622.98
419.344	624.56
419.721	665.01
420.098	669.98
420.475	669.98
420.852	665.24
421.228	688.51
421.605	702.52
421.982	716.08
422.358	689.19
422.735	718.34
423.111	723.77
423.488	722.41
423.864	742.75
424.241	742.75
424.617	753.14
424.994	765.57
425.37	760.6
425.746	775.06
426.123	798.11
426.499	818.91
426.875	809.64
427.251	831.11
427.627	833.14
428.003	825.68
428.379	881.28
428.756	855.29
429.132	870.2
429.507	884.89
429.883	902.52
430.259	894.16
430.635	913.14
431.011	916.53
431.387	920.6
431.763	939.35
432.138	958.11
432.514	959.01
432.89	978.9
433.265	970.99
433.641	1019.8
434.016	999.47
434.392	1026.81
434.767	1041.27
435.143	1023.42
435.518	1054.83
435.894	1111.55
436.269	1086.24
436.644	1114.04
437.02	1111.33
437.395	1125.56
437.77	1160.14
438.145	1151.33
438.52	1174.15
438.895	1183.42
439.271	1163.3
439.646	1211.44
440.021	1205.34
440.395	1239.23
440.77	1232
441.145	1251.66
441.52	1245.79
441.895	1228.61
442.27	1260.7
442.645	1286.01
443.019	1285.56
443.394	1302.06
443.769	1299.34
444.143	1319
444.518	1350.42
444.892	1316.97
445.267	1334.37
445.641	1356.74
446.016	1360.36
446.39	1333.92
446.764	1383.18
447.139	1393.58
447.513	1374.6
447.887	1362.85
448.262	1368.27
448.636	1388.38
449.01	1385.9
449.384	1418.89
449.758	1408.95
450.132	1435.16
450.506	1467.48
450.88	1452.11
451.254	1427.25
451.628	1495.27
452.002	1477.19
452.376	1468.83
452.75	1490.98
453.123	1533.01
453.497	1529.39
453.871	1541.15
454.244	1566
454.618	1586.79
454.992	1565.78
455.365	1556.29
455.739	1611.2
456.112	1631.99
456.486	1618.43
456.859	1639
457.232	1655.49
457.606	1627.92
457.979	1671.54
458.352	1715.15
458.725	1691.88
459.099	1714.02
459.472	1707.7
459.845	1755.15
460.218	1777.75
460.591	1756.73
460.964	1757.86
461.337	1870.4
461.71	1815.94
462.083	1867.01
462.456	1849.84
462.829	1860.23
463.201	1872.66
463.574	1881.25
463.947	1895.03
464.32	1915.15
464.692	1938.65
465.065	1931.87
465.438	1972.77
465.81	1998.08
466.183	2067.69
466.555	2061.81
466.928	2052.54
467.3	2082.6
467.672	2092.32
468.045	2133.22
468.417	2109.72
468.789	2142.94
469.161	2165.76
469.534	2186.55
469.906	2186.55
470.278	2253.22
470.65	2210.73
471.022	2275.14
471.394	2324.18
471.766	2323.72
472.138	2336.15
472.51	2359.66
472.882	2396.72
473.253	2422.25
473.625	2430.84
473.997	2480.56
474.369	2490.95
474.74	2471.29
475.112	2536.15
475.484	2524.17
475.855	2586.77
476.227	2624.28
476.598	2670.16
476.97	2696.37
477.341	2744.28
477.713	2748.35
478.084	2765.75
478.455	2855.69
478.827	2843.03
479.198	2946.76
479.569	2928.68
479.94	2964.84
480.311	2963.48
480.682	3011.62
481.053	3075.34
481.424	3092.97
481.795	3145.85
482.166	3167.09
482.537	3199.86
482.908	3205.06
483.279	3296.13
483.65	3325.73
484.021	3344.26
484.391	3382
484.762	3406.41
485.133	3395.33
485.503	3471.26
485.874	3523.47
486.244	3550.36
486.615	3590.13
486.985	3615.89
487.356	3714.87
487.726	3662.9
488.097	3755.1
488.467	3692.95
488.837	3797.13
489.207	3840.52
489.578	3864.93
489.948	3894.53
490.318	3954.19
490.688	3903.34
491.058	4002.55
491.428	4049.78
491.798	4023.11
492.168	4157.57
492.538	4105.6
492.908	4141.08
493.278	4203.22
493.648	4234.18
494.017	4243.45
494.387	4250.23
494.757	4306.72
495.126	4330.45
495.496	4320.73
495.866	4372.26
496.235	4401.18
496.605	4420.39
496.974	4412.48
497.344	4486.15
497.713	4484.12
498.082	4491.35
498.452	4536.1
498.821	4584.23
499.19	4547.62
499.559	4575.87
499.928	4647.05
500.298	4614.06
500.667	4684.79
501.036	4630.78
501.405	4675.98
501.774	4674.85
502.143	4717.33
502.512	4734.73
502.88	4767.95
503.249	4738.58
503.618	4734.73
503.987	4842.3
504.356	4807.27
504.724	4819.48
505.093	4863.09
505.462	4889.31
505.83	4894.73
506.199	4937.89
506.567	4932.02
506.936	4919.81
507.304	5013.82
507.672	4978.8
508.041	5034.84
508.409	5054.27
508.777	5071.45
509.145	5080.94
509.514	5089.98
509.882	5087.27
510.25	5093.37
510.618	5088.62
510.986	5081.84
511.354	5085.91
511.722	5209.75
512.09	5211.78
512.458	5187.6
512.826	5196.87
513.193	5196.64
513.561	5212.24
513.929	5261.95
514.297	5312.57
514.664	5288.17
515.032	5282.29
515.4	5367.03
515.767	5340.14
516.135	5357.77
516.502	5272.8
516.869	5427.6
517.237	5389.18
517.604	5368.84
517.972	5447.94
518.339	5426.02
518.706	5445.68
519.073	5398.67
519.44	5457.2
519.808	5440.25
520.175	5449.52
520.542	5564.54
520.909	5535.84
521.276	5538.55
521.643	5577.88
522.009	5575.39
522.376	5611.32
522.743	5629.17
523.11	5664.88
523.477	5702.62
523.843	5642.73
524.21	5739
524.577	5732.45
524.943	5771.32
525.31	5747.81
525.676	5761.83
526.043	5838.89
526.409	5814.25
526.776	5901.26
527.142	5871.88
527.508	5889.96
527.874	5881.82
528.241	6007.24
528.607	5985.1
528.973	6014.02
529.339	5983.06
529.705	6000.92
530.071	6074.13
530.437	6089.73
530.803	6152.78
531.169	6159.33
531.535	6152.1
531.901	6124.53
532.267	6144.41
532.632	6166.56
532.998	6194.81
533.364	6240.91
533.73	6176.96
534.095	6259.89
534.461	6277.74
534.826	6280.68
535.192	6283.17
535.557	6291.08
535.923	6312.55
536.288	6333.11
536.653	6363.84
537.019	6252.66
537.384	6350.29
537.749	6332.88
538.114	6339.21
538.479	6391.64
538.845	6402.94
539.21	6364.75
539.575	6423.28
539.94	6455.14
540.305	6411.98
540.67	6457.17
541.034	6521.58
541.399	6493.11
541.764	6551.64
542.129	6571.97
542.494	6493.11
542.858	6583.95
543.223	6552.77
543.587	6568.13
543.952	6578.53
544.316	6634.12
544.681	6590.96
545.045	6626.44
545.41	6611.3
545.774	6640.45
546.138	6663.5
546.503	6675.25
546.867	6642.93
547.231	6698.3
547.595	6710.73
547.959	6705.98
548.324	6726.32
548.688	6715.7
549.052	6743.72
549.416	6749.37
549.779	6798.86
550.143	6833.44
550.507	6812.87
550.871	6860.55
551.235	6822.14
551.599	6793.44
551.962	6836.37
552.326	6889.25
552.689	6874.11
553.053	6837.73
553.417	6925.64
553.78	6993.88
554.143	6906.88
554.507	6900.78
554.87	6964.51
555.234	6997.27
555.597	6997.05
555.96	7034.56
556.323	7036.59
556.686	7003.6
557.05	7073.88
557.413	7039.76
557.776	7044.28
558.139	7095.58
558.502	7087.44
558.865	7121.79
559.228	7138.29
559.59	7189.36
559.953	7149.36
560.316	7264.16
560.679	7261.45
561.041	7329.92
561.404	7334.21
561.767	7326.3
562.129	7294.21
562.492	7412.63
562.854	7388.22
563.217	7403.59
563.579	7439.75
563.941	7438.39
564.304	7479.52
564.666	7515.9
565.028	7511.16
565.39	7505.73
565.753	7578.05
566.115	7543.25
566.477	7621.21
566.839	7652.85
567.201	7722.45
567.563	7681.78
567.925	7731.72
568.287	7715.22
568.648	7801.55
569.01	7858.95
569.372	7875.44
569.734	7788.44
570.095	7887.19
570.457	7947.08
570.819	7954.99
571.18	7922
571.542	8049.45
571.903	8049
572.265	7985.27
572.626	8101.65
572.987	8075.66
573.349	8061.65
573.71	8160.86
574.071	8262.33
574.432	8234.53
574.794	8329.89
575.155	8313.17
575.516	8320.18
575.877	8408.99
576.238	8408.31
576.599	8420.97
576.96	8381.42
577.32	8407.63
577.681	8556.55
578.042	8592.03
578.403	8526.5
578.763	8604.24
579.124	8562.88
579.485	8661.18
579.845	8807.85
580.206	8769.88
580.566	8746.15
580.927	8841.74
581.287	8925.36
581.648	8875.19
582.008	8989.99
582.368	8970.33
582.728	9107.95
583.089	9053.94
583.449	9130.32
583.809	9199.25
584.169	9241.06
584.529	9333.94
584.889	9418.45
585.249	9361.28
585.609	9401.28
585.969	9523.31
586.329	9515.17
586.688	9637.88
587.048	9674.94
587.408	9746.13
587.768	9776.64
588.127	9806.24
588.487	9875.84
588.846	10009.17
589.206	9966.69
589.565	10069.51
589.925	10159.68
590.284	10177.98
590.643	10264.08
591.003	10329.84
591.362	10422.27
591.721	10406.45
592.08	10480.12
592.44	10582.49
592.799	10684.86
593.158	10709.27
593.517	10740.9
593.876	10856.61
594.235	10879.43
594.593	10924.18
594.952	10997.39
595.311	11002.14
595.67	11199.2
596.029	11262.7
596.387	11360.1
596.746	11394.22
597.104	11345.18
597.463	11415.46
597.822	11529.58
598.18	11564.16
598.538	11561
598.897	11705.17
599.255	11611.16
599.613	11906.52
599.972	11779.75
600.33	11943.81
600.688	11990.14
601.046	12085.5
601.404	12052.28
601.762	12115.78
602.12	12116.91
602.478	12223.58
602.836	12199.17
603.194	12199.62
603.552	12269.68
603.91	12289.79
604.268	12426.74
604.625	12359.17
604.983	12453.18
605.341	12443.23
605.698	12531.37
606.056	12588.77
606.413	12571.36
606.771	12716.67
607.128	12753.96
607.485	12701.76
607.843	12693.85
608.2	12809.55
608.557	12842.09
608.914	12831.02
609.272	12934.74
609.629	12941.07
609.986	12978.36
610.343	12959.15
610.7	13188.52
611.057	13052.71
611.414	13233.95
611.771	13155.53
612.127	13197.56
612.484	13234.4
612.841	13279.37
613.198	13305.58
613.554	13308.97
613.911	13352.36
614.267	13388.29
614.624	13372.7
614.98	13466.03
615.337	13497.22
615.693	13451.57
616.05	13554.84
616.406	13653.6
616.762	13532.92
617.118	13582.86
617.475	13609.98
617.831	13651.11
618.187	13692.69
618.543	13687.04
618.899	13755.74
619.255	13722.07
619.611	13683.65
619.967	13835.74
620.323	13783.54
620.678	13823.31
621.034	13803.42
621.39	13753.25
621.746	13795.51
622.101	13993.25
622.457	13821.95
622.812	13975.4
623.168	13949.41
623.523	13955.06
623.879	13992.12
624.234	13849.07
624.589	13957.99
624.945	13931.33
625.3	13964.1
625.655	13924.32
626.01	14002.29
626.365	13934.72
626.72	13979.01
627.075	13965.23
627.43	13985.34
627.785	13923.19
628.14	13920.03
628.495	13992.34
628.85	14035.05
629.205	13976.53
629.559	14027.82
629.914	13899.69
630.269	13971.55
630.623	13946.7
630.978	13923.65
631.332	14015.17
631.687	14036.64
632.041	13928.16
632.396	13927.94
632.75	13967.26
633.104	13903.53
633.459	13910.31
633.813	13935.4
634.167	13859.92
634.521	13879.35
634.875	13915.51
635.229	13925.45
635.583	13781.5
635.937	13761.84
636.291	13764.78
636.645	13781.5
636.999	13769.07
637.352	13885.91
637.706	13720.03
638.06	13715.74
638.413	13772.46
638.767	13788.06
639.121	13673.93
639.474	13602.75
639.828	13688.17
640.181	13652.47
640.534	13712.8
640.888	13692.01
641.241	13621.28
641.594	13646.82
641.947	13712.35
642.301	13596.2
642.654	13638
643.007	13633.03
643.36	13600.26
643.713	13569.76
644.066	13665.35
644.419	13627.16
644.771	13433.71
645.124	13424.22
645.477	13324.34
645.83	13229.43
646.182	13161.63
646.535	13074.63
646.888	13216.55
647.24	13119.82
647.593	13188.3
647.945	13268.97
648.298	13177.22
648.65	13107.17
649.002	13083.44
649.355	13162.54
649.707	13200.5
650.059	13234.62
650.411	13381.51
650.763	13447.95
651.115	13504.22
651.467	13478.46
651.819	13506.71
652.171	13468.29
652.523	13441.4
652.875	13420.38
653.227	13429.65
653.578	13536.76
653.93	13466.71
654.282	13485.92
654.633	13504
654.985	13481.85
655.337	13462.41
655.688	13461.74
656.039	13483.43
656.391	13358.01
656.742	13485.92
657.094	13446.14
657.445	13573.15
657.796	13506.71
658.147	13494.05
658.498	13495.41
658.849	13557.33
659.2	13402.75
659.551	13435.97
659.902	13515.75
660.253	13541.28
660.604	13514.62
660.955	13404.11
661.306	13542.64
661.656	13546.03
662.007	13500.38
662.358	13556.88
662.708	13524.79
663.059	13556.65
663.409	13439.82
663.76	13635.97
664.11	13500.15
664.461	13588.06
664.811	13531.57
665.161	13547.16
665.511	13489.31
665.862	13524.56
666.212	13572.02
666.562	13573.37
666.912	13587.83
667.262	13577.21
667.612	13591.9
667.962	13558.23
668.312	13605.46
668.662	13599.59
669.011	13606.37
669.361	13590.32
669.711	13481.17
670.06	13622.41
670.41	13505.58
670.76	13466.03
671.109	13526.82
671.459	13543.09
671.808	13556.2
672.157	13493.83
672.507	13426.03
672.856	13440.95
673.205	13537.44
673.554	13563.2
673.904	13535.86
674.253	13583.77
674.602	13476.65
674.951	13327.73
675.3	13165.7
675.649	13456.09
675.998	13409.99
676.346	13490.21
676.695	13440.72
677.044	13269.88
677.393	13361.4
677.741	13376.54
678.09	13365.24
678.438	13309.2
678.787	13320.05
679.135	13322.08
679.484	13261.74
679.832	13238.01
680.181	13149.43
680.529	13238.01
680.877	13283.89
681.225	13261.29
681.573	13279.14
681.922	13230.1
682.27	13194.4
682.618	13118.47
682.966	13103.78
683.314	13118.92
683.661	13069.88
684.009	12947.4
684.357	13008.87
684.705	12966.38
685.053	12956.44
685.4	12904.01
685.748	12891.81
686.095	12868.08
686.443	12783.34
686.79	12805.71
687.138	12824.92
687.485	12837.8
687.832	12703.79
688.18	12755.99
688.527	12661.98
688.874	12664.24
689.221	12540.63
689.568	12533.4
689.915	12416.34
690.262	12518.26
690.609	12397.13
690.956	12375.21
691.303	12351.48
691.65	12375.66
691.997	12337.92
692.344	12241.43
692.69	12259.51
693.037	12201.66
693.383	12146.97
693.73	12187.87
694.077	11980.65
694.423	12095.22
694.769	11986.3
695.116	11968.67
695.462	11906.75
695.808	11921.21
696.155	11992.85
696.501	11777.49
696.847	11751.27
697.193	11680.77
697.539	11673.08
697.885	11593.99
698.231	11579.07
698.577	11605.06
698.923	11529.13
699.269	11467.44
699.614	11388.8
699.96	11396.93
700.306	11375.01
700.651	11303.38
700.997	11291.85
701.342	11197.62
701.688	11284.17
702.033	11218.41
702.379	11224.96
702.724	11143.38
703.069	11208.24
703.415	11030.61
703.76	10957.17
704.105	10994.46
704.45	10988.13
704.795	10891.18
705.14	10829.94
705.485	10823.16
705.83	10734.12
706.175	10792.65
706.52	10783.61
706.865	10695.71
707.209	10669.27
707.554	10629.95
707.899	10718.53
708.243	10557.86
708.588	10603.28
708.932	10489.84
709.277	10509.27
709.621	10485.77
709.966	10450.06
710.31	10422.04
710.654	10417.97
710.998	10415.94
711.342	10403.29
711.687	10390.63
712.031	10353.12
712.375	10236.06
712.719	10321.48
713.063	10238.77
713.407	10262.5
713.75	10205.1
714.094	10214.14
714.438	10158.32
714.782	10135.27
715.125	10164.65
715.469	10143.18
715.812	10088.04
716.156	9986.57
716.499	10034.93
716.843	10066.8
717.186	10006.01
717.53	10013.24
717.873	9972.56
718.216	9968.95
718.559	9941.15
718.902	9903.19
719.246	9880.59
719.589	9868.61
719.932	9810.76
720.275	9900.25
720.617	9810.31
720.96	9775.73
721.303	9825
721.646	9786.58
721.989	9822.74
722.331	9759.91
722.674	9712
723.016	9744.09
723.359	9760.82
723.701	9737.54
724.044	9726.47
724.386	9666.58
724.729	9692.34
725.071	9709.97
725.413	9686.24
725.755	9662.97
726.097	9658.22
726.439	9665.9
726.782	9636.53
727.124	9646.47
727.465	9614.38
727.807	9631.55
728.149	9647.15
728.491	9539.81
728.833	9594.95
729.175	9596.3
729.516	9608.28
729.858	9593.36
730.199	9521.95
730.541	9626.36
730.882	9489.86
731.224	9584.55
731.565	9477.66
731.906	9532.57
732.248	9556.3
732.589	9521.73
732.93	9501.39
733.271	9540.48
733.612	9556.98
733.953	9586.13
734.294	9528.05
734.635	9474.04
734.976	9504.78
735.317	9430.2
735.658	9482.41
735.999	9557.21
736.339	9530.54
736.68	9493.71
737.021	9538.9
737.361	9489.19
737.702	9551.1
738.042	9527.83
738.383	9493.93
738.723	9632.91
739.063	9527.83
739.404	9599.92
739.744	9641.5
740.084	9621.16
740.424	9646.7
740.764	9587.94
741.104	9679.69
741.444	9716.52
741.784	9623.42
742.124	9708.39
742.464	9679.24
742.804	9719.69
743.143	9799.69
743.483	9792.68
743.823	9765.11
744.162	9749.29
744.502	9816.86
744.841	9814.15
745.181	9841.04
745.52	9882.85
745.86	9960.59
746.199	9974.82
746.538	10041.26
746.877	10053.69
747.216	10069.74
747.556	10125.1
747.895	10216.4
748.234	10209.17
748.573	10253.91
748.911	10343.85
749.25	10379.11
749.589	10450.97
749.928	10491.19
750.267	10603.05
750.605	10705.65
750.944	10705.2
751.283	10809.83
751.621	10883.05
751.96	10883.05
752.298	10957.62
752.636	11189.25
752.975	11223.15
753.313	11265.64
753.651	11398.97
753.989	11542.92
754.327	11589.7
754.666	11654.33
755.004	11847.99
755.342	12012.73
755.679	12148.1
756.017	12138.38
756.355	12313.74
756.693	12398.71
757.031	12574.08
757.368	12673.06
757.706	12787.63
758.044	12860.4
758.381	13077.79
758.719	13193.95
759.056	13445.24
759.394	13465.13
759.731	13526.37
760.068	13729.53
760.405	13774.27
760.743	13918.9
761.08	14140.59
761.417	14249.29
761.754	14413.58
762.091	14493.57
