Data from hue_300_FLMS001491_00030.txt Node
Date: Tue Feb 07 15:50:31 GMT 2017
User: dcchb
Spectrometer: FLMS00149
Trigger mode: 0
Integration Time (sec): 2.000000E-2
Scans to average: 10
Electric dark correction enabled: true
Nonlinearity correction enabled: false
Boxcar width: 0
XAxis mode: Wavelengths
Number of Pixels in Spectrum: 2048
>>>>>Begin Spectral Data<<<<<
341.393	-18.77
341.776	-18.77
342.16	-18.77
342.543	-43.18
342.927	-63.52
343.31	-80.01
343.693	-58.09
344.077	-58.09
344.46	-65.32
344.843	-44.08
345.226	-31.43
345.61	-22.84
345.993	-14.48
346.376	-6.79
346.759	19.65
347.142	14.9
347.525	32.53
347.908	43.6
348.291	70.72
348.674	96.25
349.057	103.49
349.44	105.97
349.823	149.59
350.206	157.95
350.588	172.41
350.971	194.78
351.354	218.29
351.737	231.39
352.119	227.32
352.502	256.7
352.884	272.75
353.267	254.89
353.65	289.24
354.032	305.97
354.414	303.03
354.797	293.54
355.179	306.87
355.562	286.98
355.944	324.05
356.326	315.91
356.709	330.6
357.091	351.16
357.473	334.67
357.855	335.8
358.238	323.14
358.62	342.8
359.002	320.43
359.384	340.32
359.766	355.91
360.148	341.9
360.53	336.25
360.912	320.43
361.294	343.25
361.676	315.91
362.057	316.36
362.439	326.98
362.821	317.04
363.203	304.38
363.584	325.4
363.966	324.27
364.348	316.14
364.729	298.74
365.111	323.37
365.493	322.24
365.874	307.55
366.256	312.97
366.637	302.8
367.019	310.94
367.4	336.7
367.781	310.94
368.163	304.16
368.544	313.42
368.925	306.87
369.306	299.86
369.688	317.27
370.069	318.62
370.45	304.16
370.831	298.74
371.212	304.84
371.593	313.42
371.974	300.32
372.355	289.7
372.736	315.91
373.117	326.76
373.498	308.23
373.879	327.89
374.26	306.19
374.641	307.77
375.021	319.07
375.402	326.08
375.783	331.5
376.163	311.39
376.544	306.87
376.925	337.38
377.305	320.43
377.686	320.66
378.066	311.62
378.447	323.14
378.827	306.19
379.208	327.21
379.588	329.69
379.968	308.9
380.349	333.76
380.729	330.6
381.109	319.3
381.489	336.47
381.87	338.06
382.25	335.57
382.63	339.19
383.01	340.32
383.39	328.34
383.77	356.13
384.15	336.47
384.53	327.66
384.91	336.93
385.29	334.89
385.67	358.85
386.049	356.36
386.429	334.44
386.809	339.86
387.189	354.78
387.568	358.17
387.948	350.94
388.328	361.56
388.707	355.46
389.087	345.74
389.466	370.6
389.846	352.07
390.225	355
390.605	368.79
390.984	366.08
391.363	375.12
391.743	358.39
392.122	369.02
392.501	374.89
392.881	394.33
393.26	372.63
393.639	355
394.018	358.39
394.397	377.83
394.776	375.12
395.155	369.69
395.534	390.71
395.913	398.39
396.292	393.42
396.671	396.36
397.05	379.18
397.429	393.87
397.808	402.69
398.186	392.52
398.565	392.97
398.944	401.33
399.323	385.06
399.701	408.34
400.08	403.59
400.458	401.11
400.837	433.65
401.215	425.06
401.594	412.18
401.972	404.04
402.351	416.47
402.729	416.92
403.107	430.48
403.486	422.57
403.864	425.06
404.242	416.92
404.62	414.66
404.999	437.71
405.377	418.28
405.755	426.19
406.133	452.4
406.511	466.64
406.889	451.05
407.267	501.67
407.645	468
408.023	451.05
408.401	478.17
408.779	515.9
409.156	503.48
409.534	489.69
409.912	499.63
410.29	532.18
410.667	509.8
411.045	522.23
411.422	534.44
411.8	519.07
412.178	560.42
412.555	546.86
412.933	547.09
413.31	590.7
413.687	547.77
414.065	580.08
414.442	582.8
414.819	602.91
415.197	600.65
415.574	623.25
415.951	642.68
416.328	630.93
416.705	615.56
417.082	620.08
417.46	677.03
417.837	682.23
418.214	663.02
418.591	682.23
418.967	663.25
419.344	698.72
419.721	721.32
420.098	702.11
420.475	726.52
420.852	728.33
421.228	733.98
421.605	736.69
421.982	762.9
422.358	757.93
422.735	753.64
423.111	787.76
423.488	782.11
423.864	754.09
424.241	821.66
424.617	814.88
424.994	823.92
425.37	841.09
425.746	836.57
426.123	835.9
426.499	845.61
426.875	869.79
427.251	874.54
427.627	893.07
428.003	897.82
428.379	920.64
428.756	909.11
429.132	928.1
429.507	930.36
429.883	947.53
430.259	976.46
430.635	968.55
431.011	976.46
431.387	1025.04
431.763	1017.13
432.138	1021.43
432.514	1030.92
432.89	1057.36
433.265	1073.63
433.641	1086.96
434.016	1091.03
434.392	1099.39
434.767	1125.38
435.143	1104.36
435.518	1127.87
435.894	1136.68
436.269	1163.35
436.644	1165.15
437.02	1192.95
437.395	1176.45
437.77	1207.41
438.145	1196.79
438.52	1187.75
438.895	1244.02
439.271	1202.67
439.646	1218.26
440.021	1253.06
440.395	1244.47
440.77	1243.34
441.145	1281.31
441.52	1319.5
441.895	1300.74
442.27	1302.32
442.645	1299.39
443.019	1334.19
443.394	1344.81
443.769	1314.3
444.143	1314.3
444.518	1340.74
444.892	1338.93
445.267	1339.39
445.641	1348.2
446.016	1352.94
446.39	1344.81
446.764	1375.77
447.139	1355.88
447.513	1393.4
447.887	1391.36
448.262	1364.92
448.636	1379.61
449.01	1384.13
449.384	1419.38
449.758	1403.79
450.132	1409.67
450.506	1401.3
450.88	1413.06
451.254	1404.69
451.628	1395.66
452.002	1469.33
452.376	1439.5
452.75	1444.92
453.123	1485.82
453.497	1485.37
453.871	1456.44
454.244	1502.32
454.618	1516.78
454.992	1513.17
455.365	1524.69
455.739	1546.84
456.112	1546.84
456.486	1561.53
456.859	1546.84
457.232	1602.66
457.606	1580.74
457.979	1613.73
458.352	1609.66
458.725	1647.85
459.099	1635.88
459.472	1687.17
459.845	1664.35
460.218	1686.5
460.591	1701.18
460.964	1713.39
461.337	1704.57
461.71	1735.76
462.083	1757.91
462.456	1756.55
462.829	1777.79
463.201	1736.21
463.574	1801.29
463.947	1813.05
464.32	1829.32
464.692	1798.13
465.065	1838.58
465.438	1853.72
465.81	1858.69
466.183	1890.11
466.555	1927.84
466.928	1894.85
467.3	1922.2
467.672	1941.4
468.045	1980.27
468.417	1990.44
468.789	1999.93
469.161	2016.88
469.534	2017.11
469.906	2022.76
470.278	2059.82
470.65	2050.55
471.022	2113.38
471.394	2145.92
471.766	2144.11
472.138	2149.08
472.51	2177.1
472.882	2180.72
473.253	2216.65
473.625	2206.93
473.997	2286.48
474.369	2252.13
474.74	2301.85
475.112	2309.08
475.484	2338
475.855	2366.48
476.227	2380.94
476.598	2413.48
476.97	2431.33
477.341	2463.2
477.713	2496.19
478.084	2516.76
478.455	2551.78
478.827	2540.48
479.198	2616.64
479.569	2627.04
479.94	2651.22
480.311	2676.53
480.682	2717.65
481.053	2740.25
481.424	2783.42
481.795	2771.89
482.166	2816.18
482.537	2819.57
482.908	2883.98
483.279	2884.88
483.65	2933.24
484.021	2941.83
484.391	2966.24
484.762	2987.48
485.133	3005.78
485.503	3069.74
485.874	3113.12
486.244	3081.49
486.615	3121.71
486.985	3174.59
487.356	3244.65
487.726	3231.31
488.097	3298.43
488.467	3298.66
488.837	3355.15
489.207	3330.97
489.578	3384.53
489.948	3366.68
490.318	3426.79
490.688	3468.37
491.058	3469.73
491.428	3500.91
491.798	3530.97
492.168	3605.77
492.538	3595.82
492.908	3640.57
493.278	3639.89
493.648	3650.06
494.017	3659.1
494.387	3695.48
494.757	3721.02
495.126	3799.66
495.496	3779.32
495.866	3796.72
496.235	3799.66
496.605	3802.6
496.974	3821.81
497.344	3860.22
497.713	3858.42
498.082	3894.8
498.452	3927.57
498.821	3931.86
499.19	3942.93
499.559	3943.39
499.928	3967.11
500.298	3978.19
500.667	4000.78
501.036	3991.97
501.405	4021.8
501.774	4054.57
502.143	4062.25
502.512	4077.17
502.88	4097.51
503.249	4121.91
503.618	4122.14
503.987	4176.37
504.356	4125.08
504.724	4187.22
505.093	4166.43
505.462	4207.33
505.83	4195.81
506.199	4216.15
506.567	4271.06
506.936	4266.77
507.304	4291.62
507.672	4302.25
508.041	4332.98
508.409	4308.57
508.777	4356.93
509.145	4369.59
509.514	4367.55
509.882	4356.48
510.25	4367.55
510.618	4345.86
510.986	4403.49
511.354	4427.89
511.722	4477.83
512.09	4495.91
512.458	4426.99
512.826	4507.89
513.193	4508.79
513.561	4498.85
513.929	4532.3
514.297	4522.35
514.664	4569.36
515.032	4564.84
515.4	4576.59
515.767	4641.67
516.135	4561
516.502	4619.3
516.869	4658.85
517.237	4689.58
517.604	4590.83
517.972	4656.13
518.339	4692.07
518.706	4707.21
519.073	4662.01
519.44	4676.25
519.808	4754.21
520.175	4763.02
520.542	4805.74
520.909	4820.88
521.276	4790.14
521.643	4810.71
522.009	4836.02
522.376	4836.47
522.743	4854.1
523.11	4905.62
523.477	4924.15
523.843	4933.19
524.21	4983.58
524.577	4987.2
524.943	4980.65
525.31	5018.38
525.676	5000.08
526.043	5037.14
526.409	5094.32
526.776	5105.16
527.142	5122.56
527.508	5185.39
527.874	5210.7
528.241	5201.43
528.607	5236.23
528.973	5288.21
529.339	5221.09
529.705	5336.79
530.071	5361.88
530.437	5319.39
530.803	5326.4
531.169	5404.14
531.535	5394.19
531.901	5430.35
532.267	5451.37
532.632	5457.7
532.998	5491.37
533.364	5520.74
533.73	5536.79
534.095	5581.76
534.461	5559.61
534.826	5644.81
535.192	5591.7
535.557	5614.98
535.923	5676.45
536.288	5684.13
536.653	5703.11
537.019	5694.98
537.384	5732.04
537.749	5760.96
538.114	5781.08
538.479	5821.08
538.845	5805.48
539.21	5789.44
539.575	5907.4
539.94	5848.87
540.305	5924.12
540.67	5915.54
541.034	5960.96
541.399	6005.48
541.764	5994.4
542.129	6047.28
542.494	6010.68
542.858	6089.32
543.223	6083.44
543.587	6075.53
543.952	6184.23
544.316	6178.13
544.681	6199.14
545.045	6208.64
545.41	6258.35
545.774	6252.02
546.138	6239.6
546.503	6290.44
546.867	6304.23
547.231	6411.34
547.595	6382.64
547.959	6380.38
548.324	6445.92
548.688	6442.3
549.052	6500.15
549.416	6463.09
549.779	6513.49
550.143	6524.11
550.507	6566.37
550.871	6517.78
551.235	6558.91
551.599	6594.39
551.962	6626.25
552.326	6676.19
552.689	6656.31
553.053	6655.63
553.417	6600.26
553.78	6722.07
554.143	6720.94
554.507	6752.35
554.87	6775.17
555.234	6824.21
555.597	6809.3
555.96	6801.84
556.323	6826.25
556.686	6822.86
557.05	6937.2
557.413	6905.57
557.776	6875.06
558.139	6967.03
558.502	6939.69
558.865	6990.31
559.228	6996.86
559.59	7071.89
559.953	7079.12
560.316	7093.81
560.679	7086.81
561.041	7162.74
561.404	7188.95
561.767	7217.65
562.129	7136.75
562.492	7207.25
562.854	7271.89
563.217	7202.73
563.579	7311.43
563.941	7261.72
564.304	7294.48
564.666	7389.62
565.028	7397.98
565.39	7417.42
565.753	7455.84
566.115	7500.81
566.477	7450.41
566.839	7524.31
567.201	7597.07
567.563	7595.49
567.925	7635.72
568.287	7614.93
568.648	7672.1
569.01	7714.59
569.372	7728.82
569.734	7720.69
570.095	7798.88
570.457	7825.09
570.819	7914.35
571.18	7861.02
571.542	7917.74
571.903	7995.03
572.265	7972.66
572.626	8044.97
572.987	8089.49
573.349	8098.76
573.71	8173.1
574.071	8209.26
574.432	8261.01
574.794	8382.36
575.155	8383.95
575.516	8405.64
575.877	8470.95
576.238	8532.42
576.599	8745.29
576.96	8589.36
577.32	8685.41
577.681	8856.02
578.042	8955.46
578.403	9041.1
578.763	9156.58
579.124	9193.64
579.485	9299.63
579.845	9438.16
580.206	9486.74
580.566	9589.11
580.927	9769.67
581.287	9922.44
581.648	9998.59
582.008	10190.45
582.368	10288.08
582.728	10519.48
583.089	10575.3
583.449	10769.87
583.809	10965.12
584.169	11199.92
584.529	11379.35
584.889	11639
585.249	11697.98
585.609	11932.78
585.969	12208.03
586.329	12389.26
586.688	12622.93
587.048	12765.3
587.408	13072.64
587.768	13294.55
588.127	13625.62
588.487	13733.64
588.846	14071.25
589.206	14258.59
589.565	14479.61
589.925	14881.4
590.284	15104.67
590.643	15406.81
591.003	15649.97
591.362	16028.49
591.721	16341.25
592.08	16612.88
592.44	16885.19
592.799	17119.08
593.158	17476.14
593.517	17733.08
593.876	18094.88
594.235	18266.85
594.593	18701.87
594.952	18992.03
595.311	19264.11
595.67	19559.25
596.029	19962.17
596.387	20266.8
596.746	20535.27
597.104	20748.59
597.463	21157.62
597.822	21611.4
598.18	21643.71
598.538	22015.45
598.897	22366.63
599.255	22561.65
599.613	23118.7
599.972	23287.28
600.33	23586.48
600.688	23745.35
601.046	24100.14
601.404	24504.2
601.762	24726.57
602.12	25163.39
602.478	25323.39
602.836	25661.68
603.194	25886.99
603.552	26050.37
603.91	26336.69
604.268	26597.48
604.625	26874.08
604.983	27192.49
605.341	27272.04
605.698	27672.48
606.056	27957.89
606.413	28074.28
606.771	28485.56
607.128	28650.08
607.485	28810.98
607.843	29108.83
608.2	29278.54
608.557	29702.03
608.914	29797.85
609.272	30079.87
609.629	30289.81
609.986	30774.09
610.343	30705.39
610.7	30998.49
611.057	31260.18
611.414	31425.37
611.771	31605.26
612.127	31854.52
612.484	31977.68
612.841	32376.31
613.198	32330.21
613.554	32491.11
613.911	32872.57
614.267	33006.58
614.624	33122.73
614.98	33275.72
615.337	33517.75
615.693	33636.16
616.05	33776.95
616.406	34153.89
616.762	34112.76
617.118	34226.43
617.475	34477.05
617.831	34694.21
618.187	34825.28
618.543	34820.31
618.899	35234.99
619.255	35249.68
619.611	35152.28
619.967	35556.57
620.323	35708.88
620.678	35731.02
621.034	35734.87
621.39	35920.4
621.746	35824.58
622.101	36386.6
622.457	36103.22
622.812	36317.22
623.168	36392.7
623.523	36601.51
623.879	36785.01
624.234	36429.54
624.589	36842.18
624.945	36952.91
625.3	36935.96
625.655	36991.33
626.01	37132.57
626.365	37190.65
626.72	37158.56
627.075	37328.72
627.43	37355.61
627.785	37363.75
628.14	37495.5
628.495	37493.92
628.85	37576.17
629.205	37521.71
629.559	37815.49
629.914	37623.4
630.269	37741.59
630.623	37622.5
630.978	37677.87
631.332	37906.11
631.687	37942.49
632.041	37924.64
632.396	38022.71
632.75	37768.71
633.104	37857.3
633.459	37825.43
633.813	37881.25
634.167	37936.39
634.521	37967.35
634.875	37988.59
635.229	37985.43
635.583	37900.91
635.937	37902.72
636.291	37857.52
636.645	38004.41
636.999	37976.84
637.352	38021.36
637.706	37783.63
638.06	38023.17
638.413	37971.87
638.767	37758.77
639.121	38076.27
639.474	37901.36
639.828	37881.93
640.181	37951.08
640.534	37889.84
640.888	37936.62
641.241	37637.19
641.594	37926.67
641.947	37881.02
642.301	37826.79
642.654	37889.39
643.007	37883.06
643.36	37812.78
643.713	37795.6
644.066	38024.3
644.419	37707.47
644.771	37543.86
645.124	37241.27
645.477	37277.88
645.83	36968.73
646.182	36836.31
646.535	36793.14
646.888	36933.48
647.24	36774.61
647.593	36952.01
647.945	36906.59
648.298	36805.12
648.65	36563.09
649.002	36552.92
649.355	36613.03
649.707	36692.81
650.059	36764.89
650.411	37231.78
650.763	37333.47
651.115	37636.06
651.467	37598.77
651.819	37481.71
652.171	37565.1
652.523	37387.93
652.875	37427.48
653.227	37319.91
653.578	37646.68
653.93	37565.55
654.282	37297.76
654.633	37265.45
654.985	37314.94
655.337	37507.02
655.688	37324.43
656.039	37540.02
656.391	37164.43
656.742	37344.31
657.094	37284.88
657.445	37306.58
657.796	37354.48
658.147	37167.82
658.498	37265.22
658.849	37364.65
659.2	37278.1
659.551	37186.8
659.902	37373.92
660.253	37322.17
660.604	37223.87
660.955	37098.45
661.306	37318.55
661.656	37172.12
662.007	37217.54
662.358	37211.89
662.708	37188.84
663.059	37261.83
663.409	36956.08
663.76	37272.23
664.11	37217.09
664.461	37349.06
664.811	37386.8
665.161	37323.07
665.511	37121.95
665.862	37235.62
666.212	37308.16
666.562	37238.1
666.912	37240.59
667.262	37203.3
667.612	37087.15
667.962	37319.46
668.312	37187.71
668.662	37395.39
669.011	37203.08
669.361	37216.86
669.711	36926.25
670.06	37184.09
670.41	37007.83
670.76	36985.68
671.109	37153.81
671.459	37089.86
671.808	36901.16
672.157	37103.42
672.507	36831.33
672.856	36879.69
673.205	36954.72
673.554	36994.49
673.904	36875.85
674.253	37086.47
674.602	36859.58
674.951	36382.76
675.3	36244.91
675.649	36920.37
675.998	36741.84
676.346	36779.13
676.695	36953.82
677.044	36622.98
677.393	36811.22
677.741	36883.54
678.09	36885.12
678.438	36664.56
678.787	36671.11
679.135	36643.77
679.484	36300.5
679.832	36532.58
680.181	36599.7
680.529	36410.1
680.877	36412.59
681.225	36429.31
681.573	36652.36
681.922	36203.55
682.27	36126.72
682.618	36208.75
682.966	36179.37
683.314	36109.54
683.661	36111.8
684.009	35818.25
684.357	35934.86
684.705	35914.52
685.053	35874.3
685.4	35733.96
685.748	35587.3
686.095	35621.42
686.443	35545.72
686.79	35476.57
687.138	35552.27
687.485	35552.72
687.832	35362.45
688.18	35494.42
688.527	35187.54
688.874	35058.05
689.221	35261.43
689.568	34937.15
689.915	34971.95
690.262	34831.84
690.609	34813.31
690.956	34643.14
691.303	34621.67
691.65	34548.23
691.997	34631.17
692.344	34345.07
692.69	34315.47
693.037	34315.69
693.383	34082.25
693.73	34298.97
694.077	34051.75
694.423	34000
694.769	33870.28
695.116	33878.19
695.462	33877.29
695.808	33707.57
696.155	33749.15
696.501	33473.68
696.847	33597.52
697.193	33336.51
697.539	33392.33
697.885	33194.37
698.231	33052.68
698.577	33123.86
698.923	32977.65
699.269	32890.19
699.614	32691.78
699.96	32582.63
700.306	32611.11
700.651	32563.65
700.997	32410.21
701.342	32439.58
701.688	32388.74
702.033	32234.62
702.379	32296.31
702.724	32115.3
703.069	32155.3
703.415	31772.26
703.76	31778.36
704.105	31814.74
704.45	31822.65
704.795	31518.71
705.14	31447.29
705.485	31502.89
705.83	31243.46
706.175	31397.58
706.52	31259.05
706.865	31151.94
707.209	31083.46
707.554	31105.16
707.899	31094.54
708.243	30881.21
708.588	30967.53
708.932	30722.57
709.277	30736.8
709.621	30751.49
709.966	30417.72
710.31	30492.74
710.654	30280.55
710.998	30333.88
711.342	30358.74
711.687	30307.66
712.031	30081.23
712.375	29978.63
712.719	29936.37
713.063	29988.58
713.407	30038.07
713.75	29980.67
714.094	29862.93
714.438	29803.72
714.782	29731.18
715.125	29593.56
715.469	29655.25
715.812	29446.22
716.156	29372.55
716.499	29331.19
716.843	29548.81
717.186	29238.09
717.53	29348.14
717.873	29352.89
718.216	29217.75
718.559	29167.35
718.902	28952.67
719.246	29111.08
719.589	28973.69
719.932	28815.95
720.275	28864.99
720.617	28650.53
720.96	28770.53
721.303	28778.44
721.646	28672.23
721.989	28578.9
722.331	28620.25
722.674	28612.11
723.016	28573.92
723.359	28563.53
723.701	28543.42
724.044	28363.99
724.386	28193.14
724.729	28272.91
725.071	28189.75
725.413	28224.55
725.755	28176.42
726.097	28055.75
726.439	27800.16
726.782	27909.76
727.124	27986.82
727.465	27938.46
727.807	27997.67
728.149	27833.83
728.491	27688.52
728.833	27886.03
729.175	27656.66
729.516	27593.38
729.858	27608.75
730.199	27695.53
730.541	27695.53
730.882	27550.67
731.224	27677
731.565	27426.84
731.906	27483.33
732.248	27340.06
732.589	27288.99
732.93	27136.67
733.271	27225.71
733.612	27138.93
733.953	27249.89
734.294	27096.67
734.635	27044.47
734.976	27164.47
735.317	26960.41
735.658	26986.62
735.999	26962.89
736.339	26938.03
736.68	27052.83
737.021	26910.69
737.361	26728.1
737.702	26811.48
738.042	26778.49
738.383	26658.95
738.723	26722.9
739.063	26722.67
739.404	26742.79
739.744	26649.91
740.084	26499.63
740.424	26539.85
740.764	26537.59
741.104	26671.83
741.444	26478.61
741.784	26385.05
742.124	26520.87
742.464	26348.22
742.804	26316.81
743.143	26203.14
743.483	26328.79
743.823	26200.2
744.162	26207.43
744.502	26238.17
744.841	26167.21
745.181	26195.91
745.52	25984.16
745.86	26061.67
746.199	26039.53
746.538	26004.05
746.877	26014.44
747.216	25990.94
747.556	26036.14
747.895	26009.7
748.234	25736.03
748.573	25825.3
748.911	25863.94
749.25	25839.98
749.589	25712.76
749.928	25806.54
750.267	25798.63
750.605	25715.02
750.944	25688.35
751.283	25596.15
751.621	25624.4
751.96	25493.78
752.298	25442.03
752.636	25482.93
752.975	25249.04
753.313	25080.23
753.651	25433.44
753.989	25371.07
754.327	25223.5
754.666	25055.82
755.004	25213.33
755.342	25154.8
755.679	25143.28
756.017	25082.49
756.355	25102.38
756.693	24940.8
757.031	25018.99
757.368	24809.73
757.706	24838.43
758.044	24857.64
758.381	24819.9
758.719	24683.63
759.056	24774.25
