Data from hue_170_FLMS001491_00003.txt Node
Date: Tue Feb 07 16:48:09 GMT 2017
User: dcchb
Spectrometer: FLMS00149
Trigger mode: 0
Integration Time (sec): 2.000000E-2
Scans to average: 10
Electric dark correction enabled: true
Nonlinearity correction enabled: false
Boxcar width: 0
XAxis mode: Wavelengths
Number of Pixels in Spectrum: 2048
>>>>>Begin Spectral Data<<<<<
341.393	-36.52
341.776	-36.52
342.16	-36.52
342.543	-75.85
342.927	-46.02
343.31	-61.61
343.693	-65
344.077	-86.01
344.46	-58.22
344.843	-60.03
345.226	-32.91
345.61	-24.32
345.993	4.83
346.376	5.51
346.759	11.16
347.142	4.6
347.525	31.5
347.908	51.61
348.291	74.21
348.674	85.28
349.057	119.4
349.44	121.89
349.823	143.13
350.206	159.85
350.588	205.05
350.971	212.06
351.354	232.85
351.737	254.54
352.119	239.63
352.502	286.86
352.884	268.78
353.267	275.78
353.65	295.44
354.032	300.19
354.414	302.68
354.797	311.94
355.179	314.43
355.562	323.92
355.944	329.34
356.326	327.08
356.709	320.98
357.091	324.6
357.473	346.74
357.855	331.6
358.238	346.29
358.62	349.23
359.002	341.77
359.384	345.61
359.766	344.26
360.148	351.49
360.53	347.65
360.912	346.52
361.294	339.74
361.676	366.18
362.057	323.69
362.439	339.28
362.821	334.31
363.203	317.14
363.584	332.51
363.966	339.96
364.348	332.05
364.729	325.95
365.111	328.44
365.493	317.14
365.874	334.77
366.256	308.1
366.637	312.84
367.019	309.46
367.4	310.81
367.781	310.36
368.163	316.91
368.544	305.39
368.925	318.95
369.306	318.27
369.688	317.82
370.069	316.91
370.45	313.97
370.831	330.02
371.212	310.81
371.593	322.56
371.974	309.68
372.355	318.49
372.736	308.78
373.117	325.73
373.498	300.87
373.879	317.36
374.26	324.82
374.641	311.94
375.021	323.01
375.402	321.43
375.783	340.87
376.163	337.93
376.544	351.04
376.925	325.95
377.305	340.41
377.686	330.02
378.066	339.74
378.447	325.27
378.827	348.32
379.208	339.96
379.588	359.62
379.968	315.56
380.349	344.03
380.729	306.52
381.109	338.38
381.489	344.26
381.87	338.15
382.25	349.45
382.63	349.45
383.01	379.06
383.39	335.67
383.77	347.87
384.15	345.84
384.53	348.55
384.91	358.72
385.29	361.66
385.67	362.79
386.049	355.1
386.429	363.24
386.809	351.94
387.189	356.91
387.568	354.65
387.948	372.5
388.328	361.88
388.707	369.34
389.087	358.27
389.466	354.65
389.846	373.18
390.225	363.92
390.605	389
390.984	388.1
391.363	365.95
391.743	389.91
392.122	380.41
392.501	374.54
392.881	393.97
393.26	384.71
393.639	375.22
394.018	377.7
394.397	376.12
394.776	402.56
395.155	396.01
395.534	375.67
395.913	382.9
396.292	395.78
396.671	390.13
397.05	393.07
397.429	392.62
397.808	415.44
398.186	408.89
398.565	423.8
398.944	404.59
399.323	421.77
399.701	415.67
400.08	401.88
400.458	393.29
400.837	408.21
401.215	434.88
401.594	395.78
401.972	411.15
402.351	437.59
402.729	425.84
403.107	419.73
403.486	422.9
403.864	420.41
404.242	426.51
404.62	441.43
404.999	457.47
405.377	421.09
405.755	458.38
406.133	446.17
406.511	422.22
406.889	453.41
407.267	471.03
407.645	452.28
408.023	486.4
408.401	486.4
408.779	461.54
409.156	479.85
409.534	494.08
409.912	483.91
410.29	508.77
410.667	492.73
411.045	489.79
411.422	504.03
411.8	512.84
412.178	515.78
412.555	526.17
412.933	521.2
413.31	532.95
413.687	535.21
414.065	553.52
414.442	550.13
414.819	549
415.197	554.19
415.574	558.71
415.951	580.63
416.328	571.37
416.705	569.56
417.082	591.93
417.46	584.7
417.837	597.13
418.214	583.35
418.591	591.71
418.967	598.94
419.344	620.63
419.721	601.42
420.098	603.68
420.475	609.11
420.852	614.31
421.228	650.69
421.605	645.04
421.982	653.63
422.358	655.66
422.735	654.08
423.111	645.72
423.488	656.11
423.864	693.4
424.241	670.8
424.617	711.93
424.994	703.34
425.37	714.64
425.746	710.8
426.123	730.01
426.499	757.58
426.875	750.12
427.251	754.87
427.627	754.19
428.003	770.01
428.379	774.98
428.756	763.23
429.132	773.62
429.507	776.56
429.883	788.09
430.259	815.43
430.635	814.07
431.011	814.98
431.387	850.91
431.763	837.12
432.138	851.14
432.514	866.73
432.89	875.32
433.265	871.02
433.641	913.51
434.016	892.04
434.392	924.81
434.767	921.64
435.143	944.69
435.518	949.66
435.894	977.46
436.269	979.04
436.644	990.12
437.02	1010.68
437.395	1015.2
437.77	1005.03
438.145	1037.8
438.52	1052.03
438.895	1040.51
439.271	1043.9
439.646	1071.02
440.021	1091.58
440.395	1101.07
440.77	1113.28
441.145	1097.68
441.52	1118.7
441.895	1138.36
442.27	1150.34
442.645	1154.4
443.019	1179.26
443.394	1164.57
443.769	1194.63
444.143	1160.51
444.518	1212.71
444.892	1193.95
445.267	1209.32
445.641	1249.32
446.016	1219.94
446.39	1224.01
446.764	1228.3
447.139	1255.42
447.513	1282.54
447.887	1311.24
448.262	1290.45
448.636	1286.6
449.01	1325.02
449.384	1295.64
449.758	1335.64
450.132	1341.74
450.506	1342.2
450.88	1378.13
451.254	1353.95
451.628	1367.96
452.002	1427.39
452.376	1427.62
452.75	1426.71
453.123	1419.93
453.497	1450.44
453.871	1476.66
454.244	1484.57
454.618	1500.84
454.992	1539.71
455.365	1557.33
455.739	1587.61
456.112	1561.4
456.486	1602.98
456.859	1611.34
457.232	1654.96
457.606	1634.17
457.979	1687.05
458.352	1689.98
458.725	1700.83
459.099	1732.92
459.472	1798.46
459.845	1779.92
460.218	1797.1
460.591	1828.74
460.964	1840.94
461.337	1918.45
461.71	1915.29
462.083	1888.17
462.456	1931.79
462.829	1956.42
463.201	1998.45
463.574	1981.5
463.947	2054.27
464.32	2090.43
464.692	2114.83
465.065	2110.09
465.438	2173.13
465.81	2168.16
466.183	2188.73
466.555	2259.23
466.928	2289.06
467.3	2291.78
467.672	2344.43
468.045	2415.84
468.417	2416.29
468.789	2447.48
469.161	2466.91
469.534	2531.32
469.906	2605.89
470.278	2642.95
470.65	2683.63
471.022	2713.23
471.394	2785.55
471.766	2823.06
472.138	2860.8
472.51	2933.11
472.882	2989.38
473.253	3058.76
473.625	3089.27
473.997	3185.54
474.369	3195.48
474.74	3225.99
475.112	3297.85
475.484	3400.67
475.855	3450.16
476.227	3547.34
476.598	3659.88
476.97	3709.37
477.341	3757.27
477.713	3885.86
478.084	3901.23
478.455	4036.81
478.827	4139.64
479.198	4265.96
479.569	4307.99
479.94	4424.15
480.311	4557.48
480.682	4672.73
481.053	4733.52
481.424	4829.34
481.795	4912.72
482.166	5032.72
482.537	5123.34
482.908	5242.66
483.279	5397.68
483.65	5578.24
484.021	5651.01
484.391	5752.25
484.762	5827.5
485.133	5972.58
485.503	6109.98
485.874	6262.07
486.244	6348.17
486.615	6503.64
486.985	6611.66
487.356	6818.89
487.726	6855.5
488.097	7056.4
488.467	7114.02
488.837	7280.35
489.207	7479.89
489.578	7590.17
489.948	7724.63
490.318	7913.1
490.688	7919.65
491.058	8099.76
491.428	8262.24
491.798	8358.96
492.168	8567.77
492.538	8660.87
492.908	8790.59
493.278	8944.26
493.648	9057.25
494.017	9074.87
494.387	9336.34
494.757	9346.73
495.126	9476.67
495.496	9634.41
495.866	9628.98
496.235	9855.64
496.605	9922.08
496.974	10021.06
497.344	10191.46
497.713	10251.79
498.082	10332.02
498.452	10548.28
498.821	10509.19
499.19	10605.46
499.559	10767.49
499.928	10806.58
500.298	10892.68
500.667	11019
501.036	11031.66
501.405	11174.93
501.774	11132
502.143	11263.97
502.512	11332.44
502.88	11522.27
503.249	11509.39
503.618	11571.98
503.987	11649.72
504.356	11730.62
504.724	11838.64
505.093	11787.57
505.462	11863.73
505.83	11926.32
506.199	12058.07
506.567	12169.48
506.936	12159.99
507.304	12297.16
507.672	12352.3
508.041	12430.94
508.409	12438.4
508.777	12603.82
509.145	12612.18
509.514	12652.63
509.882	12745.06
510.25	12682.69
510.618	12804.49
510.986	12801.78
511.354	12896.92
511.722	12949.35
512.09	13048.78
512.458	13000.19
512.826	13084.49
513.193	13129.23
513.561	13148.44
513.929	13266.18
514.297	13246.06
514.664	13373.52
515.032	13374.2
515.4	13404.93
515.767	13420.52
516.135	13489.67
516.502	13400.64
516.869	13619.84
517.237	13588.88
517.604	13537.36
517.972	13706.62
518.339	13633.62
518.706	13680.63
519.073	13789.33
519.44	13763.34
519.808	13838.14
520.175	13787.52
520.542	13896.44
520.909	13970.34
521.276	13776.9
521.643	14058.47
522.009	13964.92
522.376	14099.83
522.743	13991.13
523.11	14080.17
523.477	14194.29
523.843	14205.36
524.21	14251.69
524.577	14284.23
524.943	14321.97
525.31	14303.21
525.676	14413.94
526.043	14490.1
526.409	14447.61
526.776	14570.55
527.142	14444.45
527.508	14487.39
527.874	14516.99
528.241	14581.85
528.607	14535.52
528.973	14581.62
529.339	14481.29
529.705	14659.81
530.071	14692.58
530.437	14635.86
530.803	14617.55
531.169	14578.68
531.535	14537.56
531.901	14536.2
532.267	14506.14
532.632	14600.83
532.998	14495.07
533.364	14612.13
533.73	14523.54
534.095	14540.27
534.461	14532.81
534.826	14609.19
535.192	14514.96
535.557	14574.16
535.923	14505.69
536.288	14407.84
536.653	14444.22
537.019	14402.42
537.384	14346.15
537.749	14291.69
538.114	14251.24
538.479	14329.65
538.845	14264.34
539.21	14162.88
539.575	14205.59
539.94	14078.36
540.305	14156.32
540.67	14052.6
541.034	14000.17
541.399	14040.62
541.764	13965.82
542.129	13967.18
542.494	13950.68
542.858	13838.14
543.223	13747.52
543.587	13829.55
543.952	13806.28
544.316	13719.95
544.681	13700.29
545.045	13662.32
545.41	13633.85
545.774	13698.48
546.138	13605.83
546.503	13562.44
546.867	13451.26
547.231	13560.18
547.595	13435.44
547.959	13403.35
548.324	13266.85
548.688	13328.32
549.052	13289.23
549.416	13268.89
549.779	13159.06
550.143	13118.38
550.507	13173.07
550.871	13140.3
551.235	13079.51
551.599	13110.25
551.962	13011.49
552.326	12962.91
552.689	13018.95
553.053	12920.65
553.417	12909.8
553.78	12995.9
554.143	12861.67
554.507	12848.11
554.87	12811.05
555.234	12846.75
555.597	12718.85
555.96	12781.67
556.323	12737.38
556.686	12701.67
557.05	12735.8
557.413	12690.15
557.776	12646.31
558.139	12714.78
558.502	12688.11
558.865	12641.33
559.228	12660.09
559.59	12616.25
559.953	12655.12
560.316	12721.56
560.679	12667.77
561.041	12670.94
561.404	12610.6
561.767	12643.37
562.129	12646.31
562.492	12681.11
562.854	12661.9
563.217	12603.14
563.579	12568.79
563.941	12616.25
564.304	12623.93
564.666	12712.52
565.028	12658.06
565.39	12668.45
565.753	12697.83
566.115	12655.8
566.477	12686.98
566.839	12689.92
567.201	12719.3
567.563	12707.55
567.925	12723.59
568.287	12802.91
568.648	12759.52
569.01	12795.68
569.372	12800.88
569.734	12689.92
570.095	12810.82
570.457	12860.31
570.819	12863.02
571.18	12762.46
571.542	12783.7
571.903	12827.77
572.265	12875.68
572.626	12832.74
572.987	12832.52
573.349	12847.88
573.71	12810.82
574.071	12972.4
574.432	12925.85
574.794	13029.57
575.155	12914.32
575.516	12904.38
575.877	12922.46
576.238	12955.68
576.599	12952.51
576.96	12943.25
577.32	12983.92
577.681	12895.56
578.042	12909.8
578.403	12975.34
578.763	12987.77
579.124	12902.34
579.485	13008.78
579.845	12990.03
580.206	12997.03
580.566	12967.65
580.927	12917.03
581.287	13034.09
581.648	12924.72
582.008	12922
582.368	12893.08
582.728	12948.44
583.089	12931.5
583.449	12870.03
583.809	12896.92
584.169	12890.37
584.529	12823.48
584.889	12910.48
585.249	12857.83
585.609	12773.99
585.969	12846.3
586.329	12775.79
586.688	12766.3
587.048	12712.74
587.408	12712.07
587.768	12771.73
588.127	12749.81
588.487	12736.92
588.846	12802.23
589.206	12723.37
589.565	12742.8
589.925	12743.25
590.284	12720.2
590.643	12802.69
591.003	12745.51
591.362	12807.88
591.721	12823.7
592.08	12670.49
592.44	12719.75
592.799	12731.95
593.158	12684.95
593.517	12709.58
593.876	12648.34
594.235	12583.48
594.593	12569.7
594.952	12669.36
595.311	12593.2
595.67	12642.01
596.029	12687.21
596.387	12586.87
596.746	12650.83
597.104	12577.61
597.463	12551.17
597.822	12645.85
598.18	12533.54
598.538	12534.67
598.897	12684.95
599.255	12467.1
599.613	12618.74
599.972	12645.63
600.33	12606.31
600.688	12581.9
601.046	12623.48
601.404	12608.79
601.762	12597.27
602.12	12587.1
602.478	12635.01
602.836	12647.21
603.194	12580.32
603.552	12593.2
603.91	12475.01
604.268	12566.53
604.625	12525.18
604.983	12592.07
605.341	12525.41
605.698	12570.6
606.056	12567.21
606.413	12543.26
606.771	12619.64
607.128	12632.07
607.485	12539.87
607.843	12607.21
608.2	12624.84
608.557	12675.68
608.914	12581
609.272	12753.87
609.629	12692.63
609.986	12682.46
610.343	12659.64
610.7	12808.11
611.057	12733.76
611.414	12701.45
611.771	12647.89
612.127	12757.94
612.484	12717.72
612.841	12737.38
613.198	12708.9
613.554	12753.87
613.911	12754.1
614.267	12757.94
614.624	12712.74
614.98	12710.49
615.337	12837.04
615.693	12716.81
616.05	12755.46
616.406	12810.37
616.762	12745.06
617.118	12765.17
617.475	12750.71
617.831	12808.56
618.187	12865.51
618.543	12860.54
618.899	12936.02
619.255	12790.93
619.611	12871.84
619.967	12866.87
620.323	12915.45
620.678	12830.93
621.034	12873.64
621.39	12826.87
621.746	12868.45
622.101	12946.41
622.457	12851.72
622.812	12903.93
623.168	12913.64
623.523	12932.17
623.879	13013.3
624.234	12796.58
624.589	12910.71
624.945	12912.51
625.3	12864.38
625.655	12871.84
626.01	12924.94
626.365	12851.27
626.72	12866.64
627.075	12825.06
627.43	12764.04
627.785	12821.89
628.14	12891.27
628.495	12952.29
628.85	12831.84
629.205	12783.93
629.559	12843.14
629.914	12734.67
630.269	12786.19
630.623	12772.86
630.978	12796.81
631.332	12870.71
631.687	12808.79
632.041	12759.98
632.396	12695.12
632.75	12723.82
633.104	12697.15
633.459	12668.68
633.813	12621.45
634.167	12594.1
634.521	12715.91
634.875	12624.84
635.229	12620.77
635.583	12559.3
635.937	12562.69
636.291	12597.95
636.645	12547.1
636.999	12565.4
637.352	12610.6
637.706	12539.42
638.06	12588.23
638.413	12492.64
638.767	12498.51
639.121	12512.3
639.474	12439.31
639.828	12434.79
640.181	12461.9
640.534	12477.95
640.888	12425.07
641.241	12334
641.594	12337.16
641.947	12324.73
642.301	12363.38
642.654	12419.42
643.007	12308.46
643.36	12390.95
643.713	12325.86
644.066	12313.21
644.419	12298.52
644.771	12176.04
645.124	12069.37
645.477	12055.36
645.83	12011.75
646.182	11969.04
646.535	11951.18
646.888	11910.73
647.24	11850.17
647.593	11982.14
647.945	11895.59
648.298	11874.8
648.65	11874.8
649.002	11835.71
649.355	11955.25
649.707	11882.71
650.059	12029.6
650.411	12166.09
650.763	12152.99
651.115	12171.52
651.467	12252.42
651.819	12190.72
652.171	12191.18
652.523	12150.5
652.875	12088.58
653.227	12122.7
653.578	12161.8
653.93	12177.84
654.282	12071.41
654.633	12082.7
654.985	12138.07
655.337	12150.5
655.688	12113.44
656.039	12170.39
656.391	12077.28
656.742	12090.39
657.094	12175.58
657.445	12202.02
657.796	12236.15
658.147	12139.65
658.498	12186.43
658.849	12224.85
659.2	12176.49
659.551	12210.16
659.902	12234.11
660.253	12183.04
660.604	12236.6
660.955	12191.63
661.306	12221.68
661.656	12141.91
662.007	12198.41
662.358	12202.25
662.708	12192.76
663.059	12240.21
663.409	12171.06
663.76	12225.07
664.11	12237.5
664.461	12254.68
664.811	12222.36
665.161	12230.27
665.511	12140.56
665.862	12218.75
666.212	12291.06
666.562	12184.17
666.912	12202.48
667.262	12241.8
667.612	12220.55
667.962	12234.11
668.312	12222.36
668.662	12212.64
669.011	12274.34
669.361	12212.87
669.711	12262.36
670.06	12168.35
670.41	12286.54
670.76	12216.49
671.109	12247.9
671.459	12232.31
671.808	12165.19
672.157	12242.47
672.507	12092.42
672.856	12177.84
673.205	12141.91
673.554	12173.32
673.904	12084.51
674.253	12159.99
674.602	12094.23
674.951	12021.92
675.3	11929.04
675.649	12147.56
675.998	12131.29
676.346	12067.79
676.695	12129.48
677.044	11988.92
677.393	12021.92
677.741	12032.99
678.09	11971.3
678.438	11949.38
678.787	11906.66
679.135	11955.48
679.484	11862.15
679.832	11933.78
680.181	11843.62
680.529	11896.27
680.877	11835.93
681.225	11868.7
681.573	11863.95
681.922	11739.89
682.27	11765.65
682.618	11749.15
682.966	11677.97
683.314	11746.22
683.661	11643.17
684.009	11638.65
684.357	11612.89
684.705	11608.82
685.053	11561.59
685.4	11589.16
685.748	11467.35
686.095	11428.71
686.443	11431.42
686.79	11422.16
687.138	11441.14
687.485	11459.22
687.832	11367.7
688.18	11346
688.527	11279.56
688.874	11285.89
689.221	11254.25
689.568	11235.72
689.915	11175.38
690.262	11188.04
690.609	11136.06
690.956	11095.84
691.303	11085.67
691.65	10955.28
691.997	11082.28
692.344	10941.27
692.69	10908.05
693.037	10933.81
693.383	10776.3
693.73	10805.68
694.077	10772.68
694.423	10808.39
694.769	10738.56
695.116	10720.48
695.462	10637.77
695.808	10580.37
696.155	10645
696.501	10553.48
696.847	10529.53
697.193	10431
697.539	10441.62
697.885	10391
698.231	10334.5
698.577	10275.52
698.923	10249.98
699.269	10197.78
699.614	10266.03
699.96	10188.52
700.306	10146.94
700.651	10031.69
700.997	10031.91
701.342	10099.03
701.688	9947.62
702.033	10005.25
702.379	10001.4
702.724	9911.46
703.069	9854.06
703.415	9764.35
703.76	9865.59
704.105	9779.04
704.45	9743.78
704.795	9804.8
705.14	9636.67
705.485	9624.01
705.83	9615.43
706.175	9621.3
706.52	9531.13
706.865	9584.24
707.209	9574.97
707.554	9493.17
707.899	9494.75
708.243	9423.79
708.588	9427.86
708.932	9304.7
709.277	9361.19
709.621	9320.52
709.966	9250.91
710.31	9283.91
710.654	9210.92
710.998	9180.63
711.342	9184.25
711.687	9131.6
712.031	9142.67
712.375	9069.45
712.719	9103.57
713.063	9141.09
713.407	9077.81
713.75	9019.51
714.094	9058.15
714.438	9033.97
714.782	8990.36
715.125	8926.86
715.469	9017.25
715.812	8919.85
716.156	8894.99
716.499	8855.67
716.843	8865.61
717.186	8883.69
717.53	8922.34
717.873	8899.29
718.216	8826.29
718.559	8845.73
718.902	8798.27
719.246	8784.26
719.589	8774.09
719.932	8820.19
720.275	8696.35
720.617	8687.99
720.96	8655.45
721.303	8676.01
721.646	8672.17
721.989	8683.7
722.331	8634.66
722.674	8640.54
723.016	8641.21
723.359	8612.29
723.701	8600.76
724.044	8591.72
724.386	8583.36
724.729	8685.51
725.071	8582.68
725.413	8592.63
725.755	8563.48
726.097	8572.29
726.439	8544.27
726.782	8509.24
727.124	8606.19
727.465	8556.92
727.807	8524.83
728.149	8510.82
728.491	8468.34
728.833	8552.18
729.175	8593.76
729.516	8542.91
729.858	8514.89
730.199	8509.24
730.541	8489.81
730.882	8475.57
731.224	8510.14
731.565	8468.79
731.906	8469.92
732.248	8454.33
732.589	8455.91
732.93	8446.64
733.271	8420.2
733.612	8485.74
733.953	8503.36
734.294	8423.82
734.635	8482.57
734.976	8513.31
735.317	8381.11
735.658	8487.09
735.999	8433.31
736.339	8472.86
736.68	8514.89
737.021	8547.2
737.361	8504.49
737.702	8535.45
738.042	8475.12
738.383	8494.78
738.723	8524.15
739.063	8462.91
739.404	8522.12
739.744	8605.28
740.084	8573.64
740.424	8568.22
740.764	8600.31
741.104	8596.92
741.444	8619.29
741.784	8596.02
742.124	8613.64
742.464	8603.7
742.804	8680.31
743.143	8730.7
743.483	8689.12
743.823	8719.4
744.162	8763.02
744.502	8807.08
744.841	8812.96
745.181	8867.87
745.52	8898.61
745.86	8899.51
746.199	8936.8
746.538	8943.13
746.877	9087.53
747.216	9054.54
747.556	9127.53
747.895	9159.17
748.234	9217.02
748.573	9265.15
748.911	9310.12
749.25	9448.65
749.589	9482.32
749.928	9576.56
750.267	9630.79
750.605	9664.01
750.944	9762.54
751.283	9792.6
751.621	9937.68
751.96	10008.86
752.298	10059.03
752.636	10170.21
752.975	10256.31
753.313	10317.33
753.651	10605.68
753.989	10560.03
754.327	10699.01
754.666	10794.15
755.004	10902.4
755.342	11082.05
755.679	11190.07
756.017	11331.99
756.355	11506.67
756.693	11616.73
757.031	11766.33
757.368	11891.07
757.706	12024.18
758.044	12106.43
758.381	12473.66
