Data from hue_210_FLMS001491_00022.txt Node
Date: Tue Feb 07 16:40:57 GMT 2017
User: dcchb
Spectrometer: FLMS00149
Trigger mode: 0
Integration Time (sec): 2.000000E-2
Scans to average: 10
Electric dark correction enabled: true
Nonlinearity correction enabled: false
Boxcar width: 0
XAxis mode: Wavelengths
Number of Pixels in Spectrum: 2048
>>>>>Begin Spectral Data<<<<<
341.393	-21.84
341.776	-21.84
342.16	-21.84
342.543	-68.84
342.927	-71.1
343.31	-77.88
343.693	-63.64
344.077	-57.31
344.46	-64.77
344.843	-31.33
345.226	-46.02
345.61	-27.71
345.993	-9.86
346.376	11.84
346.759	-0.37
347.142	18.62
347.525	60.65
347.908	41.67
348.291	60.65
348.674	78.05
349.057	107.43
349.44	124.6
349.823	143.58
350.206	173.19
350.588	199.85
350.971	189.01
351.354	223.81
351.737	252.73
352.119	227.2
352.502	270.13
352.884	279.4
353.267	290.02
353.65	302.45
354.032	310.13
354.414	308.1
354.797	333.18
355.179	334.77
355.562	316.46
355.944	327.76
356.326	331.38
356.709	331.38
357.091	333.41
357.473	345.61
357.855	328.44
358.238	351.71
358.62	335.67
359.002	350.13
359.384	313.07
359.766	333.64
360.148	336.35
360.53	336.57
360.912	322.56
361.294	326.86
361.676	342.67
362.057	337.93
362.439	319.17
362.821	322.34
363.203	327.76
363.584	318.49
363.966	324.82
364.348	325.05
364.729	318.04
365.111	316.01
365.493	312.17
365.874	324.37
366.256	298.16
366.637	323.47
367.019	313.3
367.4	312.84
367.781	312.62
368.163	318.49
368.544	305.84
368.925	308.33
369.306	309.46
369.688	293.86
370.069	312.17
370.45	305.61
370.831	310.59
371.212	301.09
371.593	303.58
371.974	307.65
372.355	316.23
372.736	298.83
373.117	315.1
373.498	300.42
373.879	304.94
374.26	312.84
374.641	313.97
375.021	313.3
375.402	316.23
375.783	320.3
376.163	325.05
376.544	331.6
376.925	316.69
377.305	325.27
377.686	325.95
378.066	311.71
378.447	321.21
378.827	328.89
379.208	326.86
379.588	322.11
379.968	323.01
380.349	309.46
380.729	325.27
381.109	326.18
381.489	349.68
381.87	328.66
382.25	340.19
382.63	330.47
383.01	349
383.39	340.64
383.77	336.57
384.15	319.17
384.53	349.91
384.91	348.1
385.29	332.28
385.67	346.97
386.049	356.01
386.429	368.44
386.809	351.71
387.189	343.35
387.568	365.5
387.948	362.56
388.328	356.69
388.707	346.52
389.087	364.37
389.466	355.33
389.846	350.36
390.225	385.84
390.605	364.37
390.984	380.41
391.363	357.59
391.743	355.33
392.122	371.83
392.501	364.82
392.881	361.88
393.26	379.96
393.639	396.46
394.018	367.31
394.397	365.95
394.776	370.24
395.155	379.51
395.534	387.87
395.913	362.34
396.292	423.12
396.671	372.73
397.05	392.84
397.429	396.46
397.808	401.43
398.186	375.89
398.565	418.38
398.944	391.03
399.323	396.23
399.701	412.96
400.08	403.24
400.458	411.83
400.837	418.15
401.215	396.68
401.594	423.12
401.972	429
402.351	411.37
402.729	420.86
403.107	434.42
403.486	437.14
403.864	430.58
404.242	439.17
404.62	439.62
404.999	455.89
405.377	436.46
405.755	441.66
406.133	461.32
406.511	460.86
406.889	467.64
407.267	478.26
407.645	453.86
408.023	488.66
408.401	504.93
408.779	487.53
409.156	523.23
409.534	497.47
409.912	524.36
410.29	523.46
410.667	523.69
411.045	527.53
411.422	549.22
411.8	555.55
412.178	566.17
412.555	560.3
412.933	573.85
413.31	565.04
413.687	598.49
414.065	621.76
414.442	618.83
414.819	641.88
415.197	602.33
415.574	620.41
415.951	634.87
416.328	639.39
416.705	668.09
417.082	661.54
417.46	681.42
417.837	682.78
418.214	707.18
418.591	709.9
418.967	724.59
419.344	725.04
419.721	710.12
420.098	743.34
420.475	759.16
420.852	777.24
421.228	791.25
421.605	807.52
421.982	795.32
422.358	798.26
422.735	819.95
423.111	816.79
423.488	857.46
423.864	864.02
424.241	878.48
424.617	889.1
424.994	922.77
425.37	909.44
425.746	926.16
426.123	927.29
426.499	974.97
426.875	971.81
427.251	1005.03
427.627	1015.43
428.003	1048.42
428.379	1047.51
428.756	1054.75
429.132	1058.36
429.507	1046.84
429.883	1082.09
430.259	1101.98
430.635	1099.94
431.011	1111.69
431.387	1151.01
431.763	1158.92
432.138	1150.11
432.514	1177.23
432.89	1201.86
433.265	1218.13
433.641	1263.55
434.016	1263.33
434.392	1292.71
434.767	1315.76
435.143	1329.32
435.518	1353.27
435.894	1344
436.269	1391.91
436.644	1428.3
437.02	1458.58
437.395	1429.2
437.77	1500.38
438.145	1539.71
438.52	1540.16
438.895	1567.28
439.271	1560.04
439.646	1616.09
440.021	1652.7
440.395	1654.28
440.77	1668.29
441.145	1681.85
441.52	1733.15
441.895	1712.58
442.27	1737.44
442.645	1752.81
443.019	1799.13
443.394	1788.06
443.769	1829.64
444.143	1819.92
444.518	1843.43
444.892	1849.98
445.267	1891.33
445.641	1903.09
446.016	1906.25
446.39	1946.02
446.764	1937.43
447.139	1932.69
447.513	1974.27
447.887	1972.46
448.262	1980.15
448.636	2011.11
449.01	2007.94
449.384	2020.14
449.758	2091.56
450.132	2108.5
450.506	2108.5
450.88	2138.11
451.254	2083.42
451.628	2163.19
452.002	2195.73
452.376	2226.92
452.75	2182.85
453.123	2238.22
453.497	2284.77
453.871	2295.17
454.244	2295.84
454.618	2335.39
454.992	2351.66
455.365	2367.25
455.739	2417.42
456.112	2441.83
456.486	2470.08
456.859	2504.2
457.232	2513.24
457.606	2530.41
457.979	2550.07
458.352	2588.72
458.725	2635.27
459.099	2647.25
459.472	2694.03
459.845	2691.54
460.218	2741.03
460.591	2754.59
460.964	2772.22
461.337	2834.36
461.71	2888.14
462.083	2904.64
462.456	2896.05
462.829	2949.61
463.201	2966.33
463.574	3030.51
463.947	3033.45
464.32	3081.81
464.692	3095.82
465.065	3145.76
465.438	3200
465.81	3237.74
466.183	3269.38
466.555	3314.8
466.928	3343.73
467.3	3366.78
467.672	3369.04
468.045	3458.3
468.417	3470.05
468.789	3483.83
469.161	3544.17
469.534	3644.51
469.906	3681.12
470.278	3690.84
470.65	3661.23
471.022	3813.77
471.394	3859.19
471.766	3860.55
472.138	3896.71
472.51	3972.64
472.882	4075.23
473.253	4039.98
473.625	4124.5
473.997	4191.16
474.369	4227.09
474.74	4308.22
475.112	4356.35
475.484	4437.26
475.855	4442.45
476.227	4479.74
476.598	4634.77
476.97	4630.02
477.341	4713.18
477.713	4783.24
478.084	4811.94
478.455	4925.83
478.827	4977.13
479.198	5098.48
479.569	5082.66
479.94	5220.29
480.311	5301.87
480.682	5354.07
481.053	5503.67
481.424	5499.15
481.795	5586.83
482.166	5683.78
482.537	5709.31
482.908	5818.91
483.279	5875.86
483.65	5914.51
484.021	6051
484.391	6127.83
484.762	6140.49
485.133	6213.25
485.503	6329.18
485.874	6438.56
486.244	6471.55
486.615	6589.06
486.985	6608.72
487.356	6737.99
487.726	6728.04
488.097	6875.38
488.467	6912.9
488.837	6946.12
489.207	7111.76
489.578	7140.91
489.948	7188.6
490.318	7290.06
490.688	7335.49
491.058	7434.69
491.428	7475.59
491.798	7548.36
492.168	7677.4
492.538	7694.57
492.908	7786.09
493.278	7913.55
493.648	7870.84
494.017	7985.19
494.387	8037.16
494.757	8074.9
495.126	8128.01
495.496	8124.39
495.866	8154.22
496.235	8205.07
496.605	8349.7
496.974	8281.22
497.344	8373.65
497.713	8455.23
498.082	8471.5
498.452	8530.26
498.821	8574.1
499.19	8541.56
499.559	8661.78
499.928	8647.99
500.298	8694.09
500.667	8733.64
501.036	8751.95
501.405	8789.68
501.774	8819.74
502.143	8905.84
502.512	8860.64
502.88	8978.61
503.249	8827.42
503.618	9009.11
503.987	8984.48
504.356	9031.49
504.724	9004.82
505.093	9052.05
505.462	9091.37
505.83	9143.12
506.199	9163.23
506.567	9302.67
506.936	9252.72
507.304	9319.16
507.672	9300.18
508.041	9238.94
508.409	9359.16
508.777	9449.33
509.145	9409.55
509.514	9399.39
509.882	9436.9
510.25	9449.55
510.618	9449.78
510.986	9521.42
511.354	9500.63
511.722	9546.73
512.09	9660.4
512.458	9649.77
512.826	9663.33
513.193	9671.92
513.561	9694.07
513.929	9703.33
514.297	9721.86
514.664	9703.11
515.032	9751.47
515.4	9813.16
515.767	9754.63
516.135	9806.15
516.502	9707.63
516.869	9833.95
517.237	9877.11
517.604	9819.94
517.972	9840.96
518.339	9884.34
518.706	9850
519.073	9828.53
519.44	9876.89
519.808	9995.08
520.175	9886.15
520.542	10003.89
520.909	9997.11
521.276	9886.6
521.643	9913.04
522.009	9943.55
522.376	10014.51
522.743	10014.28
523.11	10066.03
523.477	10118.69
523.843	10074.85
524.21	10146.71
524.577	10160.95
524.943	10108.97
525.31	10110.1
525.676	10127.95
526.043	10160.5
526.409	10174.73
526.776	10267.61
527.142	10215.18
527.508	10114.4
527.874	10241.62
528.241	10292.47
528.607	10250.21
528.973	10221.51
529.339	10228.52
529.705	10318.91
530.071	10258.57
530.437	10249.76
530.803	10285.46
531.169	10284.56
531.535	10173.6
531.901	10206.37
532.267	10118.01
532.632	10225.13
532.998	10226.03
533.364	10191.91
533.73	10176.54
534.095	10205.92
534.461	10140.84
534.826	10209.08
535.192	10130.44
535.557	10129.31
535.923	10057.9
536.288	10085.24
536.653	10110.33
537.019	9985.58
537.384	9977
537.749	10061.29
538.114	9911.24
538.479	9869.66
538.845	9934.29
539.21	9862.65
539.575	9882.99
539.94	9823.1
540.305	9856.77
540.67	9744.91
541.034	9784.01
541.399	9753.73
541.764	9754.18
542.129	9705.82
542.494	9720.51
542.858	9664.92
543.223	9617.91
543.587	9695.88
543.952	9557.12
544.316	9606.16
544.681	9503.56
545.045	9556.9
545.41	9534.07
545.774	9412.94
546.138	9417.46
546.503	9420.63
546.867	9397.35
547.231	9349.22
547.595	9345.6
547.959	9316
548.324	9266.28
548.688	9214.08
549.052	9259.28
549.416	9227.41
549.779	9170.24
550.143	9142.9
550.507	9151.26
550.871	9120.07
551.235	9133.63
551.599	9097.47
551.962	9026.51
552.326	9023.58
552.689	9057.25
553.053	8916.69
553.417	8925.27
553.78	9050.02
554.143	8895.44
554.507	8884.37
554.87	8893.64
555.234	8905.61
555.597	8880.76
555.96	8858.61
556.323	8862.45
556.686	8767.76
557.05	8866.97
557.413	8790.81
557.776	8822.9
558.139	8814.99
558.502	8812.73
558.865	8775
559.228	8806.86
559.59	8789.01
559.953	8766.86
560.316	8820.42
560.679	8764.6
561.041	8815.67
561.404	8798.72
561.767	8771.83
562.129	8737.93
562.492	8779.29
562.854	8723.02
563.217	8706.52
563.579	8712.17
563.941	8769.8
564.304	8775.22
564.666	8720.76
565.028	8714.66
565.39	8783.81
565.753	8809.8
566.115	8714.88
566.477	8812.28
566.839	8748.33
567.201	8903.35
567.563	8800.53
567.925	8854.99
568.287	8874.43
568.648	8867.65
569.01	8861.32
569.372	8873.52
569.734	8851.38
570.095	8953.97
570.457	8934.99
570.819	8928.21
571.18	8853.86
571.542	8944.26
571.903	8942.9
572.265	8975.67
572.626	8956.23
572.987	8939.96
573.349	8962.56
573.71	8930.47
574.071	8958.72
574.432	8990.58
574.794	9057.93
575.155	8963.01
575.516	8991.03
575.877	9056.12
576.238	9033.52
576.599	9093.86
576.96	9061.99
577.32	9105.83
577.681	9131.14
578.042	9085.95
578.403	9114.87
578.763	9125.72
579.124	9122.78
579.485	9191.03
579.845	9180.18
580.206	9141.77
580.566	9164.82
580.927	9199.16
581.287	9232.84
581.648	9168.21
582.008	9200.97
582.368	9255.89
582.728	9253.17
583.089	9264.25
583.449	9254.53
583.809	9157.81
584.169	9260.41
584.529	9275.55
584.889	9316.45
585.249	9289.33
585.609	9245.27
585.969	9317.81
586.329	9297.02
586.688	9262.21
587.048	9280.52
587.408	9294.98
587.768	9262.89
588.127	9248.66
588.487	9294.76
588.846	9319.16
589.206	9327.98
589.565	9339.27
589.925	9343.57
590.284	9359.84
590.643	9422.21
591.003	9369.78
591.362	9374.3
591.721	9381.53
592.08	9417.01
592.44	9434.19
592.799	9479.61
593.158	9441.19
593.517	9396
593.876	9419.05
594.235	9371.14
594.593	9365.04
594.952	9429.67
595.311	9334.75
595.67	9380.86
596.029	9359.61
596.387	9467.63
596.746	9485.26
597.104	9426.5
597.463	9379.05
597.822	9444.36
598.18	9387.18
598.538	9377.24
598.897	9481.42
599.255	9405.94
599.613	9557.35
599.972	9425.6
600.33	9461.76
600.688	9397.35
601.046	9481.64
601.404	9493.85
601.762	9439.38
602.12	9487.74
602.478	9483.45
602.836	9436.45
603.194	9463.56
603.552	9492.72
603.91	9401.42
604.268	9534.75
604.625	9521.64
604.983	9508.54
605.341	9509.44
605.698	9462.21
606.056	9515.31
606.413	9506.28
606.771	9527.07
607.128	9578.82
607.485	9478.48
607.843	9458.14
608.2	9587.4
608.557	9571.36
608.914	9552.38
609.272	9571.81
609.629	9631.47
609.986	9583.79
610.343	9562.32
610.7	9615.88
611.057	9617.68
611.414	9621.3
611.771	9553.96
612.127	9660.17
612.484	9554.64
612.841	9685.71
613.198	9664.46
613.554	9681.86
613.911	9750.34
614.267	9729.09
614.624	9636.67
614.98	9636.22
615.337	9699.04
615.693	9722.54
616.05	9695.2
616.406	9726.61
616.762	9700.39
617.118	9780.84
617.475	9736.78
617.831	9749.66
618.187	9777
618.543	9725.7
618.899	9786.49
619.255	9712.15
619.611	9740.85
619.967	9759.83
620.323	9810.22
620.678	9734.74
621.034	9779.04
621.39	9695.88
621.746	9701.07
622.101	9896.32
622.457	9772.03
622.812	9829.66
623.168	9776.32
623.523	9831.24
623.879	9807.51
624.234	9715.54
624.589	9820.84
624.945	9772.71
625.3	9782.2
625.655	9808.64
626.01	9847.28
626.365	9788.08
626.72	9761.41
627.075	9746.04
627.43	9784.46
627.785	9732.26
628.14	9732.71
628.495	9846.83
628.85	9766.38
629.205	9656.78
629.559	9790.34
629.914	9691.36
630.269	9634.86
630.623	9674.18
630.978	9688.64
631.332	9717.34
631.687	9703.78
632.041	9632.6
632.396	9790.11
632.75	9617.91
633.104	9673.28
633.459	9597.57
633.813	9552.83
634.167	9608.42
634.521	9652.94
634.875	9617.91
635.229	9641.41
635.583	9574.3
635.937	9564.35
636.291	9519.83
636.645	9528.65
636.999	9493.62
637.352	9528.42
637.706	9469.67
638.06	9493.85
638.413	9459.27
638.767	9485.49
639.121	9421.98
639.474	9376.79
639.828	9446.16
640.181	9412.72
640.534	9404.58
640.888	9431.25
641.241	9293.4
641.594	9337.69
641.947	9408.88
642.301	9362.32
642.654	9375.21
643.007	9372.95
643.36	9368.43
643.713	9316.68
644.066	9418.14
644.419	9321.42
644.771	9247.53
645.124	9187.64
645.477	9170.69
645.83	9212.27
646.182	9106.29
646.535	9005.5
646.888	9038.49
647.24	9041.43
647.593	9041.2
647.945	8982.67
648.298	8945.61
648.65	8939.06
649.002	8996.91
649.355	8963.01
649.707	9048.21
650.059	9090.24
650.411	9154.65
650.763	9153.97
651.115	9233.06
651.467	9224.02
651.819	9203.46
652.171	9257.69
652.523	9177.7
652.875	9156.91
653.227	9161.2
653.578	9193.06
653.93	9215.66
654.282	9154.42
654.633	9111.03
654.985	9170.69
655.337	9212.5
655.688	9281.42
656.039	9259.95
656.391	9212.5
656.742	9205.94
657.094	9214.08
657.445	9232.61
657.796	9209.11
658.147	9212.5
658.498	9208.43
658.849	9217.02
659.2	9189.67
659.551	9170.69
659.902	9257.02
660.253	9271.03
660.604	9266.28
660.955	9242.1
661.306	9287.52
661.656	9295.21
662.007	9298.37
662.358	9273.74
662.708	9267.41
663.059	9262.89
663.409	9207.53
663.76	9286.85
664.11	9308.77
664.461	9274.42
664.811	9260.18
665.161	9288.2
665.511	9234.64
665.862	9301.31
666.212	9350.12
666.562	9259.73
666.912	9299.95
667.262	9280.07
667.612	9257.92
667.962	9339.5
668.312	9321.2
668.662	9215.66
669.011	9289.56
669.361	9328.65
669.711	9235.32
670.06	9239.39
670.41	9256.56
670.76	9182.89
671.109	9288.2
671.459	9231.03
671.808	9206.85
672.157	9267.64
672.507	9177.7
672.856	9193.29
673.205	9205.27
673.554	9224.25
673.904	9237.36
674.253	9190.13
674.602	9199.39
674.951	9076.46
675.3	9028.1
675.649	9166.62
675.998	9114.87
676.346	9149
676.695	9195.1
677.044	9059.06
677.393	9079.39
677.741	9111.26
678.09	9056.34
678.438	9076.91
678.787	9056.12
679.135	9092.5
679.484	9026.74
679.832	9069.45
680.181	9011.83
680.529	8958.95
680.877	8972.5
681.225	8992.39
681.573	9045.95
681.922	8915.78
682.27	8876.69
682.618	8874.43
682.966	8937.48
683.314	8890.92
683.661	8907.87
684.009	8851.6
684.357	8802.11
684.705	8767.54
685.053	8823.36
685.4	8782.45
685.748	8775.45
686.095	8805.95
686.443	8735.67
686.79	8627.2
687.138	8682.79
687.485	8682.12
687.832	8617.94
688.18	8638.95
688.527	8531.16
688.874	8577.94
689.221	8565.51
689.568	8549.69
689.915	8484.83
690.262	8488.68
690.609	8418.85
690.956	8387.89
691.303	8356.48
691.65	8390.37
691.997	8373.88
692.344	8306.53
692.69	8318.74
693.037	8262.69
693.383	8226.99
693.73	8173.66
694.077	8153.32
694.423	8185.18
694.769	8123.04
695.116	8123.04
695.462	8118.97
695.808	8069.48
696.155	8059.53
696.501	7949.48
696.847	8017.73
697.193	7880.56
697.539	7944.28
697.885	7838.97
698.231	7818.41
698.577	7818.41
698.923	7766.89
699.269	7794.23
699.614	7708.36
699.96	7681.46
700.306	7653.89
700.651	7631.52
700.997	7655.93
701.342	7621.58
701.688	7565.54
702.033	7492.09
702.379	7505.88
702.724	7492.77
703.069	7504.75
703.415	7409.83
703.76	7408.93
704.105	7392.43
704.45	7356.5
704.795	7321.47
705.14	7380.91
705.485	7308.14
705.83	7267.92
706.175	7228.6
706.52	7246.67
706.865	7202.38
707.209	7163.96
707.554	7147.92
707.899	7204.64
708.243	7066.11
708.588	7103.4
708.932	7047.81
709.277	6999.22
709.621	7065.44
709.966	6968.94
710.31	7043.06
710.654	6903.41
710.998	6967.36
711.342	6950.18
711.687	6928.94
712.031	6891.65
712.375	6831.32
712.719	6903.18
713.063	6872.67
713.407	6879.23
713.75	6785.9
714.094	6791.77
714.438	6731.21
714.782	6823.41
715.125	6740.47
715.469	6737.53
715.812	6767.14
716.156	6749.06
716.499	6732.56
716.843	6706.35
717.186	6705.45
717.53	6675.39
717.873	6755.16
718.216	6699.8
718.559	6654.15
718.902	6680.36
719.246	6689.85
719.589	6599.01
719.932	6589.29
720.275	6648.95
720.617	6563.98
720.96	6624.09
721.303	6576.86
721.646	6610.53
721.989	6583.19
722.331	6617.31
722.674	6561.49
723.016	6597.43
723.359	6557.43
723.701	6622.74
724.044	6534.6
724.386	6557.88
724.729	6520.37
725.071	6542.51
725.413	6549.52
725.755	6553.81
726.097	6496.64
726.439	6537.54
726.782	6478.56
727.124	6481.72
727.465	6486.92
727.807	6487.82
728.149	6481.95
728.491	6497.09
728.833	6453.93
729.175	6420.25
729.516	6393.81
729.858	6449.41
730.199	6460.25
730.541	6516.75
730.882	6470.65
731.224	6527.6
731.565	6443.31
731.906	6497.09
732.248	6429.52
732.589	6417.77
732.93	6393.36
733.271	6471.33
733.612	6433.14
733.953	6433.59
734.294	6433.59
734.635	6362.86
734.976	6478.56
735.317	6449.41
735.658	6411.89
735.999	6434.04
736.339	6404.44
736.68	6486.47
737.021	6500.03
737.361	6452.34
737.702	6510.87
738.042	6451.44
738.383	6479.91
738.723	6518.33
739.063	6555.17
739.404	6574.15
739.744	6524.66
740.084	6516.75
740.424	6529.86
740.764	6544.77
741.104	6584.77
741.444	6585.67
741.784	6579.12
742.124	6611.66
742.464	6670.87
742.804	6648.05
743.143	6627.03
743.483	6714.26
743.823	6662.73
744.162	6720.36
744.502	6750.64
744.841	6762.84
745.181	6835.61
745.52	6849.85
745.86	6918.77
746.199	6960.13
746.538	6966.91
746.877	7013.46
747.216	7039
747.556	6976.17
747.895	7115.38
748.234	7118.77
748.573	7166.68
748.911	7220.91
749.25	7264.07
749.589	7362.38
749.928	7346.11
750.267	7433.79
750.605	7554.24
750.944	7631.52
751.283	7656.61
751.621	7751.97
751.96	7736.15
752.298	7910.16
752.636	8007.11
752.975	8024.51
753.313	8102.47
753.651	8250.04
753.989	8381.33
754.327	8389.24
754.666	8513.99
755.004	8678.05
755.342	8771.61
755.679	8895.44
756.017	9037.36
756.355	9204.59
756.693	9207.3
757.031	9420.85
757.368	9488.2
757.706	9702.2
758.044	9821.52
758.381	9984.23
758.719	10152.13
759.056	10236.88
759.394	10393.71
759.731	10563.42
760.068	10690.65
760.405	10850.42
760.743	10958.67
761.08	11250.64
761.417	11307.58
761.754	11508.26
762.091	11665.31
762.428	11804.75
762.765	11922.03
763.102	12192.31
763.438	12329.25
763.775	12500.55
764.112	12698.96
764.449	12838.39
764.785	13008.33
765.122	13130.59
765.458	13297.14
765.795	13486.96
766.131	13678.14
766.467	13744.81
766.804	13900.74
767.14	13997
767.476	14253.27
767.812	14283.33
