Data from hue_200_FLMS001491_00022.txt Node
Date: Tue Feb 07 16:43:02 GMT 2017
User: dcchb
Spectrometer: FLMS00149
Trigger mode: 0
Integration Time (sec): 2.000000E-2
Scans to average: 10
Electric dark correction enabled: true
Nonlinearity correction enabled: false
Boxcar width: 0
XAxis mode: Wavelengths
Number of Pixels in Spectrum: 2048
>>>>>Begin Spectral Data<<<<<
341.393	-13.38
341.776	-13.38
342.16	-13.38
342.543	-61.06
342.927	-52.02
343.31	-75.07
343.693	-92.7
344.077	-68.97
344.46	-52.7
344.843	-33.94
345.226	-28.06
345.61	-30.78
345.993	-24.9
346.376	-12.7
346.759	18.49
347.142	28.21
347.525	27.08
347.908	49.45
348.291	79.28
348.674	107.3
349.057	110.01
349.44	122.89
349.823	140.29
350.206	150.46
350.588	204.02
350.971	190.01
351.354	219.61
351.737	205.38
352.119	240.4
352.502	288.54
352.884	243.34
353.267	266.17
353.65	277.24
354.032	301.64
354.414	283.79
354.797	307.75
355.179	320.85
355.562	314.3
355.944	336.22
356.326	326.95
356.709	327.18
357.091	342.32
357.473	330.8
357.855	338.25
358.238	347.07
358.62	341.42
359.002	345.49
359.384	336.22
359.766	346.16
360.148	337.12
360.53	312.49
360.912	336.9
361.294	334.86
361.676	327.18
362.057	310.91
362.439	316.79
362.821	348.42
363.203	337.35
363.584	298.93
363.966	330.57
364.348	327.63
364.729	318.37
365.111	303.9
365.493	319.72
365.874	298.93
366.256	304.81
366.637	295.77
367.019	317.01
367.4	287.86
367.781	312.72
368.163	320.63
368.544	310.68
368.925	298.48
369.306	321.08
369.688	311.81
370.069	296.22
370.45	308.88
370.831	316.33
371.212	318.14
371.593	295.77
371.974	300.29
372.355	302.1
372.736	331.47
373.117	307.75
373.498	312.72
373.879	303.45
374.26	320.85
374.641	307.75
375.021	308.65
375.402	312.72
375.783	317.46
376.163	328.31
376.544	318.14
376.925	303.45
377.305	335.99
377.686	319.05
378.066	328.76
378.447	333.06
378.827	333.06
379.208	324.47
379.588	326.05
379.968	331.25
380.349	325.6
380.729	304.81
381.109	333.51
381.489	338.71
381.87	342.32
382.25	328.54
382.63	352.04
383.01	331.7
383.39	338.71
383.77	329.89
384.15	324.69
384.53	326.05
384.91	351.59
385.29	342.1
385.67	350.23
386.049	338.48
386.429	375.09
386.809	358.59
387.189	347.52
387.568	366.73
387.948	368.99
388.328	355.65
388.707	348.65
389.087	343.45
389.466	366.95
389.846	338.03
390.225	366.95
390.605	361.98
390.984	350.46
391.363	375.31
391.743	379.83
392.122	363.79
392.501	367.63
392.881	363.34
393.26	353.85
393.639	376.67
394.018	381.19
394.397	388.2
394.776	389.55
395.155	395.65
395.534	392.26
395.913	394.75
396.292	399.5
396.671	390.46
397.05	413.96
397.429	392.94
397.808	391.81
398.186	375.31
398.565	394.98
398.944	405.37
399.323	398.82
399.701	418.25
400.08	423.22
400.458	401.08
400.837	398.59
401.215	415.99
401.594	408.08
401.972	401.75
402.351	420.51
402.729	421.64
403.107	451.25
403.486	417.12
403.864	429.78
404.242	439.04
404.62	438.59
404.999	447.86
405.377	439.95
405.755	453.96
406.133	454.18
406.511	459.83
406.889	472.94
407.267	489.44
407.645	493.05
408.023	481.98
408.401	505.48
408.779	491.7
409.156	517.23
409.534	525.14
409.912	533.5
410.29	521.98
410.667	547.29
411.045	550.9
411.422	539.38
411.8	539.83
412.178	551.81
412.555	568.53
412.933	571.02
413.31	571.24
413.687	583.9
414.065	599.26
414.442	628.19
414.819	611.92
415.197	640.84
415.574	651.69
415.951	652.37
416.328	657.57
416.705	665.93
417.082	673.39
417.46	691.01
417.837	691.69
418.214	725.14
418.591	712.48
418.967	717.23
419.344	743.67
419.721	734.18
420.098	760.84
420.475	771.01
420.852	780.28
421.228	793.16
421.605	813.95
421.982	820.28
422.358	821.4
422.735	859.6
423.111	857.79
423.488	865.47
423.864	869.99
424.241	870.67
424.617	943.66
424.994	937.56
425.37	976.43
425.746	977.56
426.123	1000.61
426.499	999.48
426.875	1018.01
427.251	1018.46
427.627	1026.82
428.003	1050.78
428.379	1067.73
428.756	1073.6
429.132	1057.56
429.507	1114.28
429.883	1111.79
430.259	1152.24
430.635	1140.49
431.011	1151.11
431.387	1190.43
431.763	1184.79
432.138	1215.29
432.514	1235.41
432.89	1241.05
433.265	1270.66
433.641	1291.68
434.016	1326.02
434.392	1341.17
434.767	1373.48
435.143	1397.21
435.518	1428.85
435.894	1432.46
436.269	1479.01
436.644	1503.65
437.02	1531.44
437.395	1556.98
437.77	1555.17
438.145	1606.02
438.52	1632.23
438.895	1652.34
439.271	1662.29
439.646	1723.53
440.021	1743.19
440.395	1739.57
440.77	1756.52
441.145	1777.76
441.52	1832.9
441.895	1816.18
442.27	1897.76
442.645	1885.11
443.019	1912.22
443.394	1897.99
443.769	1966.91
444.143	1940.02
444.518	2007.14
444.892	2001.03
445.267	2036.97
445.641	2038.55
446.016	2061.82
446.39	2116.96
446.764	2081.94
447.139	2060.47
447.513	2128.04
447.887	2171.65
448.262	2125.55
448.636	2168.04
449.01	2204.65
449.384	2199
449.758	2205.78
450.132	2321.7
450.506	2278.99
450.88	2255.49
451.254	2317.86
451.628	2343.62
452.002	2394.02
452.376	2358.99
452.75	2403.28
453.123	2410.97
453.497	2490.06
453.871	2461.14
454.244	2544.3
454.618	2552.66
454.992	2587.01
455.365	2605.99
455.739	2640.11
456.112	2647.35
456.486	2671.07
456.859	2747.23
457.232	2773.22
457.606	2764.4
457.979	2778.42
458.352	2842.82
458.725	2910.62
459.099	2908.81
459.472	2982.25
459.845	2987
460.218	2986.32
460.591	3057.5
460.964	3056.6
461.337	3144.96
461.71	3168.24
462.083	3184.96
462.456	3235.58
462.829	3259.31
463.201	3263.83
463.574	3239.87
463.947	3341.11
464.32	3436.03
464.692	3430.83
465.065	3485.06
465.438	3523.71
465.81	3561.67
466.183	3603.48
466.555	3674.89
466.928	3645.74
467.3	3703.59
467.672	3725.74
468.045	3807.32
468.417	3861.78
468.789	3887.54
469.161	3933.41
469.534	3998.5
469.906	4077.14
470.278	4114.65
470.65	4125.27
471.022	4189
471.394	4273.52
471.766	4304.25
472.138	4382.22
472.51	4417.92
472.882	4531.59
473.253	4541.08
473.625	4591.48
473.997	4689.33
474.369	4728.87
474.74	4797.8
475.112	4879.83
475.484	4946.95
475.855	5002.99
476.227	5008.87
476.598	5169.54
476.97	5146.94
477.341	5295.19
477.713	5367.27
478.084	5392.13
478.455	5548.74
478.827	5563.88
479.198	5700.82
479.569	5704.89
479.94	5899.01
480.311	5892.46
480.682	6000.03
481.053	6168.38
481.424	6240.92
481.795	6260.13
482.166	6318.89
482.537	6390.52
482.908	6533.8
483.279	6560.92
483.65	6694.24
484.021	6814.69
484.391	6951.41
484.762	6970.85
485.133	7032.32
485.503	7074.35
485.874	7232.99
486.244	7264.17
486.615	7381.91
486.985	7464.17
487.356	7641.34
487.726	7597.27
488.097	7754.56
488.467	7785.06
488.837	7936.92
489.207	7991.16
489.578	8178.27
489.948	8148.22
490.318	8245.16
490.688	8286.29
491.058	8372.84
491.428	8528.77
491.798	8545.27
492.168	8675.21
492.538	8783.46
492.908	8797.92
493.278	8907.07
493.648	8847.63
494.017	9040.17
494.387	9026.16
494.757	9042.66
495.126	9228.87
495.496	9208.98
495.866	9253.73
496.235	9347.28
496.605	9347.96
496.974	9344.12
497.344	9439.48
497.713	9512.93
498.082	9597.22
498.452	9660.27
498.821	9760.6
499.19	9664.34
499.559	9711.57
499.928	9750.21
500.298	9810.77
500.667	9916.76
501.036	9819.81
501.405	9926.02
501.774	9914.73
502.143	9954.05
502.512	9942.97
502.88	10075.4
503.249	10066.81
503.618	10080.37
503.987	10117.21
504.356	10150.65
504.724	10191.1
505.093	10247.37
505.462	10232
505.83	10237.88
506.199	10264.09
506.567	10344.77
506.936	10281.27
507.304	10438.78
507.672	10425.67
508.041	10513.13
508.409	10505.9
508.777	10542.96
509.145	10589.06
509.514	10538.44
509.882	10594.26
510.25	10544.77
510.618	10631.77
510.986	10604.65
511.354	10676.06
511.722	10687.13
512.09	10824.76
512.458	10666.57
512.826	10765.32
513.193	10798.32
513.561	10747.7
513.929	10890.74
514.297	10843.51
514.664	10874.93
515.032	10804.19
515.4	10887.58
515.767	10917.18
516.135	10960.12
516.502	10857.75
516.869	11008.26
517.237	10984.08
517.604	10892.33
517.972	10939.56
518.339	10908.6
518.706	10982.04
519.073	10923.51
519.44	10954.02
519.808	11018.2
520.175	10960.12
520.542	11032.44
520.909	11004.41
521.276	11049.84
521.643	11036.28
522.009	11078.31
522.376	11095.26
522.743	11081.47
523.11	11133
523.477	11116.28
523.843	11142.04
524.21	11121.02
524.577	11194.69
524.943	11218.42
525.31	11183.84
525.676	11236.05
526.043	11184.3
526.409	11177.97
526.776	11286.21
527.142	11227.01
527.508	11215.26
527.874	11255.71
528.241	11230.85
528.607	11179.1
528.973	11255.48
529.339	11176.39
529.705	11197.63
530.071	11145.2
530.437	11232.88
530.803	11229.49
531.169	11170.74
531.535	11103.17
531.901	11112.43
532.267	11106.78
532.632	11118.08
532.998	11071.3
533.364	11039.22
533.73	10926.45
534.095	11001.48
534.461	10957.86
534.826	11018.42
535.192	10901.59
535.557	10949.5
535.923	10823.85
536.288	10822.5
536.653	10770.3
537.019	10748.38
537.384	10716.29
537.749	10697.08
538.114	10652.33
538.479	10606.23
538.845	10568.95
539.21	10574.37
539.575	10462.06
539.94	10413.24
540.305	10469.06
540.67	10407.37
541.034	10372.11
541.399	10355.17
541.764	10286.69
542.129	10234.04
542.494	10140.26
542.858	10174.38
543.223	10127.15
543.587	10138.22
543.952	9993.14
544.316	10023.2
544.681	9947.04
545.045	9938.68
545.41	9948.17
545.774	9892.13
546.138	9843.09
546.503	9710.66
546.867	9731.91
547.231	9752.24
547.595	9655.3
547.959	9622.53
548.324	9568.97
548.688	9562.64
549.052	9561.74
549.416	9525.13
549.779	9460.95
550.143	9476.54
550.507	9432.25
550.871	9335.08
551.235	9273.61
551.599	9322.42
551.962	9282.43
552.326	9191.13
552.689	9247.62
553.053	9069.32
553.417	9101.64
553.78	9170.56
554.143	9034.07
554.507	9048.08
554.87	8981.19
555.234	9089.89
555.597	8956.33
555.96	8961.53
556.323	8909.78
556.686	8878.37
557.05	8879.05
557.413	8862.55
557.776	8763.12
558.139	8875.88
558.502	8848.31
558.865	8792.72
559.228	8776.68
559.59	8812.83
559.953	8754.76
560.316	8824.36
560.679	8748.43
561.041	8756.56
561.404	8772.61
561.767	8743
562.129	8715.21
562.492	8762.44
562.854	8679.05
563.217	8726.73
563.579	8681.76
563.941	8644.48
564.304	8760.63
564.666	8683.35
565.028	8766.51
565.39	8677.47
565.753	8701.65
566.115	8677.7
566.477	8695.55
566.839	8683.35
567.201	8728.09
567.563	8666.62
567.925	8736.45
568.287	8703.68
568.648	8752.04
569.01	8771.25
569.372	8793.62
569.734	8761.76
570.095	8744.81
570.457	8803.57
570.819	8720.41
571.18	8771.93
571.542	8706.85
571.903	8714.53
572.265	8739.16
572.626	8703.68
572.987	8787.98
573.349	8710.24
573.71	8752.5
574.071	8757.92
574.432	8783
574.794	8833.85
575.155	8782.33
575.516	8747.3
575.877	8808.54
576.238	8772.61
576.599	8850.8
576.96	8812.38
577.32	8797.47
577.681	8855.54
578.042	8835.66
578.403	8855.32
578.763	8799.5
579.124	8724.7
579.485	8823.23
579.845	8906.39
580.206	8751.14
580.566	8834.08
580.927	8819.84
581.287	8806.96
581.648	8795.21
582.008	8810.35
582.368	8782.1
582.728	8800.63
583.089	8867.97
583.449	8819.61
583.809	8842.66
584.169	8801.76
584.529	8801.08
584.889	8819.39
585.249	8780.74
585.609	8766.51
585.969	8842.89
586.329	8732.38
586.688	8758.6
587.048	8764.7
587.408	8812.83
587.768	8749.78
588.127	8776.9
588.487	8686.73
588.846	8755.21
589.206	8737.58
589.565	8769.44
589.925	8789.78
590.284	8695.77
590.643	8774.87
591.003	8749.33
591.362	8776.22
591.721	8712.95
592.08	8664.81
592.44	8726.06
592.799	8747.98
593.158	8718.15
593.517	8704.59
593.876	8727.41
594.235	8708.43
594.593	8653.06
594.952	8711.14
595.311	8696.68
595.67	8592.5
596.029	8770.8
596.387	8685.83
596.746	8795.21
597.104	8706.17
597.463	8646.06
597.822	8731.25
598.18	8639.5
598.538	8633.85
598.897	8666.62
599.255	8581.43
599.613	8732.84
599.972	8687.19
600.33	8619.39
600.688	8655.78
601.046	8619.84
601.404	8749.78
601.762	8608.77
602.12	8718.15
602.478	8692.61
602.836	8650.58
603.194	8643.35
603.552	8645.15
603.91	8597.25
604.268	8663.23
604.625	8613.74
604.983	8672.72
605.341	8618.94
605.698	8633.63
606.056	8722.67
606.413	8603.57
606.771	8656.91
607.128	8672.95
607.485	8687.19
607.843	8632.27
608.2	8635.66
608.557	8702.78
608.914	8668.2
609.272	8691.03
609.629	8707.07
609.986	8690.58
610.343	8641.31
610.7	8734.87
611.057	8783.68
611.414	8659.62
611.771	8713.4
612.127	8713.4
612.484	8679.28
612.841	8722.89
613.198	8712.95
613.554	8719.28
613.911	8691.03
614.267	8765.38
614.624	8759.28
614.98	8743.23
615.337	8787.98
615.693	8795.88
616.05	8766.05
616.406	8788.65
616.762	8766.96
617.118	8786.39
617.475	8886.28
617.831	8837.92
618.187	8785.72
618.543	8796.34
618.899	8863
619.255	8858.26
619.611	8832.49
619.967	8841.99
620.323	8898.48
620.678	8886.96
621.034	8813.29
621.39	8833.85
621.746	8827.97
622.101	8865.26
622.457	8767.86
622.812	8841.53
623.168	8894.19
623.523	8820.06
623.879	8897.58
624.234	8879.95
624.589	8835.43
624.945	8870.23
625.3	8853.51
625.655	8813.74
626.01	8896.22
626.365	8890.12
626.72	8865.49
627.075	8831.59
627.43	8828.2
627.785	8840.63
628.14	8841.76
628.495	8789.56
628.85	8818.03
629.205	8761.76
629.559	8758.37
629.914	8818.71
630.269	8742.33
630.623	8727.41
630.978	8725.15
631.332	8799.5
631.687	8805.15
632.041	8670.24
632.396	8739.16
632.75	8646.74
633.104	8711.82
633.459	8641.99
633.813	8644.02
634.167	8655.1
634.521	8730.8
634.875	8637.92
635.229	8656
635.583	8605.83
635.937	8599.28
636.291	8586.62
636.645	8571.94
636.999	8561.09
637.352	8602.22
637.706	8505.27
638.06	8613.06
638.413	8536.91
638.767	8557.92
639.121	8498.04
639.474	8485.16
639.828	8490.36
640.181	8509.34
640.534	8527.42
640.888	8455.78
641.241	8482.45
641.594	8497.81
641.947	8462.33
642.301	8467.31
642.654	8465.05
643.007	8473.86
643.36	8460.07
643.713	8466.4
644.066	8424.37
644.419	8377.14
644.771	8375.56
645.124	8268.44
645.477	8275.22
645.83	8236.58
646.182	8170.36
646.535	8157.26
646.888	8219.63
647.24	8105.73
647.593	8158.61
647.945	8173.3
648.298	8139.18
648.65	8100.76
649.002	8075
649.355	8107.99
649.707	8125.62
650.059	8166.3
650.411	8260.76
650.763	8331.26
651.115	8375.33
651.467	8378.49
651.819	8377.82
652.171	8303.69
652.523	8288.55
652.875	8307.54
653.227	8299.63
653.578	8405.39
653.93	8298.04
654.282	8324.71
654.633	8300.08
654.985	8219.4
655.337	8244.26
655.688	8282.45
656.039	8330.13
656.391	8270.47
656.742	8306.86
657.094	8318.83
657.445	8335.11
657.796	8351.38
658.147	8266.41
658.498	8280.87
658.849	8348.44
659.2	8310.47
659.551	8344.6
659.902	8294.2
660.253	8302.11
660.604	8277.93
660.955	8288.1
661.306	8368.78
661.656	8349.57
662.007	8384.6
662.358	8322.9
662.708	8372.62
663.059	8331.04
663.409	8383.47
663.76	8382.11
664.11	8323.35
664.461	8406.06
664.811	8368.1
665.161	8432.28
665.511	8323.58
665.862	8333.3
666.212	8421.43
666.562	8380.98
666.912	8422.11
667.262	8411.04
667.612	8438.15
667.962	8364.71
668.312	8381.88
668.662	8475.44
669.011	8343.47
669.361	8420.75
669.711	8349.34
670.06	8393.64
670.41	8428.66
670.76	8303.24
671.109	8386.18
671.459	8365.84
671.808	8317.48
672.157	8299.85
672.507	8303.02
672.856	8302.56
673.205	8282
673.554	8342.79
673.904	8305.73
674.253	8328.78
674.602	8320.42
674.951	8217.59
675.3	8130.14
675.649	8274.54
675.998	8271.15
676.346	8171.27
676.695	8247.88
677.044	8175.11
677.393	8166.52
677.741	8262.34
678.09	8161.78
678.438	8176.92
678.787	8148.67
679.135	8204.04
679.484	8147.77
679.832	8121.78
680.181	8067.54
680.529	8156.13
680.877	8104.38
681.225	8122.68
681.573	8180.08
681.922	8061.89
682.27	8041.1
682.618	8068.9
682.966	8068.22
683.314	7967.88
683.661	7970.6
684.009	7970.82
684.357	7924.27
684.705	7928.11
685.053	7957.94
685.4	7909.35
685.748	7885.17
686.095	7833.88
686.443	7801.11
686.79	7802.92
687.138	7884.27
687.485	7825.06
687.832	7798.62
688.18	7763.6
688.527	7744.61
688.874	7705.97
689.221	7671.17
689.568	7642.24
689.915	7638.4
690.262	7646.31
690.609	7619.64
690.956	7580.32
691.303	7558.85
691.65	7538.97
691.997	7526.77
692.344	7522.92
692.69	7494.22
693.037	7413.1
693.383	7367.45
693.73	7392.98
694.077	7350.05
694.423	7387.33
694.769	7342.82
695.116	7309.14
695.462	7305.75
695.808	7225.98
696.155	7204.29
696.501	7239.99
696.847	7172.42
697.193	7153.89
697.539	7160.67
697.885	7127
698.231	7014.01
698.577	7074.8
698.923	7073.9
699.269	7023.73
699.614	6985.76
699.96	6999.77
700.306	6966.1
700.651	6910.28
700.997	6899.66
701.342	6899.66
701.688	6846.56
702.033	6766.79
702.379	6787.58
702.724	6807.69
703.069	6758.88
703.415	6714.58
703.76	6674.13
704.105	6672.55
704.45	6702.83
704.795	6632.33
705.14	6618.77
705.485	6607.92
705.83	6603.4
706.175	6597.3
706.52	6610.18
706.865	6520.24
707.209	6522.27
707.554	6482.95
707.899	6479.11
708.243	6442.27
708.588	6399.56
708.932	6355.95
709.277	6369.96
709.621	6381.71
709.966	6318.44
710.31	6369.06
710.654	6262.17
710.998	6266.69
711.342	6276.18
711.687	6260.13
712.031	6274.14
712.375	6238.21
712.719	6214.94
713.063	6240.7
713.407	6274.59
713.75	6171.77
714.094	6185.11
714.438	6191.43
714.782	6167.03
715.125	6117.08
715.469	6135.84
715.812	6110.98
716.156	6117.08
716.499	6034.38
716.843	6075.28
717.186	6045.67
717.53	6040.02
717.873	6114.15
718.216	6033.92
718.559	6063.75
718.902	6018.1
719.246	6063.75
719.589	6025.79
719.932	5973.13
720.275	6031.44
720.617	5993.92
720.96	6002.74
721.303	5965.22
721.646	5985.34
721.989	5996.18
722.331	5950.76
722.674	5951.67
723.016	5978.11
723.359	5950.08
723.701	5949.63
724.044	5893.36
724.386	5917.99
724.729	5945.56
725.071	5951.67
725.413	5917.09
725.755	5912.12
726.097	5861.27
726.439	5860.37
726.782	5861.95
727.124	5909.86
727.465	5903.76
727.807	5885.23
728.149	5911.89
728.491	5813.36
728.833	5878
729.175	5844.78
729.516	5837.32
729.858	5812.69
730.199	5845.45
730.541	5851.56
730.882	5841.84
731.224	5854.04
731.565	5809.75
731.906	5854.72
732.248	5884.1
732.589	5799.13
732.93	5791.9
733.271	5853.36
733.612	5824.44
733.953	5806.13
734.294	5856.98
734.635	5838.22
734.976	5843.42
735.317	5814.27
735.658	5827.83
735.999	5851.1
736.339	5851.56
736.68	5911.89
737.021	5889.97
737.361	5868.96
737.702	5908.28
738.042	5873.93
738.383	5915.06
738.723	5933.81
739.063	5885.68
739.404	5892.46
739.744	5955.73
740.084	5971.1
740.424	6002.96
740.764	5985.34
741.104	5961.83
741.444	5917.32
741.784	5954.6
742.124	5987.37
742.464	5986.47
742.804	5994.15
743.143	6030.99
743.483	6061.27
743.823	6088.61
744.162	6094.71
744.502	6173.35
744.841	6152.34
745.181	6136.29
745.52	6179.91
745.86	6223.07
746.199	6262.62
746.538	6294.03
746.877	6331.54
747.216	6378.32
747.556	6447.7
747.895	6465.1
748.234	6475.95
748.573	6538.77
748.911	6618.31
749.25	6586.45
749.589	6663.51
749.928	6716.62
750.267	6829.38
750.605	6865.09
750.944	6891.75
751.283	7000.45
751.621	7058.76
751.96	7104.86
752.298	7234.12
752.636	7323.61
752.975	7405.19
753.313	7404.73
753.651	7633.88
753.989	7629.81
754.327	7808.57
754.666	7842.01
755.004	8017.37
755.342	8139.18
755.679	8244.26
756.017	8362.9
756.355	8479.28
756.693	8600.18
757.031	8803.34
757.368	8866.39
757.706	9041.75
758.044	9150.45
758.381	9288.98
758.719	9433.61
759.056	9591.8
759.394	9754.05
759.731	9899.36
760.068	10157.43
760.405	10188.39
760.743	10410.31
761.08	10619.57
761.417	10688.04
761.754	10953.12
762.091	11118.54
762.428	11327.34
762.765	11474.23
763.102	11696.83
763.438	11831.28
763.775	11956.03
764.112	12137.72
764.449	12297.71
764.785	12543.13
765.122	12699.28
765.458	12815.44
765.795	12959.16
766.131	13212.27
766.467	13283.9
766.804	13393.5
