Data from hue_80_FLMS001491_18.txt Node
Date: Mon Feb 06 15:22:33 GMT 2017
User: dcchb
Spectrometer: FLMS00149
Trigger mode: 0
Integration Time (sec): 2.000000E-2
Scans to average: 10
Electric dark correction enabled: true
Nonlinearity correction enabled: false
Boxcar width: 0
XAxis mode: Wavelengths
Number of Pixels in Spectrum: 2048
>>>>>Begin Spectral Data<<<<<
341.393	-18.76
341.776	-18.76
342.16	-18.76
342.543	-69.6
342.927	-60.56
343.31	-57.85
343.693	-80
344.077	-61.24
344.46	-58.53
344.843	-70.51
345.226	-32.77
345.61	-24.63
345.993	-29.38
346.376	0.45
346.759	-4.07
347.142	9.94
347.525	40.68
347.908	53.11
348.291	73.67
348.674	107.34
349.057	133.78
349.44	114.35
349.823	138.08
350.206	164.52
350.588	207.23
350.971	221.24
351.354	227.34
351.737	235.02
352.119	235.47
352.502	248.81
352.884	269.15
353.267	271.63
353.65	297.39
354.032	296.94
354.414	308.69
354.797	319.77
355.179	312.99
355.562	317.73
355.944	315.47
356.326	322.93
356.709	329.48
357.091	322.93
357.473	364.51
357.855	324.51
358.238	326.77
358.62	334.45
359.002	318.41
359.384	340.78
359.766	346.66
360.148	334.68
360.53	332.42
360.912	341.46
361.294	345.08
361.676	328.58
362.057	315.25
362.439	336.04
362.821	313.66
363.203	338.3
363.584	316.6
363.966	321.35
364.348	319.77
364.729	325.42
365.111	330.39
365.493	302.14
365.874	322.25
366.256	312.76
366.637	335.13
367.019	313.44
367.4	304.4
367.781	312.31
368.163	307.79
368.544	289.71
368.925	304.85
369.306	312.99
369.688	302.36
370.069	289.48
370.45	310.95
370.831	313.21
371.212	316.83
371.593	320.9
371.974	291.52
372.355	310.05
372.736	328.13
373.117	311.63
373.498	304.62
373.879	303.72
374.26	292.87
374.641	317.28
375.021	307.79
375.402	311.18
375.783	316.15
376.163	326.09
376.544	313.89
376.925	326.09
377.305	331.06
377.686	319.31
378.066	320.9
378.447	334.45
378.827	323.83
379.208	319.54
379.588	327.9
379.968	332.65
380.349	337.17
380.729	335.81
381.109	321.8
381.489	327.45
381.87	330.39
382.25	336.26
382.63	346.88
383.01	315.02
383.39	328.13
383.77	330.16
384.15	340.56
384.53	335.58
384.91	350.73
385.29	334
385.67	329.03
386.049	343.95
386.429	332.87
386.809	336.94
387.189	345.75
387.568	346.66
387.948	345.98
388.328	333.32
388.707	343.49
389.087	349.6
389.466	348.01
389.846	353.66
390.225	371.06
390.605	352.53
390.984	383.72
391.363	354.34
391.743	337.17
392.122	340.78
392.501	355.47
392.881	364.96
393.26	371.29
393.639	369.48
394.018	368.58
394.397	387.79
394.776	366.77
395.155	346.43
395.534	376.49
395.913	364.51
396.292	360.22
396.671	378.52
397.05	382.36
397.429	369.71
397.808	391.18
398.186	365.41
398.565	369.48
398.944	377.39
399.323	378.52
399.701	382.36
400.08	372.87
400.458	391.85
400.837	389.37
401.215	395.24
401.594	378.52
401.972	378.3
402.351	389.59
402.729	384.85
403.107	396.83
403.486	404.96
403.864	411.29
404.242	395.02
404.62	407.9
404.999	402.48
405.377	409.71
405.755	405.87
406.133	402.25
406.511	416.49
406.889	430.5
407.267	427.33
407.645	409.93
408.023	413.77
408.401	441.57
408.779	414.68
409.156	441.34
409.534	426.88
409.912	416.03
410.29	435.92
410.667	430.95
411.045	460.55
411.422	452.87
411.8	429.37
412.178	451.74
412.555	443.38
412.933	439.99
413.31	471.63
413.687	462.13
414.065	457.16
414.442	462.13
414.819	461.91
415.197	466.65
415.574	468.91
415.951	477.95
416.328	466.88
416.705	495.13
417.082	456.71
417.46	493.55
417.837	496.48
418.214	485.41
418.591	484.06
418.967	500.78
419.344	491.96
419.721	520.44
420.098	502.36
420.475	509.14
420.852	498.07
421.228	515.47
421.605	512.98
421.982	507.78
422.358	498.97
422.735	495.81
423.111	534
423.488	526.54
423.864	516.6
424.241	537.16
424.617	537.61
424.994	545.07
425.37	543.26
425.746	503.94
426.123	537.39
426.499	544.39
426.875	551.85
427.251	553.43
427.627	538.06
428.003	566.09
428.379	569.7
428.756	580.78
429.132	571.06
429.507	588.46
429.883	576.48
430.259	585.97
430.635	599.98
431.011	603.83
431.387	611.96
431.763	602.92
432.138	605.63
432.514	611.96
432.89	632.98
433.265	636.37
433.641	627.55
434.016	638.4
434.392	630.49
434.767	646.54
435.143	656.25
435.518	672.75
435.894	661.23
436.269	684.05
436.644	658.51
437.02	689.47
437.395	693.77
437.77	689.47
438.145	681.34
438.52	698.74
438.895	688.12
439.271	682.24
439.646	713.43
440.021	728.79
440.395	727.66
440.77	710.04
441.145	723.82
441.52	739.42
441.895	746.87
442.27	760.66
442.645	729.92
443.019	742.13
443.394	757.72
443.769	759.08
444.143	764.95
444.518	765.86
444.892	768.57
445.267	766.31
445.641	775.8
446.016	799.75
446.39	807.21
446.764	785.06
447.139	788.23
447.513	799.53
447.887	793.88
448.262	797.72
448.636	802.01
449.01	816.48
449.384	796.82
449.758	830.71
450.132	834.1
450.506	846.31
450.88	835.23
451.254	858.96
451.628	847.66
452.002	861.22
452.376	876.59
452.75	857.83
453.123	908
453.497	894.89
453.871	886.3
454.244	911.16
454.618	918.17
454.992	896.02
455.365	919.07
455.739	951.84
456.112	925.4
456.486	942.8
456.859	967.88
457.232	995.23
457.606	983.48
457.979	1004.95
458.352	997.94
458.725	1018.05
459.099	1030.93
459.472	1053.53
459.845	1058.5
460.218	1070.03
460.591	1066.64
460.964	1069.58
461.337	1092.17
461.71	1112.51
462.083	1116.81
462.456	1136.69
462.829	1153.19
463.201	1157.71
463.574	1161.33
463.947	1167.2
464.32	1204.94
464.692	1239.52
465.065	1224.6
465.438	1232.74
465.81	1256.46
466.183	1245.16
466.555	1308.89
466.928	1330.81
467.3	1309.57
467.672	1338.27
468.045	1373.3
468.417	1377.82
468.789	1392.05
469.161	1416.23
469.534	1439.96
469.906	1507.08
470.278	1518.38
470.65	1508.43
471.022	1538.94
471.394	1587.53
471.766	1571.26
472.138	1609.45
472.51	1675.21
472.882	1705.27
473.253	1717.92
473.625	1782.33
473.997	1812.16
474.369	1832.95
474.74	1853.28
475.112	1930.57
475.484	1955.88
475.855	1994.07
476.227	2019.38
476.598	2116.1
476.97	2129.66
477.341	2168.08
477.713	2270.45
478.084	2313.39
478.455	2378.69
478.827	2375.76
479.198	2506.83
479.569	2544.11
479.94	2589.76
480.311	2666.6
480.682	2770.1
481.053	2863.88
481.424	2920.15
481.795	2984.33
482.166	3078.56
482.537	3147.71
482.908	3226.58
483.279	3348.61
483.65	3431.77
484.021	3507.93
484.391	3615.5
484.762	3686.91
485.133	3795.15
485.503	3876.06
485.874	4011.42
486.244	4117.18
486.615	4211.41
486.985	4302.71
487.356	4464.06
487.726	4606.88
488.097	4692.08
488.467	4730.5
488.837	4936.82
489.207	5056.36
489.578	5152.41
489.948	5284.38
490.318	5387.88
490.688	5473.08
491.058	5628.33
491.428	5821.09
491.798	5938.6
492.168	6051.14
492.538	6178.14
492.908	6311.47
493.278	6399.15
493.648	6525.7
494.017	6640.73
494.387	6803.21
494.757	6998.23
495.126	7113.26
495.496	7174.73
495.866	7342.18
496.235	7542.17
496.605	7525.9
496.974	7726.35
497.344	7846.57
497.713	7961.15
498.082	8087.47
498.452	8201.59
498.821	8368.37
499.19	8400.68
499.559	8523.39
499.928	8590.51
500.298	8787.34
500.667	8909.6
501.036	8968.8
501.405	9060.1
501.774	9220.55
502.143	9265.97
502.512	9437.94
502.88	9515
503.249	9603.14
503.618	9718.61
503.987	9816.69
504.356	9882.23
504.724	10008.78
505.093	10115.44
505.462	10080.41
505.83	10266.85
506.199	10399.27
506.567	10568.99
506.936	10610.79
507.304	10769.89
507.672	10829.09
508.041	10953.16
508.409	10999.26
508.777	11095.98
509.145	11214.62
509.514	11226.15
509.882	11276.09
510.25	11419.13
510.618	11466.82
510.986	11584.1
511.354	11681.05
511.722	11814.38
512.09	11893.25
512.458	11792.91
512.826	12018.67
513.193	12000.14
513.561	12145.9
513.929	12217.08
514.297	12321.48
514.664	12374.36
515.032	12407.81
515.4	12550.18
515.767	12624.98
516.135	12674.69
516.502	12586.11
516.869	12779.1
517.237	12885.31
517.604	12881.47
517.972	12978.42
518.339	13112.2
518.706	12999.66
519.073	13040.79
519.44	13231.52
519.808	13341.57
520.175	13280.55
520.542	13385.64
520.909	13540.89
521.276	13513.54
521.643	13590.6
522.009	13718.06
522.376	13683.71
522.743	13838.05
523.11	14002.8
523.477	14067.88
523.843	14125.96
524.21	14279.17
524.577	14199.63
524.943	14332.28
525.31	14372.96
525.676	14466.29
526.043	14520.75
526.409	14558.71
526.776	14633.51
527.142	14639.62
527.508	14578.6
527.874	14704.92
528.241	14783.57
528.607	14759.84
528.973	14927.07
529.339	14878.03
529.705	14975.2
530.071	14989.44
530.437	15088.19
530.803	15127.06
531.169	15175.65
531.535	15126.38
531.901	15215.42
532.267	15119.38
532.632	15241.86
532.998	15231.92
533.364	15376.54
533.73	15226.72
534.095	15343.78
534.461	15326.6
534.826	15408.41
535.192	15488.41
535.557	15472.14
535.923	15447.28
536.288	15499.93
536.653	15397.56
537.019	15446.6
537.384	15516.43
537.749	15512.59
538.114	15465.81
538.479	15415.19
538.845	15553.49
539.21	15440.05
539.575	15565.47
539.94	15426.26
540.305	15562.75
540.67	15518.46
541.034	15471.46
541.399	15497.45
541.764	15443.89
542.129	15576.77
542.494	15534.73
542.858	15441.85
543.223	15490.21
543.587	15523.66
543.952	15511
544.316	15504.45
544.681	15479.82
545.045	15528.86
545.41	15569.08
545.774	15547.39
546.138	15522.98
546.503	15503.32
546.867	15418.13
547.231	15475.3
547.595	15507.16
547.959	15492.7
548.324	15471.46
548.688	15482.08
549.052	15482.98
549.416	15487.73
549.779	15429.65
550.143	15458.58
550.507	15566.37
550.871	15489.99
551.235	15368.86
551.599	15479.59
551.962	15449.99
552.326	15433.49
552.689	15543.55
553.053	15442.08
553.417	15412.93
553.78	15572.25
554.143	15432.36
554.507	15505.81
554.87	15511
555.234	15658.57
555.597	15518.46
555.96	15483.89
556.323	15616.99
556.686	15547.84
557.05	15627.84
557.413	15570.21
557.776	15523.66
558.139	15577.44
558.502	15661.06
558.865	15720.49
559.228	15721.39
559.59	15732.92
559.953	15798.68
560.316	15870.77
560.679	15662.64
561.041	15806.82
561.404	15832.13
561.767	15913.03
562.129	15855.18
562.492	16004.32
562.854	15899.02
563.217	15903.54
563.579	15978.79
563.941	16026.7
564.304	16018.56
564.666	16129.75
565.028	16172.91
565.39	16113.25
565.753	16110.99
566.115	16218.1
566.477	16201.16
566.839	16131.78
567.201	16254.71
567.563	16301.94
567.925	16375.16
568.287	16351.43
568.648	16325.22
569.01	16463.75
569.372	16482.05
569.734	16456.97
570.095	16566.8
570.457	16561.82
570.819	16688.37
571.18	16685.66
571.542	16722.5
571.903	16635.72
572.265	16668.26
572.626	16738.99
572.987	16714.81
573.349	16835.04
573.71	16766.79
574.071	16858.77
574.432	16824.19
574.794	16925.66
575.155	16952.32
575.516	16923.85
575.877	16910.06
576.238	17026.9
576.599	16933.11
576.96	16986.67
577.32	17019.67
577.681	16974.24
578.042	17047.69
578.403	16826.9
578.763	16955.03
579.124	17056.27
579.485	17130.62
579.845	17111.19
580.206	17117.97
580.566	17099.89
580.927	17021.47
581.287	17165.65
581.648	17074.13
582.008	17056.95
582.368	17031.87
582.728	17046.56
583.089	17120
583.449	17099.89
583.809	17100.34
584.169	17172.43
584.529	17025.77
584.889	17197.97
585.249	17045.88
585.609	17002.94
585.969	17058.53
586.329	16997.75
586.688	17091.3
587.048	17064.86
587.408	16993.9
587.768	17002.26
588.127	17008.59
588.487	16873.23
588.846	17090.4
589.206	16882.49
589.565	16915.71
589.925	17004.07
590.284	16920.69
590.643	16984.86
591.003	17072.77
591.362	17031.19
591.721	16908.03
592.08	16987.12
592.44	16970.4
592.799	17032.77
593.158	16898.09
593.517	16981.02
593.876	16975.15
594.235	16881.14
594.593	16985.09
594.952	16990.29
595.311	16934.92
595.67	16968.14
596.029	16999.55
596.387	16999.78
596.746	17100.12
597.104	16878.2
597.463	16794.59
597.822	16817.18
598.18	16805.66
598.538	16817.64
598.897	17011.53
599.255	16830.97
599.613	17075.26
599.972	16950.29
600.33	17087.23
600.688	16912.1
601.046	17039.55
601.404	17015.82
601.762	17057.86
602.12	17086.33
602.478	17013.79
602.836	17033
603.194	16949.61
603.552	17053.79
603.91	17037.07
604.268	16966.11
604.625	16903.06
604.983	16995.94
605.341	16920.69
605.698	17045.88
606.056	17070.96
606.413	16997.52
606.771	17083.84
607.128	17056.27
607.485	17039.1
607.843	17058.31
608.2	17109.15
608.557	17079.78
608.914	16966.56
609.272	17152.09
609.629	17152.32
609.986	17134.69
610.343	17175.82
610.7	17296.72
611.057	17287
611.414	17231.86
611.771	17254.69
612.127	17338.08
612.484	17308.25
612.841	17347.34
613.198	17256.27
613.554	17331.52
613.911	17367.68
614.267	17350.5
614.624	17313.9
614.98	17405.42
615.337	17520.9
615.693	17409.94
616.05	17445.87
616.406	17632.08
616.762	17479.77
617.118	17422.37
617.475	17465.53
617.831	17563.83
618.187	17586.66
618.543	17597.05
618.899	17610.38
619.255	17550.27
619.611	17526.32
619.967	17674.11
620.323	17649.71
620.678	17607.67
621.034	17619.88
621.39	17581.23
621.746	17632.98
622.101	17762.47
622.457	17622.59
622.812	17649.48
623.168	17703.49
623.523	17790.94
623.879	17755.24
624.234	17684.96
624.589	17611.51
624.945	17781.23
625.3	17646.32
625.655	17769.48
626.01	17738.52
626.365	17690.38
626.72	17665.52
627.075	17717.73
627.43	17732.64
627.785	17724.28
628.14	17716.14
628.495	17741.45
628.85	17684.05
629.205	17595.7
629.559	17771.74
629.914	17636.37
630.269	17649.93
630.623	17597.05
630.978	17607.9
631.332	17690.16
631.687	17595.02
632.041	17485.19
632.396	17557.96
632.75	17477.73
633.104	17569.48
633.459	17449.71
633.813	17535.58
634.167	17456.94
634.521	17499.2
634.875	17561.12
635.229	17378.3
635.583	17428.69
635.937	17325.87
636.291	17443.38
636.645	17290.84
636.999	17297.85
637.352	17354.12
637.706	17200.68
638.06	17390.28
638.413	17370.16
638.767	17213.11
639.121	17246.1
639.474	17155.93
639.828	17184.41
640.181	17203.84
640.534	17202.49
640.888	17115.71
641.241	17098.53
641.594	17100.12
641.947	17233.45
642.301	17058.76
642.654	17081.36
643.007	17072.09
643.36	17110.96
643.713	16958.88
644.066	17117.29
644.419	17041.36
644.771	16912.55
645.124	16755.49
645.477	16695.83
645.83	16619
646.182	16595.5
646.535	16548.04
646.888	16516.18
647.24	16544.2
647.593	16562.95
647.945	16466.69
648.298	16343.07
648.65	16406.8
649.002	16333.13
649.355	16412.45
649.707	16480.7
650.059	16512.11
650.411	16766.79
650.763	16672.1
651.115	16945.32
651.467	16873.68
651.819	16785.1
652.171	16795.04
652.523	16824.19
652.875	16780.35
653.227	16707.58
653.578	16678.21
653.93	16849.73
654.282	16684.76
654.633	16661.93
654.985	16722.95
655.337	16814.93
655.688	16750.07
656.039	16834.81
656.391	16670.97
656.742	16742.84
657.094	16768.6
657.445	16876.17
657.796	16747.13
658.147	16691.09
658.498	16832.33
658.849	16700.8
659.2	16758.2
659.551	16673.01
659.902	16778.54
660.253	16696.28
660.604	16784.87
660.955	16774.93
661.306	16753.46
661.656	16683.63
662.007	16821.93
662.358	16809.95
662.708	16851.76
663.059	16732.67
663.409	16788.26
663.76	16905.09
664.11	16807.02
664.461	16934.7
664.811	16875.26
665.161	16819.9
665.511	16769.05
665.862	16860.8
666.212	16892.66
666.562	16822.38
666.912	16848.14
667.262	16830.97
667.612	16764.3
667.962	16816.73
668.312	16805.66
668.662	16931.08
669.011	16822.83
669.361	16759.33
669.711	16704.19
670.06	16775.15
670.41	16784.19
670.76	16705.32
671.109	16775.15
671.459	16761.14
671.808	16748.71
672.157	16860.12
672.507	16701.48
672.856	16741.03
673.205	16742.38
673.554	16731.31
673.904	16710.52
674.253	16748.49
674.602	16764.3
674.951	16357.76
675.3	16322.96
675.649	16617.19
675.998	16531.54
676.346	16532.45
676.695	16609.51
677.044	16575.16
677.393	16571.77
677.741	16627.59
678.09	16591.2
678.438	16557.53
678.787	16477.31
679.135	16474.14
679.484	16528.38
679.832	16489.06
680.181	16390.53
680.529	16372.45
680.877	16377.2
681.225	16326.35
681.573	16433.24
681.922	16370.87
682.27	16250.87
682.618	16274.15
682.966	16274.15
683.314	16180.59
683.661	16172.46
684.009	16051.78
684.357	16060.59
684.705	16021.05
685.053	16084.55
685.4	15933.14
685.748	15883.2
686.095	15895.85
686.443	15794.16
686.79	15783.54
687.138	15692.92
687.485	15841.84
687.832	15719.36
688.18	15704.9
688.527	15684.79
688.874	15614.96
689.221	15600.72
689.568	15517.33
689.915	15513.72
690.262	15532.25
690.609	15518.69
690.956	15357.56
691.303	15413.38
691.65	15303.55
691.997	15244.12
692.344	15166.15
692.69	15137.91
693.037	15197.79
693.383	15044.58
693.73	15075.99
694.077	15000.96
694.423	14869.89
694.769	14921.64
695.116	14871.25
695.462	14837.58
695.808	14774.98
696.155	14711.25
696.501	14617.47
696.847	14680.07
697.193	14424.71
697.539	14594.42
697.885	14401.66
698.231	14350.36
698.577	14409.34
698.923	14387.42
699.269	14238.27
699.614	14267.65
699.96	14119.4
700.306	14113.3
700.651	14030.59
700.997	14012.29
701.342	13979.75
701.688	13962.34
702.033	13992.63
702.379	13961.89
702.724	13823.37
703.069	13927.09
703.415	13705.63
703.76	13746.08
704.105	13649.36
704.45	13680.09
704.795	13544.05
705.14	13542.69
705.485	13439.19
705.83	13478.29
706.175	13465.63
706.52	13296.6
706.865	13334.34
707.209	13330.04
707.554	13356.03
707.899	13269.48
708.243	13221.57
708.588	13181.12
708.932	13071.97
709.277	13078.53
709.621	13085.53
709.966	12922.82
710.31	12984.74
710.654	12886.89
710.998	12923.5
711.342	12866.1
711.687	12791.3
712.031	12775.48
712.375	12693
712.719	12656.39
713.063	12736.39
713.407	12730.74
713.75	12634.02
714.094	12649.84
714.438	12644.41
714.782	12553.34
715.125	12529.16
715.469	12601.02
715.812	12514.47
716.156	12480.58
716.499	12412.78
716.843	12459.56
717.186	12406.23
717.53	12363.52
717.873	12393.57
718.216	12382.27
718.559	12411.2
718.902	12229.51
719.246	12295.04
719.589	12247.59
719.932	12264.54
720.275	12247.14
720.617	12215.95
720.96	12267.02
721.303	12162.17
721.646	12172.11
721.989	12098.66
722.331	12153.58
722.674	12121.26
723.016	12149.74
723.359	12040.81
723.701	12109.29
724.044	12026.12
724.386	11993.58
724.729	12043.75
725.071	12011.89
725.413	12002.4
725.755	12021.83
726.097	11937.99
726.439	11835.62
726.782	11932.79
727.124	11977.54
727.465	11865.68
727.807	11845.11
728.149	11837.88
728.491	11843.98
728.833	11850.08
729.175	11770.99
729.516	11725.12
729.858	11852.34
730.199	11827.71
730.541	11804.44
730.882	11767.15
731.224	11804.21
731.565	11786.58
731.906	11811.44
732.248	11806.7
732.589	11766.7
732.93	11719.24
733.271	11720.14
733.612	11724.21
733.953	11669.3
734.294	11700.03
734.635	11661.84
734.976	11762.63
735.317	11664.78
735.658	11740.71
735.999	11736.64
736.339	11685.57
736.68	11726.7
737.021	11741.61
737.361	11736.64
737.702	11803.31
738.042	11756.75
738.383	11752.69
738.723	11826.58
739.063	11781.61
739.404	11805.79
739.744	11803.31
740.084	11723.99
740.424	11756.08
740.764	11783.42
741.104	11821.61
741.444	11780.71
741.784	11802.85
742.124	11842.4
742.464	11839.91
742.804	11881.72
743.143	11811.89
743.483	11916.3
743.823	11869.52
744.162	11883.08
744.502	11928.27
744.841	11912.46
745.181	12032.45
745.52	12011.66
745.86	12067.25
746.199	12067.25
746.538	12052.56
746.877	12160.36
747.216	12156.74
747.556	12246.23
747.895	12284.87
748.234	12311.99
748.573	12326
748.911	12387.7
749.25	12467.02
749.589	12494.13
749.928	12495.49
750.267	12591.99
750.605	12749.27
750.944	12774.35
751.283	12733.22
751.621	12846.44
751.96	12844.18
752.298	12974.12
752.636	13069.71
752.975	13082.82
753.313	13144.74
753.651	13350.16
753.989	13370.72
754.327	13455.47
754.666	13502.92
755.004	13579.08
755.342	13688.91
755.679	13868.34
756.017	13904.49
756.355	14054.55
756.693	14074.66
757.031	14290.7
