Data from hue_160_FLMS001491_00013.txt Node
Date: Tue Feb 07 16:50:49 GMT 2017
User: dcchb
Spectrometer: FLMS00149
Trigger mode: 0
Integration Time (sec): 2.000000E-2
Scans to average: 10
Electric dark correction enabled: true
Nonlinearity correction enabled: false
Boxcar width: 0
XAxis mode: Wavelengths
Number of Pixels in Spectrum: 2048
>>>>>Begin Spectral Data<<<<<
341.393	-3.21
341.776	-3.21
342.16	-3.21
342.543	-60.61
342.927	-80.72
343.31	-69.19
343.693	-71.45
344.077	-57.44
344.46	-59.25
344.843	-53.15
345.226	-45.01
345.61	-20.15
345.993	-21.96
346.376	-21.96
346.759	-0.72
347.142	28.66
347.525	32.05
347.908	56
348.291	76.11
348.674	107.53
349.057	119.95
349.44	138.26
349.823	147.98
350.206	159.73
350.588	179.84
350.971	192.72
351.354	221.42
351.737	224.81
352.119	218.93
352.502	253.06
352.884	265.04
353.267	281.08
353.65	309.55
354.032	286.5
354.414	306.16
354.797	312.94
355.179	290.8
355.562	304.36
355.944	319.5
356.326	338.48
356.709	336.45
357.091	321.08
357.473	350.68
357.855	318.59
358.238	357.01
358.62	336.45
359.002	332.38
359.384	335.09
359.766	320.4
360.148	337.58
360.53	338.71
360.912	323.79
361.294	318.82
361.676	335.77
362.057	331.47
362.439	324.92
362.821	298.71
363.203	311.36
363.584	322.21
363.966	312.04
364.348	324.47
364.729	325.37
365.111	302.55
365.493	311.36
365.874	311.59
366.256	304.13
366.637	302.32
367.019	300.97
367.4	300.97
367.781	293.74
368.163	310.91
368.544	317.24
368.925	302.55
369.306	321.76
369.688	305.94
370.069	290.12
370.45	322.89
370.831	310.01
371.212	307.97
371.593	285.6
371.974	309.33
372.355	301.87
372.736	309.33
373.117	328.76
373.498	318.37
373.879	321.08
374.26	302.32
374.641	298.71
375.021	324.24
375.402	310.91
375.783	320.63
376.163	322.89
376.544	304.36
376.925	309.33
377.305	329.89
377.686	323.34
378.066	321.08
378.447	317.24
378.827	319.05
379.208	331.93
379.588	330.8
379.968	323.11
380.349	322.66
380.729	341.19
381.109	312.72
381.489	330.57
381.87	341.64
382.25	338.71
382.63	341.64
383.01	329.89
383.39	348.65
383.77	322.44
384.15	342.1
384.53	347.29
384.91	342.1
385.29	352.26
385.67	324.92
386.049	357.24
386.429	362.66
386.809	366.73
387.189	361.98
387.568	341.42
387.948	330.57
388.328	347.75
388.707	372.83
389.087	337.35
389.466	369.89
389.846	359.72
390.225	354.98
390.605	373.73
390.984	378.25
391.363	371.25
391.743	368.54
392.122	378.25
392.501	374.41
392.881	380.29
393.26	359.27
393.639	347.97
394.018	370.57
394.397	348.42
394.776	355.88
395.155	356.11
395.534	347.07
395.913	369.89
396.292	365.37
396.671	368.31
397.05	377.8
397.429	379.38
397.808	375.31
398.186	373.96
398.565	384.35
398.944	380.96
399.323	378.48
399.701	361.76
400.08	381.42
400.458	385.71
400.837	383.9
401.215	402.43
401.594	400.63
401.972	398.59
402.351	418.93
402.729	429.55
403.107	409.89
403.486	428.19
403.864	401.98
404.242	401.98
404.62	413.05
404.999	402.43
405.377	399.5
405.755	395.2
406.133	441.53
406.511	417.57
406.889	428.19
407.267	416.22
407.645	431.81
408.023	450.79
408.401	453.51
408.779	420.06
409.156	442.21
409.534	449.21
409.912	434.52
410.29	451.92
410.667	465.03
411.045	445.82
411.422	451.25
411.8	479.04
412.178	451.7
412.555	456.89
412.933	489.44
413.31	456.67
413.687	488.08
414.065	482.66
414.442	469.55
414.819	483.79
415.197	475.2
415.574	494.18
415.951	477.69
416.328	488.31
416.705	474.07
417.082	503.22
417.46	496.89
417.837	517.91
418.214	507.74
418.591	506.16
418.967	503.22
419.344	531.24
419.721	514.75
420.098	515.42
420.475	524.92
420.852	512.03
421.228	570.11
421.605	520.4
421.982	547.51
422.358	540.28
422.735	544.12
423.111	540.06
423.488	568.08
423.864	584.35
424.241	559.04
424.617	565.59
424.994	608.3
425.37	569.43
425.746	577.8
426.123	584.12
426.499	597.23
426.875	611.02
427.251	587.96
427.627	622.54
428.003	595.42
428.379	630.68
428.756	595.42
429.132	619.83
429.507	637.45
429.883	628.42
430.259	647.17
430.635	645.59
431.011	657.12
431.387	646.72
431.763	640.84
432.138	646.04
432.514	660.51
432.89	670.67
433.265	687.17
433.641	674.06
434.016	700.73
434.392	740.73
434.767	714.97
435.143	715.87
435.518	723.1
435.894	708.41
436.269	725.36
436.644	729.43
437.02	752.25
437.395	753.61
437.77	758.58
438.145	764.91
438.52	780.95
438.895	791.12
439.271	796.77
439.646	780.73
440.021	831.57
440.395	807.17
440.77	810.78
441.145	810.56
441.52	820.5
441.895	799.71
442.27	818.02
442.645	819.82
443.019	851.91
443.394	839.71
443.769	826.38
444.143	827.96
444.518	858.01
444.892	829.54
445.267	868.41
445.641	869.99
446.016	864.57
446.39	886.94
446.764	883.55
447.139	894.62
447.513	886.71
447.887	890.78
448.262	901.63
448.636	913.15
449.01	918.8
449.384	940.95
449.758	947.28
450.132	953.15
450.506	948.63
450.88	956.32
451.254	964
451.628	973.27
452.002	979.82
452.376	993.6
452.75	994.73
453.123	1012.13
453.497	1034.05
453.871	1042.64
454.244	1032.7
454.618	1041.96
454.992	1061.85
455.365	1089.65
455.739	1091
456.112	1095.75
456.486	1084.22
456.859	1121.28
457.232	1156.31
457.606	1141.85
457.979	1153.37
458.352	1182.98
458.725	1193.37
459.099	1198.34
459.472	1212.81
459.845	1206.71
460.218	1251.68
460.591	1237.44
460.964	1241.51
461.337	1302.07
461.71	1335.52
462.083	1315.86
462.456	1314.73
462.829	1321.5
463.201	1358.57
463.574	1394.95
463.947	1392.92
464.32	1400.82
464.692	1439.69
465.065	1446.47
465.438	1474.5
465.81	1477.43
466.183	1522.86
466.555	1551.78
466.928	1555.85
467.3	1564.21
467.672	1586.58
468.045	1640.59
468.417	1644.43
468.789	1665.9
469.161	1676.52
469.534	1735.51
469.906	1760.14
470.278	1775.73
470.65	1804.88
471.022	1865.9
471.394	1886.01
471.766	1884.65
472.138	1956.29
472.51	2002.16
472.882	2034.03
473.253	2067.7
473.625	2130.3
473.997	2140.01
474.369	2207.13
474.74	2229.28
475.112	2298.65
475.484	2351.53
475.855	2407.8
476.227	2469.05
476.598	2516.05
476.97	2565.31
477.341	2655.71
477.713	2671.07
478.084	2732.54
478.455	2833.33
478.827	2930.05
479.198	2975.02
479.569	3043.72
479.94	3148.35
480.311	3194.22
480.682	3325.29
481.053	3375.69
481.424	3460.66
481.795	3546.08
482.166	3624.72
482.537	3730.93
482.908	3825.17
483.279	3933.19
483.65	3992.17
484.021	4156.91
484.391	4236
484.762	4306.96
485.133	4397.13
485.503	4508.99
485.874	4675.31
486.244	4715.54
486.615	4870.56
486.985	4956.44
487.356	5136.55
487.726	5207.5
488.097	5388.52
488.467	5472.58
488.837	5614.95
489.207	5699.92
489.578	5854.72
489.948	5985.79
490.318	6138.33
490.688	6238.66
491.058	6334.25
491.428	6515.04
491.798	6622.83
492.168	6789.16
492.538	6822.15
492.908	6956.16
493.278	7115.25
493.648	7152.99
494.017	7344.62
494.387	7487.22
494.757	7633.88
495.126	7711.17
495.496	7785.97
495.866	7913.42
496.235	8054.21
496.605	8118.61
496.974	8284.94
497.344	8321.32
497.713	8428.66
498.082	8522.67
498.452	8681.09
498.821	8796.11
499.19	8854.19
499.559	8963.79
499.928	9043.56
500.298	9121.98
500.667	9247.17
501.036	9271.58
501.405	9410.78
501.774	9422.76
502.143	9602.42
502.512	9609.87
502.88	9769.87
503.249	9785.24
503.618	9895.06
503.987	9969.86
504.356	9949.75
504.724	10121.05
505.093	10103.42
505.462	10176.19
505.83	10303.64
506.199	10265.68
506.567	10441.94
506.936	10479.91
507.304	10563.75
507.672	10558.32
508.041	10693.91
508.409	10742.73
508.777	10801.71
509.145	10881.48
509.514	10922.38
509.882	10968.71
510.25	10945.88
510.618	11019.78
510.986	11062.94
511.354	11134.13
511.722	11173.68
512.09	11277.4
512.458	11308.36
512.826	11427.23
513.193	11352.88
513.561	11368.02
513.929	11463.39
514.297	11503.16
514.664	11580.9
515.032	11608.47
515.4	11643.95
515.767	11771.85
516.135	11692.76
516.502	11608.01
516.869	11752.42
517.237	11866.54
517.604	11726.2
517.972	11855.47
518.339	11950.83
518.706	11839.19
519.073	11953.09
519.44	11919.19
519.808	12049.81
520.175	12015.91
520.542	12191.28
520.909	12168
521.276	12055.46
521.643	12190.6
522.009	12224.49
522.376	12273.53
522.743	12246.64
523.11	12270.6
523.477	12407.77
523.843	12404.6
524.21	12532.96
524.577	12497.26
524.943	12528.67
525.31	12560.98
525.676	12553.75
526.043	12600.98
526.409	12534.32
526.776	12689.57
527.142	12661.55
527.508	12669.23
527.874	12657.93
528.241	12677.36
528.607	12697.7
528.973	12746.29
529.339	12680.3
529.705	12719.17
530.071	12819.73
530.437	12706.06
530.803	12780.41
531.169	12754.2
531.535	12680.08
531.901	12713.3
532.267	12694.31
532.632	12754.2
532.998	12686.63
533.364	12642.11
533.73	12623.13
534.095	12671.49
534.461	12674.65
534.826	12697.48
535.192	12640.3
535.557	12686.63
535.923	12621.32
536.288	12552.17
536.653	12581.55
537.019	12544.71
537.384	12548.33
537.749	12577.25
538.114	12452.51
538.479	12479.86
538.845	12429.91
539.21	12375.45
539.575	12344.49
539.94	12297.04
540.305	12328.67
540.67	12195.57
541.034	12225.4
541.399	12189.02
541.764	12137.27
542.129	12151.95
542.494	12187.89
542.858	12112.63
543.223	12048.68
543.587	12081.9
543.952	12082.8
544.316	11998.51
544.681	12038.51
545.045	11912.86
545.41	11998.29
545.774	11928.23
546.138	11860.21
546.503	11878.06
546.867	11775.69
547.231	11875.35
547.595	11730.27
547.959	11697.5
548.324	11658.86
548.688	11637.17
549.052	11653.44
549.416	11513.1
549.779	11554.23
550.143	11523.27
550.507	11593.33
550.871	11483.05
551.235	11493.44
551.599	11460.45
551.962	11405.99
552.326	11485.08
552.689	11473.78
553.053	11330.96
553.417	11370.05
553.78	11410.51
554.143	11309.49
554.507	11380.22
554.87	11334.35
555.234	11364.63
555.597	11240.11
555.96	11257.29
556.323	11237.4
556.686	11225.2
557.05	11238.98
557.413	11220.91
557.776	11218.65
558.139	11221.58
558.502	11187.91
558.865	11116.95
559.228	11169.61
559.59	11125.77
559.953	11153.11
560.316	11214.13
560.679	11154.92
561.041	11171.42
561.404	11194.24
561.767	11212.09
562.129	11099.33
562.492	11218.19
562.854	11160.79
563.217	11130.74
563.579	11184.52
563.941	11229.04
564.304	11236.72
564.666	11253.22
565.028	11284.18
565.39	11278.76
565.753	11261.13
566.115	11322.15
566.477	11387.45
566.839	11249.61
567.201	11405.99
567.563	11289.15
567.925	11348.59
568.287	11341.13
568.648	11380.45
569.01	11358.3
569.372	11398.75
569.734	11401.24
570.095	11407.57
570.457	11396.49
570.819	11401.24
571.18	11392.65
571.542	11418.41
571.903	11426.78
572.265	11516.04
572.626	11547
572.987	11539.32
573.349	11554.23
573.71	11543.16
574.071	11575.47
574.432	11509.71
574.794	11502.03
575.155	11515.14
575.516	11403.95
575.877	11478.3
576.238	11586.09
576.599	11560.11
576.96	11499.77
577.32	11528.24
577.681	11578.64
578.042	11506.77
578.403	11532.99
578.763	11565.98
579.124	11534.8
579.485	11580.67
579.845	11572.99
580.206	11572.31
580.566	11620.44
580.927	11602.59
581.287	11604.62
581.648	11540.45
582.008	11567.79
582.368	11568.47
582.728	11590.84
583.089	11580.22
583.449	11555.59
583.809	11557.62
584.169	11542.93
584.529	11547.22
584.889	11610.5
585.249	11522.59
585.609	11490.5
585.969	11530.05
586.329	11512.88
586.688	11586.32
587.048	11479.66
587.408	11458.19
587.768	11442.82
588.127	11445.76
588.487	11353.56
588.846	11486.66
589.206	11345.2
589.565	11392.43
589.925	11496.38
590.284	11382.94
590.643	11421.58
591.003	11436.95
591.362	11469.94
591.721	11429.71
592.08	11425.19
592.44	11407.12
592.799	11390.62
593.158	11433.1
593.517	11326.67
593.876	11367.12
594.235	11309.04
594.593	11326.44
594.952	11344.74
595.311	11258.19
595.67	11434.23
596.029	11394.69
596.387	11450.96
596.746	11349.49
597.104	11354.69
597.463	11387.91
597.822	11372.77
598.18	11341.58
598.538	11395.36
598.897	11453.67
599.255	11247.57
599.613	11406.89
599.972	11306.1
600.33	11340.45
600.688	11306.33
601.046	11255.71
601.404	11369.38
601.762	11322.82
602.12	11416.15
602.478	11359.66
602.836	11352.43
603.194	11284.18
603.552	11244.86
603.91	11310.39
604.268	11334.35
604.625	11417.06
604.983	11308.13
605.341	11355.59
605.698	11379.55
606.056	11450.73
606.413	11285.99
606.771	11415.93
607.128	11380.68
607.485	11290.96
607.843	11341.58
608.2	11379.09
608.557	11336.16
608.914	11376.38
609.272	11421.8
609.629	11415.7
609.986	11468.81
610.343	11395.82
610.7	11488.47
611.057	11434.01
611.414	11439.43
611.771	11411.86
612.127	11453.44
612.484	11488.7
612.841	11494.12
613.198	11483.72
613.554	11415.48
613.911	11506.1
614.267	11531.63
614.624	11537.28
614.98	11468.36
615.337	11551.97
615.693	11480.79
616.05	11498.41
616.406	11591.74
616.762	11575.47
617.118	11574.34
617.475	11591.29
617.831	11599.65
618.187	11593.78
618.543	11660.44
618.899	11622.93
619.255	11635.81
619.611	11634
619.967	11704.28
620.323	11708.35
620.678	11673.1
621.034	11678.07
621.39	11573.66
621.746	11661.12
622.101	11667.22
622.457	11552.2
622.812	11681.01
623.168	11603.04
623.523	11658.18
623.879	11637.62
624.234	11627.9
624.589	11645.3
624.945	11683.04
625.3	11651.85
625.655	11658.41
626.01	11680.78
626.365	11707.9
626.72	11698.18
627.075	11623.38
627.43	11563.5
627.785	11629.26
628.14	11702.7
628.495	11675.58
628.85	11666.77
629.205	11622.48
629.559	11710.84
629.914	11656.83
630.269	11636.26
630.623	11553.33
630.978	11569.6
631.332	11646.21
631.687	11574.12
632.041	11512.65
632.396	11507.45
632.75	11508.36
633.104	11531.63
633.459	11475.59
633.813	11525.76
634.167	11499.09
634.521	11355.82
634.875	11500.9
635.229	11429.71
635.583	11349.26
635.937	11470.84
636.291	11333.22
636.645	11315.59
636.999	11359.21
637.352	11402.82
637.706	11310.17
638.06	11350.62
638.413	11357.85
638.767	11307.46
639.121	11282.6
639.474	11260
639.828	11217.52
640.181	11207.12
640.534	11289.6
640.888	11158.76
641.241	11158.08
641.594	11183.39
641.947	11217.52
642.301	11206.67
642.654	11192.21
643.007	11114.24
643.36	11230.4
643.713	11083.96
644.066	11181.13
644.419	11071.76
644.771	11032.66
645.124	10927.81
645.477	10893.91
645.83	10900.24
646.182	10833.57
646.535	10787.24
646.888	10840.8
647.24	10809.62
647.593	10863.63
647.945	10850.97
648.298	10731.88
648.65	10818.88
649.002	10738.66
649.355	10697.3
649.707	10757.87
650.059	10776.17
650.411	10936.17
650.763	10979.56
651.115	11047.8
651.467	10968.26
651.819	10953.12
652.171	10999.22
652.523	11015.26
652.875	11001.25
653.227	10956.05
653.578	11011.87
653.93	10955.15
654.282	10929.16
654.633	10937.98
654.985	10925.55
655.337	10963.96
655.688	11034.7
656.039	11072.89
656.391	10983.85
656.742	10946.56
657.094	11016.62
657.445	11020.01
657.796	11063.4
658.147	10901.37
658.498	11048.25
658.849	11005.54
659.2	10941.36
659.551	10971.42
659.902	11031.98
660.253	10966.67
660.604	11079.44
660.955	11015.71
661.306	11006.22
661.656	11059.78
662.007	11076.28
662.358	10939.78
662.708	11060.91
663.059	11086.9
663.409	10971.19
663.76	11086.9
664.11	11079.67
664.461	11049.84
664.811	11064.98
665.161	10997.41
665.511	11071.76
665.862	11065.2
666.212	11067.24
666.562	11133.9
666.912	10979.1
667.262	11036.73
667.612	11001.25
667.962	11072.43
668.312	11021.81
668.662	11122.6
669.011	11060.46
669.361	11000.8
669.711	11008.26
670.06	10982.04
670.41	11038.31
670.76	10989.05
671.109	11003.06
671.459	10970.06
671.808	10989.73
672.157	11025.88
672.507	10994.02
672.856	10915.15
673.205	10887.35
673.554	11036.5
673.904	10939.78
674.253	11052.32
674.602	10934.36
674.951	10825.44
675.3	10730.97
675.649	10902.72
675.998	10945.88
676.346	10932.55
676.695	10977.3
677.044	10876.51
677.393	10870.86
677.741	10873.8
678.09	10912.44
678.438	10801.93
678.787	10828.6
679.135	10852.33
679.484	10790.63
679.832	10864.76
680.181	10792.22
680.529	10799
680.877	10703.41
681.225	10671.99
681.573	10724.65
681.922	10643.07
682.27	10610.07
682.618	10641.71
682.966	10575.72
683.314	10562.62
683.661	10582.28
684.009	10477.2
684.357	10502.05
684.705	10515.39
685.053	10489.63
685.4	10512.9
685.748	10343.64
686.095	10462.51
686.443	10414.83
686.79	10372.79
687.138	10389.97
687.485	10408.95
687.832	10342.96
688.18	10309.74
688.527	10225
688.874	10295.05
689.221	10203.98
689.568	10211.67
689.915	10183.87
690.262	10143.87
690.609	10102.06
690.956	10072.24
691.303	10100.93
691.65	10025.68
691.997	10063.2
692.344	9928.06
692.69	9918.34
693.037	9963.31
693.383	9834.95
693.73	9838.57
694.077	9802.41
694.423	9873.6
694.769	9781.4
695.116	9744.11
695.462	9643.32
695.808	9665.24
696.155	9649.65
696.501	9542.53
696.847	9579.59
697.193	9525.13
697.539	9536.66
697.885	9480.61
698.231	9427.96
698.577	9441.29
698.923	9382.99
699.269	9392.93
699.614	9320.62
699.96	9275.65
700.306	9214.63
700.651	9218.02
700.997	9148.42
701.342	9170.34
701.688	9119.04
702.033	9091.7
702.379	9051.92
702.724	8950.46
703.069	9037.46
703.415	8905.71
703.76	8945.03
704.105	8915.2
704.45	8938.03
704.795	8839.95
705.14	8823.91
705.485	8832.49
705.83	8764.25
706.175	8796.34
706.52	8730.8
706.865	8693.06
707.209	8696
707.554	8655.55
707.899	8635.21
708.243	8653.06
708.588	8660.07
708.932	8494.88
709.277	8515.67
709.621	8519.51
709.966	8481.77
710.31	8541.43
710.654	8416.23
710.998	8464.37
711.342	8421.66
711.687	8417.82
712.031	8379.85
712.375	8350.02
712.719	8349.79
713.063	8282.23
713.407	8333.75
713.75	8289.23
714.094	8280.64
714.438	8188.22
714.782	8200.65
715.125	8209.01
715.469	8273.41
715.812	8174.88
716.156	8211.95
716.499	8153.42
716.843	8161.32
717.186	8145.96
717.53	8124.72
717.873	8172.62
718.216	8092.85
718.559	8106.41
718.902	7995
719.246	8030.48
719.589	8030.25
719.932	8033.64
720.275	7975.34
720.617	7944.38
720.96	7945.74
721.303	7998.62
721.646	7953.19
721.989	7935.79
722.331	7922.69
722.674	7953.19
723.016	7917.04
723.359	7915
723.701	7918.85
724.044	7892.63
724.386	7850.82
724.729	7875.68
725.071	7884.04
725.413	7884.27
725.755	7858.73
726.097	7818.96
726.439	7762.24
726.782	7842.24
727.124	7807.21
727.465	7867.32
727.807	7821.9
728.149	7858.96
728.491	7820.77
728.833	7835.68
729.175	7802.69
729.516	7797.49
729.858	7771.28
730.199	7819.64
730.541	7713.2
730.882	7830.49
731.224	7829.58
731.565	7801.56
731.906	7763.14
732.248	7798.17
732.589	7758.62
732.93	7714.33
733.271	7741.22
733.612	7743.71
733.953	7836.81
734.294	7784.61
734.635	7801.56
734.976	7835.68
735.317	7796.14
735.658	7734.9
735.999	7778.06
736.339	7752.07
736.68	7797.72
737.021	7750.71
737.361	7815.8
737.702	7797.27
738.042	7778.28
738.383	7761.79
738.723	7813.76
739.063	7764.27
739.404	7831.39
739.744	7844.27
740.084	7879.75
740.424	7850.37
740.764	7818.74
741.104	7851.28
741.444	7820.09
741.784	7943.93
742.124	7906.87
742.464	7989.35
742.804	7880.43
743.143	7895.34
743.483	7987.09
743.823	8004.72
744.162	7994.1
744.502	8044.49
744.841	8005.85
745.181	8083.59
745.52	8050.14
745.86	8185.96
746.199	8101.89
746.538	8185.73
746.877	8316.8
747.216	8276.35
747.556	8305.73
747.895	8362.9
748.234	8416.01
748.573	8448.32
748.911	8479.51
749.25	8569.45
749.589	8682.89
749.928	8650.58
750.267	8753.63
750.605	8775.32
750.944	8823
751.283	8893.96
751.621	8969.21
751.96	8988.87
752.298	9162.65
752.636	9239.71
752.975	9299.6
753.313	9394.06
753.651	9545.92
753.989	9583.66
754.327	9647.61
754.666	9731.91
755.004	9902.52
755.342	9998.56
755.679	10129.18
756.017	10203.08
756.355	10377.31
756.693	10469.29
757.031	10643.97
757.368	10665.44
757.706	10882.84
758.044	10961.03
758.381	11128.7
758.719	11309.94
759.056	11411.86
759.394	11613.89
759.731	11675.58
760.068	11883.49
