Data from hue_20_FLMS001491_99.txt Node
Date: Mon Feb 06 15:35:01 GMT 2017
User: dcchb
Spectrometer: FLMS00149
Trigger mode: 0
Integration Time (sec): 2.000000E-2
Scans to average: 10
Electric dark correction enabled: true
Nonlinearity correction enabled: false
Boxcar width: 0
XAxis mode: Wavelengths
Number of Pixels in Spectrum: 2048
>>>>>Begin Spectral Data<<<<<
341.393	-0.25
341.776	-0.25
342.16	-0.25
342.543	-74.6
342.927	-68.05
343.31	-67.82
343.693	-77.77
344.077	-65.56
344.46	-56.75
344.843	-58.33
345.226	-33.47
345.61	-22.63
345.993	-14.27
346.376	15.79
346.759	13.76
347.142	31.38
347.525	37.03
347.908	54.66
348.291	66.64
348.674	88.78
349.057	88.56
349.44	118.61
349.823	153.64
350.206	151.83
350.588	185.28
350.971	194.09
351.354	231.38
351.737	247.2
352.119	236.35
352.502	266.86
352.884	282.68
353.267	279.29
353.65	289.23
354.032	292.17
354.414	322.45
354.797	320.42
355.179	321.55
355.562	320.42
355.944	332.17
356.326	341.43
356.709	361.54
357.091	345.95
357.473	355.22
357.855	355.67
358.238	348.21
358.62	356.57
359.002	349.57
359.384	325.16
359.766	327.19
360.148	360.19
360.53	352.28
360.912	357.25
361.294	352.73
361.676	335.78
362.057	323.35
362.439	347.08
362.821	324.71
363.203	324.93
363.584	319.51
363.966	313.41
364.348	335.78
364.729	315.9
365.111	314.54
365.493	322
365.874	336.01
366.256	312.73
366.637	325.39
367.019	310.92
367.4	326.06
367.781	318.16
368.163	329
368.544	321.09
368.925	313.64
369.306	347.76
369.688	321.55
370.069	312.96
370.45	321.32
370.831	323.81
371.212	317.93
371.593	332.39
371.974	310.92
372.355	317.25
372.736	331.71
373.117	323.13
373.498	309.34
373.879	333.75
374.26	314.31
374.641	328.55
375.021	340.53
375.402	336.46
375.783	338.27
376.163	329
376.544	356.57
376.925	346.18
377.305	344.37
377.686	327.87
378.066	333.07
378.447	331.04
378.827	340.08
379.208	343.92
379.588	348.89
379.968	343.24
380.349	336.91
380.729	329.68
381.109	354.54
381.489	354.31
381.87	326.52
382.25	357.25
382.63	356.8
383.01	354.09
383.39	346.63
383.77	362.9
384.15	360.41
384.53	345.95
384.91	370.81
385.29	345.5
385.67	364.71
386.049	369.91
386.429	356.12
386.809	369.91
387.189	368.32
387.568	365.16
387.948	372.17
388.328	376.46
388.707	371.26
389.087	353.63
389.466	376.91
389.846	369
390.225	378.72
390.605	375.1
390.984	383.92
391.363	384.59
391.743	398.83
392.122	391.6
392.501	409.45
392.881	386.63
393.26	397.48
393.639	391.37
394.018	417.36
394.397	394.09
394.776	401.54
395.155	399.74
395.534	417.36
395.913	409.45
396.292	405.84
396.671	392.73
397.05	416.46
397.429	394.54
397.808	409.45
398.186	420.3
398.565	410.13
398.944	406.74
399.323	416.68
399.701	439.73
400.08	422.79
400.458	413.97
400.837	445.16
401.215	415.78
401.594	424.37
401.972	425.72
402.351	429.34
402.729	441.77
403.107	441.32
403.486	445.61
403.864	412.84
404.242	462.56
404.62	439.51
404.999	447.19
405.377	439.06
405.755	446.06
406.133	459.17
406.511	473.86
406.889	461.65
407.267	480.86
407.645	467.3
408.023	464.37
408.401	449.45
408.779	447.42
409.156	473.18
409.534	472.5
409.912	497.59
410.29	490.35
410.667	483.57
411.045	494.2
411.422	491.03
411.8	483.57
412.178	522.44
412.555	508.43
412.933	526.74
413.31	501.65
413.687	522.44
414.065	521.31
414.442	516.79
414.819	542.78
415.197	530.35
415.574	546.4
415.951	546.62
416.328	544.59
416.705	531.26
417.082	573.52
417.46	551.6
417.837	551.37
418.214	546.4
418.591	567.19
418.967	579.62
419.344	546.62
419.721	577.36
420.098	554.08
420.475	592.72
420.852	573.74
421.228	612.16
421.605	597.02
421.982	577.58
422.358	602.44
422.735	597.24
423.111	607.41
423.488	605.61
423.864	613.06
424.241	639.73
424.617	616.23
424.994	627.98
425.37	613.51
425.746	607.64
426.123	660.07
426.499	645.38
426.875	632.95
427.251	651.93
427.627	675.43
428.003	648.77
428.379	653.74
428.756	684.25
429.132	681.99
429.507	692.16
429.883	685.83
430.259	692.61
430.635	685.38
431.011	689.9
431.387	696.45
431.763	724.02
432.138	725.83
432.514	736
432.89	738.26
433.265	750.23
433.641	776.9
434.016	766.51
434.392	766.96
434.767	789.33
435.143	789.1
435.518	792.27
435.894	794.75
436.269	802.21
436.644	784.13
437.02	801.08
437.395	803.79
437.77	857.8
438.145	810.57
438.52	821.87
438.895	840.63
439.271	861.87
439.646	881.98
440.021	861.64
440.395	884.69
440.77	857.12
441.145	853.51
441.52	895.77
441.895	891.93
442.27	887.41
442.645	881.76
443.019	908.65
443.394	911.59
443.769	913.85
444.143	949.1
444.518	925.6
444.892	941.87
445.267	943.22
445.641	948.42
446.016	943.22
446.39	939.61
446.764	945.48
447.139	957.23
447.513	954.75
447.887	981.64
448.262	971.02
448.636	988.65
449.01	1007.4
449.384	998.82
449.758	1003.11
450.132	1024.13
450.506	1033.16
450.88	1026.39
451.254	1012.83
451.628	1054.63
452.002	1043.56
452.376	1059.15
452.75	1050.79
453.123	1076.1
453.497	1082.43
453.871	1108.42
454.244	1086.95
454.618	1110
454.992	1104.8
455.365	1132.15
455.739	1146.38
456.112	1168.3
456.486	1158.13
456.859	1188.64
457.232	1215.76
457.606	1173.05
457.979	1206.27
458.352	1237
458.725	1247.85
459.099	1247.17
459.472	1260.96
459.845	1280.16
460.218	1296.66
460.591	1281.97
460.964	1301.41
461.337	1341.86
461.71	1354.29
462.083	1384.57
462.456	1365.81
462.829	1373.49
463.201	1410.56
463.574	1418.69
463.947	1399.93
464.32	1435.19
464.692	1479.93
465.065	1482.64
465.438	1495.07
465.81	1518.12
466.183	1525.81
466.555	1578.69
466.928	1563.55
467.3	1578.91
467.672	1602.64
468.045	1645.8
468.417	1661.17
468.789	1675.18
469.161	1685.35
469.534	1710.66
469.906	1735.07
470.278	1757.67
470.65	1755.41
471.022	1793.6
471.394	1815.74
471.766	1854.39
472.138	1870.43
472.51	1914.72
472.882	1927.38
473.253	1954.72
473.625	1975.29
473.997	2020.94
474.369	2029.52
474.74	2090.76
475.112	2101.39
475.484	2093.7
475.855	2161.72
476.227	2207.82
476.598	2239.91
476.97	2265
477.341	2348.61
477.713	2377.99
478.084	2373.92
478.455	2430.19
478.827	2469.51
479.198	2528.04
479.569	2529.85
479.94	2639.9
480.311	2639
480.682	2727.58
481.053	2766.23
481.424	2810.97
481.795	2827.92
482.166	2888.03
482.537	2937.07
482.908	2999.44
483.279	3038.99
483.65	3085.54
484.021	3160.57
484.391	3187.46
484.762	3229.49
485.133	3311.3
485.503	3330.28
485.874	3351.52
486.244	3428.58
486.615	3471.29
486.985	3494.34
487.356	3587.22
487.726	3673.32
488.097	3733.21
488.467	3740.21
488.837	3808.46
489.207	3831.96
489.578	3894.78
489.948	3964.61
490.318	4022.69
490.688	4059.53
491.058	4089.58
491.428	4142.69
491.798	4287.54
492.168	4287.54
492.538	4294.77
492.908	4395.56
493.278	4438.05
493.648	4471.72
494.017	4536.35
494.387	4551.49
494.757	4586.52
495.126	4598.72
495.496	4682.33
495.866	4745.16
496.235	4753.97
496.605	4831.71
496.974	4859.96
497.344	4888.2
497.713	4904.7
498.082	4950.58
498.452	5027.18
498.821	5064.92
499.19	5069.44
499.559	5148.54
499.928	5157.12
500.298	5164.58
500.667	5244.81
501.036	5255.43
501.405	5275.77
501.774	5323.9
502.143	5278.25
502.512	5399.15
502.88	5479.6
503.249	5435.76
503.618	5488.87
503.987	5505.36
504.356	5569.32
504.724	5549.43
505.093	5597.11
505.462	5626.49
505.83	5665.59
506.199	5702.65
506.567	5765.47
506.936	5755.98
507.304	5788.75
507.672	5787.16
508.041	5879.14
508.409	5923.21
508.777	5973.15
509.145	6018.12
509.514	5984.45
509.882	6091.11
510.25	6108.51
510.618	6109.19
510.986	6156.87
511.354	6229.64
511.722	6225.12
512.09	6233.03
512.458	6267.6
512.826	6335.62
513.193	6314.83
513.561	6343.08
513.929	6369.97
514.297	6493.59
514.664	6538.33
515.032	6540.36
515.4	6545.11
515.767	6539.01
516.135	6555.05
516.502	6540.14
516.869	6677.08
517.237	6711.89
517.604	6736.74
517.972	6778.55
518.339	6810.19
518.706	6845.44
519.073	6874.59
519.44	6921.37
519.808	6982.61
520.175	7000.24
520.542	7049.73
520.909	7077.98
521.276	7073.68
521.643	7164.53
522.009	7129.28
522.376	7206.79
522.743	7300.12
523.11	7254.47
523.477	7395.03
523.843	7400.68
524.21	7490.17
524.577	7561.81
524.943	7580.56
525.31	7646.32
525.676	7647.23
526.043	7643.84
526.409	7714.8
526.776	7805.64
527.142	7804.74
527.508	7879.54
527.874	7911.85
528.241	7922.02
528.607	7983.94
528.973	8110.04
529.339	8089.93
529.705	8138.51
530.071	8227.33
530.437	8286.99
530.803	8300.32
531.169	8326.08
531.535	8370.15
531.901	8400.88
532.267	8428
532.632	8463.03
532.998	8514.55
533.364	8530.59
533.73	8584.6
534.095	8694.88
534.461	8673.42
534.826	8742.57
535.192	8805.62
535.557	8833.41
535.923	8815.11
536.288	8907.53
536.653	8942.11
537.019	8964.93
537.384	8922
537.749	8966.52
538.114	9086.96
538.479	9070.02
538.845	9075.89
539.21	9126.29
539.575	9211.93
539.94	9140.3
540.305	9230.24
540.67	9246.06
541.034	9353.62
541.399	9382.78
541.764	9327.64
542.129	9417.58
542.494	9412.15
542.858	9458.48
543.223	9467.29
543.587	9522.89
543.952	9587.74
544.316	9622.09
544.681	9623.45
545.045	9634.29
545.41	9741.18
545.774	9745.7
546.138	9761.52
546.503	9863.89
546.867	9925.59
547.231	9960.84
547.595	9940.95
547.959	9965.13
548.324	9971.23
548.688	10000.84
549.052	9999.71
549.416	10109.76
549.779	10132.36
550.143	10181.62
550.507	10255.07
550.871	10249.42
551.235	10236.99
551.599	10283.09
551.962	10328.29
552.326	10388.17
552.689	10435.18
553.053	10500.03
553.417	10457.78
553.78	10617.77
554.143	10518.79
554.507	10576.64
554.87	10704.78
555.234	10740.48
555.597	10630.88
555.96	10746.58
556.323	10834.94
556.686	10805.79
557.05	10873.58
557.413	10897.09
557.776	10947.03
558.139	11025.44
558.502	11035.39
558.865	11036.07
559.228	11100.02
559.59	11159.45
559.953	11160.58
560.316	11305.66
560.679	11248.72
561.041	11362.84
561.404	11374.59
561.767	11521.93
562.129	11490.52
562.492	11521.02
562.854	11541.14
563.217	11479.67
563.579	11615.94
563.941	11729.15
564.304	11714.92
564.666	11751.08
565.028	11785.42
565.39	11825.42
565.753	11998.07
566.115	11978.41
566.477	11971.63
566.839	12115.81
567.201	12133.89
567.563	12127.34
567.925	12238.52
568.287	12249.14
568.648	12217.28
569.01	12360.55
569.372	12423.83
569.734	12315.35
570.095	12452.3
570.457	12522.13
570.819	12649.36
571.18	12591.73
571.542	12624.27
571.903	12727.77
572.265	12745.17
572.626	12762.57
572.987	12861.78
573.349	12908.78
573.71	12945.39
574.071	13070.81
574.432	13087.76
574.794	13257.7
575.155	13213.64
575.516	13224.71
575.877	13358.49
576.238	13384.93
576.599	13479.39
576.96	13575.21
577.32	13574.53
577.681	13600.07
578.042	13755.99
578.403	13871.92
578.763	13923.22
579.124	13927.97
579.485	14160.96
579.845	14281.86
580.206	14298.13
580.566	14290.22
580.927	14515.97
581.287	14697.89
581.648	14684.11
582.008	14902.4
582.368	15000.71
582.728	15054.49
583.089	15215.84
583.449	15314.82
583.809	15493.35
584.169	15717.07
584.529	15820.35
584.889	16060.79
585.249	16078.42
585.609	16243.16
585.969	16478.18
586.329	16653.55
586.688	16835.24
587.048	17088.11
587.408	17146.41
587.768	17348.89
588.127	17700.75
588.487	17839.05
588.846	18112.49
589.206	18176.44
589.565	18484.68
589.925	18722.64
590.284	19041.73
590.643	19239.01
591.003	19408.95
591.362	19790.19
591.721	20028.82
592.08	20271.08
592.44	20586.78
592.799	20800.1
593.158	20998.52
593.517	21201.45
593.876	21591.04
594.235	21826.97
594.593	22112.38
594.952	22488.19
595.311	22628.3
595.67	23010.67
596.029	23476.19
596.387	23732.46
596.746	24076.85
597.104	24224.19
597.463	24437.07
597.822	24800.22
598.18	25027.79
598.538	25395.46
598.897	25717.04
599.255	25807.2
599.613	26535.55
599.972	26588.43
600.33	26853.28
600.688	27102.31
601.046	27494.62
601.404	27780.48
601.762	28097.76
602.12	28462.05
602.478	28719.44
602.836	28997.18
603.194	29108.36
603.552	29478.29
603.91	29555.8
604.268	29993.76
604.625	30158.73
604.983	30561.43
605.341	30630.58
605.698	31135.65
606.056	31360.05
606.413	31548.75
606.771	31870.09
607.128	32162.52
607.485	32251.1
607.843	32614.71
608.2	32916.85
608.557	33338.76
608.914	33340.56
609.272	33689.71
609.629	33941.45
609.986	34303.48
610.343	34304.38
610.7	34817.14
611.057	34911.6
611.414	35115.88
611.771	35327.86
612.127	35554.74
612.484	35766.04
612.841	36136.87
613.198	36121.96
613.554	36160.15
613.911	36627.26
614.267	36818.66
614.624	36792.68
614.98	37232.67
615.337	37315.15
615.693	37453.68
616.05	37590.4
616.406	37875.81
616.762	37959.2
617.118	38093.43
617.475	38338.62
617.831	38468.34
618.187	38820.19
618.543	38929.34
618.899	39172.05
619.255	39196
619.611	39331.82
619.967	39572.26
620.323	39819.26
620.678	39643.22
621.034	39733.62
621.39	39828.53
621.746	39887.74
622.101	40427.61
622.457	40193.49
622.812	40339.93
623.168	40572.24
623.523	40707.38
623.879	40850.2
624.234	40643.2
624.589	40981.72
624.945	41003.19
625.3	41178.55
625.655	41114.6
626.01	41341.71
626.365	41347.59
626.72	41286.12
627.075	41462.61
627.43	41525.43
627.785	41400.69
628.14	41643.62
628.495	41830.74
628.85	41785.99
629.205	41734.24
629.559	41990.73
629.914	41859.89
630.269	42003.61
630.623	41786.22
630.978	41912.99
631.332	42031.41
631.687	42162.93
632.041	41974.46
632.396	42086.55
632.75	41934.46
633.104	42162.7
633.459	42009.71
633.813	42144.4
634.167	42115.02
634.521	42196.6
634.875	42233.66
635.229	42196.15
635.583	42102.59
635.937	41995.48
636.291	41985.99
636.645	42139.2
636.999	42220.56
637.352	42144.4
637.706	41982.82
638.06	42040.9
638.413	42087.68
638.767	42036.61
639.121	41994.57
639.474	41942.15
639.828	42053.1
640.181	41983.95
640.534	42105.31
640.888	42077.74
641.241	41934.24
641.594	41907.34
641.947	42051.07
642.301	41938.98
642.654	42032.54
643.007	42103.05
643.36	41959.55
643.713	41905.31
644.066	42119.54
644.419	41867.35
644.771	41709.16
645.124	41158.44
645.477	41298.32
645.83	40988.95
646.182	40828.5
646.535	40773.14
646.888	40798.22
647.24	40470.32
647.593	40768.39
647.945	40770.65
648.298	40559.36
648.65	40540.6
649.002	40576.08
649.355	40668.73
649.707	40724.78
650.059	40665.8
650.411	41197.08
650.763	41253.12
651.115	41669.16
651.467	41496.51
651.819	41546.22
652.171	41361.14
652.523	41329.51
652.875	41387.13
653.227	41145.1
653.578	41507.35
653.93	41392.78
654.282	41249.06
654.633	41149.62
654.985	41231.66
655.337	41322.5
655.688	41361.6
656.039	41342.16
656.391	41064.2
656.742	41120.92
657.094	41103.07
657.445	41318.89
657.796	41229.4
658.147	41013.13
658.498	41124.31
658.849	41256.74
659.2	41191.43
659.551	41092.9
659.902	41216.29
660.253	41101.04
660.604	41141.49
660.955	41049.29
661.306	41161.15
661.656	40983.98
662.007	41001.83
662.358	40954.15
662.708	41108.27
663.059	41167.93
663.409	40780.37
663.76	41044.99
664.11	41069.85
664.461	40980.82
664.811	41076.86
665.161	40983.98
665.511	40891.55
665.862	40933.13
666.212	41151.21
666.562	41118.66
666.912	40855.62
667.262	41005.67
667.612	40974.04
667.962	40948.95
668.312	40903.08
668.662	41149.4
669.011	40929.07
669.361	40886.81
669.711	40959.35
670.06	40932.68
670.41	40806.58
670.76	40645.91
671.109	40875.96
671.459	40738.34
671.808	40785.34
672.157	40927.94
672.507	40535.63
672.856	40570.66
673.205	40742.18
673.554	40750.99
673.904	40779.46
674.253	40966.35
674.602	40706.02
674.951	40144.45
675.3	39998.92
675.649	40653.14
675.998	40593.71
676.346	40530.88
676.695	40630.32
677.044	40322.53
677.393	40507.61
677.741	40505.12
678.09	40420.38
678.438	40156.43
678.787	40373.83
679.135	40434.16
679.484	40138.35
679.832	40206.82
680.181	39994.63
680.529	40079.37
680.877	40124.11
681.225	39990.11
681.573	40187.39
681.922	39933.39
682.27	39882.09
682.618	39929.32
682.966	39691.36
683.314	39838.92
683.661	39684.8
684.009	39570.91
684.357	39478.03
684.705	39427.18
685.053	39638.03
685.4	39410.01
685.748	39377.69
686.095	39320.97
686.443	39050.02
686.79	39057.25
687.138	39200.3
687.485	39177.02
687.832	38960.98
688.18	39005.27
688.527	38839.63
688.874	38838.27
689.221	38866.29
689.568	38507.89
689.915	38506.08
690.262	38538.17
690.609	38462.92
690.956	38282.13
691.303	38171.17
691.65	38057.95
691.997	38194.9
692.344	37749.04
692.69	37806.21
693.037	37848.69
693.383	37505.65
693.73	37607.34
694.077	37554.01
694.423	37467.46
694.769	37312.44
695.116	37345.88
695.462	37261.82
695.808	37113.8
696.155	37116.06
696.501	37038.32
696.847	36860.25
697.193	36742.51
697.539	36789.06
697.885	36491.22
698.231	36495.06
698.577	36367.15
698.923	36395.85
699.269	36134.61
699.614	36044.22
699.96	35871.57
700.306	35930.33
700.651	35822.31
700.997	35687.39
701.342	35712.03
701.688	35711.58
702.033	35494.41
702.379	35488.98
702.724	35320.85
703.069	35303.45
703.415	34941.65
703.76	35105.72
704.105	34947.53
704.45	34999.73
704.795	34732.84
705.14	34613.98
705.485	34552.06
705.83	34435
706.175	34523.58
706.52	34489.01
706.865	34421.44
707.209	34304.83
707.554	34268
707.899	34386.41
708.243	34159.53
708.588	34083.37
708.932	33813.32
709.277	33744.62
709.621	33722.47
709.966	33671.63
710.31	33822.59
710.654	33474.57
710.998	33474.8
711.342	33423.27
711.687	33312.32
712.031	33226.44
712.375	33033.68
712.719	33174.69
713.063	33116.16
713.407	33288.59
713.75	32971.31
714.094	32866.23
714.438	32812.22
714.782	32743.07
715.125	32668.94
715.469	32671.43
715.812	32468.5
716.156	32336.07
716.499	32450.64
716.843	32645.44
717.186	32153.48
717.53	32428.72
717.873	32384.43
718.216	32250.2
718.559	32153.02
718.902	31960.94
719.246	32029.41
719.589	31807.27
719.932	31783.54
720.275	31759.81
720.617	31766.37
720.96	31690.89
721.303	31618.12
721.646	31674.17
721.989	31424.23
722.331	31534.96
722.674	31438.02
723.016	31528.86
723.359	31445.25
723.701	31336.77
724.044	31184.46
724.386	30953.06
724.729	31110.57
725.071	31028.99
725.413	31130.23
725.755	31020.63
726.097	30878.71
726.439	30779.73
726.782	30868.99
727.124	30923.45
727.465	30657.02
727.807	30734.3
728.149	30667.41
728.491	30697.92
728.833	30621.77
729.175	30363.92
729.516	30536.12
729.858	30401.43
730.199	30359.17
730.541	30287.31
730.882	30329.8
731.224	30314.2
731.565	30173.64
731.906	30100.42
732.248	30217.26
732.589	29952.63
732.93	29974.78
733.271	30092.74
733.612	30039.18
733.953	29960.54
734.294	29850.26
734.635	29767.32
734.976	29846.19
735.317	29727.1
735.658	29641.9
735.999	29734.56
736.339	29642.58
736.68	29688.91
737.021	29632.19
737.361	29579.98
737.702	29627.44
738.042	29454.79
738.383	29414.11
738.723	29466.54
739.063	29228.81
739.404	29381.12
739.744	29294.34
740.084	29271.52
740.424	29161.24
740.764	29053.45
741.104	29279.88
741.444	29077.85
741.784	28995.14
742.124	29061.13
742.464	28840.34
742.804	28980.68
743.143	28809.38
743.483	28872.43
743.823	28701.59
744.162	28779.78
744.502	28628.15
744.841	28602.38
745.181	28763.51
745.52	28667.47
745.86	28581.37
746.199	28447.13
746.538	28527.13
746.877	28597.19
747.216	28463.4
747.556	28484.42
747.895	28393.12
748.234	28266.35
748.573	28331.2
748.911	28337.08
749.25	28189.06
749.589	28242.84
749.928	28165.78
750.267	28184.99
750.605	28071.55
750.944	28042.17
751.283	27970.08
751.621	28088.95
751.96	27991.78
752.298	27872.46
752.636	27876.75
752.975	27704.1
753.313	27604.9
753.651	27849.63
753.989	27572.35
754.327	27637.21
754.666	27441.96
755.004	27580.49
755.342	27392.02
755.679	27466.37
756.017	27304.56
756.355	27391.34
756.693	27275.64
757.031	27343.21
757.368	26998.13
757.706	27075.87
758.044	26995.87
758.381	26952.71
758.719	26841.07
