Data from hue_10_FLMS001491_41.txt Node
Date: Mon Feb 06 15:31:57 GMT 2017
User: dcchb
Spectrometer: FLMS00149
Trigger mode: 0
Integration Time (sec): 2.000000E-2
Scans to average: 10
Electric dark correction enabled: true
Nonlinearity correction enabled: false
Boxcar width: 0
XAxis mode: Wavelengths
Number of Pixels in Spectrum: 2048
>>>>>Begin Spectral Data<<<<<
341.393	12.17
341.776	12.17
342.16	12.17
342.543	-65.56
342.927	-70.31
343.31	-83.87
343.693	-80.25
344.077	-71.66
344.46	-71.89
344.843	-43.42
345.226	-36.19
345.61	-33.25
345.993	-25.34
346.376	4.72
346.759	11.5
347.142	13.53
347.525	59.63
347.908	64.83
348.291	68.44
348.674	96.92
349.057	126.3
349.44	131.72
349.823	132.85
350.206	172.85
350.588	203.36
350.971	209.91
351.354	239.29
351.737	218.95
352.119	240.42
352.502	255.56
352.884	254.43
353.267	275.22
353.65	296.01
354.032	314.99
354.414	299.85
354.797	334.88
355.179	329.68
355.562	330.58
355.944	310.92
356.326	343.24
356.709	355.67
357.091	316.35
357.473	347.31
357.855	341.88
358.238	340.3
358.62	345.5
359.002	335.78
359.384	330.36
359.766	332.39
360.148	335.33
360.53	337.14
360.912	330.58
361.294	329.91
361.676	335.1
362.057	327.19
362.439	348.66
362.821	335.33
363.203	338.27
363.584	318.16
363.966	331.04
364.348	319.29
364.729	334.2
365.111	332.62
365.493	334.2
365.874	317.93
366.256	324.93
366.637	311.6
367.019	300.3
367.4	312.73
367.781	330.58
368.163	294.88
368.544	305.27
368.925	309.34
369.306	318.38
369.688	316.12
370.069	305.95
370.45	324.93
370.831	302.79
371.212	314.09
371.593	319.96
371.974	324.03
372.355	319.96
372.736	322.45
373.117	305.5
373.498	321.32
373.879	312.05
374.26	312.05
374.641	311.15
375.021	319.74
375.402	318.83
375.783	308.89
376.163	331.04
376.544	325.61
376.925	326.29
377.305	322.9
377.686	299.4
378.066	338.72
378.447	346.63
378.827	326.74
379.208	321.32
379.588	330.13
379.968	331.04
380.349	334.65
380.729	340.98
381.109	346.63
381.489	348.21
381.87	328.32
382.25	314.77
382.63	323.58
383.01	318.61
383.39	337.82
383.77	340.53
384.15	336.46
384.53	333.3
384.91	344.6
385.29	362.9
385.67	341.88
386.049	340.08
386.429	332.62
386.809	358.83
387.189	354.76
387.568	352.96
387.948	341.21
388.328	350.7
388.707	341.21
389.087	322
389.466	352.05
389.846	340.08
390.225	362.67
390.605	346.18
390.984	353.41
391.363	374.65
391.743	361.32
392.122	361.09
392.501	364.26
392.881	371.26
393.26	357.25
393.639	358.83
394.018	384.82
394.397	382.11
394.776	388.89
395.155	358.38
395.534	364.71
395.913	357.25
396.292	360.41
396.671	368.55
397.05	358.15
397.429	364.71
397.808	375.33
398.186	377.81
398.565	357.7
398.944	381.66
399.323	371.04
399.701	389.57
400.08	385.05
400.458	378.04
400.837	381.66
401.215	363.13
401.594	384.14
401.972	393.86
402.351	393.86
402.729	384.82
403.107	384.14
403.486	396.35
403.864	388.21
404.242	397.93
404.62	418.04
404.999	406.29
405.377	383.01
405.755	419.4
406.133	404.25
406.511	412.62
406.889	400.87
407.267	407.87
407.645	392.05
408.023	425.27
408.401	423.01
408.779	421.2
409.156	424.37
409.534	446.51
409.912	418.94
410.29	421.43
410.667	412.39
411.045	409.9
411.422	434.31
411.8	433.41
412.178	454.2
412.555	439.28
412.933	458.49
413.31	467.08
413.687	453.97
414.065	422.33
414.442	472.28
414.819	460.98
415.197	460.3
415.574	445.84
415.951	455.55
416.328	470.69
416.705	455.1
417.082	468.66
417.46	466.17
417.837	488.77
418.214	479.73
418.591	475.44
418.967	490.81
419.344	491.03
419.721	475.89
420.098	475.89
420.475	501.88
420.852	489.68
421.228	493.07
421.605	506.17
421.982	529.22
422.358	514.99
422.735	492.61
423.111	494.42
423.488	514.99
423.864	503.01
424.241	528.55
424.617	526.29
424.994	528.32
425.37	527.64
425.746	523.57
426.123	525.61
426.499	536.91
426.875	535.1
427.251	534.65
427.627	547.53
428.003	556.57
428.379	552.95
428.756	564.25
429.132	556.34
429.507	550.24
429.883	563.57
430.259	573.97
430.635	575.32
431.011	584.14
431.387	584.14
431.763	578.71
432.138	592.27
432.514	596.11
432.89	602.67
433.265	612.16
433.641	620.29
434.016	600.41
434.392	601.31
434.767	625.04
435.143	618.26
435.518	621.65
435.894	630.46
436.269	642.21
436.644	642.67
437.02	655.55
437.395	635.44
437.77	645.6
438.145	650.35
438.52	675.43
438.895	668.43
439.271	672.04
439.646	677.92
440.021	659.39
440.395	692.16
440.77	690.58
441.145	693.51
441.52	709.33
441.895	708.2
442.27	711.14
442.645	702.1
443.019	699.61
443.394	700.52
443.769	706.17
444.143	701.65
444.518	703.91
444.892	751.14
445.267	727.64
445.641	726.51
446.016	728.99
446.39	734.87
446.764	723.12
447.139	730.35
447.513	760.4
447.887	760.63
448.262	740.07
448.636	737.13
449.01	733.29
449.384	764.25
449.758	763.57
450.132	732.38
450.506	765.83
450.88	775.32
451.254	768.09
451.628	781.42
452.002	797.92
452.376	785.04
452.75	795.43
453.123	795.43
453.497	791.82
453.871	812.38
454.244	821.87
454.618	835.88
454.992	861.87
455.365	852.6
455.739	851.02
456.112	880.17
456.486	867.75
456.859	863.23
457.232	870.91
457.606	876.33
457.979	889.44
458.352	926.28
458.725	917.01
459.099	902.77
459.472	910.91
459.845	921.08
460.218	924.02
460.591	964.01
460.964	964.69
461.337	989.32
461.71	970.57
462.083	954.97
462.456	1003.79
462.829	964.47
463.201	996.56
463.574	1045.14
463.947	1003.79
464.32	1063.45
464.692	1043.11
465.065	1059.6
465.438	1078.81
465.81	1100.73
466.183	1114.74
466.555	1123.56
466.928	1146.83
467.3	1124.46
467.672	1129.21
468.045	1168.98
468.417	1136.89
468.789	1159.26
469.161	1185.03
469.534	1184.12
469.906	1204.01
470.278	1246.49
470.65	1245.81
471.022	1281.29
471.394	1301.86
471.766	1298.47
472.138	1326.26
472.51	1357
472.882	1356.77
473.253	1349.54
473.625	1374.62
473.997	1429.99
474.369	1418.47
474.74	1436.09
475.112	1481.74
475.484	1504.56
475.855	1519.93
476.227	1505.69
476.598	1574.17
476.97	1600.38
477.341	1608.07
477.713	1677.22
478.084	1653.49
478.455	1700.49
478.827	1734.16
479.198	1780.49
479.569	1783.43
479.94	1837.21
480.311	1881.96
480.682	1887.15
481.053	1933.71
481.424	1971.9
481.795	1998.34
482.166	2003.31
482.537	2043.76
482.908	2115.85
483.279	2108.39
483.65	2188.39
484.021	2239.91
484.391	2248.73
484.762	2304.32
485.133	2303.87
485.503	2384.99
485.874	2421.38
486.244	2413.47
486.615	2479
486.985	2509.51
487.356	2591.32
487.726	2619.11
488.097	2622.95
488.467	2632.67
488.837	2752.44
489.207	2845.55
489.578	2809.16
489.948	2860.69
490.318	2928.03
490.688	2882.38
491.058	2962.38
491.428	3025.43
491.798	3017.52
492.168	3059.78
492.538	3082.38
492.908	3155.14
493.278	3193.56
493.648	3245.99
494.017	3288.7
494.387	3294.8
494.757	3367.79
495.126	3369.6
495.496	3401.01
495.866	3416.61
496.235	3419.77
496.605	3481.46
496.974	3505.64
497.344	3574.12
497.713	3614.34
498.082	3614.79
498.452	3665.41
498.821	3678.29
499.19	3683.72
499.559	3695.69
499.928	3723.49
500.298	3733.21
500.667	3803.49
501.036	3820.44
501.405	3847.33
501.774	3822.47
502.143	3882.36
502.512	3899.3
502.88	3917.16
503.249	3888.91
503.618	3932.3
503.987	3973.43
504.356	3999.64
504.724	3998.28
505.093	3996.02
505.462	4041.9
505.83	4105.85
506.199	4092.07
506.567	4173.65
506.936	4165.74
507.304	4195.12
507.672	4236.47
508.041	4257.71
508.409	4261.1
508.777	4276.92
509.145	4315.34
509.514	4307.66
509.882	4285.73
510.25	4333.19
510.618	4370.25
510.986	4352.4
511.354	4429.23
511.722	4406.86
512.09	4442.79
512.458	4455.67
512.826	4502.23
513.193	4488.22
513.561	4473.98
513.929	4493.64
514.297	4561.21
514.664	4561.21
515.032	4594.2
515.4	4588.55
515.767	4632.84
516.135	4632.17
516.502	4618.38
516.869	4685.5
517.237	4684.59
517.604	4664.03
517.972	4693.63
518.339	4702.22
518.706	4749.23
519.073	4747.87
519.44	4765.04
519.808	4845.72
520.175	4810.47
520.542	4842.78
520.909	4875.55
521.276	4804.37
521.643	4878.49
522.009	4922.1
522.376	4930.46
522.743	4924.81
523.11	4953.06
523.477	5015.89
523.843	5036.68
524.21	5054.08
524.577	5058.14
524.943	5109.89
525.31	5049.1
525.676	5181.08
526.043	5137.69
526.409	5199.16
526.776	5190.8
527.142	5233.51
527.508	5277.8
527.874	5301.98
528.241	5303.34
528.607	5328.42
528.973	5383.56
529.339	5369.32
529.705	5452.71
530.071	5494.74
530.437	5497.91
530.803	5507.17
531.169	5544.68
531.535	5590.56
531.901	5600.73
532.267	5544.23
532.632	5621.97
532.998	5666.49
533.364	5697.22
533.73	5657.9
534.095	5715.53
534.461	5732.93
534.826	5745.81
535.192	5764.11
535.557	5835.52
535.923	5784.45
536.288	5858.35
536.653	5873.49
537.019	5889.99
537.384	5869.87
537.749	5939.48
538.114	5978.8
538.479	5913.94
538.845	5985.35
539.21	5960.94
539.575	6014.95
539.94	6036.2
540.305	6048.85
540.67	6081.17
541.034	6105.12
541.399	6158
541.764	6148.96
542.129	6222.63
542.494	6211.11
542.858	6258.34
543.223	6279.58
543.587	6297.89
543.952	6299.92
544.316	6332.46
544.681	6367.04
545.045	6364.1
545.41	6430.09
545.774	6410.42
546.138	6444.55
546.503	6425.11
546.867	6463.08
547.231	6520.03
547.595	6582.4
547.959	6574.26
548.324	6652.45
548.688	6614.04
549.052	6697.2
549.416	6713.47
549.779	6679.8
550.143	6712.79
550.507	6756.4
550.871	6804.54
551.235	6735.84
551.599	6838.89
551.962	6831.66
552.326	6856.06
552.689	6861.49
553.053	6828.04
553.417	6892.22
553.78	6936.96
554.143	6970.41
554.507	7014.7
554.87	6984.65
555.234	7077.07
555.597	7050.86
555.96	7071.2
556.323	7082.95
556.686	7124.08
557.05	7161.14
557.413	7109.16
557.776	7186.68
558.139	7221.93
558.502	7199.1
558.865	7238.43
559.228	7286.79
559.59	7316.84
559.953	7288.14
560.316	7370.85
560.679	7316.16
561.041	7404.3
561.404	7429.61
561.767	7481.13
562.129	7450.4
562.492	7529.94
562.854	7555.48
563.217	7521.36
563.579	7494.69
563.941	7619.66
564.304	7622.6
564.666	7704.85
565.028	7627.12
565.39	7692.2
565.753	7738.07
566.115	7805.42
566.477	7774.46
566.839	7818.07
567.201	7870.95
567.563	7851.06
567.925	7953.43
568.287	7931.29
568.648	7912.08
569.01	7979.2
569.372	8053.77
569.734	8021.23
570.095	8119.76
570.457	8133.77
570.819	8190.94
571.18	8208.34
571.542	8247.66
571.903	8290.6
572.265	8348.9
572.626	8390.03
572.987	8354.1
573.349	8374.21
573.71	8511.39
574.071	8516.36
574.432	8587.99
574.794	8707.31
575.155	8699.63
575.516	8730.14
575.877	8815.56
576.238	8793.86
576.599	8981.66
576.96	9043.12
577.32	9073.41
577.681	9112.5
578.042	9200.86
578.403	9334.19
578.763	9408.99
579.124	9523.11
579.485	9655.99
579.845	9717.23
580.206	9836.78
580.566	9952.03
580.927	10079.71
581.287	10143.21
581.648	10310.21
582.008	10412.13
582.368	10530.09
582.728	10750.42
583.089	10935.28
583.449	11129.17
583.809	11224.08
584.169	11386.34
584.529	11535.04
584.889	11881.69
585.249	11931.41
585.609	12059.32
585.969	12418.85
586.329	12635.35
586.688	12840.09
587.048	13072.85
587.408	13327.3
587.768	13523.91
588.127	13840.74
588.487	13983.11
588.846	14334.28
589.206	14520.95
589.565	14742.63
589.925	15145.34
590.284	15378.78
590.643	15692.89
591.003	15992.32
591.362	16334.91
591.721	16609.48
592.08	16863.94
592.44	17211.95
592.799	17496.23
593.158	17756.12
593.517	18089.67
593.876	18488.98
594.235	18738.91
594.593	19138.45
594.952	19422.51
595.311	19658.44
595.67	20049.84
596.029	20622.03
596.387	20904.51
596.746	21225.85
597.104	21438.28
597.463	21756.69
597.822	22283.23
598.18	22401.87
598.538	22804.34
598.897	23206.37
599.255	23339.02
599.613	23999.57
599.972	24202.73
600.33	24569.27
600.688	24937.85
601.046	25210.83
601.404	25585.51
601.762	25845.62
602.12	26296.23
602.478	26623.45
602.836	26924.91
603.194	27128.3
603.552	27453.26
603.91	27694.84
604.268	28061.38
604.625	28345.22
604.983	28670.63
605.341	28988.14
605.698	29314.91
606.056	29674.45
606.413	29847.55
606.771	30299.29
607.128	30463.35
607.485	30683.91
607.843	30927.97
608.2	31426.26
608.557	31743.09
608.914	31749.19
609.272	32357.99
609.629	32556.4
609.986	32858.77
610.343	33011.53
610.7	33507.57
611.057	33594.34
611.414	33758.41
611.771	34114.33
612.127	34332.18
612.484	34448.78
612.841	34691.71
613.198	34863.69
613.554	35109.56
613.911	35592.48
614.267	35585.02
614.624	35785.47
614.98	35995.86
615.337	36315.4
615.693	36449.86
616.05	36672.91
616.406	36869.96
616.762	36942.96
617.118	37114.93
617.475	37202.16
617.831	37502.04
618.187	37685.53
618.543	37835.81
618.899	38322.13
619.255	38333.43
619.611	38387.21
619.967	38649.35
620.323	38806.18
620.678	38766.86
621.034	38783.36
621.39	38951.04
621.746	39097.02
622.101	39672.83
622.457	39438.48
622.812	39504.47
623.168	39813.39
623.523	39818.81
623.879	40022.2
624.234	39762.77
624.589	40317.33
624.945	40231.46
625.3	40395.97
625.655	40370.21
626.01	40599.13
626.365	40756.64
626.72	40706.25
627.075	40685
627.43	40759.35
627.785	40906.24
628.14	41012.9
628.495	41043.19
628.85	40966.58
629.205	41017.2
629.559	41378.77
629.914	41184.2
630.269	41172.22
630.623	41370.64
630.978	41254.25
631.332	41460.58
631.687	41583.06
632.041	41463.51
632.396	41601.82
632.75	41420.58
633.104	41672.32
633.459	41391.2
633.813	41507.13
634.167	41481.14
634.521	41550.97
634.875	41561.59
635.229	41674.58
635.583	41532.89
635.937	41503.06
636.291	41430.07
636.645	41527.92
636.999	41461.48
637.352	41638.65
637.706	41348.04
638.06	41711.64
638.413	41577.41
638.767	41571.53
639.121	41600.46
639.474	41471.65
639.828	41438.2
640.181	41569.05
640.534	41662.15
640.888	41383.97
641.241	41373.12
641.594	41351.2
641.947	41637.07
642.301	41446.11
642.654	41552.78
643.007	41553.91
643.36	41429.62
643.713	41427.58
644.066	41587.35
644.419	41295.84
644.771	41077.08
645.124	40754.15
645.477	40752.57
645.83	40570.2
646.182	40242.98
646.535	40357.33
646.888	40339.48
647.24	40111.69
647.593	40244.11
647.945	40295.86
648.298	40081.63
648.65	40035.76
649.002	40197.78
649.355	40161.85
649.707	40119.82
650.059	40299.03
650.411	40784.66
650.763	40741.27
651.115	41173.58
651.467	40982.17
651.819	41005.22
652.171	40902.17
652.523	41033.92
652.875	41019.91
653.227	40879.12
653.578	41044.32
653.93	40868.28
654.282	40936.75
654.633	40828.28
654.985	40809.75
655.337	40845.9
655.688	40882.96
656.039	41021.27
656.391	40482.3
656.742	40689.75
657.094	40742.86
657.445	40919.35
657.796	40691.11
658.147	40596.19
658.498	40715.06
658.849	40707.38
659.2	40774.27
659.551	40616.98
659.902	40764.55
660.253	40733.36
660.604	40692.69
660.955	40433.94
661.306	40692.46
661.656	40672.35
662.007	40571.11
662.358	40654.95
662.708	40726.58
663.059	40658.11
663.409	40353.94
663.76	40753.48
664.11	40486.14
664.461	40657.43
664.811	40744.44
665.161	40612.46
665.511	40621.5
665.862	40580.6
666.212	40606.14
666.562	40659.92
666.912	40621.5
667.262	40545.12
667.612	40689.52
667.962	40541.28
668.312	40469.42
668.662	40597.32
669.011	40453.15
669.361	40386.93
669.711	40441.39
670.06	40462.41
670.41	40288.4
670.76	40314.39
671.109	40522.97
671.459	40510.09
671.808	40375.86
672.157	40363.66
672.507	40262.64
672.856	40147.62
673.205	40334.73
673.554	40406.14
673.904	40215.64
674.253	40356.65
674.602	40185.13
674.951	39765.03
675.3	39611.59
675.649	40184.68
675.998	40203.21
676.346	40184.45
676.695	40250.44
677.044	39873.27
677.393	40122.08
677.741	40084.34
678.09	40079.6
678.438	39906.49
678.787	40014.51
679.135	39963.67
679.484	39690.45
679.832	39852.48
680.181	39635.54
680.529	39882.09
680.877	39719.38
681.225	39753.95
681.573	39968.64
681.922	39560.97
682.27	39488.88
682.618	39406.17
682.966	39511.7
683.314	39464.02
683.661	39233.29
684.009	39274.87
684.357	39235.55
684.705	39214.53
685.053	39179.73
685.4	39125.27
685.748	38911.94
686.095	38869.68
686.443	38698.16
686.79	38623.59
687.138	38871.04
687.485	38722.12
687.832	38581.78
688.18	38480.09
688.527	38363.71
688.874	38427.21
689.221	38359.19
689.568	38274.67
689.915	38111.06
690.262	38149.48
690.609	38095.92
690.956	38007.33
691.303	37892.76
691.65	37727.12
691.997	37851.63
692.344	37450.29
692.69	37508.59
693.037	37488.93
693.383	37080.13
693.73	37408.03
694.077	37170.29
694.423	37066.34
694.769	36938.89
695.116	36919.9
695.462	36920.13
695.808	36608.95
696.155	36934.37
696.501	36451.22
696.847	36557.2
697.193	36258.68
697.539	36359.69
697.885	36129.87
698.231	36157.21
698.577	36058.68
698.923	36026.82
699.269	35981.62
699.614	35717.45
699.96	35782.31
700.306	35640.62
700.651	35427.29
700.997	35330.34
701.342	35417.35
701.688	35377.8
702.033	35152.04
702.379	35151.36
702.724	34910.92
703.069	35104.13
703.415	34641.55
703.76	34769.45
704.105	34778.27
704.45	34591.6
704.795	34388.45
705.14	34238.17
705.485	34380.99
705.83	34188.45
706.175	34179.19
706.52	34086.53
706.865	34007.21
707.209	33837.05
707.554	33828.01
707.899	33941.23
708.243	33780.1
708.588	33660.78
708.932	33512.54
709.277	33421.47
709.621	33440
709.966	33183.28
710.31	33299.66
710.654	33191.19
710.998	33190.29
711.342	33126.11
711.687	32941.7
712.031	32855.15
712.375	32820.13
712.719	32769.05
713.063	32667.81
713.407	32896.28
713.75	32702.39
714.094	32650.41
714.438	32451.32
714.782	32544.88
715.125	32347.82
715.469	32432.34
715.812	32135.4
716.156	32013.37
716.499	32099.92
716.843	32160.03
717.186	31909.19
717.53	32007.72
717.873	31972.01
718.216	32011.79
718.559	31809.76
718.902	31622.87
719.246	31687.05
719.589	31637.56
719.932	31412.25
720.275	31466.04
720.617	31513.72
720.96	31478.01
721.303	31334.29
721.646	31345.14
721.989	31172.94
722.331	31263.33
722.674	31242.99
723.016	31378.81
723.359	31085.48
723.701	31101.75
724.044	30776.11
724.386	30805.49
724.729	30836.68
725.071	30749.67
725.413	30749.67
725.755	30581.99
726.097	30531.82
726.439	30499.06
726.782	30468.78
727.124	30598.72
727.465	30328.44
727.807	30371.38
728.149	30436.46
728.491	30245.05
728.833	30231.95
729.175	30104.72
729.516	30103.36
729.858	30104.72
730.199	30087.54
730.541	30057.94
730.882	29990.6
731.224	30143.36
731.565	29873.54
731.906	29870.37
732.248	29809.36
732.589	29676.48
732.93	29538.63
733.271	29671.51
733.612	29621.57
733.953	29761.9
734.294	29494.34
734.635	29429.48
734.976	29573.43
735.317	29500.66
735.658	29354
735.999	29316.26
736.339	29329.37
736.68	29413.21
737.021	29313.55
737.361	29152.2
737.702	29270.39
738.042	29188.81
738.383	29084.4
738.723	28970.96
739.063	29013.22
739.404	28989.72
739.744	28841.02
740.084	28770.97
740.424	28836.95
740.764	28674.25
741.104	28828.14
741.444	28718.54
741.784	28637.18
742.124	28653.46
742.464	28573.01
742.804	28574.36
743.143	28513.8
743.483	28435.61
743.823	28374.59
744.162	28331.66
744.502	28286.46
744.841	28469.51
745.181	28461.82
745.52	28182.96
745.86	28282.39
746.199	28104.54
746.538	28217.08
746.877	28165.11
747.216	28197.65
747.556	28095.28
747.895	28017.54
748.234	28067.71
748.573	27980.7
748.911	28010.31
749.25	27993.13
749.589	27784.55
749.928	27693.93
750.267	27794.27
750.605	27696.19
750.944	27706.59
751.283	27593.14
751.621	27647.83
751.96	27367.61
752.298	27432.7
752.636	27421.4
752.975	27381.17
753.313	27232.48
753.651	27380.04
753.989	27232.7
754.327	27208.75
754.666	27039.94
755.004	27088.53
755.342	27007.17
755.679	27012.14
756.017	26759.49
756.355	26889.43
756.693	26693.73
757.031	26886.72
757.368	26632.72
757.706	26661.64
758.044	26581.42
758.381	26619.16
758.719	26503
759.056	26413.97
759.394	26418.03
759.731	26195.67
760.068	26206.06
760.405	26009.91
760.743	26070.02
