Data from hue_20_FLMS001491_35.txt Node
Date: Mon Feb 06 15:33:59 GMT 2017
User: dcchb
Spectrometer: FLMS00149
Trigger mode: 0
Integration Time (sec): 2.000000E-2
Scans to average: 10
Electric dark correction enabled: true
Nonlinearity correction enabled: false
Boxcar width: 0
XAxis mode: Wavelengths
Number of Pixels in Spectrum: 2048
>>>>>Begin Spectral Data<<<<<
341.393	-10.13
341.776	-10.13
342.16	-10.13
342.543	-57.81
342.927	-46.96
343.31	-72.27
343.693	-68.43
344.077	-71.59
344.46	-62.55
344.843	-32.73
345.226	-47.41
345.61	-15.32
345.993	-29.79
346.376	-1.31
346.759	5.01
347.142	21.51
347.525	55.41
347.908	49.76
348.291	72.13
348.674	94.05
349.057	103.54
349.44	121.4
349.823	143.09
350.206	159.13
350.588	204.78
350.971	213.14
351.354	215.86
351.737	235.06
352.119	239.81
352.502	276.87
352.884	269.19
353.267	290.66
353.65	296.31
354.032	309.86
354.414	318.45
354.797	296.98
355.179	324.55
355.562	321.62
355.944	330.66
356.326	315.06
356.709	337.66
357.091	355.06
357.473	353.48
357.855	347.15
358.238	359.13
358.62	336.3
359.002	350.54
359.384	353.48
359.766	334.72
360.148	338.11
360.53	334.04
360.912	340.82
361.294	347.38
361.676	324.78
362.057	342.18
362.439	361.16
362.821	333.37
363.203	307.6
363.584	331.11
363.966	328.17
364.348	335.17
364.729	313.25
365.111	318.9
365.493	327.72
365.874	331.79
366.256	307.38
366.637	309.64
367.019	310.54
367.4	329.3
367.781	330.66
368.163	306.25
368.544	305.8
368.925	309.64
369.306	323.42
369.688	295.4
370.069	314.84
370.45	302.41
370.831	298.11
371.212	328.17
371.593	316.64
371.974	316.19
372.355	315.29
372.736	325.01
373.117	305.8
373.498	328.85
373.879	308.06
374.26	315.06
374.641	309.41
375.021	290.2
375.402	315.97
375.783	316.19
376.163	301.73
376.544	324.78
376.925	302.86
377.305	329.75
377.686	325.91
378.066	339.92
378.447	319.36
378.827	316.64
379.208	333.59
379.588	326.59
379.968	324.78
380.349	333.14
380.729	344.67
381.109	337.89
381.489	324.1
381.87	340.82
382.25	344.21
382.63	344.67
383.01	338.11
383.39	337.43
383.77	354.84
384.15	342.63
384.53	346.47
384.91	336.98
385.29	360.94
385.67	345.34
386.049	336.53
386.429	353.48
386.809	355.29
387.189	313.93
387.568	349.41
387.948	353.48
388.328	360.71
388.707	375.63
389.087	346.25
389.466	352.12
389.846	363.42
390.225	342.41
390.605	340.37
390.984	344.21
391.363	352.12
391.743	353.93
392.122	351.9
392.501	360.71
392.881	365.68
393.26	353.71
393.639	363.65
394.018	375.4
394.397	357.1
394.776	375.4
395.155	359.81
395.534	376.53
395.913	374.72
396.292	371.56
396.671	376.76
397.05	371.11
397.429	370.65
397.808	361.16
398.186	361.61
398.565	383.99
398.944	386.92
399.323	394.83
399.701	392.12
400.08	380.6
400.458	382.86
400.837	386.92
401.215	374.27
401.594	385.12
401.972	393.03
402.351	403.42
402.729	407.04
403.107	390.99
403.486	397.09
403.864	394.16
404.242	417.43
404.62	405.91
404.999	384.89
405.377	404.55
405.755	410.43
406.133	403.87
406.511	400.94
406.889	414.72
407.267	423.99
407.645	430.09
408.023	429.41
408.401	396.87
408.779	419.24
409.156	431.44
409.534	421.73
409.912	413.14
410.29	412.01
410.667	437.32
411.045	442.74
411.422	447.26
411.8	438.9
412.178	427.38
412.555	446.36
412.933	459.01
413.31	432.8
413.687	455.4
414.065	446.58
414.442	447.49
414.819	454.72
415.197	457.21
415.574	455.85
415.951	456.3
416.328	455.85
416.705	433.93
417.082	472.8
417.46	455.4
417.837	458.79
418.214	476.64
418.591	455.62
418.967	464.44
419.344	495.17
419.721	490.42
420.098	482.06
420.475	480.03
420.852	477.77
421.228	472.57
421.605	499.01
421.982	505.79
422.358	485.68
422.735	496.98
423.111	531.78
423.488	506.92
423.864	495.17
424.241	513.25
424.617	509.41
424.994	502.4
425.37	504.66
425.746	515.74
426.123	529.75
426.499	518.67
426.875	523.19
427.251	521.84
427.627	518.45
428.003	531.1
428.379	540.14
428.756	516.86
429.132	558.67
429.507	549.18
429.883	562.74
430.259	544.21
430.635	554.15
431.011	595.96
431.387	559.35
431.763	588.95
432.138	555.96
432.514	579.46
432.89	577.88
433.265	583.08
433.641	594.38
434.016	614.26
434.392	609.52
434.767	599.35
435.143	617.2
435.518	628.05
435.894	621.27
436.269	619.91
436.644	624.43
437.02	603.19
437.395	638.67
437.77	656.3
438.145	630.31
438.52	657.65
438.895	657.65
439.271	658.33
439.646	662.4
440.021	672.12
440.395	676.86
440.77	687.26
441.145	659.23
441.52	682.96
441.895	664.88
442.27	686.8
442.645	695.84
443.019	698.33
443.394	657.43
443.769	678.44
444.143	693.13
444.518	705.11
444.892	698.78
445.267	701.94
445.641	722.51
446.016	698.1
446.39	716.41
446.764	712.34
447.139	714.6
447.513	743.98
447.887	727.48
448.262	731.32
448.636	739.46
449.01	747.14
449.384	741.94
449.758	731.1
450.132	752.79
450.506	751.66
450.88	763.64
451.254	766.12
451.628	747.59
452.002	766.8
452.376	783.52
452.75	793.92
453.123	781.94
453.497	821.04
453.871	779.91
454.244	792.11
454.618	840.7
454.992	841.83
455.365	843.18
455.739	835.73
456.112	851.77
456.486	848.83
456.859	873.24
457.232	870.75
457.606	901.04
457.979	874.37
458.352	901.49
458.725	899.23
459.099	887.7
459.472	917.31
459.845	932.45
460.218	948.27
460.591	917.31
460.964	943.97
461.337	953.01
461.71	947.81
462.083	964.08
462.456	966.12
462.829	981.49
463.201	1004.31
463.574	995.27
463.947	1037.76
464.32	1005.67
464.692	1035.27
465.065	1003.41
465.438	1055.83
465.81	1071.43
466.183	1072.33
466.555	1084.76
466.928	1095.61
467.3	1114.82
467.672	1099.22
468.045	1150.07
468.417	1154.36
468.789	1155.72
469.161	1160.01
469.534	1173.57
469.906	1220.58
470.278	1204.3
470.65	1232.1
471.022	1247.24
471.394	1261.93
471.766	1275.26
472.138	1288.82
472.51	1335.15
472.882	1328.6
473.253	1338.31
473.625	1350.97
473.997	1407.46
474.369	1405.88
474.74	1419.21
475.112	1456.5
475.484	1474.35
475.855	1487.01
476.227	1503.96
476.598	1560.45
476.97	1581.02
477.341	1611.3
477.713	1615.14
478.084	1633.22
478.455	1687.23
478.827	1698.75
479.198	1724.74
479.569	1773.33
479.94	1778.75
480.311	1818.75
480.682	1843.61
481.053	1869.82
481.424	1912.53
481.795	1927.22
482.166	1997.96
482.537	2031.85
482.908	2041.57
483.279	2082.02
483.65	2094.68
484.021	2172.19
484.391	2203.83
484.762	2211.28
485.133	2262.13
485.503	2267.33
485.874	2346.65
486.244	2351.39
486.615	2395.46
486.985	2437.04
487.356	2491.95
487.726	2494.67
488.097	2562.69
488.467	2577.15
488.837	2630.26
489.207	2675.9
489.578	2732.85
489.948	2774.66
490.318	2768.11
490.688	2798.16
491.058	2849.23
491.428	2878.61
491.798	2968.55
492.168	2965.84
492.538	2960.19
492.908	3028.66
493.278	3066.18
493.648	3096.23
494.017	3161.77
494.387	3166.29
494.757	3188.43
495.126	3216.68
495.496	3213.52
495.866	3296.9
496.235	3298.03
496.605	3328.99
496.974	3364.02
497.344	3371.03
497.713	3397.24
498.082	3470.01
498.452	3460.74
498.821	3474.98
499.19	3550.68
499.559	3578.48
499.928	3561.53
500.298	3598.14
500.667	3654.86
501.036	3629.78
501.405	3671.36
501.774	3676.33
502.143	3693.73
502.512	3719.94
502.88	3746.38
503.249	3737.12
503.618	3741.64
503.987	3839.49
504.356	3837.68
504.724	3863.67
505.093	3873.16
505.462	3940.5
505.83	3936.66
506.199	3922.43
506.567	4012.82
506.936	3963.78
507.304	4017.79
507.672	4020.95
508.041	4048.52
508.409	4046.04
508.777	4101.63
509.145	4121.06
509.514	4120.16
509.882	4185.47
510.25	4142.98
510.618	4152.93
510.986	4184.34
511.354	4229.54
511.722	4192.47
512.09	4296.88
512.458	4267.27
512.826	4317.67
513.193	4302.08
513.561	4339.14
513.929	4340.95
514.297	4398.57
514.664	4362.41
515.032	4421.62
515.4	4431.56
515.767	4457.78
516.135	4484.22
516.502	4476.08
516.869	4485.57
517.237	4481.05
517.604	4495.29
517.972	4507.27
518.339	4573.26
518.706	4567.38
519.073	4571
519.44	4583.65
519.808	4638.79
520.175	4615.97
520.542	4679.02
520.909	4673.82
521.276	4676.3
521.643	4721.73
522.009	4762.18
522.376	4800.14
522.743	4744.55
523.11	4805.57
523.477	4925.11
523.843	4832.46
524.21	4916.3
524.577	4930.76
524.943	4994.04
525.31	4988.84
525.676	5025.67
526.043	5020.02
526.409	5066.58
526.776	5112.45
527.142	5108.61
527.508	5162.39
527.874	5152
528.241	5205.56
528.607	5151.55
528.973	5241.71
529.339	5203.3
529.705	5240.81
530.071	5328.49
530.437	5286.68
530.803	5409.84
531.169	5415.49
531.535	5379.11
531.901	5403.97
532.267	5405.1
532.632	5464.53
532.998	5515.6
533.364	5508.82
533.73	5516.73
534.095	5614.13
534.461	5587.24
534.826	5612.1
535.192	5634.24
535.557	5680.34
535.923	5670.18
536.288	5715.37
536.653	5715.6
537.019	5724.41
537.384	5772.09
537.749	5773.22
538.114	5777.97
538.479	5784.98
538.845	5841.24
539.21	5894.8
539.575	5833.34
539.94	5898.19
540.305	5926.21
540.67	5927.57
541.034	5964.63
541.399	5967.57
541.764	5967.57
542.129	6074.01
542.494	6039.88
542.858	6149.49
543.223	6112.65
543.587	6187.45
543.952	6160.11
544.316	6208.92
544.681	6164.4
545.045	6271.52
545.41	6247.79
545.774	6323.27
546.138	6280.33
546.503	6310.61
546.867	6365.3
547.231	6354
547.595	6464.05
547.959	6421.12
548.324	6458.4
548.688	6469.25
549.052	6454.11
549.416	6450.72
549.779	6461.12
550.143	6538.63
550.507	6546.31
550.871	6583.6
551.235	6578.17
551.599	6668.12
551.962	6670.38
552.326	6649.81
552.689	6703.59
553.053	6715.12
553.417	6718.96
553.78	6776.14
554.143	6815
554.507	6801.67
554.87	6807.55
555.234	6852.29
555.597	6840.31
555.96	6876.02
556.323	6913.31
556.686	6840.77
557.05	6935.45
557.413	6939.07
557.776	6957.15
558.139	7025.39
558.502	6989.92
558.865	7003.25
559.228	7133.64
559.59	7081.21
559.953	7116.69
560.316	7181.55
560.679	7209.57
561.041	7215.22
561.404	7271.26
561.767	7288.21
562.129	7267.2
562.492	7349.91
562.854	7315.78
563.217	7309
563.579	7394.88
563.941	7374.09
564.304	7402.79
564.666	7456.57
565.028	7473.07
565.39	7469.22
565.753	7528.66
566.115	7562.33
566.477	7558.49
566.839	7619.73
567.201	7677.81
567.563	7648.2
567.925	7681.2
568.287	7668.09
568.648	7702.89
569.01	7786.05
569.372	7824.24
569.734	7843
570.095	7884.13
570.457	7977.69
570.819	8001.19
571.18	7981.53
571.542	8063.79
571.903	8056.78
572.265	8084.12
572.626	8163.67
572.987	8161.64
573.349	8205.02
573.71	8286.6
574.071	8302.87
574.432	8352.59
574.794	8421.29
575.155	8463.77
575.516	8450.22
575.877	8515.98
576.238	8565.92
576.599	8685.46
576.96	8702.64
577.32	8717.78
577.681	8846.36
578.042	8958.9
578.403	8952.8
578.763	9028.05
579.124	9084.32
579.485	9243.42
579.845	9319.12
580.206	9413.58
580.566	9440.7
580.927	9582.16
581.287	9658.32
581.648	9758.43
582.008	9915.94
582.368	10037.97
582.728	10097.4
583.089	10223.5
583.449	10403.84
583.809	10509.82
584.169	10673.66
584.529	10770.15
584.889	11039.3
585.249	11167.21
585.609	11207.88
585.969	11505.28
586.329	11680.64
586.688	11914.76
587.048	12046.51
587.408	12263.67
587.768	12412.82
588.127	12659.82
588.487	12841.96
588.846	13105.69
589.206	13246.02
589.565	13456.86
589.925	13801.49
590.284	13960.81
590.643	14224.3
591.003	14603.73
591.362	14779.54
591.721	15036.26
592.08	15223.6
592.44	15485.96
592.799	15784.71
593.158	16037.59
593.517	16323
593.876	16534.3
594.235	16789.66
594.593	17181.51
594.952	17504.89
595.311	17726.13
595.67	18057.42
596.029	18340.35
596.387	18749.61
596.746	19007.9
597.104	19141.69
597.463	19370.61
597.822	19784.15
598.18	20043.58
598.538	20302.33
598.897	20663.91
599.255	20811.02
599.613	21301.4
599.972	21505.69
600.33	21843.99
600.688	22143.19
601.046	22410.3
601.404	22805.77
601.762	23047.8
602.12	23441.69
602.478	23557.16
602.836	23823.37
603.194	23885.52
603.552	24334.77
603.91	24457.93
604.268	24884.13
604.625	25022.66
604.983	25444.8
605.341	25538.81
605.698	25741.96
606.056	26255.85
606.413	26313.7
606.771	26777.87
607.128	27004.98
607.485	27128.59
607.843	27355.03
608.2	27762.25
608.557	27924.51
608.914	28133.31
609.272	28414.21
609.629	28721.32
609.986	29000.41
610.343	29028.21
610.7	29426.61
611.057	29508.42
611.414	29777.11
611.771	29865.92
612.127	30236.31
612.484	30340.94
612.841	30744.32
613.198	30682.4
613.554	30813.47
613.911	31239.67
614.267	31395.6
614.624	31713.56
614.98	31641.02
615.337	32074.68
615.693	32084.17
616.05	32314.45
616.406	32610.71
616.762	32601.67
617.118	32618.17
617.475	32897.71
617.831	33197.14
618.187	33298.38
618.543	33486.39
618.899	33824.69
619.255	33819.72
619.611	33840.06
619.967	34092.03
620.323	34374.05
620.678	34321.17
621.034	34350.78
621.39	34545.8
621.746	34654.95
622.101	35109.63
622.457	34854.95
622.812	35056.75
623.168	35254.03
623.523	35233.92
623.879	35498.32
624.234	35326.57
624.589	35560.24
624.945	35652.44
625.3	35778.54
625.655	35728.14
626.01	35793.45
626.365	35959.55
626.72	36084.74
627.075	36039.55
627.43	36077.51
627.785	36094.23
628.14	36192.76
628.495	36347.34
628.85	36365.87
629.205	36361.12
629.559	36604.05
629.914	36485.41
630.269	36649.47
630.623	36556.37
630.978	36646.54
631.332	36761.79
631.687	36923.82
632.041	36777.61
632.396	36859.19
632.75	36695.12
633.104	36904.83
633.459	36703.03
633.813	36781
634.167	36768.57
634.521	36933.76
634.875	36955.23
635.229	36704.16
635.583	36732.64
635.937	36889.02
636.291	36844.72
636.645	36919.3
636.999	36856.7
637.352	36976.7
637.706	36749.13
638.06	37021.89
638.413	36900.54
638.767	36817.38
639.121	36964.72
639.474	36769.7
639.828	36819.87
640.181	36939.41
640.534	36920.65
640.888	36746.42
641.241	36547.1
641.594	36834.78
641.947	37010.37
642.301	36800.2
642.654	36850.37
643.007	36870.71
643.36	36818.51
643.713	36862.58
644.066	36949.13
644.419	36764.73
644.771	36498.74
645.124	36163.61
645.477	36213.55
645.83	36014.24
646.182	35760.68
646.535	35678.2
646.888	35784.19
647.24	35689.27
647.593	35775.15
647.945	35793.45
648.298	35627.13
648.65	35626
649.002	35470.75
649.355	35665.55
649.707	35655.6
650.059	35728.37
650.411	36153.89
650.763	36196.15
651.115	36604.5
651.467	36499.42
651.819	36533.09
652.171	36386.43
652.523	36334
652.875	36366.54
653.227	36202.71
653.578	36567.67
653.93	36351.4
654.282	36279.99
654.633	36318.64
654.985	36244.06
655.337	36329.71
655.688	36219.43
656.039	36421.91
656.391	36030.28
656.742	36109.38
657.094	36147.79
657.445	36202.71
657.796	36210.62
658.147	36072.54
658.498	36039.77
658.849	36234.8
659.2	36239.77
659.551	36089.71
659.902	36153.44
660.253	36165.87
660.604	36237.51
660.955	36030.06
661.306	36183.05
661.656	35975.82
662.007	36120.67
662.358	36081.81
662.708	36085.2
663.059	36042.48
663.409	35886.33
663.76	36121.8
664.11	36015.14
664.461	36138.08
664.811	36122.71
665.161	36056.72
665.511	36041.58
665.862	35886.33
666.212	36194.57
666.562	36130.39
666.912	36002.71
667.262	35973.11
667.612	35852.66
667.962	36058.53
668.312	36005.42
668.662	36192.99
669.011	36048.36
669.361	36005.88
669.711	36008.36
670.06	35908.7
670.41	35882.49
670.76	35942.15
671.109	36025.08
671.459	36004.07
671.808	35840.68
672.157	35922.71
672.507	35736.96
672.856	35844.98
673.205	35815.37
673.554	35892.43
673.904	35770.85
674.253	36008.81
674.602	35787.35
674.951	35209.51
675.3	35031.21
675.649	35632.78
675.998	35632.33
676.346	35670.97
676.695	35804.98
677.044	35480.24
677.393	35465.55
677.741	35664.64
678.09	35629.84
678.438	35388.26
678.787	35538.77
679.135	35620.35
679.484	35387.81
679.832	35469.17
680.181	35215.39
680.529	35360.24
680.877	35336.74
681.225	35282.28
681.573	35347.81
681.922	35116.41
682.27	35173.58
682.618	34960.03
682.966	34934.72
683.314	35129.06
683.661	35030.31
684.009	34761.39
684.357	34733.14
684.705	34680.03
685.053	34738.79
685.4	34673.71
685.748	34496.31
686.095	34528.4
686.443	34312.13
686.79	34291.57
687.138	34415.86
687.485	34398.23
687.832	34254.51
688.18	34315.98
688.527	34181.74
688.874	34127.51
689.221	34182.87
689.568	33922.54
689.915	33817.23
690.262	33797.12
690.609	33828.31
690.956	33697.91
691.303	33581.76
691.65	33581.31
691.997	33627.63
692.344	33300.41
692.69	33357.81
693.037	33284.36
693.383	33094.54
693.73	33225.16
694.077	32993.98
694.423	32878.27
694.769	32917.59
695.116	32775.9
695.462	32717.83
695.808	32618.85
696.155	32665.85
696.501	32549.24
696.847	32449.13
697.193	32381.79
697.539	32351.06
697.885	32139.99
698.231	32030.16
698.577	32123.94
698.923	32043.72
699.269	31824.52
699.614	31755.82
699.96	31641.92
700.306	31674.46
700.651	31537.97
700.997	31326
701.342	31434.02
701.688	31379.33
702.033	31172.33
702.379	31140.24
702.724	31028.61
703.069	31206
703.415	30662.74
703.76	30755.17
704.105	30786.13
704.45	30692.34
704.795	30593.81
705.14	30538.22
705.485	30475.17
705.83	30554.27
706.175	30356.53
706.52	30226.14
706.865	30092.81
707.209	30126.03
707.554	29944.57
707.899	30069.31
708.243	29946.83
708.588	29909.31
708.932	29826.15
709.277	29749.77
709.621	29799.94
709.966	29475.88
710.31	29635.42
710.654	29370.8
710.998	29401.08
711.342	29379.16
711.687	29369.21
712.031	29212.16
712.375	29097.58
712.719	29174.19
713.063	29063.91
713.407	29176
713.75	28948.89
714.094	29034.76
714.438	28831.37
714.782	28931.71
715.125	28635.22
715.469	28853.97
715.812	28707.76
716.156	28459.41
716.499	28495.56
716.843	28684.03
717.186	28341.44
717.53	28485.62
717.873	28487.43
718.216	28405.85
718.559	28294.67
718.902	28053.54
719.246	28093.99
719.589	27988.01
719.932	27930.61
720.275	27987.33
720.617	27972.19
720.96	27824.17
721.303	27813.32
721.646	27905.98
721.989	27703.04
722.331	27639.99
722.674	27675.25
723.016	27629.6
723.359	27552.99
723.701	27561.8
724.044	27391.41
724.386	27299.89
724.729	27378.76
725.071	27317.29
725.413	27402.26
725.755	27390.28
726.097	27200.01
726.439	27093.12
726.782	27095.38
727.124	27119.1
727.465	27028.94
727.807	27100.35
728.149	27004.08
728.491	26975.38
728.833	26992.33
729.175	26761.6
729.516	26630.3
729.858	26685.22
730.199	26680.24
730.541	26687.93
730.882	26600.7
731.224	26625.78
731.565	26524.09
731.906	26447.71
732.248	26646.57
732.589	26372.23
732.93	26287.94
733.271	26310.09
733.612	26334.49
733.953	26376.75
734.294	26206.13
734.635	26131.78
734.976	26207.71
735.317	26216.75
735.658	26178.56
735.999	26136.53
736.339	26100.6
736.68	26055.63
737.021	26018.57
737.361	25924.11
737.702	25969.53
738.042	25862.64
738.383	25851.11
738.723	25958.46
739.063	25719.82
739.404	25780.83
739.744	25705.13
740.084	25638.69
740.424	25604.11
740.764	25548.98
741.104	25562.08
741.444	25539.03
741.784	25423.55
742.124	25403.44
742.464	25409.54
742.804	25344.23
743.143	25237.57
743.483	25284.12
743.823	25253.62
744.162	25182.66
744.502	25161.41
744.841	25153.96
745.181	25206.39
745.52	25176.78
745.86	25068.08
746.199	25011.14
746.538	25071.47
746.877	25100.17
747.216	25096.56
747.556	24936.11
747.895	25000.06
748.234	24871.03
748.573	24913.06
748.911	24799.84
749.25	24732.73
749.589	24680.98
749.928	24658.6
750.267	24693.86
750.605	24614.54
750.944	24511.71
751.283	24421.32
751.621	24540.64
751.96	24405.95
752.298	24379.29
752.636	24397.82
752.975	24201.89
753.313	24215.45
753.651	24302.23
753.989	24105.17
754.327	24222.23
754.666	24119.63
755.004	24014.1
755.342	24090.93
755.679	24046.42
756.017	23799.19
756.355	24027.43
756.693	23941.56
757.031	23909.24
757.368	23697.72
757.706	23736.37
758.044	23638.74
758.381	23723.26
758.719	23509.03
759.056	23511.06
759.394	23497.73
759.731	23391.07
760.068	23295.7
760.405	23288.7
760.743	23237.17
761.08	23198.75
