Data from hue_250_FLMS001491_00095.txt Node
Date: Tue Feb 07 16:01:46 GMT 2017
User: dcchb
Spectrometer: FLMS00149
Trigger mode: 0
Integration Time (sec): 2.000000E-2
Scans to average: 10
Electric dark correction enabled: true
Nonlinearity correction enabled: false
Boxcar width: 0
XAxis mode: Wavelengths
Number of Pixels in Spectrum: 2048
>>>>>Begin Spectral Data<<<<<
341.393	-16.06
341.776	-16.06
342.16	-16.06
342.543	-81.59
342.927	-62.84
343.31	-77.3
343.693	-72.55
344.077	-67.36
344.46	-66.91
344.843	-56.06
345.226	-50.86
345.61	-28.94
345.993	-7.25
346.376	-14.25
346.759	19.87
347.142	8.12
347.525	44.73
347.908	68.23
348.291	70.27
348.674	102.36
349.057	127.89
349.44	136.71
349.823	149.13
350.206	183.71
350.588	165.86
350.971	197.72
351.354	204.05
351.737	221
352.119	232.52
352.502	255.12
352.884	262.8
353.267	245.4
353.65	276.59
354.032	279.98
354.414	304.38
354.797	298.96
355.179	303.03
355.562	303.93
355.944	304.61
356.326	302.12
356.709	321.79
357.091	309.58
357.473	311.16
357.855	318.4
358.238	330.82
358.62	321.33
359.002	311.84
359.384	343.93
359.766	318.85
360.148	324.72
360.53	342.8
360.912	336.02
361.294	304.61
361.676	311.39
362.057	322.69
362.439	316.59
362.821	327.21
363.203	325.85
363.584	312.97
363.966	317.04
364.348	306.87
364.729	298.51
365.111	305.51
365.493	298.06
365.874	307.55
366.256	287.89
366.637	301.67
367.019	314.1
367.4	305.06
367.781	298.06
368.163	312.75
368.544	291.5
368.925	292.41
369.306	311.16
369.688	308.23
370.069	291.05
370.45	309.58
370.831	295.57
371.212	307.1
371.593	310.71
371.974	290.37
372.355	298.28
372.736	314.78
373.117	314.78
373.498	315.46
373.879	301.9
374.26	286.76
374.641	281.33
375.021	314.33
375.402	299.19
375.783	307.55
376.163	318.85
376.544	313.88
376.925	308.45
377.305	310.49
377.686	300.09
378.066	297.61
378.447	331.95
378.827	311.84
379.208	312.97
379.588	308.68
379.968	303.71
380.349	319.07
380.729	321.79
381.109	308
381.489	318.4
381.87	326.98
382.25	327.21
382.63	318.85
383.01	308.23
383.39	318.17
383.77	315.91
384.15	308.45
384.53	345.97
384.91	342.58
385.29	343.25
385.67	352.07
386.049	328.11
386.429	337.38
386.809	331.28
387.189	321.56
387.568	369.47
387.948	323.59
388.328	335.57
388.707	341.67
389.087	340.54
389.466	358.39
389.846	336.25
390.225	354.33
390.605	357.94
390.984	324.27
391.363	343.03
391.743	350.94
392.122	361.11
392.501	354.33
392.881	368.79
393.26	362.24
393.639	382.12
394.018	350.26
394.397	345.06
394.776	364.5
395.155	364.95
395.534	372.41
395.913	374.89
396.292	366.3
396.671	386.19
397.05	359.3
397.429	367.89
397.808	363.37
398.186	383.03
398.565	381.9
398.944	369.02
399.323	395.91
399.701	386.19
400.08	392.29
400.458	386.87
400.837	403.37
401.215	401.33
401.594	378.73
401.972	399.52
402.351	405.17
402.729	400.65
403.107	397.94
403.486	419.86
403.864	423.03
404.242	425.06
404.62	426.87
404.999	431.61
405.377	442.01
405.755	456.92
406.133	430.26
406.511	449.24
406.889	438.17
407.267	416.25
407.645	436.13
408.023	458.73
408.401	452.86
408.779	430.93
409.156	456.7
409.534	440.43
409.912	460.76
410.29	484.49
410.667	489.92
411.045	492.63
411.422	492.63
411.8	503.02
412.178	506.19
412.555	526.75
412.933	522.01
413.31	529.01
413.687	533.31
414.065	517.03
414.442	545.28
414.819	542.57
415.197	551.38
415.574	575.56
415.951	559.29
416.328	579.41
416.705	576.92
417.082	579.86
417.46	561.33
417.837	601.1
418.214	615.34
418.591	612.85
418.967	614.21
419.344	609.24
419.721	629.35
420.098	647.43
420.475	629.8
420.852	634.55
421.228	669.12
421.605	636.35
421.982	672.51
422.358	675.45
422.735	701.66
423.111	696.92
423.488	713.87
423.864	703.47
424.241	727.88
424.617	724.26
424.994	740.08
425.37	780.98
425.746	746.41
426.123	790.02
426.499	792.28
426.875	786.18
427.251	804.71
427.627	808.1
428.003	841.55
428.379	835.22
428.756	839.29
429.132	868.21
429.507	854.43
429.883	854.2
430.259	886.06
430.635	878.83
431.011	919.28
431.387	891.94
431.763	894.65
432.138	915.44
432.514	937.81
432.89	926.74
433.265	966.97
433.641	978.49
434.016	999.96
434.392	1023.69
434.767	1043.8
435.143	1058.26
435.518	1070.24
435.894	1067.3
436.269	1087.87
436.644	1089.67
437.02	1132.84
437.395	1116.57
437.77	1134.42
438.145	1129.67
438.52	1147.53
438.895	1184.36
439.271	1225.49
439.646	1204.25
440.021	1259.84
440.395	1238.82
440.77	1250.12
441.145	1291.48
441.52	1302.78
441.895	1298.26
442.27	1315.88
442.645	1310.69
443.019	1321.08
443.394	1320.4
443.769	1351.59
444.143	1349.78
444.518	1333.74
444.892	1375.09
445.267	1394.07
445.641	1382.1
446.016	1428.42
446.39	1421.19
446.764	1421.42
447.139	1448.08
447.513	1463.68
447.887	1442.66
448.262	1470.46
448.636	1451.25
449.01	1513.17
449.384	1502.55
449.758	1510.45
450.132	1510.45
450.506	1550
450.88	1559.27
451.254	1533.96
451.628	1569.89
452.002	1548.42
452.376	1598.59
452.75	1603.11
453.123	1643.56
453.497	1624.12
453.871	1650.79
454.244	1683.33
454.618	1698.7
454.992	1728.53
455.365	1707.06
455.739	1778.24
456.112	1772.82
456.486	1783.44
456.859	1774.4
457.232	1822.54
457.606	1807.62
457.979	1855.08
458.352	1898.92
458.725	1900.27
459.099	1933.72
459.472	1909.77
459.845	1959.03
460.218	1966.26
460.591	1971.69
460.964	1993.15
461.337	1996.77
461.71	2104.34
462.083	2099.82
462.456	2071.12
462.829	2110.44
463.201	2105.92
463.574	2132.36
463.947	2159.25
464.32	2194.5
464.692	2240.15
465.065	2236.76
465.438	2271.79
465.81	2270.21
466.183	2305.01
466.555	2342.75
466.928	2369.42
467.3	2370.32
467.672	2410.09
468.045	2439.02
468.417	2479.24
468.789	2458.45
469.161	2471.79
469.534	2561.73
469.906	2594.72
470.278	2607.15
470.65	2625.45
471.022	2649.86
471.394	2675.62
471.766	2758.33
472.138	2787.03
472.51	2824.09
472.882	2810.76
473.253	2889.85
473.625	2882.4
473.997	2899.8
474.369	2981.38
474.74	3026.12
475.112	3063.41
475.484	3069.74
475.855	3128.27
476.227	3170.75
476.598	3234.03
476.97	3277.41
477.341	3317.86
477.713	3326
478.084	3383.4
478.455	3462.95
478.827	3496.17
479.198	3535.03
479.569	3569.16
479.94	3651.64
480.311	3641.47
480.682	3738.64
481.053	3792.2
481.424	3884.18
481.795	3890.28
482.166	3943.16
482.537	3984.51
482.908	4040.33
483.279	4136.6
483.65	4133.21
484.021	4217.5
484.391	4243.49
484.762	4304.96
485.133	4273.09
485.503	4360.55
485.874	4411.62
486.244	4502.92
486.615	4540.66
486.985	4599.64
487.356	4650.71
487.726	4722.35
488.097	4775.68
488.467	4771.39
488.837	4920.31
489.207	4900.42
489.578	4986.3
489.948	5049.34
490.318	5088.89
490.688	5033.3
491.058	5182.9
491.428	5263.35
491.798	5258.83
492.168	5339.28
492.538	5349
492.908	5441.88
493.278	5461.76
493.648	5530.91
494.017	5569.33
494.387	5617.47
494.757	5560.07
495.126	5599.16
495.496	5652.04
495.866	5679.61
496.235	5764.35
496.605	5808.87
496.974	5823.34
497.344	5899.72
497.713	5846.16
498.082	5915.76
498.452	5998.25
498.821	5990.56
499.19	5966.83
499.559	6033.5
499.928	6035.76
500.298	6057
500.667	6113.72
501.036	6115.31
501.405	6133.38
501.774	6147.17
502.143	6173.16
502.512	6166.15
502.88	6284.11
503.249	6270.33
503.618	6287.28
503.987	6303.1
504.356	6354.62
504.724	6394.62
505.093	6402.76
505.462	6392.59
505.83	6388.07
506.199	6496.54
506.567	6601.17
506.936	6505.58
507.304	6611.11
507.672	6539.7
508.041	6552.81
508.409	6637.1
508.777	6669.19
509.145	6711.45
509.514	6646.36
509.882	6706.93
510.25	6677.55
510.618	6706.25
510.986	6761.16
511.354	6772.92
511.722	6804.55
512.09	6811.33
512.458	6807.49
512.826	6888.39
513.193	6919.58
513.561	6862.86
513.929	6915.06
514.297	6995.96
514.664	6981.05
515.032	6933.36
515.4	7041.61
515.767	7070.31
516.135	7039.35
516.502	6968.84
516.869	7065.56
517.237	7112.34
517.604	7052.46
517.972	7098.1
518.339	7121.38
518.706	7098.56
519.073	7090.65
519.44	7132.23
519.808	7155.05
520.175	7200.02
520.542	7185.33
520.909	7224.2
521.276	7202.51
521.643	7316.4
522.009	7358.21
522.376	7239.8
522.743	7269.85
523.11	7381.49
523.477	7414.71
523.843	7416.74
524.21	7420.36
524.577	7424.2
524.943	7478.66
525.31	7459.22
525.676	7525.44
526.043	7529.51
526.409	7506.46
526.776	7620.35
527.142	7584.42
527.508	7614.47
527.874	7648.37
528.241	7647.47
528.607	7630.97
528.973	7640.24
529.339	7694.7
529.705	7689.95
530.071	7717.3
530.437	7695.15
530.803	7679.11
531.169	7724.53
531.535	7647.92
531.901	7671.42
532.267	7645.66
532.632	7738.31
532.998	7746.45
533.364	7723.85
533.73	7724.75
534.095	7775.6
534.461	7795.94
534.826	7713.91
535.192	7755.26
535.557	7761.82
535.923	7722.49
536.288	7719.1
536.653	7745.77
537.019	7735.6
537.384	7673.46
537.749	7762.95
538.114	7724.08
538.479	7744.64
538.845	7734.25
539.21	7702.16
539.575	7668.48
539.94	7741.48
540.305	7716.85
540.67	7668.71
541.034	7691.76
541.399	7673.23
541.764	7709.84
542.129	7690.63
542.494	7709.61
542.858	7690.86
543.223	7652.44
543.587	7644.08
543.952	7625.77
544.316	7600.46
544.681	7622.38
545.045	7625.32
545.41	7630.75
545.774	7591.88
546.138	7647.69
546.503	7618.32
546.867	7575.83
547.231	7598.88
547.595	7630.07
547.959	7647.92
548.324	7608.83
548.688	7536.96
549.052	7643.4
549.416	7537.41
549.779	7570.18
550.143	7554.14
550.507	7564.08
550.871	7583.29
551.235	7551.88
551.599	7577.41
551.962	7505.1
552.326	7523.63
552.689	7553.91
553.053	7500.13
553.417	7482.95
553.78	7570.41
554.143	7493.12
554.507	7488.15
554.87	7484.08
555.234	7585.1
555.597	7426.01
555.96	7597.07
556.323	7524.08
556.686	7490.64
557.05	7590.07
557.413	7582.39
557.776	7592.1
558.139	7562.72
558.502	7510.97
558.865	7527.25
559.228	7574.25
559.59	7531.09
559.953	7589.16
560.316	7641.82
560.679	7637.07
561.041	7633.46
561.404	7585.55
561.767	7670.74
562.129	7647.24
562.492	7638.2
562.854	7627.13
563.217	7649.5
563.579	7701.93
563.941	7738.77
564.304	7697.64
564.666	7764.08
565.028	7820.8
565.39	7830.97
565.753	7832.1
566.115	7818.99
566.477	7857.63
566.839	7800.46
567.201	7902.6
567.563	7895.37
567.925	7894.24
568.287	7948.25
568.648	7963.62
569.01	7924.07
569.372	8005.65
569.734	7959.1
570.095	7983.05
570.457	8023.73
570.819	8052.66
571.18	8043.84
571.542	8027.57
571.903	8090.39
572.265	8065.31
572.626	8068.47
572.987	8182.82
573.349	8122.48
573.71	8188.7
574.071	8190.73
574.432	8252.65
574.794	8279.32
575.155	8226.89
575.516	8189.15
575.877	8254.68
576.238	8265.76
576.599	8295.59
576.96	8315.47
577.32	8309.15
577.681	8362.48
578.042	8359.99
578.403	8357.51
578.763	8351.18
579.124	8408.8
579.485	8406.54
579.845	8479.31
580.206	8397.51
580.566	8454.45
580.927	8458.52
581.287	8491.06
581.648	8506.65
582.008	8587.78
582.368	8464.17
582.728	8522.7
583.089	8567.67
583.449	8571.06
583.809	8566.09
584.169	8565.86
584.529	8631.62
584.889	8633.88
585.249	8595.69
585.609	8593.43
585.969	8700.32
586.329	8656.71
586.688	8650.83
587.048	8696.03
587.408	8668.23
587.768	8665.97
588.127	8666.65
588.487	8654.45
588.846	8736.25
589.206	8705.07
589.565	8728.34
589.925	8731.73
590.284	8717.95
590.643	8787.1
591.003	8775.8
591.362	8817.38
591.721	8875.01
592.08	8799.98
592.44	8906.64
592.799	8904.84
593.158	8867.32
593.517	8813.31
593.876	8861
594.235	8851.5
594.593	8973.08
594.952	8856.7
595.311	8867.55
595.67	8855.35
596.029	8887.21
596.387	8841.79
596.746	8941.22
597.104	8888.11
597.463	8863.93
597.822	8917.94
598.18	8850.83
598.538	8879.53
598.897	8896.93
599.255	8893.09
599.613	8980.99
599.972	8941.67
600.33	8986.42
600.688	8945.97
601.046	9021.9
601.404	8985.51
601.762	8936.02
602.12	8987.55
602.478	9056.92
602.836	9073.19
603.194	8971.5
603.552	9007.21
603.91	8981.44
604.268	9002.46
604.625	8940.99
604.983	9006.98
605.341	8996.13
605.698	9060.54
606.056	9061.44
606.413	9057.37
606.771	9078.17
607.128	9081.78
607.485	9023.93
607.843	9050.82
608.2	9089.92
608.557	9085.85
608.914	9104.38
609.272	9180.08
609.629	9130.82
609.986	9165.17
610.343	9127.66
610.7	9152.29
611.057	9202.91
611.414	9184.15
611.771	9177.37
612.127	9231.83
612.484	9219.63
612.841	9219.63
613.198	9242.91
613.554	9194.32
613.911	9227.31
614.267	9280.19
614.624	9238.39
614.98	9188.22
615.337	9308.89
615.693	9246.75
616.05	9300.31
616.406	9395.67
616.762	9258.05
617.118	9308.22
617.475	9341.21
617.831	9281.1
618.187	9313.87
618.543	9378.72
618.899	9399.51
619.255	9350.47
619.611	9357.03
619.967	9361.77
620.323	9410.36
620.678	9346.18
621.034	9271.15
621.39	9339.63
621.746	9414.65
622.101	9448.78
622.457	9416.24
622.812	9415.33
623.168	9412.62
623.523	9397.25
623.879	9431.83
624.234	9339.63
624.589	9383.02
624.945	9394.54
625.3	9418.5
625.655	9375.33
626.01	9383.69
626.365	9426.86
626.72	9408.33
627.075	9337.82
627.43	9321.1
627.785	9361.1
628.14	9384.6
628.495	9387.54
628.85	9407.2
629.205	9326.29
629.559	9425.27
629.914	9329.23
630.269	9293.3
630.623	9265.73
630.978	9309.8
631.332	9325.62
631.687	9328.55
632.041	9289.69
632.396	9289.69
632.75	9245.84
633.104	9287.88
633.459	9237.03
633.813	9276.8
634.167	9225.96
634.521	9181.44
634.875	9216.92
635.229	9176.02
635.583	9122.01
635.937	9186.19
636.291	9115.45
636.645	9122.68
636.999	9132.18
637.352	9125.17
637.706	9012.63
638.06	9112.74
638.413	9107.32
638.767	9097.83
639.121	9074.1
639.474	9029.13
639.828	9100.76
640.181	9032.52
640.534	8972.63
640.888	9050.37
641.241	8948.9
641.594	8972.41
641.947	9036.81
642.301	8974.44
642.654	8995.46
643.007	9037.49
643.36	8886.08
643.713	8934.21
644.066	8973.54
644.419	8894.22
644.771	8763.6
645.124	8743.71
645.477	8773.99
645.83	8729.47
646.182	8730.6
646.535	8693.54
646.888	8623.49
647.24	8570.38
647.593	8670.49
647.945	8658.06
648.298	8568.12
648.65	8559.31
649.002	8576.71
649.355	8658.74
649.707	8547.33
650.059	8627.56
650.411	8730.83
650.763	8713.88
651.115	8871.62
651.467	8851.28
651.819	8782.13
652.171	8761.11
652.523	8730.15
652.875	8802.01
653.227	8773.77
653.578	8844.05
653.93	8764.28
654.282	8762.02
654.633	8729.7
654.985	8821.9
655.337	8714.11
655.688	8776.25
656.039	8769.25
656.391	8729.47
656.742	8768.34
657.094	8736.93
657.445	8757.27
657.796	8792.52
658.147	8732.41
658.498	8757.27
658.849	8796.82
659.2	8792.52
659.551	8724.05
659.902	8764.95
660.253	8795.01
660.604	8793.65
660.955	8740.32
661.306	8768.34
661.656	8798.85
662.007	8796.82
662.358	8747.55
662.708	8795.69
663.059	8784.16
663.409	8726.76
663.76	8715.24
664.11	8788.23
664.461	8785.29
664.811	8771.28
665.161	8781.68
665.511	8731.06
665.862	8785.07
666.212	8807.66
666.562	8789.81
666.912	8773.77
667.262	8729.7
667.612	8750.04
667.962	8821.45
668.312	8746.2
668.662	8894.67
669.011	8773.77
669.361	8712.98
669.711	8787.33
670.06	8729.93
670.41	8729.93
670.76	8694.22
671.109	8779.64
671.459	8765.18
671.808	8742.13
672.157	8725.63
672.507	8644.05
672.856	8681.34
673.205	8738.97
673.554	8745.97
673.904	8651.51
674.253	8634.56
674.602	8656.71
674.951	8563.38
675.3	8512.98
675.649	8686.76
675.998	8605.86
676.346	8630.49
676.695	8633.88
677.044	8585.52
677.393	8568.8
677.741	8601.57
678.09	8514.11
678.438	8577.16
678.787	8610.15
679.135	8589.82
679.484	8541.46
679.832	8566.99
680.181	8507.11
680.529	8511.4
680.877	8471.63
681.225	8447.67
681.573	8558.63
681.922	8430.72
682.27	8402.02
682.618	8472.31
682.966	8367.45
683.314	8451.29
683.661	8385.53
684.009	8389.6
684.357	8348.01
684.705	8307.79
685.053	8349.14
685.4	8256.49
685.748	8298.75
686.095	8258.3
686.443	8195.25
686.79	8212.2
687.138	8141.47
687.485	8275.02
687.832	8153.22
688.18	8117.74
688.527	8089.04
688.874	8126.78
689.221	8154.8
689.568	8094.24
689.915	8005.88
690.262	8003.62
690.609	7977.4
690.956	8006.33
691.303	8001.81
691.65	7915.94
691.997	7940.57
692.344	7902.38
692.69	7843.4
693.037	7865.54
693.383	7798.42
693.73	7858.99
694.077	7745.77
694.423	7736.28
694.769	7747.13
695.116	7687.47
695.462	7681.14
695.808	7615.6
696.155	7652.67
696.501	7622.84
696.847	7598.66
697.193	7480.47
697.539	7571.76
697.885	7452.45
698.231	7450.64
698.577	7450.41
698.923	7386.68
699.269	7368.61
699.614	7356.63
699.96	7344.65
700.306	7317.31
700.651	7291.32
700.997	7231.66
701.342	7261.72
701.688	7238.44
702.033	7235.95
702.379	7249.06
702.724	7203.19
703.069	7205.45
703.415	7067.6
703.76	7107.82
704.105	7112.79
704.45	7096.3
704.795	7050.42
705.14	7040.93
705.485	7003.19
705.83	6953.7
706.175	6950.31
706.52	6896.98
706.865	6903.76
707.209	6897.88
707.554	6836.19
707.899	6877.09
708.243	6859.47
708.588	6866.47
708.932	6773.37
709.277	6809.98
709.621	6779.02
709.966	6763.88
710.31	6776.98
710.654	6671.9
710.998	6720.26
711.342	6683.43
711.687	6647.72
712.031	6606.82
712.375	6628.74
712.719	6604.33
713.063	6579.93
713.407	6581.73
713.75	6623.54
714.094	6548.74
714.438	6513.71
714.782	6567.72
715.125	6526.37
715.469	6526.14
715.812	6475.97
716.156	6499.48
716.499	6475.75
716.843	6490.66
717.186	6448.18
717.53	6451.57
717.873	6492.7
718.216	6410.89
718.559	6357.78
718.902	6329.54
719.246	6426.03
719.589	6374.28
719.932	6386.94
720.275	6379.71
720.617	6353.27
720.96	6314.62
721.303	6374.06
721.646	6295.19
721.989	6318.92
722.331	6283.21
722.674	6276.43
723.016	6285.47
723.359	6292.93
723.701	6244.79
724.044	6206.83
724.386	6228.97
724.729	6255.64
725.071	6251.57
725.413	6230.78
725.755	6234.85
726.097	6226.26
726.439	6197.56
726.782	6178.81
727.124	6226.26
727.465	6202.53
727.807	6171.58
728.149	6224.91
728.491	6182.65
728.833	6192.82
729.175	6114.18
729.516	6186.49
729.858	6151.46
730.199	6160.73
730.541	6165.47
730.882	6151.69
731.224	6169.99
731.565	6108.98
731.906	6130.9
732.248	6113.95
732.589	6155.53
732.93	6084.12
733.271	6097.23
733.612	6144.23
733.953	6130.45
734.294	6063.33
734.635	6099.03
734.976	6166.83
735.317	6096.77
735.658	6095.87
735.999	6145.14
736.339	6122.08
736.68	6114.4
737.021	6045.48
737.361	6122.76
737.702	6141.52
738.042	6185.59
738.383	6134.06
738.723	6182.87
739.063	6181.29
739.404	6133.38
739.744	6108.07
740.084	6076.89
740.424	6098.36
740.764	6078.7
741.104	6214.29
741.444	6129.99
741.784	6157.79
742.124	6190.33
742.464	6215.87
742.804	6168.19
743.143	6229.2
743.483	6180.39
743.823	6206.6
744.162	6196.21
744.502	6209.99
744.841	6214.96
745.181	6329.54
745.52	6286.15
745.86	6336.77
746.199	6369.99
746.538	6380.84
746.877	6385.81
747.216	6493.83
747.556	6389.65
747.895	6479.82
748.234	6528.85
748.573	6530.21
748.911	6532.02
749.25	6624.67
749.589	6630.09
749.928	6663.99
750.267	6749.41
750.605	6739.92
750.944	6821.05
751.283	6859.69
751.621	6929.3
751.96	6927.26
752.298	7007.26
752.636	7071.21
752.975	7116.63
753.313	7126.13
753.651	7210.19
753.989	7313.24
754.327	7454.71
754.666	7357.31
755.004	7545.55
755.342	7605.89
755.679	7708.71
756.017	7756.84
756.355	7874.13
756.693	7872.55
757.031	8031.19
757.368	8089.49
757.706	8207.91
758.044	8255.81
758.381	8399.77
758.719	8493.55
759.056	8592.08
759.394	8678.85
759.731	8708.46
760.068	8811.73
760.405	8893.09
760.743	8999.75
761.08	9129.69
761.417	9173.76
761.754	9292.62
762.091	9406.29
762.428	9557.02
762.765	9549.11
763.102	9734.87
763.438	9797.24
763.775	9859.16
764.112	10030.91
764.449	10114.75
764.785	10228.42
765.122	10219.6
765.458	10277.91
765.795	10430.9
766.131	10558.13
766.467	10600.16
766.804	10611.23
767.14	10708.86
767.476	10839.25
767.812	10918.79
768.148	11015.74
768.485	11129.18
768.821	11131.67
769.157	11218.9
