Data from hue_250_FLMS001491_00064.txt Node
Date: Tue Feb 07 16:01:18 GMT 2017
User: dcchb
Spectrometer: FLMS00149
Trigger mode: 0
Integration Time (sec): 2.000000E-2
Scans to average: 10
Electric dark correction enabled: true
Nonlinearity correction enabled: false
Boxcar width: 0
XAxis mode: Wavelengths
Number of Pixels in Spectrum: 2048
>>>>>Begin Spectral Data<<<<<
341.393	-22.75
341.776	-22.75
342.16	-22.75
342.543	-61.62
342.927	-88.74
343.31	-73.37
343.693	-62.53
344.077	-63.43
344.46	-52.36
344.843	-67.27
345.226	-25.92
345.61	-32.7
345.993	-18.91
346.376	-2.64
346.759	13.18
347.142	40.07
347.525	27.19
347.908	50.46
348.291	91.14
348.674	91.14
349.057	85.94
349.44	117.81
349.823	114.19
350.206	156.68
350.588	185.15
350.971	203
351.354	209.78
351.737	219.95
352.119	242.32
352.502	269.44
352.884	269.67
353.267	283.68
353.65	292.94
354.032	273.74
354.414	302.44
354.797	300.4
355.179	312.6
355.562	323
355.944	323.23
356.326	316.22
356.709	337.24
357.091	300.85
357.473	305.83
357.855	330.46
358.238	333.62
358.62	339.27
359.002	333.62
359.384	318.48
359.766	322.55
360.148	350.34
360.53	334.98
360.912	327.29
361.294	314.64
361.676	334.75
362.057	317.35
362.439	308.76
362.821	296.33
363.203	320.29
363.584	316.9
363.966	325.26
364.348	312.15
364.729	329.1
365.111	333.4
365.493	321.19
365.874	311.02
366.256	331.36
366.637	329.78
367.019	317.8
367.4	297.92
367.781	287.75
368.163	297.92
368.544	310.57
368.925	318.03
369.306	311.7
369.688	315.09
370.069	296.79
370.45	297.01
370.831	311.02
371.212	300.63
371.593	304.02
371.974	292.49
372.355	294.75
372.736	318.25
373.117	300.63
373.498	299.27
373.879	308.76
374.26	320.51
374.641	292.72
375.021	320.06
375.402	309.22
375.783	309.22
376.163	324.58
376.544	326.39
376.925	320.06
377.305	322.32
377.686	324.81
378.066	306.05
378.447	298.82
378.827	328.88
379.208	326.84
379.588	334.3
379.968	345.6
380.349	330.46
380.729	339.04
381.109	316.67
381.489	324.13
381.87	330.46
382.25	354.41
382.63	345.82
383.01	349.21
383.39	338.59
383.77	344.47
384.15	326.62
384.53	359.38
384.91	363.9
385.29	344.02
385.67	341.76
386.049	357.35
386.429	353.51
386.809	349.89
387.189	368.87
387.568	369.33
387.948	371.81
388.328	358.48
388.707	373.39
389.087	374.07
389.466	357.58
389.846	365.26
390.225	362.09
390.605	373.62
390.984	373.85
391.363	355.09
391.743	373.85
392.122	379.27
392.501	410.46
392.881	376.11
393.26	387.86
393.639	383.56
394.018	384.69
394.397	370.91
394.776	395.09
395.155	407.29
395.534	379.5
395.913	399.61
396.292	392.6
396.671	395.99
397.05	389.66
397.429	396.9
397.808	405.94
398.186	419.95
398.565	414.3
398.944	421.08
399.323	408.2
399.701	409.33
400.08	419.27
400.458	414.07
400.837	416.56
401.215	437.12
401.594	429.44
401.972	419.27
402.351	429.89
402.729	441.41
403.107	426.95
403.486	442.54
403.864	438.93
404.242	438.03
404.62	467.63
404.999	439.61
405.377	470.11
405.755	454.97
406.133	483.22
406.511	471.02
406.889	485.26
407.267	485.26
407.645	489.1
408.023	485.03
408.401	504.46
408.779	503.56
409.156	486.84
409.534	510.11
409.912	522.54
410.29	525.71
410.667	529.32
411.045	558.02
411.422	560.96
411.8	549.66
412.178	544.92
412.555	553.05
412.933	573.84
413.31	586.95
413.687	583.11
414.065	613.84
414.442	593.73
414.819	595.76
415.197	608.42
415.574	606.83
415.951	648.19
416.328	650.22
416.705	631.69
417.082	640.96
417.46	665.36
417.837	658.81
418.214	645.93
418.591	670.34
418.967	666.04
419.344	696.32
419.721	682.09
420.098	675.76
420.475	711.92
420.852	709.88
421.228	728.41
421.605	750.79
421.982	739.26
422.358	751.01
422.735	754.4
423.111	749.43
423.488	769.32
423.864	790.11
424.241	779.71
424.617	818.35
424.994	826.26
425.37	841.63
425.746	833.27
426.123	844.79
426.499	857
426.875	871.01
427.251	880.95
427.627	887.96
428.003	911.69
428.379	905.13
428.756	889.31
429.132	907.84
429.507	951.23
429.883	946.94
430.259	975.86
430.635	979.03
431.011	977.22
431.387	992.36
431.763	1045.69
432.138	1012.47
432.514	1028.74
432.89	1053.38
433.265	1067.16
433.641	1086.14
434.016	1093.83
434.392	1126.37
434.767	1147.61
435.143	1163.2
435.518	1153.49
435.894	1185.8
436.269	1174.28
436.644	1218.8
437.02	1222.64
437.395	1234.16
437.77	1225.8
438.145	1280.71
438.52	1300.6
438.895	1308.28
439.271	1299.47
439.646	1347.61
440.021	1358
440.395	1373.14
440.77	1354.84
441.145	1385.8
441.52	1421.05
441.895	1420.6
442.27	1450.2
442.645	1412.46
443.019	1461.28
443.394	1480.03
443.769	1477.55
444.143	1490.43
444.518	1507.6
444.892	1517.54
445.267	1535.62
445.641	1518.45
446.016	1538.79
446.39	1566.36
446.764	1553.93
447.139	1546.92
447.513	1559.58
447.887	1580.59
448.262	1608.62
448.636	1640.71
449.01	1626.24
449.384	1650.42
449.758	1670.08
450.132	1662.17
450.506	1690.65
450.88	1685.9
451.254	1651.1
451.628	1722.06
452.002	1747.37
452.376	1750.76
452.75	1779.46
453.123	1800.93
453.497	1798.89
453.871	1804.77
454.244	1820.59
454.618	1869.85
454.992	1881.38
455.365	1859.46
455.739	1923.18
456.112	1943.97
456.486	1969.96
456.859	1970.41
457.232	1993.69
457.606	1997.98
457.979	2025.78
458.352	2063.07
458.725	2087.25
459.099	2088.15
459.472	2158.88
459.845	2167.92
460.218	2188.04
460.591	2196.4
460.964	2196.17
461.337	2254.25
461.71	2268.71
462.083	2282.5
462.456	2307.13
462.829	2312.33
463.201	2350.07
463.574	2367.01
463.947	2409.95
464.32	2429.16
464.692	2438.65
465.065	2461.25
465.438	2530.63
465.81	2555.03
466.183	2574.24
466.555	2590.51
466.928	2614.92
467.3	2646.78
467.672	2616.05
468.045	2750.51
468.417	2743.5
468.789	2729.04
469.161	2796.16
469.534	2817.85
469.906	2886.77
470.278	2868.24
470.65	2909.37
471.022	2940.33
471.394	2999.99
471.766	3037.05
472.138	3095.13
472.51	3099.2
472.882	3173.55
473.253	3174.45
473.625	3220.55
473.997	3279.76
474.369	3312.98
474.74	3360.66
475.112	3392.3
475.484	3474.1
475.855	3506.65
476.227	3510.49
476.598	3617.15
476.97	3656.92
477.341	3691.27
477.713	3771.95
478.084	3764.94
478.455	3895.34
478.827	3857.37
479.198	3963.13
479.569	4018.27
479.94	4094.65
480.311	4139.85
480.682	4213.07
481.053	4312.27
481.424	4360.86
481.795	4345.04
482.166	4426.17
482.537	4520.4
482.908	4556.33
483.279	4627.75
483.65	4659.61
484.021	4751.13
484.391	4785.71
484.762	4814.18
485.133	4863.45
485.503	4924.69
485.874	5055.98
486.244	5034.51
486.615	5137.34
486.985	5232.02
487.356	5307.73
487.726	5329.65
488.097	5375.75
488.467	5426.37
488.837	5525.35
489.207	5544.11
489.578	5668.62
489.948	5735.51
490.318	5793.36
490.688	5777.09
491.058	5841.95
491.428	5933.02
491.798	5968.28
492.168	6098.44
492.538	6077.88
492.908	6129.17
493.278	6217.53
493.648	6242.84
494.017	6280.13
494.387	6329.62
494.757	6359.45
495.126	6396.96
495.496	6456.62
495.866	6514.93
496.235	6566.23
496.605	6614.36
496.974	6649.84
497.344	6697.52
497.713	6719.44
498.082	6751.53
498.452	6818.65
498.821	6822.49
499.19	6844.86
499.559	6882.6
499.928	6976.16
500.298	6982.71
500.667	6992.66
501.036	7045.76
501.405	7128.7
501.774	7113.1
502.143	7085.08
502.512	7199.88
502.88	7262.7
503.249	7233.1
503.618	7239.2
503.987	7283.49
504.356	7366.43
504.724	7375.24
505.093	7377.28
505.462	7432.42
505.83	7468.12
506.199	7430.38
506.567	7536.14
506.936	7527.1
507.304	7582.02
507.672	7580.21
508.041	7662.69
508.409	7766.65
508.777	7697.72
509.145	7805.97
509.514	7776.59
509.882	7798.96
510.25	7828.57
510.618	7930.48
510.986	7895
511.354	7926.42
511.722	7982.23
512.09	7994.44
512.458	7974.55
512.826	8088.45
513.193	8162.34
513.561	8086.19
513.929	8170.03
514.297	8196.24
514.664	8222.45
515.032	8222.91
515.4	8300.19
515.767	8261.32
516.135	8318.95
516.502	8284.37
516.869	8440.53
517.237	8377.25
517.604	8388.1
517.972	8499.73
518.339	8485.72
518.706	8456.12
519.073	8478.72
519.44	8484.59
519.808	8592.16
520.175	8541.31
520.542	8663.12
520.909	8686.4
521.276	8705.15
521.643	8644.36
522.009	8748.54
522.376	8769.11
522.743	8821.76
523.11	8860.4
523.477	8952.6
523.843	8907.86
524.21	9045.48
524.577	9013.17
524.943	9035.54
525.31	9079.15
525.676	9106.05
526.043	9150.56
526.409	9198.02
526.776	9242.99
527.142	9214.97
527.508	9247.51
527.874	9339.03
528.241	9311.24
528.607	9323.67
528.973	9417
529.339	9381.74
529.705	9402.08
530.071	9450.44
530.437	9491.12
530.803	9540.84
531.169	9587.39
531.535	9531.12
531.901	9547.16
532.267	9615.41
532.632	9602.98
532.998	9615.41
533.364	9725.69
533.73	9655.18
534.095	9702.19
534.461	9691.57
534.826	9754.39
535.192	9745.13
535.557	9827.83
535.923	9734.73
536.288	9747.16
536.653	9847.27
537.019	9762.3
537.384	9817.67
537.749	9802.98
538.114	9777.44
538.479	9775.63
538.845	9815.86
539.21	9733.6
539.575	9788.97
539.94	9793.26
540.305	9790.55
540.67	9743.09
541.034	9852.92
541.399	9803.2
541.764	9813.82
542.129	9891.34
542.494	9846.37
542.858	9888.85
543.223	9900.83
543.587	9905.12
543.952	9913.71
544.316	9873.48
544.681	9828.06
545.045	9918.45
545.41	9933.37
545.774	9927.04
546.138	9957.55
546.503	9922.07
546.867	9878
547.231	10003.42
547.595	9954.39
547.959	10010.2
548.324	9993.03
548.688	9927.72
549.052	10046.36
549.416	9969.53
549.779	9986.47
550.143	9965.01
550.507	10040.71
550.871	10056.3
551.235	10015.17
551.599	9990.77
551.962	10076.64
552.326	10056.08
552.689	10045.23
553.053	10073.25
553.417	10004.1
553.78	10127.71
554.143	10108.05
554.507	10059.92
554.87	10087.26
555.234	10174.49
555.597	10136.08
555.96	10166.81
556.323	10112.35
556.686	10096.53
557.05	10228.05
557.413	10237.99
557.776	10223.08
558.139	10253.81
558.502	10221.95
558.865	10277.09
559.228	10285
559.59	10304.21
559.953	10334.71
560.316	10401.83
560.679	10477.31
561.041	10446.12
561.404	10485.67
561.767	10549.62
562.129	10494.26
562.492	10581.26
562.854	10604.31
563.217	10584.65
563.579	10637.76
563.941	10662.84
564.304	10647.25
564.666	10773.35
565.028	10761.6
565.39	10794.36
565.753	10845.44
566.115	10804.31
566.477	10868.71
566.839	10919.78
567.201	11007.69
567.563	10971.99
567.925	10957.75
568.287	10977.64
568.648	11065.09
569.01	11068.03
569.372	11084.75
569.734	11080.01
570.095	11191.41
570.457	11156.61
570.819	11206.1
571.18	11214.24
571.542	11266.22
571.903	11258.31
572.265	11415.14
572.626	11339.43
572.987	11389.83
573.349	11367.68
573.71	11412.43
574.071	11461.24
574.432	11468.02
574.794	11577.39
575.155	11532.87
575.516	11542.14
575.877	11654.91
576.238	11636.15
576.599	11727.67
576.96	11685.64
577.32	11703.72
577.681	11743.04
578.042	11737.62
578.403	11728.12
578.763	11806.31
579.124	11825.52
579.485	11899.64
579.845	11923.6
580.206	11844.05
580.566	11862.36
580.927	11898.06
581.287	11966.31
581.648	11941.23
582.008	12116.81
582.368	11932.86
582.728	12041.34
583.089	12064.16
583.449	12095.57
583.809	12080.43
584.169	12083.59
584.529	12143.71
584.889	12147.1
585.249	12134.21
585.609	12067.55
585.969	12169.24
586.329	12225.29
586.688	12211.73
587.048	12180.77
587.408	12231.39
587.768	12198.85
588.127	12241.56
588.487	12189.81
588.846	12300.54
589.206	12250.82
589.565	12241.33
589.925	12313.42
590.284	12320.65
590.643	12402.68
591.003	12391.38
591.362	12385.28
591.721	12398.61
592.08	12384.38
592.44	12392.74
592.799	12448.33
593.158	12403.36
593.517	12446.97
593.876	12452.62
594.235	12431.16
594.593	12472.06
594.952	12585.73
595.311	12407.65
595.67	12485.84
596.029	12535.56
596.387	12528.1
596.746	12543.92
597.104	12519.74
597.463	12483.81
597.822	12571.72
598.18	12462.79
598.538	12483.36
598.897	12570.36
599.255	12528.1
599.613	12630.7
599.972	12556.8
600.33	12598.38
600.688	12574.2
601.046	12621.21
601.404	12653.75
601.762	12646.29
602.12	12738.49
602.478	12741.66
602.836	12718.15
603.194	12758.61
603.552	12682.9
603.91	12673.64
604.268	12715.44
604.625	12696.91
604.983	12737.36
605.341	12616.24
605.698	12709.57
606.056	12699.85
606.413	12754.54
606.771	12746.85
607.128	12821.2
607.485	12760.41
607.843	12760.41
608.2	12826.63
608.557	12800.64
608.914	12847.42
609.272	12902.1
609.629	12928.77
609.986	12885.38
610.343	12924.25
610.7	12878.83
611.057	12936.45
611.414	12918.15
611.771	12921.09
612.127	13031.37
612.484	12967.87
612.841	12933.52
613.198	12975.77
613.554	13007.64
613.911	13137.8
614.267	13022.55
614.624	12904.36
614.98	13065.26
615.337	13150.91
615.693	13078.6
616.05	13076.34
616.406	13100.74
616.762	13072.04
617.118	13138.71
617.475	13122.21
617.831	13245.37
618.187	13113.4
618.543	13180.97
618.899	13079.5
619.255	13078.82
619.611	13194.53
619.967	13195.2
620.323	13192.49
620.678	13188.65
621.034	13182.1
621.39	13128.76
621.746	13194.75
622.101	13241.98
622.457	13185.94
622.812	13234.3
623.168	13237.69
623.523	13213.51
623.879	13285.37
624.234	13106.17
624.589	13215.77
624.945	13217.35
625.3	13249.21
625.655	13247.41
626.01	13182.55
626.365	13244.47
626.72	13181.64
627.075	13179.16
627.43	13170.8
627.785	13211.93
628.14	13167.86
628.495	13175.77
628.85	13147.75
629.205	13150.91
629.559	13130.35
629.914	13124.47
630.269	13170.57
630.623	13135.32
630.978	13039.05
631.332	13149.56
631.687	13109.33
632.041	13053.74
632.396	13058.71
632.75	13037.69
633.104	13027.3
633.459	12985.94
633.813	12997.24
634.167	12986.17
634.521	12920.63
634.875	13011.48
635.229	12922.67
635.583	12862.56
635.937	12935.78
636.291	12874.76
636.645	12919.5
636.999	12818.49
637.352	12886.29
637.706	12842.44
638.06	12828.89
638.413	12820.52
638.767	12697.14
639.121	12912.05
639.474	12733.97
639.828	12741.2
640.181	12739.17
640.534	12691.49
640.888	12652.62
641.241	12599.06
641.594	12658.04
641.947	12765.84
642.301	12677.93
642.654	12710.47
643.007	12598.84
643.36	12576.24
643.713	12570.36
644.066	12587.31
644.419	12559.29
644.771	12499.4
645.124	12436.58
645.477	12366.53
645.83	12275.45
646.182	12208.79
646.535	12184.83
646.888	12210.82
647.24	12064.61
647.593	12139.64
647.945	12158.17
648.298	12066.65
648.65	12041.79
649.002	12024.16
649.355	12112.29
649.707	12062.8
650.059	12117.49
650.411	12270.93
650.763	12293.31
651.115	12467.54
651.467	12289.92
651.819	12388.22
652.171	12391.84
652.523	12377.6
652.875	12330.37
653.227	12315.9
653.578	12379.18
653.93	12329.24
654.282	12288.56
654.633	12239.75
654.985	12288.11
655.337	12331.95
655.688	12217.83
656.039	12361.1
656.391	12223.7
656.742	12257.6
657.094	12214.89
657.445	12323.59
657.796	12270.26
658.147	12244.27
658.498	12172.41
658.849	12223.25
659.2	12228.45
659.551	12284.49
659.902	12348.45
660.253	12314.78
660.604	12316.13
660.955	12213.99
661.306	12247.66
661.656	12267.09
662.007	12283.82
662.358	12222.8
662.708	12225.74
663.059	12293.08
663.409	12177.6
663.76	12275.23
664.11	12281.56
664.461	12254.66
664.811	12282.46
665.161	12271.39
665.511	12221.22
665.862	12241.1
666.212	12348.45
666.562	12267.32
666.912	12277.26
667.262	12242.91
667.612	12227.09
667.962	12313.42
668.312	12240.65
668.662	12220.54
669.011	12188
669.361	12220.09
669.711	12166.3
670.06	12163.37
670.41	12165.85
670.76	12047.89
671.109	12208.56
671.459	12254.89
671.808	12151.39
672.157	12095.35
672.507	12109.58
672.856	12094.44
673.205	12114.55
673.554	12116.59
673.904	12042.47
674.253	12122.24
674.602	12154.33
674.951	11861.68
675.3	11899.42
675.649	12092.41
675.998	12109.58
676.346	12012.18
676.695	12067.78
677.044	11915.01
677.393	12020.09
677.741	11969.7
678.09	12056.25
678.438	11961.34
678.787	11898.97
679.135	11931.51
679.484	11875.01
679.832	11965.18
680.181	11908.23
680.529	11855.58
680.877	11872.98
681.225	11840.89
681.573	11945.07
681.922	11773.77
682.27	11739.65
682.618	11749.37
682.966	11748.01
683.314	11744.85
683.661	11722.02
684.009	11644.74
684.357	11607.22
684.705	11568.35
685.053	11543.95
685.4	11551.86
685.748	11569.71
686.095	11481.8
686.443	11432.76
686.79	11464.63
687.138	11429.37
687.485	11392.09
687.832	11432.31
688.18	11391.86
688.527	11348.02
688.874	11334.91
689.221	11253.56
689.568	11218.08
689.915	11255.82
690.262	11256.27
690.609	11190.74
690.956	11085.2
691.303	11116.84
691.65	11026
691.997	11000.69
692.344	10944.87
692.69	11050.18
693.037	10965.43
693.383	10904.64
693.73	10983.96
694.077	10842.5
694.423	10860.58
694.769	10819.67
695.116	10800.69
695.462	10798.66
695.808	10728.38
696.155	10811.76
696.501	10670.3
696.847	10626.23
697.193	10541.04
697.539	10589.62
697.885	10492.9
698.231	10368.39
698.577	10470.98
698.923	10447.48
699.269	10377.42
699.614	10323.41
699.96	10253.13
700.306	10181.72
700.651	10164.78
700.997	10197.32
701.342	10153.7
701.688	10078
702.033	10079.13
702.379	10081.84
702.724	10056.53
703.069	10045.46
703.415	9962.75
703.76	9951.22
704.105	9974.05
704.45	9924.78
704.795	9839.81
705.14	9808.4
705.485	9814.95
705.83	9713.26
706.175	9777.21
706.52	9681.85
706.865	9682.08
707.209	9643.88
707.554	9577.67
707.899	9699.25
708.243	9563.21
708.588	9535.87
708.932	9513.49
709.277	9526.15
709.621	9441.86
709.966	9420.39
710.31	9388.07
710.654	9356.89
710.998	9341.52
711.342	9402.31
711.687	9370.22
712.031	9240.96
712.375	9390.33
712.719	9287.28
713.063	9265.36
713.407	9335.87
713.75	9211.13
714.094	9294.52
714.438	9184.91
714.782	9218.81
715.125	9204.57
715.469	9182.65
715.812	9148.98
716.156	9081.64
716.499	9073.73
716.843	9072.37
717.186	8991.02
717.53	9107.63
717.873	9090.23
718.216	9017.23
718.559	9046.39
718.902	9001.19
719.246	8905.83
719.589	8991.25
719.932	8894.53
720.275	8937.01
720.617	8950.34
720.96	8918.48
721.303	8931.59
721.646	8847.52
721.989	8810.23
722.331	8872.61
722.674	8819.27
723.016	8797.58
723.359	8773.85
723.701	8824.25
724.044	8725.72
724.386	8737.24
724.729	8804.58
725.071	8762.33
725.413	8813.17
725.755	8711.25
726.097	8683.01
726.439	8679.16
726.782	8684.81
727.124	8717.58
727.465	8689.11
727.807	8687.75
728.149	8682.1
728.491	8642.1
728.833	8601.88
729.175	8611.6
729.516	8631.48
729.858	8593.07
730.199	8617.92
730.541	8641.65
730.882	8573.63
731.224	8628.54
731.565	8592.39
731.906	8537.7
732.248	8605.27
732.589	8604.14
732.93	8553.52
733.271	8512.62
733.612	8540.64
733.953	8556.91
734.294	8546.51
734.635	8484.14
734.976	8553.52
735.317	8478.27
735.658	8515.78
735.999	8501.54
736.339	8488.43
736.68	8564.37
737.021	8494.08
737.361	8423.13
737.702	8548.09
738.042	8521.2
738.383	8466.74
738.723	8583.12
739.063	8528.66
739.404	8584.93
739.744	8553.29
740.084	8491.6
740.424	8575.21
740.764	8519.62
741.104	8581.77
741.444	8542.9
741.784	8515.55
742.124	8523.69
742.464	8522.11
742.804	8522.78
743.143	8507.42
743.483	8473.07
743.823	8517.59
744.162	8531.6
744.502	8549.22
744.841	8504.48
745.181	8616.79
745.52	8552.16
745.86	8649.11
746.199	8685.27
746.538	8667.19
746.877	8704.25
747.216	8722.1
747.556	8791.7
747.895	8763
748.234	8835.77
748.573	8803.23
748.911	8894.53
749.25	8927.75
749.589	8880.06
749.928	8991.92
750.267	8993.28
750.605	9020.85
750.944	9079.38
751.283	9196.89
751.621	9182.43
751.96	9263.33
752.298	9322.76
752.636	9310.33
752.975	9411.12
753.313	9391.01
753.651	9532.25
753.989	9553.04
754.327	9632.36
754.666	9644.34
755.004	9786.25
755.342	9830.32
755.679	9972.46
756.017	9960.71
756.355	10085.68
756.693	10124.32
757.031	10225.34
757.368	10311.44
757.706	10322.06
758.044	10530.64
758.381	10515.73
758.719	10625.1
759.056	10803.63
759.394	10848.6
759.731	10937.86
760.068	11003.17
760.405	11105.32
760.743	11190.74
