Data from hue_40_FLMS001491_88.txt Node
Date: Mon Feb 06 15:08:41 GMT 2017
User: dcchb
Spectrometer: FLMS00149
Trigger mode: 0
Integration Time (sec): 2.000000E-2
Scans to average: 10
Electric dark correction enabled: true
Nonlinearity correction enabled: false
Boxcar width: 0
XAxis mode: Wavelengths
Number of Pixels in Spectrum: 2048
>>>>>Begin Spectral Data<<<<<
341.393	-7.64
341.776	-7.64
342.16	-7.64
342.543	-93.06
342.927	-76.34
343.31	-73.18
343.693	-60.97
344.077	-71.37
344.46	-66.4
344.843	-58.49
345.226	-54.87
345.61	-10.35
345.993	-8.77
346.376	2.3
346.759	9.76
347.142	17.22
347.525	36.43
347.908	49.98
348.291	69.19
348.674	95.86
349.057	123.65
349.44	127.95
349.823	125.01
350.206	159.59
350.588	191.22
350.971	218.57
351.354	201.84
351.737	213.6
352.119	254.72
352.502	257.89
352.884	233.93
353.267	276.65
353.65	283.88
354.032	300.37
354.414	295.4
354.797	325.01
355.179	339.47
355.562	326.81
355.944	324.55
356.326	318
356.709	318
357.091	331.33
357.473	327.04
357.855	330.66
358.238	337.21
358.62	329.53
359.002	318.9
359.384	318.9
359.766	324.1
360.148	328.62
360.53	322.52
360.912	339.24
361.294	321.62
361.676	324.1
362.057	329.07
362.439	342.86
362.821	325.91
363.203	333.37
363.584	322.75
363.966	315.06
364.348	309.41
364.729	321.84
365.111	328.62
365.493	311.22
365.874	313.48
366.256	306.7
366.637	323.42
367.019	298.79
367.4	324.33
367.781	298.79
368.163	322.52
368.544	301.05
368.925	324.78
369.306	309.64
369.688	309.19
370.069	308.73
370.45	319.58
370.831	320.26
371.212	311.22
371.593	322.75
371.974	323.2
372.355	313.03
372.736	315.29
373.117	308.06
373.498	310.32
373.879	296.31
374.26	333.14
374.641	312.35
375.021	303.99
375.402	318.23
375.783	317.1
376.163	328.62
376.544	336.3
376.925	319.13
377.305	320.49
377.686	325.46
378.066	316.19
378.447	310.09
378.827	322.97
379.208	317.77
379.588	310.54
379.968	332.01
380.349	332.69
380.729	345.57
381.109	324.55
381.489	340.37
381.87	336.98
382.25	348.28
382.63	333.59
383.01	313.25
383.39	341.95
383.77	328.4
384.15	334.95
384.53	331.33
384.91	348.73
385.29	337.21
385.67	365.91
386.049	334.72
386.429	329.53
386.809	337.43
387.189	352.12
387.568	346.25
387.948	350.99
388.328	350.54
388.707	362.29
389.087	349.86
389.466	365.23
389.846	335.17
390.225	371.33
390.605	390.09
390.984	365.91
391.363	339.92
391.743	369.98
392.122	364.33
392.501	376.3
392.881	380.6
393.26	361.39
393.639	389.86
394.018	390.54
394.397	366.81
394.776	347.38
395.155	350.54
395.534	398.22
395.913	366.36
396.292	368.17
396.671	383.31
397.05	394.61
397.429	389.18
397.808	378.34
398.186	369.98
398.565	380.6
398.944	388.05
399.323	389.86
399.701	397.77
400.08	396.42
400.458	391.44
400.837	393.7
401.215	388.28
401.594	396.87
401.972	389.86
402.351	388.96
402.729	418.34
403.107	420.14
403.486	412.23
403.864	391.44
404.242	410.2
404.62	416.08
404.999	410.2
405.377	420.37
405.755	425.79
406.133	410.2
406.511	423.53
406.889	421.95
407.267	438
407.645	430.09
408.023	428.28
408.401	438.9
408.779	456.53
409.156	450.88
409.534	429.18
409.912	435.96
410.29	456.98
410.667	433.93
411.045	461.05
411.422	458.11
411.8	483.19
412.178	461.5
412.555	477.09
412.933	463.76
413.31	480.93
413.687	476.41
414.065	482.29
414.442	482.06
414.819	469.86
415.197	485.91
415.574	478.22
415.951	496.3
416.328	504.66
416.705	502.4
417.082	507.15
417.46	503.31
417.837	522.06
418.214	509.41
418.591	519.8
418.967	509.41
419.344	523.42
419.721	503.08
420.098	515.96
420.475	541.72
420.852	530.42
421.228	524.1
421.605	529.52
421.982	550.08
422.358	548.95
422.735	535.17
423.111	552.34
423.488	576.98
423.864	564.1
424.241	577.2
424.617	555.51
424.994	574.49
425.37	567.94
425.746	552.12
426.123	588.5
426.499	577.88
426.875	588.95
427.251	598.67
427.627	574.26
428.003	615.85
428.379	607.48
428.756	602.06
429.132	630.99
429.507	624.43
429.883	614.94
430.259	627.82
430.635	635.28
431.011	650.42
431.387	643.87
431.763	653.36
432.138	659.23
432.514	652.45
432.89	646.35
433.265	658.78
433.641	670.76
434.016	681.15
434.392	671.89
434.767	682.28
435.143	701.04
435.518	694.71
435.894	708.95
436.269	732.68
436.644	732.68
437.02	736.29
437.395	717.76
437.77	734.49
438.145	748.95
438.52	752.79
438.895	759.57
439.271	773.81
439.646	781.94
440.021	786.69
440.395	768.84
440.77	793.92
441.145	761.15
441.52	774.03
441.895	793.69
442.27	802.96
442.645	812.9
443.019	812.22
443.394	793.02
443.769	807.25
444.143	837.31
444.518	812.45
444.892	841.38
445.267	855.16
445.641	859
446.016	838.21
446.39	848.16
446.764	857.42
447.139	856.07
447.513	849.51
447.887	849.29
448.262	876.63
448.636	868.95
449.01	882.73
449.384	877.31
449.758	876.86
450.132	883.18
450.506	894.03
450.88	902.39
451.254	926.35
451.628	903.3
452.002	949.17
452.376	940.58
452.75	931.32
453.123	969.96
453.497	962.73
453.871	956.18
454.244	953.92
454.618	988.04
454.992	992.11
455.365	1010.19
455.739	1020.81
456.112	1029.39
456.486	1051.77
456.859	1038.89
457.232	1067.81
457.606	1037.76
457.979	1066.68
458.352	1103.97
458.725	1092.22
459.099	1096.96
459.472	1130.86
459.845	1120.46
460.218	1150.29
460.591	1142.16
460.964	1139.22
461.337	1211.54
461.71	1194.36
462.083	1210.63
462.456	1191.88
462.829	1240.01
463.201	1223.06
463.574	1249.28
463.947	1267.81
464.32	1284.08
464.692	1299.67
465.065	1299.67
465.438	1343.06
465.81	1357.07
466.183	1377.18
466.555	1377.86
466.928	1394.36
467.3	1390.51
467.672	1409.27
468.045	1452.66
468.417	1472.32
468.789	1487.69
469.161	1482.49
469.534	1547.57
469.906	1555.71
470.278	1602.49
470.65	1615.82
471.022	1638.64
471.394	1706.66
471.766	1688.81
472.138	1714.8
472.51	1755.7
472.882	1780.33
473.253	1829.15
473.625	1863.04
473.997	1884.96
474.369	1928.58
474.74	1945.53
475.112	1993.21
475.484	2084.96
475.855	2098.07
476.227	2092.42
476.598	2174.67
476.97	2202.47
477.341	2259.19
477.713	2321.34
478.084	2322.24
478.455	2415.8
478.827	2433.65
479.198	2555.91
479.569	2560.88
479.94	2658.96
480.311	2704.15
480.682	2738.05
481.053	2824.83
481.424	2945.73
481.795	2974.88
482.166	3020.98
482.537	3115.67
482.908	3231.6
483.279	3276.34
483.65	3342.55
484.021	3455.32
484.391	3516.79
484.762	3614.86
485.133	3671.13
485.503	3776.89
485.874	3850.34
486.244	3927.4
486.615	4023.44
486.985	4138.24
487.356	4201.29
487.726	4317.89
488.097	4496.2
488.467	4481.51
488.837	4701.61
489.207	4729.64
489.578	4827.49
489.948	4955.17
490.318	5032.9
490.688	5099.8
491.058	5241.26
491.428	5361.03
491.798	5460.92
492.168	5591.99
492.538	5651.65
492.908	5775.71
493.278	5901.81
493.648	5947.46
494.017	6056.15
494.387	6127.11
494.757	6298.18
495.126	6387.45
495.496	6407.78
495.866	6541.34
496.235	6642.35
496.605	6764.84
496.974	6850.71
497.344	6944.04
497.713	6986.98
498.082	7134.09
498.452	7271.04
498.821	7328.66
499.19	7343.35
499.559	7446.85
499.928	7617.24
500.298	7695.43
500.667	7728.88
501.036	7833.96
501.405	7951.47
501.774	7991.24
502.143	8188.75
502.512	8224.91
502.88	8277.11
503.249	8341.74
503.618	8447.05
503.987	8437.11
504.356	8558.24
504.724	8639.14
505.093	8736.08
505.462	8816.99
505.83	8909.64
506.199	8975.85
506.567	9129.75
506.936	9056.3
507.304	9230.31
507.672	9312.57
508.041	9379.68
508.409	9473.92
508.777	9560.69
509.145	9655.83
509.514	9672.1
509.882	9808.6
510.25	9812.44
510.618	9907.35
510.986	9983.51
511.354	10077.07
511.722	10143.05
512.09	10266.67
512.458	10205.65
512.826	10362.03
513.193	10463.5
513.561	10493.78
513.929	10551.18
514.297	10674.56
514.664	10781.45
515.032	10810.61
515.4	10858.29
515.767	10922.24
516.135	10989.13
516.502	11028.23
516.869	11109.13
517.237	11210.82
517.604	11216.47
517.972	11312.74
518.339	11385.05
518.706	11442
519.073	11524.49
519.44	11522
519.808	11706.85
520.175	11770.13
520.542	11911.14
520.909	11933.29
521.276	11970.35
521.643	12056.67
522.009	12143
522.376	12199.27
522.743	12289.44
523.11	12403.11
523.477	12578.69
523.843	12584.57
524.21	12765.58
524.577	12827.95
524.943	12871.57
525.31	12935.75
525.676	13099.81
526.043	13142.3
526.409	13139.58
526.776	13258.68
527.142	13334.83
527.508	13384.32
527.874	13552.45
528.241	13621.83
528.607	13591.32
528.973	13774.82
529.339	13655.5
529.705	13839.9
530.071	13974.14
530.437	14043.51
530.803	14156.28
531.169	14267.69
531.535	14249.16
531.901	14221.82
532.267	14375.94
532.632	14396.05
532.998	14513.79
533.364	14497.74
533.73	14645.98
534.095	14768.24
534.461	14789.94
534.826	14909.03
535.192	14914.68
535.557	14989.03
535.923	14987.9
536.288	15028.12
536.653	15231.96
537.019	15163.71
537.384	15186.54
537.749	15295.69
538.114	15366.19
538.479	15488
538.845	15543.81
539.21	15541.33
539.575	15654.09
539.94	15609.35
540.305	15709.01
540.67	15770.7
541.034	15828.1
541.399	15947.65
541.764	15909
542.129	16062.67
542.494	16033.07
542.858	16174.31
543.223	16185.61
543.587	16311.48
543.952	16322.33
544.316	16413.85
544.681	16438.48
545.045	16465.82
545.41	16566.84
545.774	16638.93
546.138	16759.6
546.503	16660.62
546.867	16829.2
547.231	16946.04
547.595	16964.12
547.959	17024.91
548.324	16989.65
548.688	17104.45
549.052	17158.69
549.416	17163.21
549.779	17221.06
550.143	17316.88
550.507	17394.16
550.871	17442.07
551.235	17494.95
551.599	17518.45
551.962	17559.35
552.326	17719.58
552.689	17767.03
553.053	17777.2
553.417	17736.98
553.78	17986.46
554.143	17905.33
554.507	18012.68
554.87	18119.11
555.234	18157.31
555.597	18124.31
555.96	18248.83
556.323	18303.29
556.686	18355.27
557.05	18460.35
557.413	18458.99
557.776	18551.64
558.139	18814.69
558.502	18622.6
558.865	18742.83
559.228	18878.42
559.59	19006.32
559.953	18874.12
560.316	19148.24
560.679	19163.61
561.041	19296.48
561.404	19295.81
561.767	19396.14
562.129	19397.5
562.492	19537.83
562.854	19513.65
563.217	19599.08
563.579	19669.36
563.941	19830.71
564.304	19879.52
564.666	19929.69
565.028	19917.48
565.39	20128.33
565.753	20191.15
566.115	20300.3
566.477	20431.82
566.839	20486.51
567.201	20598.14
567.563	20617.58
567.925	20560.86
568.287	20674.98
568.648	20837.23
569.01	20900.28
569.372	21149.32
569.734	20949.55
570.095	21081.52
570.457	21269.99
570.819	21225.02
571.18	21192.93
571.542	21495.75
571.903	21463.88
572.265	21586.82
572.626	21588.4
572.987	21737.55
573.349	21835.85
573.71	21940.26
574.071	22090.99
574.432	22128.27
574.794	22272.9
575.155	22236.07
575.516	22302.51
575.877	22509.28
576.238	22497.76
576.599	22688.03
576.96	22749.5
577.32	22850.06
577.681	22984.3
578.042	23135.93
578.403	23177.96
578.763	23358.07
579.124	23458.86
579.485	23622.92
579.845	23730.49
580.206	23795.57
580.566	24019.98
580.927	24076.7
581.287	24233.3
581.648	24381.77
582.008	24642.33
582.368	24769.33
582.728	24812.72
583.089	25036.45
583.449	25111.25
583.809	25289.55
584.169	25477.11
584.529	25578.8
584.889	26054.5
585.249	25952.81
585.609	26123.2
585.969	26227.83
586.329	26429.63
586.688	26679.79
587.048	26737.42
587.408	26892.89
587.768	27076.62
588.127	27242.04
588.487	27281.58
588.846	27764.96
589.206	27674.34
589.565	27991.62
589.925	28189.13
590.284	28246.31
590.643	28483.36
591.003	28782.79
591.362	28977.81
591.721	29020.07
592.08	29276.79
592.44	29540.51
592.799	29796.77
593.158	29889.43
593.517	29978.92
593.876	30156.09
594.235	30199.7
594.593	30428.17
594.952	30751.78
595.311	30601.05
595.67	31065.67
596.029	31254.81
596.387	31447.58
596.746	31699.77
597.104	31692.32
597.463	31885.08
597.822	32120.78
598.18	32086.43
598.538	32293.2
598.897	32557.38
599.255	32475.57
599.613	33183.8
599.972	33055.22
600.33	33179.06
600.688	33203.24
601.046	33433.29
601.404	33671.25
601.762	33828.53
602.12	33971.58
602.478	34245.24
602.836	34271.46
603.194	34206.37
603.552	34372.47
603.91	34499.7
604.268	34725.68
604.625	34779.01
604.983	35016.3
605.341	34964.77
605.698	35131.32
606.056	35402.73
606.413	35470.97
606.771	35743.96
607.128	35689.27
607.485	35735.15
607.843	35843.17
608.2	36192.54
608.557	36203.16
608.914	36352.53
609.272	36427.33
609.629	36585.75
609.986	36762.69
610.343	36690.38
610.7	37053.31
611.057	37054.44
611.414	37148.9
611.771	37239.52
612.127	37460.98
612.484	37438.61
612.841	37550.92
613.198	37503.01
613.554	37742.78
613.911	37885.37
614.267	37969.44
614.624	37980.06
614.98	38048.08
615.337	38246.72
615.693	38225.03
616.05	38320.84
616.406	38626.37
616.762	38481.06
617.118	38524.68
617.475	38649.87
617.831	38798.57
618.187	38879.7
618.543	38941.39
618.899	39172.35
619.255	39133.48
619.611	39205.57
619.967	39343.19
620.323	39482.17
620.678	39229.07
621.034	39338.44
621.39	39297.77
621.746	39323.53
622.101	39793.12
622.457	39530.08
622.812	39754.7
623.168	39774.36
623.523	39859.56
623.879	39876.96
624.234	39648.94
624.589	39912.67
624.945	40022.27
625.3	39996.96
625.655	40012.55
626.01	40135.03
626.365	40017.3
626.72	40095.94
627.075	39970.52
627.43	40130.51
627.785	39979.33
628.14	40120.12
628.495	40212.09
628.85	40196.5
629.205	39998.76
629.559	40406.44
629.914	40176.39
630.269	40332.77
630.623	39963.51
630.978	40189.27
631.332	40381.13
631.687	40205.99
632.041	40149.5
632.396	40139.55
632.75	40121.93
633.104	40175.03
633.459	39996.96
633.813	39998.99
634.167	39951.31
634.521	39945.21
634.875	40088.25
635.229	40086.67
635.583	39816.17
635.937	39860.46
636.291	39957.41
636.645	39961.03
636.999	39797.87
637.352	39913.8
637.706	39730.07
638.06	39894.36
638.413	39771.43
638.767	39715.61
639.121	39802.16
639.474	39490.98
639.828	39647.59
640.181	39728.72
640.534	39825.21
640.888	39602.16
641.241	39485.56
641.594	39659.79
641.947	39758.32
642.301	39615.27
642.654	39581.37
643.007	39573.69
643.36	39641.94
643.713	39604.2
644.066	39516.97
644.419	39375.28
644.771	39185
645.124	38728.52
645.477	38682.64
645.83	38513.83
646.182	38302.54
646.535	38231.58
646.888	38362.2
647.24	38181.19
647.593	38228.64
647.945	38240.39
648.298	38046.5
648.65	38100.28
649.002	37777.35
649.355	38033.17
649.707	37923.11
650.059	38181.41
650.411	38593.83
650.763	38637.67
651.115	39093.03
651.467	38916.99
651.819	38742.53
652.171	38731.91
652.523	38682.42
652.875	38823.88
653.227	38458.24
653.578	38845.35
653.93	38784.11
654.282	38511.35
654.633	38540.5
654.985	38563.1
655.337	38653.94
655.688	38561.29
656.039	38772.58
656.391	38447.17
656.742	38366.94
657.094	38286.04
657.445	38618.46
657.796	38373.5
658.147	38364.68
658.498	38390.67
658.849	38504.57
659.2	38439.03
659.551	38276.32
659.902	38444.91
660.253	38390.22
660.604	38383.89
660.955	38243.56
661.306	38419.82
661.656	38377.56
662.007	38221.86
662.358	38356.1
662.708	38303.89
663.059	38265.7
663.409	38034.97
663.76	38341.63
664.11	38215.53
664.461	38152.49
664.811	38314.06
665.161	38223.9
665.511	38227.29
665.862	38180.51
666.212	38183.22
666.562	38270
666.912	38204.69
667.262	38206.27
667.612	38044.47
667.962	38067.52
668.312	38194.07
668.662	38305.48
669.011	38069.55
669.361	38109.1
669.711	38030
670.06	38023.68
670.41	37904.36
670.76	37901.64
671.109	38032.04
671.459	37944.81
671.808	37825.71
672.157	37964.02
672.507	37808.54
672.856	37840.4
673.205	37953.85
673.554	37874.3
673.904	37889.89
674.253	38087.63
674.602	37798.37
674.951	37364.71
675.3	37125.17
675.649	37710.69
675.998	37620.07
676.346	37543.91
676.695	37778.94
677.044	37508.43
677.393	37584.59
677.741	37649.22
678.09	37477.7
678.438	37479.06
678.787	37609
679.135	37630.24
679.484	37203.81
679.832	37516.34
680.181	37086.07
680.529	37324.26
680.877	37182.34
681.225	37182.34
681.573	37292.17
681.922	37077.71
682.27	36903.7
682.618	37051.95
682.966	36943.25
683.314	37020.31
683.661	36882.46
684.009	36728.57
684.357	36693.09
684.705	36629.81
685.053	36633.43
685.4	36576.48
685.748	36460.33
686.095	36470.5
686.443	36334.68
686.79	36287.9
687.138	36355.02
687.485	36162.93
687.832	36163.84
688.18	36127.45
688.527	36054.46
688.874	36024.18
689.221	35943.28
689.568	35886.56
689.915	35761.81
690.262	35587.36
690.609	35686.79
690.956	35529.73
691.303	35577.19
691.65	35288.83
691.997	35281.15
692.344	35086.35
692.69	35164.77
693.037	35205.67
693.383	34872.57
693.73	35040.02
694.077	34852.23
694.423	34785.12
694.769	34595.29
695.116	34627.61
695.462	34552.81
695.808	34389.19
696.155	34620.83
696.501	34290.44
696.847	34257.22
697.193	33938.59
697.539	33879.38
697.885	33884.35
698.231	33697.01
698.577	33830.57
698.923	33581.08
699.269	33497.92
699.614	33292.95
699.96	33390.12
700.306	33409.33
700.651	33207.53
700.997	33040.3
701.342	33020.42
701.688	32945.84
702.033	32921.66
702.379	32830.14
702.724	32668.79
703.069	32853.64
703.415	32316.71
703.76	32513.31
704.105	32365.75
704.45	32385.41
704.795	32276.26
705.14	32129.82
705.485	32119.2
705.83	31937.73
706.175	32009.37
706.52	31976.83
706.865	31761.02
707.209	31758.3
707.554	31699.1
707.899	31717.4
708.243	31451.19
708.588	31611.64
708.932	31276.51
709.277	31269.5
709.621	31276.06
709.966	30973.92
710.31	31231.54
710.654	30853.47
710.998	30982.96
711.342	30996.06
711.687	30871.55
712.031	30643.08
712.375	30661.38
712.719	30647.15
713.063	30607.83
713.407	30625.45
713.75	30457.09
714.094	30438.79
714.438	30336.65
714.782	30429.07
715.125	30176.88
715.469	30087.84
715.812	30039.48
716.156	29837.9
716.499	29877.67
716.843	29967.39
717.186	29743.89
717.53	29976.2
717.873	29868.41
718.216	29839.48
718.559	29614.4
718.902	29413.28
719.246	29524.92
719.589	29483.33
719.932	29407.63
720.275	29412.6
720.617	29268.2
720.96	29222.32
721.303	29202.89
721.646	29281.31
721.989	29033.63
722.331	29173.29
722.674	28964.25
723.016	29052.84
723.359	28979.39
723.701	29021.43
724.044	28691.04
724.386	28577.37
724.729	28728.55
725.071	28679.74
725.413	28707.76
725.755	28536.24
726.097	28511.84
726.439	28435.68
726.782	28335.34
727.124	28461.44
727.465	28402.01
727.807	28306.19
728.149	28252.63
728.491	28277.04
728.833	28333.99
729.175	28155.46
729.516	28113.65
729.858	28120.43
730.199	27994.33
730.541	28036.82
730.882	28078.63
731.224	28029.14
731.565	27812.19
731.906	27889.93
732.248	27824.17
732.589	27777.17
732.93	27680.22
733.271	27683.83
733.612	27607.45
733.953	27715.7
734.294	27558.19
734.635	27422.15
734.976	27545.08
735.317	27395.03
735.658	27407.01
735.999	27340.79
736.339	27239.1
736.68	27343.73
737.021	27223.28
737.361	27141.02
737.702	27251.3
738.042	27107.35
738.383	26906.45
738.723	27110.97
739.063	26950.07
739.404	26929.05
739.744	26906.91
740.084	26750.53
740.424	26813.57
740.764	26692.67
741.104	26792.11
741.444	26723.41
741.784	26639.57
742.124	26636.4
742.464	26665.56
742.804	26532.45
743.143	26527.71
743.483	26526.58
743.823	26331.78
744.162	26359.8
744.502	26488.16
744.841	26184.44
745.181	26441.38
745.52	26297.2
745.86	26299.24
746.199	26239.8
746.538	26203.42
746.877	26365.22
747.216	26173.82
747.556	26116.42
747.895	26099.24
748.234	26043.43
748.573	25997.32
748.911	25927.04
749.25	25805.01
749.589	25789.65
749.928	25763.66
750.267	25843.2
750.605	25696.09
750.944	25635.53
751.283	25583.78
751.621	25583.1
751.96	25421.07
752.298	25435.53
752.636	25517.56
752.975	25276.67
753.313	25284.12
753.651	25221.3
753.989	25255.88
754.327	25153.51
754.666	25032.83
755.004	25080.51
755.342	25094.98
755.679	24986.05
756.017	24769.11
756.355	24972.72
756.693	24757.81
757.031	24856.79
757.368	24638.04
