Data from hue_310_FLMS001491_81.txt Node
Date: Mon Feb 06 15:50:19 GMT 2017
User: dcchb
Spectrometer: FLMS00149
Trigger mode: 0
Integration Time (sec): 2.000000E-2
Scans to average: 10
Electric dark correction enabled: true
Nonlinearity correction enabled: false
Boxcar width: 0
XAxis mode: Wavelengths
Number of Pixels in Spectrum: 2048
>>>>>Begin Spectral Data<<<<<
341.393	-5.01
341.776	-5.01
342.16	-5.01
342.543	-57.22
342.927	-52.7
343.31	-64.45
343.693	-61.96
344.077	-50.66
344.46	-62.19
344.843	-51.57
345.226	-50.44
345.61	-48.18
345.993	-22.41
346.376	-5.92
346.759	9.45
347.142	33.4
347.525	40.63
347.908	59.39
348.291	69.56
348.674	82.67
349.057	122.67
349.44	128.54
349.823	132.16
350.206	168.77
350.588	206.73
350.971	224.36
351.354	234.3
351.737	242.89
352.119	255.54
352.502	265.94
352.884	287.86
353.267	287.86
353.65	268.2
354.032	285.6
354.414	298.93
354.797	307.97
355.179	309.78
355.562	349.1
355.944	316.33
356.326	325.15
356.709	328.99
357.091	323.56
357.473	347.07
357.855	349.55
358.238	317.92
358.62	322.66
359.002	337.12
359.384	342.1
359.766	346.62
360.148	347.52
360.53	333.51
360.912	334.41
361.294	340.51
361.676	341.42
362.057	340.29
362.439	342.55
362.821	305.26
363.203	327.63
363.584	331.02
363.966	310.01
364.348	337.35
364.729	335.32
365.111	320.18
365.493	314.07
365.874	315.66
366.256	309.33
366.637	314.75
367.019	309.1
367.4	301.64
367.781	321.98
368.163	316.79
368.544	336.67
368.925	299.16
369.306	306.84
369.688	309.33
370.069	324.24
370.45	324.02
370.831	297.12
371.212	310.91
371.593	332.15
371.974	316.11
372.355	324.69
372.736	323.34
373.117	322.89
373.498	326.95
373.879	320.63
374.26	321.98
374.641	316.79
375.021	321.53
375.402	311.59
375.783	324.47
376.163	322.21
376.544	315.43
376.925	337.35
377.305	334.64
377.686	344.36
378.066	345.49
378.447	354.98
378.827	326.73
379.208	318.59
379.588	344.58
379.968	341.64
380.349	343.45
380.729	349.55
381.109	359.5
381.489	353.39
381.87	361.53
382.25	346.16
382.63	347.97
383.01	355.43
383.39	346.62
383.77	357.46
384.15	369.67
384.53	363.56
384.91	358.14
385.29	372.6
385.67	364.47
386.049	366.95
386.429	339.84
386.809	358.37
387.189	352.94
387.568	356.33
387.948	353.85
388.328	360.17
388.707	352.49
389.087	381.42
389.466	362.66
389.846	380.06
390.225	383.45
390.605	388.42
390.984	366.95
391.363	368.99
391.743	371.93
392.122	384.13
392.501	378.48
392.881	423.22
393.26	381.19
393.639	385.71
394.018	388.65
394.397	412.38
394.776	363.56
395.155	382.09
395.534	403.11
395.913	403.79
396.292	402.21
396.671	391.36
397.05	392.04
397.429	398.14
397.808	399.27
398.186	414.86
398.565	401.53
398.944	413.96
399.323	401.75
399.701	426.61
400.08	427.29
400.458	419.38
400.837	425.71
401.215	424.58
401.594	423.68
401.972	423
402.351	432.26
402.729	405.82
403.107	426.16
403.486	438.59
403.864	431.81
404.242	435.65
404.62	454.86
404.999	450.12
405.377	479.95
405.755	448.31
406.133	479.72
406.511	467.06
406.889	463
407.267	464.35
407.645	467.74
408.023	490.11
408.401	467.52
408.779	503.45
409.156	518.36
409.534	500.74
409.912	524.46
410.29	515.2
410.667	514.75
411.045	528.53
411.422	525.14
411.8	541.41
412.178	544.35
412.555	553.62
412.933	557.23
413.31	563.78
413.687	598.81
414.065	610.79
414.442	580.96
414.819	601.3
415.197	594.52
415.574	615.53
415.951	623.9
416.328	637.23
416.705	636.78
417.082	635.42
417.46	663.67
417.837	671.8
418.214	654.63
418.591	678.36
418.967	679.71
419.344	694.18
419.721	690.56
420.098	693.72
420.475	709.09
420.852	713.61
421.228	724.46
421.605	732.14
421.982	750.22
422.358	759.94
422.735	756.55
423.111	754.06
423.488	788.64
423.864	780.73
424.241	803.55
424.617	818.69
424.994	827.05
425.37	801.97
425.746	811.01
426.123	824.57
426.499	852.14
426.875	840.39
427.251	869.77
427.627	872.93
428.003	872.25
428.379	876.32
428.756	906.6
429.132	916.54
429.507	923.78
429.883	937.33
430.259	956.77
430.635	947.05
431.011	970.78
431.387	994.06
431.763	1016.2
432.138	1013.94
432.514	1029.31
432.89	1055.98
433.265	1038.8
433.641	1037.44
434.016	1043.09
434.392	1069.53
434.767	1103.66
435.143	1086.48
435.518	1084.22
435.894	1130.32
436.269	1162.19
436.644	1138.68
437.02	1162.64
437.395	1161.06
437.77	1159.7
438.145	1193.6
438.52	1183.2
438.895	1205.58
439.271	1207.61
439.646	1232.69
440.021	1236.99
440.395	1279.7
440.77	1221.62
441.145	1248.29
441.52	1281.28
441.895	1277.66
442.27	1248.51
442.645	1295.74
443.019	1305.46
443.394	1294.39
443.769	1318.57
444.143	1326.48
444.518	1321.73
444.892	1344.33
445.267	1342.07
445.641	1332.58
446.016	1337.1
446.39	1385.91
446.764	1348.62
447.139	1352.92
447.513	1357.66
447.887	1362.41
448.262	1374.61
448.636	1380.03
449.01	1362.41
449.384	1392.01
449.758	1410.77
450.132	1448.96
450.506	1432.01
450.88	1439.92
451.254	1424.78
451.628	1456.42
452.002	1444.21
452.376	1456.87
452.75	1429.75
453.123	1470.65
453.497	1479.01
453.871	1497.77
454.244	1512.69
454.618	1518.11
454.992	1532.8
455.365	1516.3
455.739	1558.11
456.112	1570.31
456.486	1530.31
456.859	1582.51
457.232	1612.12
457.606	1575.28
457.979	1601.72
458.352	1628.62
458.725	1635.85
459.099	1634.49
459.472	1686.92
459.845	1649.18
460.218	1680.14
460.591	1698.44
460.964	1702.96
461.337	1728.5
461.71	1762.17
462.083	1766.46
462.456	1777.54
462.829	1757.88
463.201	1793.58
463.574	1782.51
463.947	1815.73
464.32	1863.41
464.692	1876.97
465.065	1874.26
465.438	1915.61
465.81	1879
466.183	1894.37
466.555	1946.35
466.928	1975.05
467.3	1934.14
467.672	1972.34
468.045	1985.22
468.417	2011.2
468.789	2020.47
469.161	2025.22
469.534	2065.44
469.906	2089.39
470.278	2101.82
470.65	2148.83
471.022	2153.35
471.394	2177.98
471.766	2193.35
472.138	2190.63
472.51	2250.52
472.882	2251.2
473.253	2260.46
473.625	2335.49
473.997	2323.74
474.369	2355.83
474.74	2319.44
475.112	2407.8
475.484	2405.32
475.855	2447.58
476.227	2467.92
476.598	2482.38
476.97	2505.88
477.341	2570.96
477.713	2587.01
478.084	2613
478.455	2658.64
478.827	2669.04
479.198	2725.99
479.569	2707.01
479.94	2799.66
480.311	2737.29
480.682	2821.8
481.053	2898.41
481.424	2897.28
481.795	2915.59
482.166	2985.42
482.537	2975.7
482.908	3035.58
483.279	3073.32
483.65	3081.68
484.021	3190.16
484.391	3177.28
484.762	3161.68
485.133	3175.02
485.503	3201.68
485.874	3235.35
486.244	3349.47
486.615	3367.1
486.985	3345.63
487.356	3434.9
487.726	3416.82
488.097	3490.04
488.467	3508.57
488.837	3532.52
489.207	3563.93
489.578	3649.58
489.948	3624.04
490.318	3672.86
490.688	3685.51
491.058	3744.27
491.428	3773.19
491.798	3822.91
492.168	3844.83
492.538	3850.25
492.908	3915.79
493.278	3967.08
493.648	3973.64
494.017	3972.28
494.387	4000.76
494.757	4019.74
495.126	4038.27
495.496	4048.66
495.866	4109.68
496.235	4078.27
496.605	4103.35
496.974	4190.58
497.344	4184.48
497.713	4233.52
498.082	4248.21
498.452	4317.13
498.821	4284.36
499.19	4296.34
499.559	4337.92
499.928	4330.69
500.298	4328.21
500.667	4395.1
501.036	4372.05
501.405	4430.8
501.774	4430.58
502.143	4419.28
502.512	4463.34
502.88	4489.33
503.249	4501.99
503.618	4512.38
503.987	4555.32
504.356	4579.5
504.724	4633.06
505.093	4592.38
505.462	4584.24
505.83	4562.1
506.199	4697.46
506.567	4702.88
506.936	4692.49
507.304	4707.86
507.672	4743.79
508.041	4753.05
508.409	4797.8
508.777	4758.02
509.145	4792.37
509.514	4838.25
509.882	4818.59
510.25	4819.04
510.618	4873.95
510.986	4863.56
511.354	4939.04
511.722	4952.37
512.09	4938.13
512.458	4930.68
512.826	4951.69
513.193	5017.23
513.561	5040.05
513.929	5007.28
514.297	5077.11
514.664	5087.06
515.032	5049.09
515.4	5130.22
515.767	5069.88
516.135	5162.76
516.502	5106.72
516.869	5206.37
517.237	5163.66
517.604	5167.96
517.972	5209.76
518.339	5244.57
518.706	5193.49
519.073	5234.4
519.44	5252.02
519.808	5283.66
520.175	5353.49
520.542	5344.22
520.909	5395.75
521.276	5345.35
521.643	5386.03
522.009	5399.59
522.376	5419.7
522.743	5472.36
523.11	5478.91
523.477	5525.46
523.843	5495.41
524.21	5530.89
524.577	5631.45
524.943	5625.12
525.31	5658.11
525.676	5675.06
526.043	5685.01
526.409	5771.56
526.776	5767.26
527.142	5774.04
527.508	5808.39
527.874	5845.91
528.241	5866.24
528.607	5921.16
528.973	5931.55
529.339	5903.53
529.705	6002.74
530.071	6046.58
530.437	6008.16
530.803	6050.87
531.169	6118.44
531.535	6084.77
531.901	6106.01
532.267	6104.2
532.632	6142.85
532.998	6236.63
533.364	6224.2
533.73	6216.97
534.095	6248.61
534.461	6280.92
534.826	6352.78
535.192	6385.33
535.557	6452.9
535.923	6407.47
536.288	6431.88
536.653	6503.52
537.019	6475.95
537.384	6530.63
537.749	6541.03
538.114	6611.08
538.479	6561.37
538.845	6621.03
539.21	6594.13
539.575	6669.39
539.94	6687.69
540.305	6755.71
540.67	6700.12
541.034	6746.9
541.399	6807.24
541.764	6873.45
542.129	6827.57
542.494	6920.23
542.858	6866.44
543.223	6919.32
543.587	6950.96
543.952	6985.54
544.316	6994.12
544.681	7023.5
545.045	7021.47
545.41	7148.47
545.774	7088.58
546.138	7126.1
546.503	7098.08
546.867	7117.51
547.231	7283.16
547.595	7259.43
547.959	7299.43
548.324	7322.48
548.688	7279.31
549.052	7315.02
549.416	7354.34
549.779	7316.6
550.143	7363.15
550.507	7415.81
550.871	7416.94
551.235	7429.37
551.599	7507.56
551.962	7547.1
552.326	7534.9
552.689	7593.66
553.053	7626.65
553.417	7614.9
553.78	7759.75
554.143	7621.23
554.507	7643.82
554.87	7692.41
555.234	7743.71
555.597	7698.29
555.96	7749.13
556.323	7837.04
556.686	7811.73
557.05	7902.35
557.413	7850.82
557.776	7875.23
558.139	7956.13
558.502	7961.78
558.865	8002.46
559.228	7977.37
559.59	8011.5
559.953	8026.87
560.316	8115.68
560.679	8070.93
561.041	8100.08
561.404	8159.74
561.767	8142.79
562.129	8224.83
562.492	8290.81
562.854	8227.09
563.217	8270.93
563.579	8305.05
563.941	8285.62
564.304	8354.31
564.666	8392.51
565.028	8421.88
565.39	8402.22
565.753	8485.38
566.115	8506.85
566.477	8521.54
566.839	8534.2
567.201	8607.19
567.563	8558.38
567.925	8646.06
568.287	8641.99
568.648	8730.35
569.01	8801.08
569.372	8781.87
569.734	8800.63
570.095	8804.25
570.457	8871.14
570.819	8879.05
571.18	8974.18
571.542	8990.68
571.903	8983
572.265	9063
572.626	9145.71
572.987	9090.11
573.349	9189.77
573.71	9277.23
574.071	9299.6
574.432	9426.6
574.794	9464.57
575.155	9451.46
575.516	9535.3
575.877	9641.06
576.238	9673.83
576.599	9788.4
576.96	9854.16
577.32	9912.69
577.681	10084.44
578.042	10047.6
578.403	10174.38
578.763	10218.67
579.124	10343.64
579.485	10476.29
579.845	10664.99
580.206	10705.89
580.566	10844.42
580.927	10959.22
581.287	11137.07
581.648	11229.94
582.008	11455.7
582.368	11552.65
582.728	11730.95
583.089	11815.24
583.449	11988.57
583.809	12224.95
584.169	12399.63
584.529	12601.21
584.889	12835.1
585.249	12966.62
585.609	13130.01
585.969	13437.8
586.329	13566.15
586.688	13780.84
587.048	14088.17
587.408	14256.76
587.768	14535.39
588.127	14724.77
588.487	15007.25
588.846	15412.89
589.206	15493.79
589.565	15722.03
589.925	16079.31
590.284	16430.94
590.643	16612.63
591.003	17024.82
591.362	17216.91
591.721	17557.01
592.08	17828.64
592.44	18184.11
592.799	18453.26
593.158	18590.43
593.517	19035.39
593.876	19385.44
594.235	19562.61
594.593	19941.13
594.952	20305.86
595.311	20508.34
595.67	20952.85
596.029	21288.21
596.387	21660.63
596.746	21939.95
597.104	22140.62
597.463	22385.13
597.822	22797.78
598.18	23132.23
598.538	23372.22
598.897	23797.75
599.255	23903.96
599.613	24507.11
599.972	24686.09
600.33	25069.58
600.688	25302.34
601.046	25587.76
601.404	25967.86
601.762	26238.14
602.12	26617.11
602.478	26948.85
602.836	27189.07
603.194	27384.32
603.552	27652.34
603.91	27924.87
604.268	28139.56
604.625	28353.56
604.983	28889.59
605.341	28957.39
605.698	29327.55
606.056	29659.74
606.413	29835.56
606.771	30197.36
607.128	30457.24
607.485	30574.07
607.843	30764.12
608.2	31202.3
608.557	31485.01
608.914	31581.05
609.272	31984.88
609.629	32162.05
609.986	32567.01
610.343	32527.69
610.7	32937.85
611.057	33125.19
611.414	33278.86
611.771	33586.87
612.127	33850.82
612.484	33981.66
612.841	34262.33
613.198	34253.75
613.554	34503.91
613.911	34679.72
614.267	34995.65
614.624	35150.9
614.98	35314.51
615.337	35686.7
615.693	35635.63
616.05	35935.06
616.406	36053.02
616.762	36090.53
617.118	36323.3
617.475	36460.47
617.831	36721.48
618.187	36808.03
618.543	36976.84
618.899	37319.65
619.255	37411.86
619.611	37464.28
619.967	37573.43
620.323	37768.91
620.678	37770.49
621.034	37875.8
621.39	37837.83
621.746	37910.6
622.101	38582.22
622.457	38388.78
622.812	38592.62
623.168	38708.09
623.523	38757.13
623.879	38934.98
624.234	38811.37
624.589	38988.54
624.945	39161.87
625.3	39266.5
625.655	39284.8
626.01	39322.54
626.365	39521.4
626.72	39513.72
627.075	39641.4
627.43	39691.34
627.785	39693.15
628.14	39805.01
628.495	39878.46
628.85	39880.04
629.205	39919.59
629.559	40178.34
629.914	39962.3
630.269	40153.48
630.623	40158.9
630.978	40065.12
631.332	40351.89
631.687	40431.21
632.041	40188.05
632.396	40352.34
632.75	40242.97
633.104	40274.6
633.459	40334.49
633.813	40228.73
634.167	40397.09
634.521	40273.02
634.875	40433.02
635.229	40424.66
635.583	40350.99
635.937	40289.52
636.291	40215.85
636.645	40389.18
636.999	40306.02
637.352	40434.37
637.706	40251.55
638.06	40320.93
638.413	40446.35
638.767	40286.58
639.121	40401.16
639.474	40202.52
639.828	40259.69
640.181	40240.26
640.534	40257.2
640.888	40097.21
641.241	40146.02
641.594	40211.1
641.947	40300.37
642.301	40247.03
642.654	40234.83
643.007	40260.59
643.36	40246.36
643.713	40097.66
644.066	40363.19
644.419	40105.8
644.771	39927.27
645.124	39538.58
645.477	39469.43
645.83	39273.5
646.182	39249.77
646.535	39080.29
646.888	38986.73
647.24	38978.14
647.593	39062.21
647.945	39070.57
648.298	38871.25
648.65	38872.38
649.002	38828.54
649.355	38918.71
649.707	38953.28
650.059	38976.79
650.411	39284.57
650.763	39472.82
651.115	39816.99
651.467	39749.65
651.819	39781.96
652.171	39751.23
652.523	39597.56
652.875	39647.05
653.227	39438.02
653.578	39800.27
653.93	39581.29
654.282	39516.66
654.633	39501.97
654.985	39525.7
655.337	39492.25
655.688	39668.29
656.039	39651.12
656.391	39350.79
656.742	39497
657.094	39362.09
657.445	39584.45
657.796	39551.91
658.147	39434.63
658.498	39427.4
658.849	39527.51
659.2	39413.16
659.551	39308.75
659.902	39565.7
660.253	39535.87
660.604	39516.88
660.955	39264.91
661.306	39371.8
661.656	39316.21
662.007	39347.62
662.358	39331.8
662.708	39252.71
663.059	39452.03
663.409	39016.78
663.76	39413.38
664.11	39413.61
664.461	39409.54
664.811	39342.88
665.161	39290.22
665.511	39180.62
665.862	39327.96
666.212	39431.01
666.562	39438.02
666.912	39322.09
667.262	39176.1
667.612	39205.48
667.962	39197.35
668.312	39188.31
668.662	39329.32
669.011	39426.27
669.361	39221.07
669.711	39135.2
670.06	39092.49
670.41	38930.69
670.76	39060.17
671.109	39171.36
671.459	39110.12
671.808	39082.77
672.157	39063.79
672.507	38848.65
672.856	39004.58
673.205	38998.03
673.554	39096.78
673.904	39028.76
674.253	39144.01
674.602	39002.77
674.951	38359.63
675.3	38228.78
675.649	38868.99
675.998	38755.55
676.346	38771.82
676.695	38854.76
677.044	38596.68
677.393	38696.12
677.741	38805.94
678.09	38706.06
678.438	38610.92
678.787	38703.8
679.135	38748.32
679.484	38480.75
679.832	38542.22
680.181	38396.91
680.529	38477.14
680.877	38430.81
681.225	38258.39
681.573	38640.07
681.922	38375.45
682.27	38311.72
682.618	38158.28
682.966	38257.03
683.314	38110.59
683.661	38042.8
684.009	37783.14
684.357	37806.2
684.705	37871.73
685.053	37830.15
685.4	37805.52
685.748	37668.12
686.095	37796.25
686.443	37374.79
686.79	37438.75
687.138	37587.22
687.485	37550.83
687.832	37335.7
688.18	37270.84
688.527	37241.69
688.874	37257.51
689.221	37129.15
689.568	36907.69
689.915	36911.08
690.262	36936.84
690.609	36783.17
690.956	36622.72
691.303	36626.11
691.65	36513.57
691.997	36486.46
692.344	36281.72
692.69	36281.49
693.037	36309.29
693.383	36167.82
693.73	36212.79
694.077	36054.6
694.423	35956.75
694.769	35913.82
695.116	35762.86
695.462	35654.61
695.808	35540.27
696.155	35580.94
696.501	35414.62
696.847	35454.62
697.193	35106.38
697.539	35208.3
697.885	34994.07
698.231	34913.62
698.577	34962.65
698.923	34893.28
699.269	34677.69
699.614	34611.25
699.96	34479.5
700.306	34628.43
700.651	34286.97
700.997	34380.97
701.342	34268.89
701.688	34359.51
702.033	34076.35
702.379	34070.7
702.724	34066.63
703.069	34098.72
703.415	33685.17
703.76	33590.26
704.105	33693.99
704.45	33639.98
704.795	33357.27
705.14	33461.9
705.485	33270.95
705.83	33207.9
706.175	33381.9
706.52	33129.03
706.865	33020.56
707.209	33054.68
707.554	32913.67
707.899	32881.35
708.243	32709.83
708.588	32696.05
708.932	32486.11
709.277	32546.22
709.621	32365.66
709.966	32370.41
710.31	32316.4
710.654	32024.2
710.998	32162.73
711.342	32186.68
711.687	32090.64
712.031	31882.06
712.375	31827.14
712.719	31824.43
713.063	31645.91
713.407	31881.83
713.75	31607.71
714.094	31589.64
714.438	31689.75
714.782	31536.76
715.125	31360.26
715.469	31402.52
715.812	31285.91
716.156	31153.71
716.499	31226.48
716.843	31232.13
717.186	30966.38
717.53	31064.45
717.873	31138.8
718.216	30946.71
718.559	30898.35
718.902	30638.7
719.246	30703.33
719.589	30726.38
719.932	30607.74
720.275	30467.41
720.617	30477.12
720.96	30565.93
721.303	30410.23
721.646	30379.05
721.989	30245.49
722.331	30443.45
722.674	30270.57
723.016	30246.62
723.359	30208.43
723.701	30136.57
724.044	29930.7
724.386	29771.38
724.729	29950.13
725.071	29824.48
725.413	29875.56
725.755	29836.69
726.097	29626.52
726.439	29485.51
726.782	29498.17
727.124	29586.3
727.465	29485.96
727.807	29341.56
728.149	29355.34
728.491	29347.66
728.833	29404.61
729.175	29225.86
729.516	29128.68
729.858	29151.51
730.199	29196.03
730.541	29178.17
730.882	29178.85
731.224	28997.84
731.565	29017.5
731.906	29021.57
732.248	28980.66
732.589	28723.27
732.93	28781.35
733.271	28771.63
733.612	28754
733.953	28782.93
734.294	28679.43
734.635	28512.65
734.976	28701.12
735.317	28421.58
735.658	28387.01
735.999	28529.83
736.339	28333.45
736.68	28429.27
737.021	28291.87
737.361	28178.65
737.702	28407.35
738.042	28264.75
738.383	28199.67
738.723	28223.62
739.063	27938.43
739.404	28130.74
739.744	28064.3
740.084	28030.41
740.424	28062.27
740.764	27982.27
741.104	28043.51
741.444	27704.77
741.784	27741.6
742.124	27702.28
742.464	27767.36
742.804	27566.46
743.143	27661.15
743.483	27602.85
743.823	27560.81
744.162	27462.51
744.502	27544.32
744.841	27362.63
745.181	27575.96
745.52	27293.7
745.86	27423.19
746.199	27338.67
746.538	27116.53
746.877	27333.25
747.216	27211.67
747.556	27105.91
747.895	27099.58
748.234	27026.37
748.573	26951.57
748.911	26985.91
749.25	26820.72
749.589	26840.83
749.928	26831.12
750.267	26808.52
750.605	26740.5
750.944	26660.5
751.283	26649.43
751.621	26674.28
751.96	26370.11
752.298	26457.34
752.636	26383.44
752.975	26211.47
753.313	26211.7
753.651	26335.08
753.989	26116.33
754.327	25966.28
754.666	25996.11
755.004	26018.93
755.342	25879.05
755.679	26001.08
756.017	25736.91
756.355	25758.6
756.693	25832.95
757.031	25675.21
757.368	25586.86
757.706	25590.7
758.044	25541.43
758.381	25547.53
758.719	25430.7
759.056	25309.35
759.394	25223.48
