Data from hue_320_FLMS001491_25.txt Node
Date: Mon Feb 06 15:46:58 GMT 2017
User: dcchb
Spectrometer: FLMS00149
Trigger mode: 0
Integration Time (sec): 2.000000E-2
Scans to average: 10
Electric dark correction enabled: true
Nonlinearity correction enabled: false
Boxcar width: 0
XAxis mode: Wavelengths
Number of Pixels in Spectrum: 2048
>>>>>Begin Spectral Data<<<<<
341.393	-17.71
341.776	-17.71
342.16	-17.71
342.543	-61.33
342.927	-62.46
343.31	-63.36
343.693	-62
344.077	-60.87
344.46	-49.8
344.843	-51.83
345.226	-56.81
345.61	-57.26
345.993	-4.38
346.376	-8.22
346.759	1.95
347.142	19.35
347.525	28.62
347.908	57.31
348.291	95.28
348.674	102.06
349.057	109.97
349.44	106.35
349.823	121.72
350.206	179.8
350.588	196.29
350.971	209.4
351.354	216.18
351.737	243.98
352.119	236.97
352.502	231.55
352.884	262.06
353.267	287.59
353.65	287.82
354.032	302.05
354.414	276.97
354.797	312.45
355.179	319.45
355.562	316.97
355.944	318.78
356.326	306.57
356.709	322.62
357.091	338.66
357.473	337.31
357.855	342.73
358.238	361.26
358.62	314.71
359.002	325.78
359.384	330.3
359.766	339.57
360.148	327.82
360.53	320.36
360.912	350.19
361.294	340.7
361.676	323.52
362.057	317.87
362.439	328.27
362.821	337.31
363.203	318.32
363.584	317.42
363.966	317.87
364.348	324.43
364.729	321.04
365.111	312
365.493	315.39
365.874	308.61
366.256	306.12
366.637	304.54
367.019	296.86
367.4	306.12
367.781	298.89
368.163	305.9
368.544	319.68
368.925	297.31
369.306	306.12
369.688	318.32
370.069	303.18
370.45	329.17
370.831	321.04
371.212	309.74
371.593	322.62
371.974	307.7
372.355	301.38
372.736	308.83
373.117	310.42
373.498	303.18
373.879	340.25
374.26	312.9
374.641	302.73
375.021	301.38
375.402	295.05
375.783	322.17
376.163	319.23
376.544	334.37
376.925	330.3
377.305	348.15
377.686	338.21
378.066	348.38
378.447	344.76
378.827	328.49
379.208	326.69
379.588	322.84
379.968	327.36
380.349	305.22
380.729	335.5
381.109	334.14
381.489	328.04
381.87	339.34
382.25	335.5
382.63	333.69
383.01	346.12
383.39	348.38
383.77	319.68
384.15	323.97
384.53	342.28
384.91	362.84
385.29	313.13
385.67	350.19
386.049	334.14
386.429	348.38
386.809	352.67
387.189	349.96
387.568	341.15
387.948	345.89
388.328	330.98
388.707	342.28
389.087	358.32
389.466	352.9
389.846	370.75
390.225	350.87
390.605	350.19
390.984	354.48
391.363	355.16
391.743	351.32
392.122	366.91
392.501	351.09
392.881	377.98
393.26	355.39
393.639	359.23
394.018	384.76
394.397	358.1
394.776	377.76
395.155	366.23
395.534	367.36
395.913	362.39
396.292	374.59
396.671	379.11
397.05	395.61
397.429	362.62
397.808	365.78
398.186	377.31
398.565	383.86
398.944	378.21
399.323	398.55
399.701	393.8
400.08	384.31
400.458	396.06
400.837	396.29
401.215	402.16
401.594	407.36
401.972	399.45
402.351	375.95
402.729	394.03
403.107	414.37
403.486	427.93
403.864	408.72
404.242	422.05
404.62	415.95
404.999	404.88
405.377	420.02
405.755	429.06
406.133	417.31
406.511	417.31
406.889	434.71
407.267	434.03
407.645	457.76
408.023	430.64
408.401	441.71
408.779	432.67
409.156	456.63
409.534	449.85
409.912	469.96
410.29	450.98
410.667	465.89
411.045	472.9
411.422	477.64
411.8	481.26
412.178	473.35
412.555	499.34
412.933	484.65
413.31	504.53
413.687	528.04
414.065	507.92
414.442	514.03
414.819	523.29
415.197	544.31
415.574	562.61
415.951	556.06
416.328	553.57
416.705	559
417.082	564.19
417.46	578.66
417.837	581.59
418.214	584.53
418.591	590.41
418.967	591.31
419.344	604.87
419.721	602.84
420.098	605.1
420.475	590.18
420.852	623.18
421.228	625.66
421.605	627.7
421.982	641.48
422.358	650.97
422.735	643.51
423.111	677.19
423.488	663.17
423.864	660.91
424.241	683.06
424.617	692.1
424.994	693.23
425.37	694.13
425.746	702.5
426.123	684.64
426.499	703.63
426.875	706.79
427.251	743.62
427.627	734.81
428.003	743.17
428.379	749.5
428.756	755.38
429.132	740.69
429.507	784.3
429.883	788.6
430.259	788.37
430.635	781.82
431.011	804.41
431.387	810.74
431.763	809.84
432.138	820.46
432.514	844.19
432.89	841.48
433.265	857.97
433.641	851.19
434.016	861.36
434.392	860.46
434.767	890.74
435.143	900.91
435.518	896.84
435.894	906.56
436.269	915.82
436.644	921.02
437.02	940.23
437.395	947.91
437.77	961.25
438.145	956.95
438.52	949.72
438.895	937.97
439.271	981.58
439.646	988.59
440.021	1009.15
440.395	1041.47
440.77	1011.87
441.145	989.72
441.52	991.98
441.895	1007.57
442.27	1007.8
442.645	1049.15
443.019	1043.28
443.394	1036.95
443.769	1055.48
444.143	1041.7
444.518	1056.16
444.892	1060
445.267	1067.23
445.641	1088.25
446.016	1049.38
446.39	1058.42
446.764	1086.89
447.139	1098.87
447.513	1106.55
447.887	1114.01
448.262	1111.98
448.636	1099.32
449.01	1107.91
449.384	1109.04
449.758	1116.95
450.132	1116.5
450.506	1110.39
450.88	1111.98
451.254	1118.08
451.628	1139.55
452.002	1153.33
452.376	1154.01
452.75	1164.86
453.123	1146.1
453.497	1192.43
453.871	1174.12
454.244	1203.73
454.618	1179.32
454.992	1222.93
455.365	1205.08
455.739	1216.38
456.112	1215.7
456.486	1235.14
456.859	1260
457.232	1245.76
457.606	1254.35
457.979	1283.95
458.352	1292.54
458.725	1286.21
459.099	1311.52
459.472	1316.72
459.845	1339.32
460.218	1324.85
460.591	1324.4
460.964	1353.55
461.337	1340.9
461.71	1393.32
462.083	1394.91
462.456	1386.32
462.829	1377.51
463.201	1399.2
463.574	1433.55
463.947	1386.09
464.32	1429.93
464.692	1449.14
465.065	1449.14
465.438	1477.62
465.81	1489.82
466.183	1478.75
466.555	1527.78
466.928	1541.34
467.3	1476.49
467.672	1551.29
468.045	1577.05
468.417	1566.2
468.789	1554.22
469.161	1562.13
469.534	1626.77
469.906	1609.14
470.278	1646.2
470.65	1627.22
471.022	1659.98
471.394	1715.8
471.766	1712.64
472.138	1724.62
472.51	1715.12
472.882	1748.8
473.253	1772.3
473.625	1792.64
473.997	1799.19
474.369	1807.55
474.74	1793.77
475.112	1865.18
475.484	1878.74
475.855	1916.7
476.227	1895.01
476.598	1918.28
476.97	1916.93
477.341	2001.22
477.713	2009.35
478.084	2002.35
478.455	2052.29
478.827	2038.28
479.198	2116.7
479.569	2079.86
479.94	2191.5
480.311	2190.14
480.682	2151.95
481.053	2226.3
481.424	2243.25
481.795	2278.05
482.166	2283.92
482.537	2296.35
482.908	2375.22
483.279	2360.98
483.65	2402.79
484.021	2450.02
484.391	2457.7
484.762	2470.13
485.133	2476.91
485.503	2490.7
485.874	2567.31
486.244	2544.48
486.615	2593.75
486.985	2584.25
487.356	2638.04
487.726	2673.29
488.097	2696.34
488.467	2700.64
488.837	2773.4
489.207	2749.22
489.578	2832.61
489.948	2840.07
490.318	2851.59
490.688	2879.61
491.058	2924.13
491.428	2898.14
491.798	2938.82
492.168	2947.86
492.538	2995.09
492.908	3037.58
493.278	3022.89
493.648	3063.79
494.017	3066.95
494.387	3111.92
494.757	3170
495.126	3090.23
495.496	3095.43
495.866	3160.96
496.235	3182.66
496.605	3232.15
496.974	3235.76
497.344	3277.12
497.713	3301.52
498.082	3260.62
498.452	3291.81
498.821	3307.4
499.19	3330.45
499.559	3273.5
499.928	3332.71
500.298	3349.66
500.667	3390.33
501.036	3398.92
501.405	3405.02
501.774	3367.06
502.143	3451.58
502.512	3458.36
502.88	3491.35
503.249	3447.73
503.618	3483.44
503.987	3510.78
504.356	3539.94
504.724	3514.63
505.093	3566.6
505.462	3501.29
505.83	3556.66
506.199	3568.18
506.567	3581.52
506.936	3629.2
507.304	3634.4
507.672	3668.75
508.041	3660.38
508.409	3652.93
508.777	3662.87
509.145	3703.55
509.514	3709.42
509.882	3723.89
510.25	3726.14
510.618	3723.66
510.986	3722.76
511.354	3760.95
511.722	3788.06
512.09	3791.45
512.458	3732.7
512.826	3799.59
513.193	3813.83
513.561	3827.39
513.929	3826.26
514.297	3858.12
514.664	3871.23
515.032	3856.31
515.4	3901.96
515.767	3852.02
516.135	3890.43
516.502	3894.5
516.869	3976.76
517.237	4000.94
517.604	3961.39
517.972	3963.65
518.339	3953.71
518.706	3945.35
519.073	3987.83
519.44	3981.28
519.808	4034.39
520.175	3993.48
520.542	4072.35
520.909	4061.05
521.276	4035.29
521.643	4095.85
522.009	4103.76
522.376	4108.28
522.743	4130.43
523.11	4169.52
523.477	4159.81
523.843	4174.95
524.21	4216.53
524.577	4250.42
524.943	4237.54
525.31	4234.15
525.676	4247.94
526.043	4313.02
526.409	4369.74
526.776	4357.54
527.142	4379.24
527.508	4355.51
527.874	4409.74
528.241	4402.29
528.607	4422.17
528.973	4488.84
529.339	4465.56
529.705	4483.41
530.071	4532
530.437	4508.05
530.803	4555.05
531.169	4583.07
531.535	4574.71
531.901	4594.82
532.267	4613.58
532.632	4635.5
532.998	4669.85
533.364	4699.9
533.73	4682.5
534.095	4741.03
534.461	4711.66
534.826	4767.93
535.192	4755.27
535.557	4785.1
535.923	4808.15
536.288	4832.33
536.653	4870.52
537.019	4871.2
537.384	4893.8
537.749	4893.12
538.114	4892.22
538.479	4928.6
538.845	4966.79
539.21	4962.5
539.575	4971.31
539.94	5039.78
540.305	5081.14
540.67	5032.33
541.034	5077.3
541.399	5094.02
541.764	5080.01
542.129	5138.54
542.494	5110.29
542.858	5100.35
543.223	5198.2
543.587	5298.53
543.952	5218.76
544.316	5227.57
544.681	5228.7
545.045	5217.63
545.41	5270.29
545.774	5272.09
546.138	5335.59
546.503	5368.36
546.867	5388.25
547.231	5414.24
547.595	5471.64
547.959	5450.39
548.324	5484.29
548.688	5469.6
549.052	5510.28
549.416	5523.61
549.779	5518.64
550.143	5541.69
550.507	5596.6
550.871	5581.24
551.235	5607.45
551.599	5608.58
551.962	5620.11
552.326	5655.81
552.689	5685.87
553.053	5649.26
553.417	5695.36
553.78	5741.23
554.143	5753.44
554.507	5755.7
554.87	5808.12
555.234	5819.42
555.597	5804.73
555.96	5804.73
556.323	5830.27
556.686	5806.09
557.05	5902.81
557.413	5868.24
557.776	5894.22
558.139	5971.06
558.502	5915.47
558.865	5935.8
559.228	6016.25
559.59	6022.58
559.953	5966.76
560.316	6073.43
560.679	6068.46
561.041	6125.63
561.404	6139.64
561.767	6176.7
562.129	6081.79
562.492	6250.82
562.854	6177.38
563.217	6177.83
563.579	6185.29
563.941	6211.5
564.304	6260.99
564.666	6333.31
565.028	6273.2
565.39	6318.85
565.753	6362.69
566.115	6377.15
566.477	6380.09
566.839	6419.18
567.201	6440.42
567.563	6467.09
567.925	6517.94
568.287	6470.03
568.648	6496.24
569.01	6555.9
569.372	6626.86
569.734	6542.79
570.095	6623.02
570.457	6640.19
570.819	6643.13
571.18	6717.25
571.542	6717.93
571.903	6797.7
572.265	6841.32
572.626	6878.6
572.987	6901.65
573.349	6899.62
573.71	6964.7
574.071	6979.62
574.432	7001.09
574.794	7138.71
575.155	7140.07
575.516	7105.49
575.877	7225.71
576.238	7243.79
576.599	7330.12
576.96	7422.09
577.32	7431.58
577.681	7573.05
578.042	7600.39
578.403	7646.95
578.763	7820.73
579.124	7833.61
579.485	7936.43
579.845	8070.21
580.206	8140.94
580.566	8269.3
580.927	8300.26
581.287	8485.57
581.648	8587.03
582.008	8722.17
582.368	8800.36
582.728	8985.89
583.089	9071.77
583.449	9174.36
583.809	9392.44
584.169	9504.98
584.529	9711.3
584.889	9939.77
585.249	10046.43
585.609	10279.19
585.969	10405.74
586.329	10655.23
586.688	10853.42
587.048	11055.9
587.408	11282.56
587.768	11434.19
588.127	11651.59
588.487	11901.3
588.846	12206.15
589.206	12325.24
589.565	12583.09
589.925	12851.78
590.284	13072.79
590.643	13358.89
591.003	13656.73
591.362	13959.55
591.721	14189.15
592.08	14420.1
592.44	14728.12
592.799	15106.41
593.158	15227.99
593.517	15549.11
593.876	15877.92
594.235	16129.66
594.593	16518.12
594.952	16737.33
595.311	16989.3
595.67	17314.71
596.029	17648.26
596.387	18017.97
596.746	18214.58
597.104	18452.99
597.463	18806.43
597.822	19144.5
598.18	19476.47
598.538	19645.27
598.897	20087.07
599.255	20159.84
599.613	20708.52
599.972	20907.39
600.33	21132.24
600.688	21317.55
601.046	21713.47
601.404	22108.03
601.762	22314.81
602.12	22664.63
602.478	23007.22
602.836	23173.77
603.194	23366.08
603.552	23683.13
603.91	23891.04
604.268	24161.54
604.625	24331.03
604.983	24652.6
605.341	24916.1
605.698	25239.7
606.056	25533.48
606.413	25719.92
606.771	25970.53
607.128	26310.64
607.485	26351.54
607.843	26580.91
608.2	26942.71
608.557	27288.46
608.914	27427.67
609.272	27723.93
609.629	27930.71
609.986	28307.65
610.343	28354.65
610.7	28731.14
611.057	29021.53
611.414	29036.67
611.771	29235.3
612.127	29472.59
612.484	29670.32
612.841	30027.6
613.198	30027.37
613.554	30163.42
613.911	30434.82
614.267	30596.4
614.624	30745.32
614.98	30922.72
615.337	31268.92
615.693	31326.78
616.05	31496.26
616.406	31768.12
616.762	31755.69
617.118	31817.16
617.475	31944.39
617.831	32261.21
618.187	32439.97
618.543	32485.39
618.899	32798.37
619.255	32827.07
619.611	33027.97
619.967	33156.11
620.323	33383.44
620.678	33456.66
621.034	33475.42
621.39	33580.5
621.746	33525.36
622.101	34149.07
622.457	33863.21
622.812	34032.69
623.168	34311.78
623.523	34272.23
623.879	34507.48
624.234	34273.14
624.589	34574.37
624.945	34652.11
625.3	34704.54
625.655	34769.4
626.01	34943.63
626.365	35060.24
626.72	35061.37
627.075	34983.18
627.43	35153.57
627.785	35021.14
628.14	35258.65
628.495	35349.27
628.85	35403.05
629.205	35242.38
629.559	35537.06
629.914	35453.22
630.269	35582.93
630.623	35517.85
630.978	35555.14
631.332	35805.53
631.687	35902.47
632.041	35742.03
632.396	35939.99
632.75	35783.83
633.104	35879.42
633.459	35728.02
633.813	35733.66
634.167	35636.49
634.521	35725.98
634.875	35880.33
635.229	35926.43
635.583	35800.56
635.937	35708.58
636.291	35931.17
636.645	35924.39
636.999	35773.44
637.352	35850.95
637.706	35742.7
638.06	35862.7
638.413	35797.62
638.767	35835.13
639.121	35797.17
639.474	35756.72
639.828	35866.32
640.181	35935.47
640.534	35849.59
640.888	35886.88
641.241	35699.32
641.594	35851.18
641.947	35812.98
642.301	35707.68
642.654	35724.85
643.007	35790.84
643.36	35835.36
643.713	35779.77
644.066	35933.21
644.419	35706.1
644.771	35459.1
645.124	35149.05
645.477	35133.91
645.83	35018.88
646.182	34740.24
646.535	34744.99
646.888	34872.22
647.24	34720.13
647.593	34881.71
647.945	34843.29
648.298	34535.28
648.65	34669.06
649.002	34525.34
649.355	34616.18
649.707	34515.39
650.059	34766.23
650.411	35163.51
650.763	35096.39
651.115	35568.92
651.467	35434.69
651.819	35397.85
652.171	35392.43
652.523	35306.78
652.875	35387.46
653.227	35227.46
653.578	35577.28
653.93	35466.78
654.282	35253
654.633	35227.24
654.985	35332.09
655.337	35253.9
655.688	35244.19
656.039	35396.5
656.391	35040.58
656.742	35248.03
657.094	35256.84
657.445	35307.46
657.796	35257.75
658.147	35251.42
658.498	35206.45
658.849	35195.37
659.2	35139.78
659.551	35133.45
659.902	35231.76
660.253	35128.94
660.604	35146.56
660.955	35161.02
661.306	35232.21
661.656	35067.69
662.007	35103.85
662.358	35131.87
662.708	35021.82
663.059	34947.24
663.409	34828.15
663.76	35172.55
664.11	35050.75
664.461	35037.86
664.811	35092.33
665.161	34952.44
665.511	35026.56
665.862	35029.05
666.212	35191.53
666.562	35127.58
666.912	35094.59
667.262	35043.29
667.612	35104.75
667.962	34977.98
668.312	35033.57
668.662	35162.15
669.011	35015.72
669.361	34993.12
669.711	34958.77
670.06	34964.42
670.41	34801.49
670.76	34868.83
671.109	34982.05
671.459	34929.39
671.808	34822.5
672.157	34927.36
672.507	34777.08
672.856	34815.5
673.205	34888.04
673.554	34948.15
673.904	34775.95
674.253	34867.92
674.602	34906.12
674.951	34431.1
675.3	34174.61
675.649	34775.95
675.998	34647.37
676.346	34799.9
676.695	34820.47
677.044	34511.78
677.393	34617.31
677.741	34763.52
678.09	34650.76
678.438	34598.78
678.787	34554.03
679.135	34652.11
679.484	34363.98
679.832	34437.43
680.181	34292.35
680.529	34417.77
680.877	34369.18
681.225	34394.72
681.573	34483.75
681.922	34115.4
682.27	34045.12
682.618	34162.18
682.966	33917.22
683.314	34089.87
683.661	34058
684.009	33930.1
684.357	33907.95
684.705	33781.17
685.053	33831.79
685.4	33865.69
685.748	33595.19
686.095	33638.8
686.443	33500.28
686.79	33453.5
687.138	33516.55
687.485	33585.92
687.832	33320.62
688.18	33331.92
688.527	33173.28
688.874	33274.75
689.221	33183.68
689.568	33088.54
689.915	32995.43
690.262	33043.34
690.609	32957.47
690.956	32801.76
691.303	32779.39
691.65	32628.44
691.997	32693.52
692.344	32446.75
692.69	32574.65
693.037	32491.94
693.383	32144.83
693.73	32301.89
694.077	32250.59
694.423	32157.94
694.769	31994.78
695.116	31968.11
695.462	31878.4
695.808	31836.14
696.155	31846.31
696.501	31565.41
696.847	31615.36
697.193	31355.25
697.539	31452.2
697.885	31169.94
698.231	31226.66
698.577	31166.33
698.923	31249.26
699.269	31047.23
699.614	30939.44
699.96	30864.19
700.306	30814.02
700.651	30723.18
700.997	30583.07
701.342	30592.33
701.688	30549.17
702.033	30461.49
702.379	30463.07
702.724	30303.3
703.069	30348.72
703.415	30007.26
703.76	30146.24
704.105	30121.84
704.45	30000.26
704.795	29760.26
705.14	29754.84
705.485	29721.39
705.83	29618.8
706.175	29713.26
706.52	29578.12
706.865	29504.68
707.209	29418.8
707.554	29323.44
707.899	29446.82
708.243	29315.53
708.588	29227.17
708.932	29077.79
709.277	29044.58
709.621	29147.17
709.966	28891.81
710.31	28977.23
710.654	28626.73
710.998	28764.58
711.342	28720.74
711.687	28573.63
712.031	28472.61
712.375	28420.86
712.719	28370.69
713.063	28377.02
713.407	28386.06
713.75	28298.83
714.094	28189
714.438	28125.5
714.782	28247.99
715.125	28007.54
715.469	28071.95
715.812	27878.28
716.156	27818.39
716.499	27765.74
716.843	27813.2
717.186	27591.96
717.53	27716.93
717.873	27664.72
718.216	27511.73
718.559	27465.18
718.902	27242.81
719.246	27486.42
719.589	27279.2
719.932	27189.93
720.275	27243.94
720.617	27208.47
720.96	27116.49
721.303	27061.35
721.646	27217.28
721.989	26955.82
722.331	27098.64
722.674	26942.71
723.016	27005.53
723.359	26905.87
723.701	26916.5
724.044	26790.4
724.386	26627.01
724.729	26798.31
725.071	26707.01
725.413	26694.13
725.755	26699.55
726.097	26561.93
726.439	26423.85
726.782	26374.81
727.124	26577.97
727.465	26494.59
727.807	26180.7
728.149	26296.85
728.491	26277.87
728.833	26250.07
729.175	26072.22
729.516	26012.56
729.858	25962.85
730.199	26222.28
730.541	26046.69
730.882	25932.11
731.224	26047.14
731.565	25902.96
731.906	25831.1
732.248	25905.9
732.589	25609.86
732.93	25695.74
733.271	25645.12
733.612	25678.79
733.953	25743.42
734.294	25519.47
734.635	25489.64
734.976	25639.69
735.317	25520.37
735.658	25377.33
735.999	25416.87
736.339	25341.85
736.68	25382.3
737.021	25457.32
737.361	25287.16
737.702	25373.26
738.042	25264.11
738.383	25268.4
738.723	25312.92
739.063	25126.03
739.404	25234.73
739.744	25093.72
740.084	24843.33
740.424	25045.81
740.764	24929.43
741.104	24965.81
741.444	24895.76
741.784	24787.51
742.124	24952.25
742.464	24723.11
742.804	24726.04
743.143	24579.38
743.483	24672.26
743.823	24541.64
744.162	24635.65
744.502	24660.74
744.841	24465.26
745.181	24481.53
745.52	24445.6
745.86	24410.8
746.199	24436.11
746.538	24372.38
746.877	24301.88
747.216	24318.82
747.556	24236.79
747.895	24331.03
748.234	24187.53
748.573	24161.09
748.911	24079.28
749.25	24023.69
749.589	23973.52
749.928	24007.87
750.267	24157.92
750.605	23898.95
750.944	23876.58
751.283	23860.53
751.621	23779.85
751.96	23812.85
752.298	23752.96
752.636	23760.65
752.975	23529.69
753.313	23417.38
753.651	23595
753.989	23322.69
754.327	23479.07
754.666	23411.05
755.004	23351.62
755.342	23335.57
755.679	23324.73
756.017	23171.96
756.355	23248.57
756.693	23101.91
757.031	23178.06
757.368	22944.85
757.706	23045.19
758.044	22891.97
758.381	22844.74
758.719	22798.41
759.056	22693.33
759.394	22717.51
759.731	22482.94
760.068	22592.99
760.405	22460.57
