Data from hue_10_FLMS001491_86.txt Node
Date: Mon Feb 06 15:32:41 GMT 2017
User: dcchb
Spectrometer: FLMS00149
Trigger mode: 0
Integration Time (sec): 2.000000E-2
Scans to average: 10
Electric dark correction enabled: true
Nonlinearity correction enabled: false
Boxcar width: 0
XAxis mode: Wavelengths
Number of Pixels in Spectrum: 2048
>>>>>Begin Spectral Data<<<<<
341.393	-7.13
341.776	-7.13
342.16	-7.13
342.543	-43.29
342.927	-54.59
343.31	-75.83
343.693	-66.11
344.077	-61.14
344.46	-57.3
344.843	-40.13
345.226	-32.89
345.61	-20.01
345.993	-4.87
346.376	-1.03
346.759	20.21
347.142	27.22
347.525	24.51
347.908	34.9
348.291	77.16
348.674	81.9
349.057	93.43
349.44	134.33
349.823	138.63
350.206	177.5
350.588	224.5
350.971	211.17
351.354	225.18
351.737	227.66
352.119	243.93
352.502	275.12
352.884	295.68
353.267	281.9
353.65	288.68
354.032	311.73
354.414	309.24
354.797	329.81
355.179	315.57
355.562	330.03
355.944	319.41
356.326	329.81
356.709	343.82
357.091	327.32
357.473	345.17
357.855	347.43
358.238	338.85
358.62	363.48
359.002	339.3
359.384	356.02
359.766	338.4
360.148	337.72
360.53	340.2
360.912	339.75
361.294	346.08
361.676	336.81
362.057	328.23
362.439	341.11
362.821	318.96
363.203	327.77
363.584	331.16
363.966	316.47
364.348	337.27
364.729	323.93
365.111	317.15
365.493	326.19
365.874	330.03
366.256	327.77
366.637	295.91
367.019	338.4
367.4	323.71
367.781	309.24
368.163	312.63
368.544	327.55
368.925	306.08
369.306	335.91
369.688	303.59
370.069	317.15
370.45	324.84
370.831	319.64
371.212	331.16
371.593	327.32
371.974	314.67
372.355	306.76
372.736	308.34
373.117	347.66
373.498	312.63
373.879	315.34
374.26	334.33
374.641	307.21
375.021	322.8
375.402	337.04
375.783	317.38
376.163	337.04
376.544	316.47
376.925	325.29
377.305	328.23
377.686	346.08
378.066	317.38
378.447	343.82
378.827	330.71
379.208	331.16
379.588	348.11
379.968	327.55
380.349	326.42
380.729	317.83
381.109	349.47
381.489	336.36
381.87	341.33
382.25	344.72
382.63	322.12
383.01	343.59
383.39	357.38
383.77	349.47
384.15	369.13
384.53	346.98
384.91	349.24
385.29	346.53
385.67	350.15
386.049	338.85
386.429	333.88
386.809	357.83
387.189	361.67
387.568	367.77
387.948	356.02
388.328	368.9
388.707	368.68
389.087	359.41
389.466	356.47
389.846	376.59
390.225	348.56
390.605	368.22
390.984	357.83
391.363	360.32
391.743	368
392.122	373.2
392.501	353.31
392.881	366.64
393.26	356.93
393.639	345.4
394.018	376.13
394.397	351.73
394.776	367.55
395.155	383.37
395.534	372.29
395.913	369.81
396.292	384.72
396.671	361.67
397.05	398.28
397.429	390.37
397.808	391.28
398.186	389.47
398.565	370.71
398.944	392.4
399.323	386.3
399.701	366.64
400.08	386.3
400.458	374.33
400.837	389.02
401.215	389.69
401.594	391.05
401.972	401.22
402.351	396.92
402.729	402.12
403.107	422.69
403.486	402.35
403.864	384.5
404.242	402.35
404.62	396.47
404.999	422.01
405.377	419.52
405.755	422.01
406.133	401.67
406.511	427.43
406.889	412.07
407.267	419.3
407.645	400.99
408.023	402.35
408.401	430.14
408.779	411.61
409.156	438.73
409.534	437.38
409.912	439.86
410.29	446.19
410.667	429.47
411.045	449.58
411.422	447.77
411.8	436.7
412.178	465.17
412.555	456.13
412.933	462.91
413.31	476.02
413.687	466.53
414.065	461.78
414.442	471.05
414.819	471.27
415.197	461.56
415.574	464.27
415.951	485.28
416.328	452.74
416.705	480.09
417.082	481.67
417.46	506.53
417.837	480.54
418.214	466.3
418.591	478.96
418.967	488
419.344	492.06
419.721	493.87
420.098	505.4
420.475	510.59
420.852	501.55
421.228	500.88
421.605	498.62
421.982	526.64
422.358	525.51
422.735	513.53
423.111	502.01
423.488	527.77
423.864	523.93
424.241	541.55
424.617	535
424.994	542.01
425.37	540.65
425.746	530.71
426.123	549.24
426.499	528.45
426.875	548.79
427.251	573.87
427.627	565.06
428.003	558.73
428.379	575.22
428.756	572.74
429.132	554.21
429.507	578.61
429.883	594.21
430.259	595.56
430.635	580.2
431.011	583.59
431.387	617.71
431.763	614.32
432.138	609.35
432.514	600.54
432.89	603.92
433.265	650.48
433.641	613.42
434.016	623.13
434.392	615.22
434.767	663.58
435.143	628.78
435.518	643.47
435.894	643.7
436.269	670.82
436.644	642.34
437.02	673.53
437.395	673.08
437.77	668.33
438.145	693.19
438.52	686.86
438.895	698.16
439.271	685.05
439.646	729.12
440.021	712.62
440.395	707.88
440.77	709.68
441.145	705.17
441.52	697.03
441.895	711.27
442.27	717.14
442.645	723.24
443.019	721.89
443.394	740.19
443.769	748.78
444.143	751.27
444.518	730.93
444.892	755.11
445.267	754.88
445.641	753.98
446.016	757.82
446.39	766.41
446.764	751.94
447.139	774.32
447.513	757.14
447.887	756.46
448.262	777.93
448.636	784.03
449.01	790.59
449.384	803.92
449.758	814.54
450.132	810.25
450.506	824.26
450.88	787.42
451.254	816.12
451.628	812.28
452.002	815.67
452.376	838.95
452.75	824.26
453.123	821.32
453.497	864.26
453.871	831.72
454.244	868.78
454.618	881.66
454.992	884.82
455.365	892.5
455.739	883.92
456.112	889.57
456.486	882.34
456.859	896.57
457.232	901.09
457.606	935.89
457.979	948.55
458.352	954.88
458.725	932.05
459.099	963.24
459.472	971.82
459.845	977.93
460.218	997.81
460.591	981.99
460.964	979.28
461.337	1019.06
461.71	1037.81
462.083	1023.12
462.456	1033.74
462.829	1037.59
463.201	1049.34
463.574	1076
463.947	1070.35
464.32	1119.39
464.692	1112.16
465.065	1111.03
465.438	1138.37
465.81	1123.01
466.183	1140.41
466.555	1166.17
466.928	1162.33
467.3	1156
467.672	1205.26
468.045	1238.71
468.417	1217.47
468.789	1220.18
469.161	1249.78
469.534	1262.44
469.906	1270.8
470.278	1281.87
470.65	1291.14
471.022	1334.53
471.394	1326.17
471.766	1339.05
472.138	1397.8
472.51	1389.44
472.882	1412.94
473.253	1433.28
473.625	1465.37
473.997	1458.14
474.369	1499.27
474.74	1505.82
475.112	1545.82
475.484	1546.05
475.855	1598.02
476.227	1627.17
476.598	1672.82
476.97	1652.94
477.341	1696.1
477.713	1713.73
478.084	1741.52
478.455	1794.85
478.827	1807.73
479.198	1900.61
479.569	1864.91
479.94	1903.78
480.311	1930.44
480.682	1992.36
481.053	2014.74
481.424	2028.29
481.795	2094.06
482.166	2104
482.537	2162.3
482.908	2181.96
483.279	2214.73
483.65	2261.51
484.021	2315.07
484.391	2315.97
484.762	2355.07
485.133	2426.93
485.503	2405.23
485.874	2496.08
486.244	2513.93
486.615	2576.08
486.985	2570.88
487.356	2667.6
487.726	2702.4
488.097	2730.2
488.467	2785.11
488.837	2778.33
489.207	2852.68
489.578	2859.91
489.948	2933.81
490.318	2985.11
490.688	2973.81
491.058	3078.66
491.428	3076.63
491.798	3129.73
492.168	3179
492.538	3233.01
492.908	3209.96
493.278	3314.14
493.648	3300.13
494.017	3328.82
494.387	3374.25
494.757	3430.52
495.126	3442.49
495.496	3512.32
495.866	3509.84
496.235	3548.71
496.605	3576.5
496.974	3601.36
497.344	3664.18
497.713	3663.51
498.082	3719.78
498.452	3732.88
498.821	3755.03
499.19	3754.35
499.559	3812.2
499.928	3815.59
500.298	3860.79
500.667	3928.13
501.036	3874.57
501.405	3930.84
501.774	3952.76
502.143	3951.18
502.512	4021.24
502.88	4034.57
503.249	4040.9
503.618	4098.3
503.987	4110.95
504.356	4111.63
504.724	4149.59
505.093	4174.23
505.462	4199.99
505.83	4218.52
506.199	4246.77
506.567	4283.83
506.936	4256.48
507.304	4318.86
507.672	4324.73
508.041	4365.18
508.409	4406.08
508.777	4403.37
509.145	4435.46
509.514	4389.14
509.882	4421.9
510.25	4460.77
510.618	4482.24
510.986	4461.45
511.354	4551.62
511.722	4522.24
512.09	4639.07
512.458	4557.95
512.826	4595.46
513.193	4617.83
513.561	4620.77
513.929	4686.3
514.297	4699.86
514.664	4651.5
515.032	4712.74
515.4	4755.45
515.767	4789.8
516.135	4800.65
516.502	4787.32
516.869	4826.19
517.237	4838.62
517.604	4814.21
517.972	4871.38
518.339	4870.93
518.706	4896.69
519.073	4892.4
519.44	4937.82
519.808	4949.8
520.175	5032.28
520.542	5047.2
520.909	4986.18
521.276	4998.39
521.643	5074.32
522.009	5120.87
522.376	5144.14
522.743	5148.89
523.11	5184.82
523.477	5152.05
523.843	5200.41
524.21	5272.05
524.577	5301.88
524.943	5326.29
525.31	5302.56
525.676	5330.81
526.043	5430.46
526.409	5428.43
526.776	5476.34
527.142	5474.98
527.508	5501.42
527.874	5556.34
528.241	5535.55
528.607	5518.15
528.973	5596.56
529.339	5613.51
529.705	5673.62
530.071	5722.89
530.437	5707.75
530.803	5760.85
531.169	5785.94
531.535	5754.3
531.901	5814.64
532.267	5816.9
532.632	5851.47
532.998	5906.16
533.364	5953.16
533.73	5930.79
534.095	5969.43
534.461	6035.42
534.826	6025.7
535.192	6050.79
535.557	6102.31
535.923	6088.07
536.288	6109.32
536.653	6186.15
537.019	6141.41
537.384	6145.25
537.749	6202.42
538.114	6152.48
538.479	6225.7
538.845	6242.19
539.21	6240.61
539.575	6314.06
539.94	6341.63
540.305	6385.24
540.67	6382.3
541.034	6422.3
541.399	6463.43
541.764	6451.68
542.129	6522.41
542.494	6509.31
542.858	6529.19
543.223	6553.15
543.587	6573.03
543.952	6637.66
544.316	6610.32
544.681	6592.69
545.045	6673.82
545.41	6715.18
545.774	6737.1
546.138	6773.48
546.503	6769.64
546.867	6801.28
547.231	6815.29
547.595	6853.48
547.959	6880.37
548.324	6920.14
548.688	6886.25
549.052	6983.19
549.416	7011.44
549.779	7013.02
550.143	7028.84
550.507	7008.5
550.871	7067.26
551.235	7109.52
551.599	7111.32
551.962	7161.94
552.326	7221.38
552.689	7148.61
553.053	7199.01
553.417	7237.87
553.78	7310.42
554.143	7250.76
554.507	7297.31
554.87	7382.5
555.234	7425.67
555.597	7360.13
555.96	7421.82
556.323	7450.3
556.686	7439.23
557.05	7503.86
557.413	7492.78
557.776	7537.3
558.139	7583.63
558.502	7560.8
558.865	7546.12
559.228	7626.34
559.59	7652.55
559.953	7654.81
560.316	7756.05
560.679	7766.45
561.041	7771.65
561.404	7866.33
561.767	7812.32
562.129	7867.69
562.492	7905.2
562.854	7850.97
563.217	7911.3
563.579	8000.79
563.941	7973.67
564.304	8044.86
564.666	8044.63
565.028	8148.81
565.39	8049.6
565.753	8107.46
566.115	8096.38
566.477	8110.85
566.839	8172.77
567.201	8289.37
567.563	8275.59
567.925	8297.06
568.287	8353.33
568.648	8383.61
569.01	8380.22
569.372	8430.16
569.734	8415.47
570.095	8518.52
570.457	8521.91
570.819	8541.57
571.18	8624.28
571.542	8611.17
571.903	8678.51
572.265	8789.25
572.626	8797.16
572.987	8770.72
573.349	8868.79
573.71	8936.81
574.071	8942.24
574.432	9026.53
574.794	9091.16
575.155	9082.35
575.516	9078.05
575.877	9211.16
576.238	9231.27
576.599	9378.38
576.96	9367.54
577.32	9512.17
577.681	9543.12
578.042	9667.64
578.403	9715.1
578.763	9776.56
579.124	9982.21
579.485	9965.71
579.845	10104.24
580.206	10192.37
580.566	10309.66
580.927	10488.41
581.287	10575.19
581.648	10670.55
582.008	10845.24
582.368	10964.33
582.728	11107.83
583.089	11259.92
583.449	11346.69
583.809	11501.04
584.169	11604.99
584.529	11852.22
584.889	12114.58
585.249	12159.55
585.609	12381.92
585.969	12563.38
586.329	12867.56
586.688	13016.48
587.048	13239.98
587.408	13489.24
587.768	13660.3
588.127	13802.22
588.487	14104.59
588.846	14488.31
589.206	14542.54
589.565	14803.1
589.925	15134.84
590.284	15293.26
590.643	15579.12
591.003	15902.73
591.362	16283.51
591.721	16466.11
592.08	16791.3
592.44	17055.7
592.799	17398.74
593.158	17584.72
593.517	17861.78
593.876	18161.43
594.235	18513.28
594.593	18814.07
594.952	19144.45
595.311	19380.15
595.67	19648.17
596.029	20086.8
596.387	20345.1
596.746	20701.02
597.104	20913.9
597.463	21163.61
597.822	21624.62
598.18	21794.33
598.538	22163.58
598.897	22548.66
599.255	22615.1
599.613	23382.76
599.972	23478.8
600.33	23899.81
600.688	23974.38
601.046	24370.31
601.404	24761.71
601.762	24932.1
602.12	25413.44
602.478	25721.46
602.836	25927.55
603.194	26040.54
603.552	26454.77
603.91	26607.31
604.268	27018.6
604.625	27202.32
604.983	27555.53
605.341	27678.47
605.698	28041.17
606.056	28360.03
606.413	28749.4
606.771	28797.76
607.128	29198.88
607.485	29309.38
607.843	29527.91
608.2	29957.05
608.557	30182.36
608.914	30216.03
609.272	30647.88
609.629	30898.72
609.986	31211.03
610.343	31380.29
610.7	31733.73
611.057	31839.04
611.414	32036.54
611.771	32196.77
612.127	32457.55
612.484	32740.93
612.841	32945.22
613.198	32956.97
613.554	33312.22
613.911	33490.74
614.267	33734.58
614.624	33996.95
614.98	34178.18
615.337	34416.82
615.693	34482.13
616.05	34631.73
616.406	34776.36
616.762	34916.92
617.118	35098.16
617.475	35157.59
617.831	35513.52
618.187	35700.18
618.543	35861.08
618.899	36115.08
619.255	36135.19
619.611	36248.86
619.967	36468.52
620.323	36609.08
620.678	36586.26
621.034	36650.89
621.39	36883.65
621.746	36816.31
622.101	37388.27
622.457	37150.76
622.812	37348.27
623.168	37571.31
623.523	37621.48
623.879	37809.5
624.234	37602.5
624.589	37860.8
624.945	37900.12
625.3	38062.6
625.655	38227.79
626.01	38179.43
626.365	38373.1
626.72	38435.7
627.075	38319.32
627.43	38487.22
627.785	38434.79
628.14	38581.91
628.495	38721.11
628.85	38663.26
629.205	38491.06
629.559	38871.85
629.914	38739.65
630.269	38827.55
630.623	38856.93
630.978	38880.43
631.332	39133.31
631.687	39062.35
632.041	38988
632.396	39053.31
632.75	38917.27
633.104	39119.52
633.459	39030.49
633.813	38968.11
634.167	38966.76
634.521	39040.88
634.875	39197.03
635.229	38974.67
635.583	39055.8
635.937	38985.29
636.291	39007.66
636.645	39109.8
636.999	39006.98
637.352	39215.11
637.706	38988.9
638.06	39109.8
638.413	38992.97
638.767	39008.11
639.121	39053.31
639.474	38983.71
639.828	39024.16
640.181	39084.72
640.534	39100.54
640.888	38939.64
641.241	38775.8
641.594	38854.44
641.947	39044.5
642.301	39013.76
642.654	38986.42
643.007	38938.96
643.36	38920.66
643.713	38901
644.066	39192.29
644.419	38757.27
644.771	38536.03
645.124	38275.7
645.477	38191.41
645.83	38016.95
646.182	37940.12
646.535	37934.24
646.888	37901.48
647.24	37777.41
647.593	37901.7
647.945	37815.38
648.298	37722.27
648.65	37685.44
649.002	37502.62
649.355	37738.54
649.707	37661.93
650.059	37846.56
650.411	38192.99
650.763	38243.39
651.115	38610.16
651.467	38368.36
651.819	38480.67
652.171	38362.71
652.523	38414.68
652.875	38384.63
653.227	38309.6
653.578	38592.76
653.93	38443.16
654.282	38209.26
654.633	38227.57
654.985	38225.99
655.337	38261.69
655.688	38176.95
656.039	38285.19
656.391	38109.15
656.742	38070.96
657.094	38078.19
657.445	38339.88
657.796	38193.9
658.147	38022.83
658.498	38056.73
658.849	38221.24
659.2	38186.67
659.551	37971.98
659.902	38138.98
660.253	38099.21
660.604	38137.18
660.955	38052.21
661.306	38082.71
661.656	38041.36
662.007	37973.34
662.358	38098.98
662.708	37909.38
663.059	37956.16
663.409	37828.26
663.76	37972.89
664.11	38171.07
664.461	37958.65
664.811	37985.54
665.161	38038.19
665.511	37784.42
665.862	38046.33
666.212	38167.46
666.562	38078.42
666.912	37947.8
667.262	37893.11
667.612	38006.78
667.962	38005.2
668.312	37765.21
668.662	38015.82
669.011	37781.03
669.361	37804.3
669.711	37930.17
670.06	37700.8
670.41	37765.89
670.76	37724.3
671.109	37846.34
671.459	37776.05
671.808	37629.17
672.157	37738.09
672.507	37513.69
672.856	37482.05
673.205	37670.75
673.554	37727.24
673.904	37532.67
674.253	37842.49
674.602	37546.68
674.951	37293.13
675.3	36977.43
675.649	37472.56
675.998	37505.1
676.346	37490.64
676.695	37614.03
677.044	37325.9
677.393	37394.14
677.741	37497.64
678.09	37456.74
678.438	37242.28
678.787	37390.75
679.135	37414.93
679.484	37153.25
679.832	37292
680.181	37075.06
680.529	37191.21
680.877	37230.31
681.225	37061.5
681.573	37191.89
681.922	37056.75
682.27	36903.31
682.618	36937.43
682.966	36889.98
683.314	36951.44
683.661	36822.63
684.009	36752.8
684.357	36556.43
684.705	36509.65
685.053	36462.64
685.4	36482.08
685.748	36219.49
686.095	36292.03
686.443	36148.98
686.79	36140.84
687.138	36179.03
687.485	36114.63
687.832	35931.36
688.18	36020.85
688.527	35719.61
688.874	35803.9
689.221	35727.75
689.568	35645.26
689.915	35558.94
690.262	35574.3
690.609	35369.56
690.956	35391.94
691.303	35323.46
691.65	35095
691.997	35193.3
692.344	35032.17
692.69	34968.67
693.037	34937.26
693.383	34742.24
693.73	34781.33
694.077	34610.26
694.423	34574.56
694.769	34542.92
695.116	34476.93
695.462	34351.96
695.808	34266.77
696.155	34203.04
696.501	34024.97
696.847	34065.42
697.193	33824.07
697.539	33981.58
697.885	33710.62
698.231	33677.41
698.577	33631.08
698.923	33573
699.269	33334.14
699.614	33260.47
699.96	33267.7
700.306	33265.44
700.651	33080.13
700.997	32911.1
701.342	32883.53
701.688	32966.69
702.033	32801.04
702.379	32755.62
702.724	32701.16
703.069	32694.61
703.415	32359.93
703.76	32373.03
704.105	32399.47
704.45	32204.22
704.795	32125.13
705.14	31982.08
705.485	31925.14
705.83	31874.29
706.175	31901.86
706.52	31901.41
706.865	31691.69
707.209	31591.13
707.554	31558.37
707.899	31679.72
708.243	31477.69
708.588	31498.93
708.932	31282.44
709.277	31190.69
709.621	31281.31
709.966	30875.67
710.31	31126.74
710.654	30763.81
710.998	30848.33
711.342	30711.16
711.687	30696.24
712.031	30594.32
712.375	30621.89
712.719	30575.79
713.063	30493.99
713.407	30580.54
713.75	30365.18
714.094	30318.17
714.438	30260.55
714.782	30339.87
715.125	30121.79
715.469	30166.76
715.812	30016.03
716.156	29839.99
716.499	29897.17
716.843	29875.02
717.186	29712.99
717.53	29923.83
717.873	29922.25
718.216	29781.46
718.559	29602.26
718.902	29375.37
719.246	29597.74
719.589	29520.68
719.932	29292.21
720.275	29290.4
720.617	29254.92
720.96	29317.97
721.303	29218.77
721.646	29292.44
721.989	28936.29
722.331	29160.46
722.674	29022.84
723.016	28982.16
723.359	28928.38
723.701	28841.15
724.044	28715.05
724.386	28664.2
724.729	28769.06
725.071	28652.9
725.413	28571.33
725.755	28600.25
726.097	28444.32
726.439	28418.33
726.782	28392.8
727.124	28440.26
727.465	28291.78
727.807	28256.98
728.149	28304.44
728.491	28147.16
728.833	28261.28
729.175	28086.59
729.516	28160.94
729.858	28010.21
730.199	28097.21
730.541	27902.42
730.882	27865.81
731.224	28026.93
731.565	27751.23
731.906	27776.77
732.248	27879.37
732.589	27594.63
732.93	27671.01
733.271	27633.5
733.612	27558.92
733.953	27627.62
734.294	27537.45
734.635	27355.76
734.976	27353.96
735.317	27246.16
735.658	27308.53
735.999	27367.51
736.339	27304.01
736.68	27330.91
737.021	27183.34
737.361	27239.83
737.702	27186.95
738.042	26990.58
738.383	27060.86
738.723	27129.56
739.063	26951.93
739.404	27012.72
739.744	27079.39
740.084	26872.39
740.424	26832.39
740.764	26815.66
741.104	26940.41
741.444	26703.13
741.784	26678.49
742.124	26745.84
742.464	26641.88
742.804	26555.56
743.143	26472.85
743.483	26546.75
743.823	26463.13
744.162	26454.77
744.502	26368.9
744.841	26356.02
745.181	26361.21
745.52	26279.86
745.86	26305.85
746.199	26327.54
746.538	26176.81
746.877	26308.33
747.216	26183.82
747.556	26027.89
747.895	26091.62
748.234	25997.83
748.573	26010.04
748.911	25911.28
749.25	25982.47
749.589	25867.67
749.928	25795.8
750.267	25838.06
750.605	25666.32
750.944	25766.88
751.283	25574.79
751.621	25723.26
751.96	25426.1
752.298	25541.57
752.636	25545.64
752.975	25423.61
753.313	25334.57
753.651	25449.15
753.989	25243.73
754.327	25248.93
754.666	25204.86
755.004	25265.65
755.342	25134.58
755.679	25147.69
756.017	25000.35
756.355	24958.54
756.693	24885.77
757.031	24993.34
757.368	24733.69
757.706	24748.15
758.044	24613.01
758.381	24741.6
758.719	24621.6
759.056	24578.89
759.394	24493.47
759.731	24316.97
760.068	24391.77
760.405	24207.15
760.743	24173.02
761.08	24075.17
