Data from hue_50_FLMS001491_38.txt Node
Date: Mon Feb 06 15:10:03 GMT 2017
User: dcchb
Spectrometer: FLMS00149
Trigger mode: 0
Integration Time (sec): 2.000000E-2
Scans to average: 10
Electric dark correction enabled: true
Nonlinearity correction enabled: false
Boxcar width: 0
XAxis mode: Wavelengths
Number of Pixels in Spectrum: 2048
>>>>>Begin Spectral Data<<<<<
341.393	-15.04
341.776	-15.04
342.16	-15.04
342.543	-61.37
342.927	-68.15
343.31	-64.76
343.693	-65.44
344.077	-83.74
344.46	-53.91
344.843	-60.01
345.226	-50.97
345.61	-31.99
345.993	1.23
346.376	-3.29
346.759	14.79
347.142	34
347.525	21.34
347.908	61.34
348.291	61.57
348.674	120.32
349.057	99.53
349.44	117.38
349.823	142.69
350.206	166.87
350.588	174.11
350.971	223.6
351.354	224.5
351.737	229.25
352.119	246.42
352.502	257.95
352.884	280.77
353.267	285.74
353.65	309.47
354.032	290.94
354.414	309.47
354.797	312.63
355.179	317.15
355.562	323.93
355.944	333.42
356.326	342.24
356.709	325.06
357.091	358.51
357.473	344.27
357.855	336.59
358.238	311.28
358.62	349.47
359.002	321.22
359.384	351.28
359.766	328.9
360.148	342.24
360.53	316.7
360.912	312.41
361.294	327.32
361.676	335.46
362.057	294.78
362.439	321.22
362.821	334.33
363.203	334.1
363.584	328.23
363.966	331.84
364.348	311.96
364.729	319.41
365.111	315.34
365.493	326.64
365.874	310.83
366.256	320.77
366.637	310.83
367.019	306.76
367.4	318.73
367.781	297.72
368.163	286.42
368.544	305.4
368.925	322.58
369.306	307.21
369.688	310.6
370.069	325.29
370.45	323.25
370.831	328
371.212	321.22
371.593	330.03
371.974	302.69
372.355	304.95
372.736	332.75
373.117	311.73
373.498	333.88
373.879	298.17
374.26	308.34
374.641	306.98
375.021	320.09
375.402	335.46
375.783	320.32
376.163	303.82
376.544	314.21
376.925	313.99
377.305	335.46
377.686	321.45
378.066	330.26
378.447	335.91
378.827	303.59
379.208	297.72
379.588	301.11
379.968	322.35
380.349	327.32
380.729	331.39
381.109	316.93
381.489	329.13
381.87	348.56
382.25	324.38
382.63	324.84
383.01	332.52
383.39	329.81
383.77	332.75
384.15	347.89
384.53	326.87
384.91	345.85
385.29	326.42
385.67	328.23
386.049	351.28
386.429	351.73
386.809	311.05
387.189	351.5
387.568	340.88
387.948	356.25
388.328	349.24
388.707	329.81
389.087	342.24
389.466	365.29
389.846	361.67
390.225	368
390.605	349.69
390.984	343.82
391.363	359.64
391.743	349.02
392.122	350.15
392.501	351.28
392.881	355.57
393.26	356.7
393.639	365.51
394.018	342.69
394.397	362.12
394.776	360.77
395.155	385.17
395.534	371.39
395.913	369.81
396.292	374.78
396.671	351.28
397.05	374.55
397.429	362.58
397.808	376.36
398.186	366.42
398.565	379.75
398.944	366.42
399.323	364.16
399.701	401.67
400.08	393.08
400.458	366.64
400.837	392.63
401.215	396.25
401.594	398.05
401.972	385.85
402.351	385.4
402.729	374.78
403.107	384.5
403.486	384.72
403.864	390.37
404.242	387.43
404.62	388.79
404.999	401.67
405.377	397.15
405.755	347.66
406.133	391.28
406.511	372.52
406.889	404.16
407.267	394.66
407.645	399.18
408.023	408.9
408.401	397.38
408.779	398.51
409.156	400.99
409.534	408.22
409.912	413.42
410.29	415
410.667	420.88
411.045	418.84
411.422	414.1
411.8	417.94
412.178	433.31
412.555	415.68
412.933	417.26
413.31	435.34
413.687	441.44
414.065	438.51
414.442	427.66
414.819	443.25
415.197	454.32
415.574	461.78
415.951	443.03
416.328	459.52
416.705	442.57
417.082	450.03
417.46	436.47
417.837	449.8
418.214	468.79
418.591	478.28
418.967	483.25
419.344	448
419.721	473.31
420.098	473.98
420.475	463.82
420.852	487.09
421.228	497.49
421.605	487.54
421.982	490.93
422.358	492.29
422.735	499.97
423.111	480.99
423.488	486.41
423.864	511.5
424.241	503.81
424.617	493.87
424.994	511.5
425.37	518.28
425.746	525.73
426.123	514.44
426.499	500.65
426.875	534.55
427.251	533.87
427.627	512.63
428.003	560.08
428.379	551.27
428.756	524.38
429.132	551.72
429.507	537.94
429.883	543.14
430.259	543.14
430.635	544.94
431.011	567.99
431.387	564.6
431.763	556.47
432.138	580.2
432.514	576.58
432.89	581.55
433.265	585.39
433.641	591.27
434.016	591.95
434.392	600.54
434.767	612.51
435.143	611.83
435.518	596.69
435.894	605.51
436.269	609.12
436.644	616.35
437.02	638.73
437.395	632.62
437.77	622.68
438.145	655.67
438.52	634.21
438.895	651.61
439.271	635.56
439.646	638.95
440.021	646.18
440.395	671.27
440.77	652.06
441.145	676.47
441.52	689.57
441.895	674.66
442.27	681.21
442.645	696.35
443.019	676.24
443.394	676.69
443.769	671.95
444.143	684.15
444.518	697.03
444.892	685.05
445.267	706.29
445.641	692.51
446.016	703.36
446.39	685.96
446.764	689.12
447.139	736.35
447.513	717.14
447.887	708.1
448.262	735.45
448.636	735.9
449.01	735.45
449.384	741.77
449.758	712.17
450.132	766.18
450.506	767.31
450.88	738.61
451.254	787.65
451.628	767.99
452.002	753.53
452.376	767.76
452.75	773.86
453.123	779.29
453.497	801.43
453.871	795.11
454.244	812.96
454.618	819.96
454.992	790.81
455.365	820.42
455.739	827.65
456.112	831.72
456.486	844.37
456.859	865.84
457.232	885.73
457.606	878.27
457.979	879.4
458.352	871.04
458.725	881.21
459.099	929.57
459.472	922.79
459.845	920.98
460.218	927.08
460.591	939.28
460.964	954.65
461.337	972.73
461.71	985.16
462.083	988.55
462.456	978.83
462.829	1001.2
463.201	1033.52
463.574	1033.52
463.947	1031.94
464.32	1055.66
464.692	1064.93
465.065	1088.66
465.438	1094.99
465.81	1107.87
466.183	1125.94
466.555	1129.79
466.928	1146.06
467.3	1147.19
467.672	1175.44
468.045	1199.16
468.417	1177.7
468.789	1224.7
469.161	1253.63
469.534	1277.35
469.906	1257.69
470.278	1277.35
470.65	1323.68
471.022	1338.59
471.394	1363
471.766	1407.07
472.138	1406.62
472.51	1446.84
472.882	1494.07
473.253	1518.48
473.625	1548.98
473.997	1601.86
474.369	1607.51
474.74	1627.17
475.112	1662.2
475.484	1685.03
475.855	1732.03
476.227	1799.6
476.598	1842.54
476.97	1887.05
477.341	1922.08
477.713	2007.96
478.084	2063.77
478.455	2118.24
478.827	2147.61
479.198	2196.65
479.569	2261.96
479.94	2340.15
480.311	2405.69
480.682	2455.85
481.053	2548.96
481.424	2618.56
481.795	2682.97
482.166	2737.43
482.537	2852.91
482.908	2898.1
483.279	2987.82
483.65	3071.43
484.021	3158.89
484.391	3287.24
484.762	3315.94
485.133	3405.21
485.503	3505.09
485.874	3630.29
486.244	3714.35
486.615	3863.05
486.985	3945.76
487.356	4108.47
487.726	4182.59
488.097	4270.72
488.467	4404.73
488.837	4580.32
489.207	4658.96
489.578	4747.54
489.948	4847.66
490.318	5008.33
490.688	5107.08
491.058	5215.33
491.428	5321.09
491.798	5457.81
492.168	5637.46
492.538	5731.25
492.908	5900.51
493.278	5984.12
493.648	6131.01
494.017	6249.2
494.387	6371.91
494.757	6510.66
495.126	6637.21
495.496	6747.49
495.866	6808.06
496.235	6992.91
496.605	7155.39
496.974	7227.03
497.344	7368.04
497.713	7483.52
498.082	7650.29
498.452	7804.19
498.821	7853.68
499.19	7913.34
499.559	8164.4
499.928	8196.95
500.298	8378.18
500.667	8521.23
501.036	8556.94
501.405	8680.1
501.774	8709.7
502.143	8847.1
502.512	8923.71
502.88	9127.54
503.249	9222.68
503.618	9312.4
503.987	9450.7
504.356	9541.99
504.724	9650.69
505.093	9752.16
505.462	9843
505.83	10001.64
506.199	10077.35
506.567	10191.02
506.936	10248.42
507.304	10373.16
507.672	10497.45
508.041	10612.93
508.409	10744.45
508.777	10846.14
509.145	10963.2
509.514	11001.84
509.882	11217.88
510.25	11235.06
510.618	11288.84
510.986	11432.34
511.354	11483.19
511.722	11610.64
512.09	11824.42
512.458	11823.29
512.826	11969.73
513.193	12003.85
513.561	12095.15
513.929	12225.09
514.297	12412.65
514.664	12540.33
515.032	12525.87
515.4	12649.48
515.767	12697.17
516.135	12904.84
516.502	12895.35
516.869	13098.29
517.237	13091.28
517.604	13118.17
517.972	13304.38
518.339	13416.47
518.706	13500.31
519.073	13547.99
519.44	13631.83
519.808	13805.39
520.175	13803.35
520.542	13976.91
520.909	14109.78
521.276	14144.36
521.643	14276.11
522.009	14391.58
522.376	14469.1
522.743	14584.12
523.11	14764.23
523.477	14797
523.843	14971
524.21	15082.41
524.577	15278.79
524.943	15282.63
525.31	15382.52
525.676	15459.58
526.043	15657.54
526.409	15715.62
526.776	15905.44
527.142	15915.61
527.508	16027.02
527.874	16178.2
528.241	16250.97
528.607	16308.14
528.973	16559.89
529.339	16442.83
529.705	16620.68
530.071	16840.56
530.437	16786.32
530.803	16996.94
531.169	17059.31
531.535	17038.97
531.901	17153.09
532.267	17246.2
532.632	17373.2
532.998	17419.08
533.364	17600.99
533.73	17567.09
534.095	17764.83
534.461	17839.18
534.826	17982.22
535.192	17925.96
535.557	18125.72
535.923	18091.15
536.288	18148.77
536.653	18285.72
537.019	18331.59
537.384	18430.57
537.749	18533.62
538.114	18510.8
538.479	18504.92
538.845	18616.33
539.21	18598.93
539.575	18703.34
539.94	18917.79
540.305	18946.27
540.67	18868.98
541.034	19019.94
541.399	19051.35
541.764	19199.14
542.129	19277.33
542.494	19300.83
542.858	19405.92
543.223	19402.3
543.587	19504.67
543.952	19600.94
544.316	19647.49
544.681	19631.22
545.045	19782.18
545.41	19983.53
545.774	20003.41
546.138	19962.74
546.503	19973.58
546.867	20022.17
547.231	20180.36
547.595	20244.54
547.959	20311.88
548.324	20292.67
548.688	20380.35
549.052	20483.18
549.416	20467.58
549.779	20649.27
550.143	20644.75
550.507	20775.15
550.871	20809.27
551.235	20890.17
551.599	20980.34
551.962	20984.18
552.326	21136.94
552.689	21279.09
553.053	21129.03
553.417	21320.89
553.78	21457.84
554.143	21393.66
554.507	21539.42
554.87	21596.14
555.234	21765.63
555.597	21681.11
555.96	21729.25
556.323	21899.86
556.686	21926.53
557.05	22096.69
557.413	22179.85
557.776	22276.58
558.139	22355.44
558.502	22413.75
558.865	22493.07
559.228	22579.39
559.59	22719.5
559.953	22625.49
560.316	23000.17
560.679	22967.63
561.041	23114.29
561.404	23188.19
561.767	23298.7
562.129	23261.18
562.492	23598.8
562.854	23671.79
563.217	23561.06
563.579	23694.62
563.941	23874.5
564.304	23894.61
564.666	24155.4
565.028	24201.5
565.39	24183.64
565.753	24222.51
566.115	24395.62
566.477	24428.16
566.839	24593.35
567.201	24803.74
567.563	24828.15
567.925	24921.03
568.287	24893.91
568.648	24922.83
569.01	25146.33
569.372	25277.63
569.734	25315.82
570.095	25490.95
570.457	25530.5
570.819	25630.84
571.18	25598.75
571.542	25799.65
571.903	25723.49
572.265	25919.87
572.626	26035.8
572.987	26082.35
573.349	26232.86
573.71	26403.25
574.071	26422.68
574.432	26484.83
574.794	26723.69
575.155	26744.25
575.516	26629.91
575.877	26903.35
576.238	26960.52
576.599	27032.38
576.96	27060.86
577.32	27108.09
577.681	27209.1
578.042	27419.72
578.403	27426.95
578.763	27509.88
579.124	27649.77
579.485	27815.19
579.845	27798.24
580.206	27888.41
580.566	27954.39
580.927	28082.07
581.287	28194.39
581.648	28225.8
582.008	28393.02
582.368	28390.54
582.728	28515.51
583.089	28458.33
583.449	28662.85
583.809	28709.17
584.169	28962.28
584.529	28833.47
584.889	29184.19
585.249	29151.2
585.609	29143.29
585.969	29407.69
586.329	29521.81
586.688	29625.76
587.048	29647.68
587.408	29742.59
587.768	29722.26
588.127	29901.23
588.487	29980.33
588.846	30220.77
589.206	30045.41
589.565	30221.9
589.925	30419.64
590.284	30436.36
590.643	30591.38
591.003	30749.35
591.362	30895.78
591.721	30888.1
592.08	31019.4
592.44	31087.87
592.799	31217.81
593.158	31290.12
593.517	31313.4
593.876	31453.51
594.235	31548.2
594.593	31669.1
594.952	31808.08
595.311	31794.29
595.67	31915.42
596.029	32083.32
596.387	32123.55
596.746	32322.86
597.104	32263.66
597.463	32385.01
597.822	32647.38
598.18	32506.36
598.538	32454.61
598.897	32817.99
599.255	32621.84
599.613	33114.93
599.972	32941.83
600.33	33081.71
600.688	33173.24
601.046	33216.4
601.404	33505.66
601.762	33460.24
602.12	33720.79
602.478	33706.33
602.836	33763.96
603.194	33656.84
603.552	33834.69
603.91	33881.24
604.268	33918.53
604.625	34007.11
604.983	34187.67
605.341	34125.53
605.698	34334.11
606.056	34462.02
606.413	34400.55
606.771	34507.89
607.128	34644.84
607.485	34476.03
607.843	34539.3
608.2	34953.08
608.557	34955.56
608.914	34885.28
609.272	35176.58
609.629	35205.5
609.986	35340.19
610.343	35250.7
610.7	35440.52
611.057	35379.28
611.414	35496.57
611.771	35620.63
612.127	35770.46
612.484	35802.77
612.841	35939.04
613.198	35736.56
613.554	35928.87
613.911	36055.2
614.267	36094.29
614.624	36148.07
614.98	36082.99
615.337	36543.77
615.693	36367.28
616.05	36377.9
616.406	36615.18
616.762	36509.2
617.118	36487.05
617.475	36608.85
617.831	36740.15
618.187	36766.59
618.543	36883.2
618.899	37121.61
619.255	36908.51
619.611	36938.56
619.967	37137.88
620.323	37250.42
620.678	37147.37
621.034	37167.94
621.39	37185.56
621.746	37124.09
622.101	37631.43
622.457	37339.23
622.812	37413.58
623.168	37500.36
623.523	37397.99
623.879	37669.84
624.234	37484.76
624.589	37621.71
624.945	37668.94
625.3	37797.98
625.655	37705.32
626.01	37634.14
626.365	37724.3
626.72	37693.12
627.075	37691.76
627.43	37703.74
627.785	37586.91
628.14	37700.12
628.495	37813.34
628.85	37727.69
629.205	37687.92
629.559	37946.45
629.914	37681.59
630.269	37829.61
630.623	37757.07
630.978	37565.66
631.332	37826.9
631.687	37817.86
632.041	37642.27
632.396	37824.19
632.75	37717.07
633.104	37781.25
633.459	37543.97
633.813	37581.94
634.167	37730.63
634.521	37662.39
634.875	37671.2
635.229	37593.46
635.583	37519.11
635.937	37568.6
636.291	37514.82
636.645	37554.59
636.999	37353.69
637.352	37531.99
637.706	37337.87
638.06	37586.23
638.413	37515.5
638.767	37458.77
639.121	37390.75
639.474	37329.51
639.828	37243.64
640.181	37350.08
640.534	37312.11
640.888	37287.48
641.241	37074.83
641.594	37117.32
641.947	37122.29
642.301	37019.24
642.654	37227.37
643.007	37152.34
643.36	37019.69
643.713	36988.05
644.066	37152.57
644.419	36869.86
644.771	36684.11
645.124	36316.88
645.477	36308.97
645.83	36181.07
646.182	36079.83
646.535	35962.32
646.888	35965.03
647.24	35678.03
647.593	35906.5
647.945	35889.78
648.298	35777.01
648.65	35687.3
649.002	35622.21
649.355	35790.34
649.707	35683.91
650.059	35818.37
650.411	36144.01
650.763	36374.06
651.115	36647.72
651.467	36431.46
651.819	36572.92
652.171	36445.02
652.523	36348.75
652.875	36566.82
653.227	36203.89
653.578	36524.34
653.93	36422.87
654.282	36188.53
654.633	36221.07
654.985	36409.09
655.337	36331.12
655.688	36266.04
656.039	36368.86
656.391	36012.26
656.742	36010.9
657.094	36092.94
657.445	36296.77
657.796	36102.2
658.147	36099.26
658.498	35994.18
658.849	36096.32
659.2	36031.24
659.551	36091.35
659.902	36139.04
660.253	36122.09
660.604	36172.93
660.955	35855.2
661.306	36061.75
661.656	35887.74
662.007	36008.19
662.358	35958.48
662.708	36027.85
663.059	36044.57
663.409	35726.39
663.76	35966.16
664.11	35997.57
664.461	35900.85
664.811	36077.12
665.161	35884.13
665.511	35811.59
665.862	35903.34
666.212	36025.59
666.562	35923.22
666.912	35947.4
667.262	35930.45
667.612	36038.7
667.962	35997.8
668.312	35822.66
668.662	35920.51
669.011	35763
669.361	35907.4
669.711	35851.13
670.06	35849.78
670.41	35749.22
670.76	35669.44
671.109	35780.63
671.459	35779.27
671.808	35793.51
672.157	35873.05
672.507	35543.8
672.856	35712.61
673.205	35623.79
673.554	35701.08
673.904	35735.2
674.253	35812.94
674.602	35568.2
674.951	35266.29
675.3	35076.92
675.649	35570.01
675.998	35386.06
676.346	35454.31
676.695	35585.38
677.044	35336.34
677.393	35424.48
677.741	35389
678.09	35360.98
678.438	35242.56
678.787	35285.05
679.135	35236.91
679.484	35099.51
679.832	35250.47
680.181	35000.31
680.529	35047.31
680.877	35092.74
681.225	34954.66
681.573	35160.76
681.922	34822.46
682.27	34883.25
682.618	34881.67
682.966	34847.77
683.314	34888.67
683.661	34745.85
684.009	34694.33
684.357	34637.83
684.705	34410.95
685.053	34536.59
685.4	34549.92
685.748	34297.73
686.095	34346.09
686.443	34306.09
686.79	34062.71
687.138	34276.94
687.485	34235.36
687.832	34113.33
688.18	34088.47
688.527	33991.52
688.874	33951.75
689.221	33937.74
689.568	33903.39
689.915	33667.46
690.262	33673.56
690.609	33574.81
690.956	33513.34
691.303	33395.15
691.65	33309.73
691.997	33253.01
692.344	33132.34
692.69	33066.8
693.037	33074.26
693.383	32909.29
693.73	32980.7
694.077	32748.39
694.423	32675.85
694.769	32717.88
695.116	32578.45
695.462	32534.84
695.808	32512.24
696.155	32437.89
696.501	32313.15
696.847	32315.41
697.193	32093.72
697.539	32189.99
697.885	31948.86
698.231	31853.72
698.577	31815.76
698.923	31752.48
699.269	31687.63
699.614	31462.77
699.96	31434.53
700.306	31557.01
700.651	31241.99
700.997	31336
701.342	31237.92
701.688	31162.22
702.033	31029.11
702.379	31017.36
702.724	30842.23
703.069	30966.52
703.415	30598.16
703.76	30690.82
704.105	30702.34
704.45	30514.78
704.795	30299.64
705.14	30320.88
705.485	30242.92
705.83	30189.14
706.175	30212.64
706.52	30084.51
706.865	30003.15
707.209	30021.46
707.554	29873.44
707.899	29986.2
708.243	29684.06
708.588	29836.15
708.932	29550.96
709.277	29613.11
709.621	29502.15
709.966	29383.73
710.31	29424.86
710.654	29155.72
710.998	29273.23
711.342	29254.47
711.687	29179.67
712.031	28981.71
712.375	28960.92
712.719	29041.6
713.063	28978.09
713.407	28997.53
713.75	28815.39
714.094	28749.85
714.438	28687.48
714.782	28635.73
715.125	28472.12
715.469	28582.17
715.812	28414.04
716.156	28310.54
716.499	28366.36
716.843	28358.68
717.186	28137.66
717.53	28321.61
717.873	28198.91
718.216	28169.53
718.559	28027.61
718.902	27873.26
719.246	27913.04
719.589	27920.72
719.932	27688.18
720.275	27716.66
720.617	27620.62
720.96	27620.16
721.303	27650.22
721.646	27582.65
721.989	27466.95
722.331	27607.73
722.674	27476.66
723.016	27533.84
723.359	27410.23
723.701	27441.41
724.044	27297.23
724.386	27096.56
724.729	27355.54
725.071	27170.46
725.413	27058.14
725.755	27183.34
726.097	26966.85
726.439	26826.29
726.782	26995.77
727.124	26985.83
727.465	26822.22
727.807	26885.95
728.149	26738.83
728.491	26710.58
728.833	26738.38
729.175	26558.04
729.516	26526.86
729.858	26643.92
730.199	26479.63
730.541	26423.36
730.882	26483.02
731.224	26592.39
731.565	26257.71
731.906	26219.52
732.248	26387.2
732.589	26178.17
732.93	26240.76
733.271	26093.88
733.612	26071.05
733.953	26109.69
734.294	25909.93
734.635	26001.22
734.976	25972.3
735.317	25822.24
735.658	25781.79
735.999	25872.86
736.339	25745.64
736.68	25901.79
737.021	25733.43
737.361	25633.32
737.702	25751.96
738.042	25587.67
738.383	25590.84
738.723	25662.02
739.063	25455.02
739.404	25545.19
739.744	25469.26
740.084	25457.06
740.424	25452.54
740.764	25378.41
741.104	25341.81
741.444	25140.23
741.784	25175.48
742.124	25204.63
742.464	25151.98
742.804	25205.31
743.143	25128.25
743.483	25063.39
743.823	24953.34
744.162	24991.31
744.502	25074.92
744.841	24765.32
745.181	24988.59
745.52	24889.61
745.86	24897.98
746.199	24827.02
746.538	24801.93
746.877	24759.67
747.216	24769.84
747.556	24623.86
747.895	24681.94
748.234	24576.63
748.573	24563.52
748.911	24431.55
749.25	24386.8
749.589	24328.27
749.928	24428.84
750.267	24468.61
750.605	24247.14
750.944	24234.04
751.283	24194.94
751.621	24243.98
751.96	24025
752.298	24007.6
752.636	24097.54
752.975	23912.24
753.313	23817.1
753.651	23972.58
753.989	23817.33
754.327	23795.18
754.666	23591.57
755.004	23655.07
755.342	23692.58
755.679	23578.91
756.017	23437.9
756.355	23543.43
756.693	23393.38
757.031	23390.44
