Data from hue_280_FLMS001491_00019.txt Node
Date: Tue Feb 07 15:54:55 GMT 2017
User: dcchb
Spectrometer: FLMS00149
Trigger mode: 0
Integration Time (sec): 2.000000E-2
Scans to average: 10
Electric dark correction enabled: true
Nonlinearity correction enabled: false
Boxcar width: 0
XAxis mode: Wavelengths
Number of Pixels in Spectrum: 2048
>>>>>Begin Spectral Data<<<<<
341.393	-38.61
341.776	-38.61
342.16	-38.61
342.543	-59.63
342.927	-49.01
343.31	-69.57
343.693	-72.06
344.077	-65.05
344.46	-58.28
344.843	-52.85
345.226	-47.43
345.61	-31.61
345.993	-36.81
346.376	4.77
346.759	23.08
347.142	15.4
347.525	44.77
347.908	56.98
348.291	57.65
348.674	108.27
349.057	122.74
349.44	121.83
349.823	130.19
350.206	162.74
350.588	201.15
350.971	238.44
351.354	227.37
351.737	219.46
352.119	234.37
352.502	256.07
352.884	273.92
353.267	273.69
353.65	295.61
354.032	281.15
354.414	286.8
354.797	300.81
355.179	306.91
355.562	318.89
355.944	316.18
356.326	330.42
356.709	315.73
357.091	338.32
357.473	323.41
357.855	329.51
358.238	326.57
358.62	334.71
359.002	333.8
359.384	344.65
359.766	330.42
360.148	340.58
360.53	330.87
360.912	334.26
361.294	327.03
361.676	322.73
362.057	319.34
362.439	342.62
362.821	338.55
363.203	326.12
363.584	342.62
363.966	320.92
364.348	328.16
364.729	307.36
365.111	311.88
365.493	305.56
365.874	305.33
366.256	303.07
366.637	303.3
367.019	310.08
367.4	330.19
367.781	316.4
368.163	306.23
368.544	316.86
368.925	304.43
369.306	341.04
369.688	296.52
370.069	304.2
370.45	329.06
370.831	303.52
371.212	315.05
371.593	330.42
371.974	332.67
372.355	312.34
372.736	307.14
373.117	314.6
373.498	317.31
373.879	301.94
374.26	308.49
374.641	324.77
375.021	305.1
375.402	314.37
375.783	320.02
376.163	339.45
376.544	336.06
376.925	325.67
377.305	316.63
377.686	322.28
378.066	342.62
378.447	340.13
378.827	335.61
379.208	318.89
379.588	322.28
379.968	319.12
380.349	331.54
380.729	313.69
381.109	332.9
381.489	329.96
381.87	344.88
382.25	351.88
382.63	352.34
383.01	326.12
383.39	358.44
383.77	334.93
384.15	353.69
384.53	356.18
384.91	363.41
385.29	345.56
385.67	355.95
386.049	352.79
386.429	366.8
386.809	386.01
387.189	348.27
387.568	358.66
387.948	361.83
388.328	369.06
388.707	359.79
389.087	367.02
389.466	376.29
389.846	360.02
390.225	362.5
390.605	369.74
390.984	352.34
391.363	365.89
391.743	378.1
392.122	375.84
392.501	399.57
392.881	412.22
393.26	383.75
393.639	393.69
394.018	392.56
394.397	409.28
394.776	385.55
395.155	414.25
395.534	392.79
395.913	405.44
396.292	388.04
396.671	406.8
397.05	404.76
397.429	402.5
397.808	410.41
398.186	405.22
398.565	401.83
398.944	396.18
399.323	403.63
399.701	408.38
400.08	401.15
400.458	423.07
400.837	439.11
401.215	431.88
401.594	434.14
401.972	437.08
402.351	445.44
402.729	435.95
403.107	464.65
403.486	457.87
403.864	459
404.242	459.68
404.62	440.24
404.999	443.86
405.377	445.44
405.755	490.86
406.133	457.42
406.511	458.32
406.889	476.63
407.267	477.98
407.645	476.63
408.023	494.7
408.401	502.61
408.779	484.08
409.156	508.94
409.534	520.24
409.912	532.67
410.29	527.7
410.667	525.66
411.045	540.13
411.422	526.57
411.8	544.42
412.178	578.54
412.555	561.37
412.933	577.64
413.31	595.04
413.687	588.71
414.065	609.28
414.442	601.59
414.819	601.37
415.197	614.93
415.574	635.72
415.951	618.09
416.328	646.79
416.705	648.37
417.082	639.79
417.46	675.94
417.837	671.2
418.214	672.33
418.591	688.6
418.967	707.81
419.344	709.39
419.721	698.54
420.098	731.08
420.475	704.64
420.852	719.11
421.228	736.05
421.605	754.58
421.982	740.12
422.358	782.38
422.735	776.28
423.111	781.93
423.488	769.5
423.864	813.79
424.241	809.05
424.617	813.34
424.994	851.98
425.37	858.31
425.746	825.54
426.123	851.31
426.499	865.54
426.875	890.85
427.251	873.68
427.627	902.15
428.003	914.81
428.379	941.7
428.756	950.29
429.132	920.91
429.507	961.36
429.883	984.18
430.259	999.55
430.635	963.39
431.011	1011.08
431.387	1009.95
431.763	1028.48
432.138	1018.76
432.514	1044.52
432.89	1045.88
433.265	1083.16
433.641	1091.07
434.016	1108.7
434.392	1126.1
434.767	1132.2
435.143	1141.02
435.518	1180.34
435.894	1160.68
436.269	1213.56
436.644	1240.45
437.02	1241.35
437.395	1237.28
437.77	1252.65
438.145	1285.42
438.52	1301.69
438.895	1300.11
439.271	1300.11
439.646	1347.34
440.021	1364.96
440.395	1357.73
440.77	1348.47
441.145	1351.18
441.52	1392.31
441.895	1411.97
442.27	1386.21
442.645	1412.87
443.019	1415.13
443.394	1446.54
443.769	1402.03
444.143	1436.37
444.518	1459.2
444.892	1466.66
445.267	1479.54
445.641	1501.23
446.016	1502.36
446.39	1480.89
446.764	1494.45
447.139	1491.97
447.513	1522.47
447.887	1521.34
448.262	1541
448.636	1549.14
449.01	1548.24
449.384	1586.65
449.758	1576.26
450.132	1617.39
450.506	1604.28
450.88	1614.22
451.254	1589.59
451.628	1636.37
452.002	1644.28
452.376	1652.41
452.75	1636.14
453.123	1666.43
453.497	1676.14
453.871	1678.63
454.244	1721.11
454.618	1730.6
454.992	1774.44
455.365	1743.71
455.739	1793.88
456.112	1800.88
456.486	1821.22
456.859	1805.18
457.232	1845.63
457.606	1860.77
457.979	1884.27
458.352	1874.33
458.725	1883.82
459.099	1946.19
459.472	1965.85
459.845	1959.3
460.218	1988.45
460.591	2000.88
460.964	1988.9
461.337	2033.42
461.71	2053.53
462.083	2047.88
462.456	2087.66
462.829	2119.07
463.201	2108.45
463.574	2134.66
463.947	2146.41
464.32	2192.74
464.692	2180.99
465.065	2177.6
465.438	2213.76
465.81	2254.66
466.183	2270.25
466.555	2302.57
466.928	2310.48
467.3	2319.06
467.672	2380.3
468.045	2413.07
468.417	2428.21
468.789	2457.14
469.161	2435.44
469.534	2458.49
469.906	2518.15
470.278	2512.28
470.65	2487.19
471.022	2579.85
471.394	2613.74
471.766	2648.09
472.138	2635.67
472.51	2684.03
472.882	2730.13
473.253	2773.74
473.625	2792.95
473.997	2816.68
474.369	2804.47
474.74	2842.21
475.112	2873.85
475.484	2936.45
475.855	2953.62
476.227	3027.29
476.598	3073.62
476.97	3085.14
477.341	3148.19
477.713	3174.18
478.084	3163.79
478.455	3231.13
478.827	3233.62
479.198	3323.1
479.569	3342.09
479.94	3380.28
480.311	3441.07
480.682	3457.79
481.053	3520.16
481.424	3605.13
481.795	3618.01
482.166	3632.25
482.537	3727.84
482.908	3740.49
483.279	3780.49
483.65	3848.06
484.021	3903.43
484.391	3889.87
484.762	3953.14
485.133	3951.56
485.503	3990.21
485.874	4076.98
486.244	4098
486.615	4177.77
486.985	4185.91
487.356	4250.54
487.726	4291.67
488.097	4397.88
488.467	4391.78
488.837	4413.47
489.207	4435.84
489.578	4496.18
489.948	4548.84
490.318	4549.97
490.688	4625.22
491.058	4648.04
491.428	4641.71
491.798	4733.92
492.168	4791.09
492.538	4822.95
492.908	4855.27
493.278	4895.94
493.648	4903.85
494.017	4967.58
494.387	4979.33
494.757	5003.74
495.126	5084.19
495.496	5050.06
495.866	5123.96
496.235	5137.97
496.605	5091.65
496.974	5180.68
497.344	5245.09
497.713	5287.12
498.082	5283.73
498.452	5312.66
498.821	5265.2
499.19	5329.83
499.559	5401.02
499.928	5442.37
500.298	5457.74
500.667	5463.84
501.036	5491.18
501.405	5518.98
501.774	5521.69
502.143	5536.38
502.512	5550.39
502.88	5626.55
503.249	5645.53
503.618	5634
503.987	5622.93
504.356	5666.32
504.724	5681.69
505.093	5775.02
505.462	5734.57
505.83	5746.54
506.199	5782.02
506.567	5855.92
506.936	5850.04
507.304	5881.91
507.672	5881.68
508.041	5933.88
508.409	5880.1
508.777	6005.75
509.145	5969.14
509.514	5961.68
509.882	6019.31
510.25	6018.4
510.618	6023.15
510.986	6025.63
511.354	6116.25
511.722	6139.53
512.09	6113.31
512.458	6111.96
512.826	6149.25
513.193	6213.88
513.561	6231.28
513.929	6254.1
514.297	6241.45
514.664	6292.52
515.032	6318.51
515.4	6384.49
515.767	6332.97
516.135	6333.65
516.502	6323.48
516.869	6351.73
517.237	6387.66
517.604	6383.36
517.972	6437.37
518.339	6487.54
518.706	6443.7
519.073	6473.08
519.44	6498.16
519.808	6524.83
520.175	6506.07
520.542	6572.74
520.909	6578.61
521.276	6693.41
521.643	6660.64
522.009	6658.84
522.376	6678.27
522.743	6714.65
523.11	6819.51
523.477	6842.56
523.843	6805.05
524.21	6870.13
524.577	6883.46
524.943	6847.08
525.31	6885.95
525.676	6942.44
526.043	6984.48
526.409	7078.71
526.776	7059.5
527.142	7057.02
527.508	7115.55
527.874	7201.87
528.241	7136.11
528.607	7169.11
528.973	7195.77
529.339	7183.34
529.705	7214.53
530.071	7318.03
530.437	7306.73
530.803	7410.23
531.169	7411.58
531.535	7396.22
531.901	7372.49
532.267	7408.2
532.632	7482.09
532.998	7532.49
533.364	7478.25
533.73	7530.45
534.095	7630.11
534.461	7553.95
534.826	7585.37
535.192	7607.74
535.557	7634.4
535.923	7694.29
536.288	7677.57
536.653	7712.59
537.019	7677.34
537.384	7750.11
537.749	7724.34
538.114	7692.71
538.479	7771.58
538.845	7760.73
539.21	7740.39
539.575	7827.62
539.94	7832.82
540.305	7840.5
540.67	7837.11
541.034	7917.11
541.399	7873.27
541.764	7902.65
542.129	7899.03
542.494	7914.17
542.858	7986.94
543.223	7976.99
543.587	8076.2
543.952	7983.55
544.316	8023.55
544.681	8021.96
545.045	8035.3
545.41	8088.18
545.774	8084.34
546.138	8077.1
546.503	8068.74
546.867	8129.76
547.231	8138.8
547.595	8168.4
547.959	8174.5
548.324	8195.29
548.688	8256.99
549.052	8224.22
549.416	8174.5
549.779	8180.15
550.143	8220.83
550.507	8283.88
550.871	8309.64
551.235	8281.17
551.599	8419.02
551.962	8397.77
552.326	8362.75
552.689	8433.25
553.053	8420.82
553.417	8403.42
553.78	8520.48
554.143	8407.72
554.507	8471.67
554.87	8469.64
555.234	8533.36
555.597	8481.84
555.96	8513.7
556.323	8547.6
556.686	8562.97
557.05	8636.64
557.413	8576.07
557.776	8656.98
558.139	8673.47
558.502	8660.14
558.865	8665.34
559.228	8744.43
559.59	8787.14
559.953	8720.7
560.316	8878.66
560.679	8789.63
561.041	8900.59
561.404	8879.79
561.767	8902.39
562.129	8892.45
562.492	9012.67
562.854	8971.32
563.217	8945.33
563.579	9032.79
563.941	9039.56
564.304	9073.46
564.666	9141.26
565.028	9149.62
565.39	9169.05
565.753	9176.74
566.115	9242.5
566.477	9320.01
566.839	9284.53
567.201	9338.54
567.563	9390.97
567.925	9388.48
568.287	9482.72
568.648	9397.52
569.01	9547.35
569.372	9539.89
569.734	9439.1
570.095	9600.68
570.457	9656.27
570.819	9680.45
571.18	9660.34
571.542	9773.1
571.903	9727.23
572.265	9787.57
572.626	9802.71
572.987	9802.48
573.349	9843.16
573.71	9882.93
574.071	9882.93
574.432	9933.78
574.794	10070.05
575.155	10112.98
575.516	10062.59
575.877	10086.54
576.238	10190.95
576.599	10148.24
576.96	10217.84
577.32	10286.99
577.681	10322.92
578.042	10334.22
578.403	10414.44
578.763	10403.37
579.124	10462.58
579.485	10566.3
579.845	10565.85
580.206	10556.81
580.566	10630.48
580.927	10673.42
581.287	10686.75
581.648	10720.42
582.008	10836.35
582.368	10837.48
582.728	10957.48
583.089	10928.1
583.449	11043.81
583.809	11058.95
584.169	11098.72
584.529	11135.78
584.889	11274.08
585.249	11223.01
585.609	11316.57
585.969	11385.72
586.329	11432.95
586.688	11452.83
587.048	11519.27
587.408	11549.1
587.768	11638.37
588.127	11768.98
588.487	11866.38
588.846	11948.19
589.206	11915.42
589.565	11929.66
589.925	12027.96
590.284	12074.06
590.643	12221.4
591.003	12243.32
591.362	12358.35
591.721	12356.99
592.08	12506.14
592.44	12603.31
592.799	12575.97
593.158	12671.33
593.517	12751.33
593.876	12874.72
594.235	12832.46
594.593	12886.7
594.952	13024.09
595.311	13058.67
595.67	13039.46
596.029	13237.87
596.387	13290.53
596.746	13404.65
597.104	13297.31
597.463	13414.36
597.822	13548.37
598.18	13512.89
598.538	13575.04
598.897	13740.46
599.255	13586.56
599.613	13932.77
599.972	13835.82
600.33	13803.96
600.688	13851.19
601.046	14024.29
601.404	14064.52
601.762	14066.1
602.12	14110.17
602.478	14166.66
602.836	14248.92
603.194	14231.29
603.552	14324.17
603.91	14300.22
604.268	14361.23
604.625	14359.88
604.983	14512.42
605.341	14419.54
605.698	14458.86
606.056	14591.28
606.413	14609.59
606.771	14645.52
607.128	14702.92
607.485	14628.12
607.843	14681.22
608.2	14845.29
608.557	14827.43
608.914	14782.46
609.272	14920.99
609.629	14924.16
609.986	15062.23
610.343	14942.01
610.7	15075.11
611.057	15175.67
611.414	15083.7
611.771	15155.56
612.127	15175.45
612.484	15194.66
612.841	15245.05
613.198	15243.47
613.554	15306.29
613.911	15362.11
614.267	15437.59
614.624	15435.55
614.98	15432.39
615.337	15576.12
615.693	15492.95
616.05	15457.7
616.406	15567.08
616.762	15509.68
617.118	15514.87
617.475	15563.46
617.831	15725.72
618.187	15708.32
618.543	15793.06
618.899	15724.81
619.255	15683.46
619.611	15736.56
619.967	15638.26
620.323	15856.56
620.678	15812.49
621.034	15762.1
621.39	15844.58
621.746	15729.78
622.101	15964.13
622.457	15775.43
622.812	15879.61
623.168	15860.63
623.523	15928.65
623.879	16011.81
624.234	15854.98
624.589	15921.42
624.945	15987.18
625.3	16005.48
625.655	15998.7
626.01	15987.86
626.365	16072.83
626.72	15964.81
627.075	15992.38
627.43	15986.5
627.785	16013.39
628.14	16053.39
628.495	16090.9
628.85	15971.59
629.205	15984.47
629.559	15982.88
629.914	15890.23
630.269	15897.01
630.623	15906.73
630.978	15916.45
631.332	15952.6
631.687	16044.58
632.041	15906.73
632.396	15932.26
632.75	15897.24
633.104	15923.68
633.459	15831.93
633.813	15723.68
634.167	15820.18
634.521	15708.54
634.875	15836.45
635.229	15822.44
635.583	15746.28
635.937	15801.19
636.291	15789.44
636.645	15634.65
636.999	15645.04
637.352	15657.47
637.706	15614.08
638.06	15629.67
638.413	15607.98
638.767	15652.5
639.121	15610.01
639.474	15586.51
639.828	15504.03
640.181	15647.53
640.534	15595.55
640.888	15524.82
641.241	15525.04
641.594	15523.24
641.947	15586.51
642.301	15505.61
642.654	15417.25
643.007	15554.42
643.36	15502.67
643.713	15406.63
644.066	15521.43
644.419	15312.17
644.771	15327.31
645.124	15084.83
645.477	15139.74
645.83	15007.09
646.182	15076.47
646.535	14932.52
646.888	14951.27
647.24	14887.55
647.593	14959.86
647.945	14946.08
648.298	14876.02
648.65	14971.39
649.002	14836.7
649.355	14932.07
649.707	14936.36
650.059	15091.61
650.411	15268.55
650.763	15292.73
651.115	15391.94
651.467	15334.54
651.819	15409.79
652.171	15325.5
652.523	15231.94
652.875	15330.25
653.227	15252.73
653.578	15375.67
653.93	15291.6
654.282	15286.63
654.633	15254.99
654.985	15294.99
655.337	15213.41
655.688	15338.61
656.039	15330.47
656.391	15267.65
656.742	15357.82
657.094	15285.5
657.445	15331.83
657.796	15327.53
658.147	15257.25
658.498	15280.76
658.849	15276.69
659.2	15227.2
659.551	15299.51
659.902	15323.92
660.253	15401.66
660.604	15354.65
660.955	15270.14
661.306	15362.79
661.656	15374.31
662.007	15243.02
662.358	15344.71
662.708	15352.62
663.059	15336.57
663.409	15257.48
663.76	15389.23
664.11	15359.62
664.461	15366.63
664.811	15319.63
665.161	15481.66
665.511	15327.99
665.862	15383.8
666.212	15411.6
666.562	15323.24
666.912	15387.87
667.262	15400.53
667.612	15382.9
667.962	15362.79
668.312	15363.69
668.662	15467.64
669.011	15394.43
669.361	15408.66
669.711	15414.76
670.06	15356.91
670.41	15356.91
670.76	15368.21
671.109	15367.76
671.459	15329.34
671.808	15247.54
672.157	15343.58
672.507	15186.07
672.856	15294.09
673.205	15257.25
673.554	15304.03
673.904	15248.89
674.253	15326.86
674.602	15191.49
674.951	15057.94
675.3	14888.68
675.649	15237.82
675.998	15101.78
676.346	15132.51
676.695	15110.59
677.044	15091.83
677.393	15111.04
677.741	15099.74
678.09	15118.05
678.438	15084.38
678.787	15120.99
679.135	15069.01
679.484	14994.44
679.832	15053.42
680.181	14948.34
680.529	14946.98
680.877	14981.33
681.225	14956.47
681.573	15005.28
681.922	14944.27
682.27	14842.58
682.618	14836.02
682.966	14920.54
683.314	14881.67
683.661	14759.87
684.009	14690.04
684.357	14659.3
684.705	14648.23
685.053	14591.96
685.4	14633.77
685.748	14557.39
686.095	14542.92
686.443	14423.6
686.79	14473.55
687.138	14484.62
687.485	14404.85
687.832	14360.78
688.18	14413.21
688.527	14326.66
688.874	14308.35
689.221	14250.95
689.568	14173.67
689.915	14156.49
690.262	14094.35
690.609	14106.55
690.956	14054.12
691.303	14092.54
691.65	13986.1
691.997	13923.28
692.344	13861.81
692.69	13819.33
693.037	13839.44
693.383	13699.56
693.73	13713.79
694.077	13697.3
694.423	13652.78
694.769	13581.14
695.116	13473.8
695.462	13497.75
695.808	13523.29
696.155	13472.22
696.501	13404.42
696.847	13334.82
697.193	13280.36
697.539	13254.82
697.885	13203.97
698.231	13166.01
698.577	13131.66
698.923	13013.02
699.269	12991.1
699.614	12912.46
699.96	12916.52
700.306	12892.8
700.651	12794.49
700.997	12746.81
701.342	12673.82
701.688	12681.5
702.033	12702.29
702.379	12670.66
702.724	12567.16
703.069	12590.88
703.415	12445.8
703.76	12445.58
704.105	12439.7
704.45	12372.58
704.795	12286.03
705.14	12218.92
705.485	12323.09
705.83	12081.07
706.175	12178.01
706.52	12106.6
706.865	12126.72
707.209	12040.39
707.554	12023.89
707.899	12010.33
708.243	11894.4
708.588	11957.45
708.932	11852.6
709.277	11797.68
709.621	11856.67
709.966	11678.37
710.31	11759.72
710.654	11682.66
710.998	11691.25
711.342	11672.49
711.687	11663.68
712.031	11574.41
712.375	11540.06
712.719	11523.57
713.063	11578.71
713.407	11528.99
713.75	11514.53
714.094	11501.65
714.438	11420.29
714.782	11491.93
715.125	11489.44
715.469	11374.42
715.812	11333.97
716.156	11284.25
716.499	11299.17
716.843	11288.32
717.186	11270.69
717.53	11369.45
717.873	11298.26
718.216	11216
718.559	11218.49
718.902	11177.59
719.246	11209.68
719.589	11106.4
719.932	11079.96
720.275	11112.96
720.617	11038.61
720.96	10992.51
721.303	11040.19
721.646	10981.21
721.989	10959.97
722.331	11036.57
722.674	10933.98
723.016	11000.64
723.359	10956.8
723.701	10933.98
724.044	10867.77
724.386	10870.7
724.729	10871.15
725.071	10894.88
725.413	10946.63
725.755	10801.1
726.097	10837.71
726.439	10825.96
726.782	10790.25
727.124	10882.45
727.465	10830.03
727.807	10881.55
728.149	10812.85
728.491	10743.02
728.833	10826.86
729.175	10769.91
729.516	10783.47
729.858	10731.05
730.199	10752.06
730.541	10783.02
730.882	10770.59
731.224	10844.49
731.565	10653.76
731.906	10736.7
732.248	10677.26
732.589	10786.19
732.93	10700.76
733.271	10733.31
733.612	10682.91
733.953	10746.86
734.294	10693.08
734.635	10729.24
734.976	10739.63
735.317	10722.01
735.658	10703.02
735.999	10749.8
736.339	10695.79
736.68	10669.58
737.021	10686.98
737.361	10610.37
737.702	10744.83
738.042	10712.06
738.383	10730.37
738.723	10814.89
739.063	10715.68
739.404	10819.63
739.744	10738.28
740.084	10739.63
740.424	10777.37
740.764	10820.99
741.104	10854.66
741.444	10787.09
741.784	10793.42
742.124	10829.35
742.464	10891.95
742.804	10880.19
743.143	10838.61
743.483	10910.7
743.823	10899.18
744.162	10895.11
744.502	10974.65
744.841	10997.71
745.181	11033.64
745.52	11047.2
745.86	11119.06
746.199	11126.97
746.538	11198.83
746.877	11284.93
747.216	11270.47
747.556	11304.14
747.895	11446.28
748.234	11394.08
748.573	11456.68
748.911	11547.52
749.25	11656.22
749.589	11691.92
749.928	11745.71
750.267	11846.5
750.605	11879.72
750.944	12001.75
751.283	12056.66
751.621	12094.63
751.96	12206.49
752.298	12342.3
752.636	12355.64
752.975	12471.34
753.313	12567.61
753.651	12745.23
753.989	12719.92
754.327	12788.39
754.666	12976.64
755.004	13130.53
755.342	13257.08
755.679	13328.27
756.017	13440.35
756.355	13639.9
756.693	13654.81
757.031	13921.24
757.368	13998.53
757.706	14138.87
758.044	14207.79
758.381	14423.83
758.719	14472.87
