Data from hue_30_FLMS001491_77.txt Node
Date: Mon Feb 06 15:05:56 GMT 2017
User: dcchb
Spectrometer: FLMS00149
Trigger mode: 0
Integration Time (sec): 2.000000E-2
Scans to average: 10
Electric dark correction enabled: true
Nonlinearity correction enabled: false
Boxcar width: 0
XAxis mode: Wavelengths
Number of Pixels in Spectrum: 2048
>>>>>Begin Spectral Data<<<<<
341.393	-29
341.776	-29
342.16	-29
342.543	-61.54
342.927	-56.11
343.31	-74.64
343.693	-75.32
344.077	-73.52
344.46	-53.4
344.843	-57.7
345.226	-50.69
345.61	-29
345.993	-7.3
346.376	6.48
346.759	24.34
347.142	18.69
347.525	45.13
347.908	61.85
348.291	78.8
348.674	75.18
349.057	111.11
349.44	122.86
349.823	163.54
350.206	153.37
350.588	179.59
350.971	236.53
351.354	221.62
351.737	231.56
352.119	244.89
352.502	284.22
352.884	291.22
353.267	271.33
353.65	295.97
354.032	288.96
354.414	305.46
354.797	325.8
355.179	309.75
355.562	310.88
355.944	310.43
356.326	337.32
356.709	333.25
357.091	332.58
357.473	338.23
357.855	314.5
358.238	334.38
358.62	339.36
359.002	325.34
359.384	327.15
359.766	340.49
360.148	338.68
360.53	330.32
360.912	333.93
361.294	324.67
361.676	328.06
362.057	340.49
362.439	326.93
362.821	324.89
363.203	309.3
363.584	315.18
363.966	326.02
364.348	333.71
364.729	312.92
365.111	303.65
365.493	315.63
365.874	316.53
366.256	314.5
366.637	293.93
367.019	304.55
367.4	309.3
367.781	307.49
368.163	311.33
368.544	331.67
368.925	317.89
369.306	316.31
369.688	318.34
370.069	330.99
370.45	316.76
370.831	296.64
371.212	309.3
371.593	315.63
371.974	312.01
372.355	312.69
372.736	324.21
373.117	320.15
373.498	316.76
373.879	306.59
374.26	318.34
374.641	299.36
375.021	298
375.402	305.91
375.783	333.48
376.163	319.24
376.544	338.68
376.925	314.05
377.305	323.31
377.686	327.83
378.066	328.96
378.447	335.06
378.827	325.57
379.208	323.76
379.588	329.64
379.968	332.12
380.349	334.16
380.729	342.52
381.109	312.46
381.489	332.8
381.87	336.87
382.25	355.85
382.63	336.87
383.01	332.12
383.39	344.55
383.77	322.18
384.15	354.72
384.53	336.42
384.91	364.67
385.29	358.11
385.67	346.81
386.049	357.66
386.429	364.89
386.809	338.68
387.189	363.08
387.568	333.48
387.948	357.66
388.328	366.47
388.707	368.51
389.087	343.88
389.466	356.08
389.846	360.82
390.225	346.59
390.605	364.44
390.984	378.9
391.363	377.77
391.743	350.43
392.122	373.25
392.501	368.06
392.881	384.33
393.26	389.75
393.639	394.95
394.018	379.35
394.397	394.04
394.776	358.11
395.155	378.9
395.534	396.08
395.913	381.84
396.292	383.42
396.671	389.07
397.05	370.99
397.429	377.32
397.808	382.07
398.186	389.3
398.565	389.75
398.944	388.17
399.323	393.37
399.701	403.31
400.08	407.38
400.458	399.92
400.837	411.22
401.215	405.12
401.594	404.44
401.972	393.14
402.351	385.23
402.729	411.67
403.107	412.57
403.486	416.42
403.864	411.22
404.242	410.31
404.62	409.64
404.999	429.75
405.377	402.86
405.755	418
406.133	423.42
406.511	427.94
406.889	426.13
407.267	452.8
407.645	435.4
408.023	432.69
408.401	425.68
408.779	460.48
409.156	450.09
409.534	444.89
409.912	443.53
410.29	440.37
410.667	452.57
411.045	459.35
411.422	471.1
411.8	475.62
412.178	498.67
412.555	483.76
412.933	476.98
413.31	474.72
413.687	446.47
414.065	502.06
414.442	478.33
414.819	495.74
415.197	487.37
415.574	485.57
415.951	489.86
416.328	489.86
416.705	511.33
417.082	497.09
417.46	486.24
417.837	512.01
418.214	495.28
418.591	510.2
418.967	537.09
419.344	537.09
419.721	495.06
420.098	529.86
420.475	527.15
420.852	538.45
421.228	543.87
421.605	542.06
421.982	559.46
422.358	535.06
422.735	554.27
423.111	542.51
423.488	542.74
423.864	544.77
424.241	602.63
424.617	559.01
424.994	559.24
425.37	552.46
425.746	576.86
426.123	585.68
426.499	582.29
426.875	558.33
427.251	595.62
427.627	587.48
428.003	585.68
428.379	605.34
428.756	589.97
429.132	615.28
429.507	603.08
429.883	634.26
430.259	639.01
430.635	629.52
431.011	604.89
431.387	647.6
431.763	660.93
432.138	650.08
432.514	643.3
432.89	656.86
433.265	700.7
433.641	682.62
434.016	691.89
434.392	668.84
434.767	691.21
435.143	675.84
435.518	708.84
435.894	718.55
436.269	710.87
436.644	723.07
437.02	708.61
437.395	733.47
437.77	744.54
438.145	717.42
438.52	752.45
438.895	750.64
439.271	772.11
439.646	741.83
440.021	760.14
440.395	777.08
440.77	745.67
441.145	783.86
441.52	771.21
441.895	770.3
442.27	766.91
442.645	770.08
443.019	798.33
443.394	808.95
443.769	828.83
444.143	775.05
444.518	841.94
444.892	814.82
445.267	806.91
445.641	811.43
446.016	811.66
446.39	821.6
446.764	838.1
447.139	837.87
447.513	862.51
447.887	856.4
448.262	849.4
448.636	838.55
449.01	875.39
449.384	876.29
449.758	876.97
450.132	901.15
450.506	897.08
450.88	850.08
451.254	905.44
451.628	914.48
452.002	924.88
452.376	916.06
452.75	919.91
453.123	936.63
453.497	925.1
453.871	935.95
454.244	956.51
454.618	969.4
454.992	984.99
455.365	983.18
455.739	1006.46
456.112	1022.73
456.486	1018.66
456.859	1016.17
457.232	1017.08
457.606	1046.23
457.979	1064.08
458.352	1085.32
458.725	1065.44
459.099	1085.1
459.472	1110.41
459.845	1087.36
460.218	1124.42
460.591	1119
460.964	1140.01
461.337	1123.29
461.71	1151.76
462.083	1192.21
462.456	1197.41
462.829	1205.1
463.201	1240.57
463.574	1227.24
463.947	1249.39
464.32	1257.75
464.692	1269.95
465.065	1274.02
465.438	1293
465.81	1304.98
466.183	1312.21
466.555	1314.92
466.928	1358.54
467.3	1344.98
467.672	1382.49
468.045	1399.67
468.417	1444.19
468.789	1418.88
469.161	1491.42
469.534	1467.46
469.906	1467.91
470.278	1507.69
470.65	1543.62
471.022	1541.36
471.394	1595.59
471.766	1609.6
472.138	1645.31
472.51	1667
472.882	1651.86
473.253	1733.67
473.625	1743.84
473.997	1775.25
474.369	1796.04
474.74	1795.59
475.112	1842.59
475.484	1878.3
475.855	1933.89
476.227	1963.04
476.598	2015.7
476.97	2038.29
477.341	2061.12
477.713	2151.74
478.084	2143.15
478.455	2195.8
478.827	2218.63
479.198	2253.43
479.569	2318.06
479.94	2354.44
480.311	2419.07
480.682	2462.46
481.053	2502.46
481.424	2553.53
481.795	2626.53
482.166	2667.66
482.537	2683.93
482.908	2767.77
483.279	2839.85
483.65	2948.33
484.021	2951.94
484.391	2962.56
484.762	3052.73
485.133	3092.96
485.503	3171.15
485.874	3257.02
486.244	3313.97
486.615	3384.93
486.985	3412.5
487.356	3479.39
487.726	3499.5
488.097	3645.03
488.467	3633.28
488.837	3726.39
489.207	3835.31
489.578	3844.35
489.948	3898.36
490.318	3992.59
490.688	4017
491.058	4159.37
491.428	4183.1
491.798	4207.5
492.168	4368.18
492.538	4326.14
492.908	4445.24
493.278	4527.49
493.648	4486.14
494.017	4629.64
494.387	4656.76
494.757	4739.47
495.126	4774.27
495.496	4809.97
495.866	4898.78
496.235	4944.88
496.605	4999.57
496.974	5089.74
497.344	5121.38
497.713	5187.82
498.082	5179
498.452	5279.56
498.821	5298.55
499.19	5335.83
499.559	5434.81
499.928	5443.85
500.298	5507.81
500.667	5534.25
501.036	5574.25
501.405	5643.62
501.774	5657.86
502.143	5730.17
502.512	5763.62
502.88	5811.3
503.249	5801.58
503.618	5911.41
503.987	5937.85
504.356	5960.9
504.724	5971.3
505.093	6056.27
505.462	6083.84
505.83	6104.18
506.199	6178.75
506.567	6212.42
506.936	6225.53
507.304	6292.42
507.672	6383.04
508.041	6383.49
508.409	6387.11
508.777	6413.55
509.145	6517.27
509.514	6513.66
509.882	6533.99
510.25	6601.11
510.618	6634.33
510.986	6599.98
511.354	6712.3
511.722	6792.29
512.09	6844.72
512.458	6819.19
512.826	6833.2
513.193	6902.12
513.561	6870.94
513.929	6969.92
514.297	7008.78
514.664	7077.71
515.032	7117.03
515.4	7131.04
515.767	7138.72
516.135	7217.37
516.502	7162.23
516.869	7312.73
517.237	7340.08
517.604	7248.33
517.972	7296.91
518.339	7386.85
518.706	7381.66
519.073	7417.36
519.44	7453.52
519.808	7479.05
520.175	7494.87
520.542	7580.75
520.909	7620.52
521.276	7637.02
521.643	7711.37
522.009	7742.1
522.376	7777.13
522.743	7822.1
523.11	7848.31
523.477	7944.58
523.843	7972.38
524.21	8048.76
524.577	8111.13
524.943	8130.56
525.31	8153.39
525.676	8210.79
526.043	8301.41
526.409	8271.8
526.776	8397.67
527.142	8379.82
527.508	8398.35
527.874	8483.77
528.241	8514.51
528.607	8544.34
528.973	8608.74
529.339	8615.3
529.705	8660.72
530.071	8740.72
530.437	8748.85
530.803	8834.73
531.169	8911.11
531.535	8846.25
531.901	8894.61
532.267	9007.6
532.632	9039.69
532.998	9112.68
533.364	9111.1
533.73	9187.03
534.095	9204.89
534.461	9284.43
534.826	9300.02
535.192	9286.46
535.557	9340.02
535.923	9427.03
536.288	9422.73
536.653	9545.67
537.019	9469.96
537.384	9467.48
537.749	9592.45
538.114	9647.81
538.479	9613.24
538.845	9598.55
539.21	9683.97
539.575	9745.21
539.94	9796.73
540.305	9833.34
540.67	9797.41
541.034	9938.65
541.399	9951.08
541.764	9981.81
542.129	9956.05
542.494	10061.59
542.858	10041.02
543.223	10099.1
543.587	10234.46
543.952	10163.96
544.316	10247.8
544.681	10232.2
545.045	10238.98
545.41	10363.72
545.774	10388.36
546.138	10478.3
546.503	10476.04
546.867	10480.56
547.231	10535.47
547.595	10543.15
547.959	10704.28
548.324	10627.45
548.688	10674
549.052	10729.82
549.416	10839.42
549.779	10741.57
550.143	10805.97
550.507	10849.81
550.871	10953.09
551.235	10905.86
551.599	10994.89
551.962	10989.7
552.326	11073.31
552.689	11113.99
553.053	11106.76
553.417	11136.81
553.78	11298.62
554.143	11281.89
554.507	11323.47
554.87	11306.52
555.234	11447.31
555.597	11359.63
555.96	11383.81
556.323	11448.67
556.686	11453.19
557.05	11558.5
557.413	11549.68
557.776	11540.42
558.139	11663.8
558.502	11642.34
558.865	11764.82
559.228	11814.99
559.59	11824.48
559.953	11830.8
560.316	11975.66
560.679	11870.35
561.041	12019.27
561.404	11984.25
561.767	12050.23
562.129	11987.41
562.492	12194.64
562.854	12195.31
563.217	12162.1
563.579	12279.15
563.941	12361.86
564.304	12318.93
564.666	12371.36
565.028	12455.65
565.39	12424.91
565.753	12558.47
566.115	12558.02
566.477	12694.06
566.839	12613.38
567.201	12707.39
567.563	12794.85
567.925	12848.18
568.287	12855.18
568.648	12896.77
569.01	12929.98
569.372	13078.68
569.734	12973.83
570.095	13084.78
570.457	13192.8
570.819	13111.68
571.18	13218.56
571.542	13397.77
571.903	13360.48
572.265	13377.43
572.626	13503.98
572.987	13493.36
573.349	13662.85
573.71	13710.53
574.071	13790.3
574.432	13806.57
574.794	13990.52
575.155	14011.31
575.516	13955.04
575.877	14170.4
576.238	14228.03
576.599	14377.86
576.96	14360.91
577.32	14494.46
577.681	14639.09
578.042	14751.63
578.403	14771.07
578.763	14934.9
579.124	15057.84
579.485	15156.59
579.845	15287.21
580.206	15388.45
580.566	15583.02
580.927	15607.43
581.287	15844.94
581.648	15857.37
582.008	16163.8
582.368	16274.53
582.728	16554.52
583.089	16636.55
583.449	16832.03
583.809	17012.14
584.169	17359.92
584.529	17390.21
584.889	17840.82
585.249	17863.41
585.609	18125.33
585.969	18354.25
586.329	18631.98
586.688	18813.45
587.048	18968.47
587.408	19226.32
587.768	19492.3
588.127	19791.5
588.487	19946.07
588.846	20375.89
589.206	20380.64
589.565	20704.7
589.925	21105.59
590.284	21206.15
590.643	21522.53
591.003	21841.84
591.362	22101.95
591.721	22479.34
592.08	22628.94
592.44	22968.59
592.799	23259.88
593.158	23518.18
593.517	23786.42
593.876	24124.72
594.235	24232.96
594.593	24678.6
594.952	25018.25
595.311	25215.31
595.67	25456.66
596.029	25802.41
596.387	26222.52
596.746	26583.86
597.104	26749.06
597.463	27067.69
597.822	27414.35
598.18	27604.18
598.538	27721.69
598.897	28167.1
599.255	28189.7
599.613	28964.37
599.972	29089.79
600.33	29387.18
600.688	29498.14
601.046	29877.56
601.404	30144.22
601.762	30281.62
602.12	30782.4
602.478	30986.01
602.836	31256.73
603.194	31163.86
603.552	31599.1
603.91	31922.48
604.268	32250.38
604.625	32205.41
604.983	32602.01
605.341	32769.92
605.698	33195.89
606.056	33258.94
606.413	33489.9
606.771	33767.18
607.128	33983.22
607.485	34147.73
607.843	34351.12
608.2	34592.92
608.557	35078.56
608.914	35091.21
609.272	35321.71
609.629	35456.17
609.986	35919.66
610.343	35841.7
610.7	36280.56
611.057	36268.58
611.414	36480.33
611.771	36633.32
612.127	36949.24
612.484	36924.16
612.841	37348.55
613.198	37381.09
613.554	37407.31
613.911	37804.13
614.267	37948.08
614.624	37865.83
614.98	38217.23
615.337	38454.06
615.693	38528.86
616.05	38611.12
616.406	38806.59
616.762	38868.96
617.118	39132.91
617.475	39140.14
617.831	39367.26
618.187	39429.85
618.543	39692.22
618.899	39915.94
619.255	39926.34
619.611	40054.92
619.967	40388.7
620.323	40445.19
620.678	40361.81
621.034	40260.11
621.39	40371.07
621.746	40469.15
622.101	41111.62
622.457	40722.02
622.812	40818.97
623.168	41007.21
623.523	41166.08
623.879	41169.02
624.234	41135.8
624.589	41305.96
624.945	41209.69
625.3	41407.43
625.655	41262.57
626.01	41403.36
626.365	41603.36
626.72	41701.21
627.075	41693.75
627.43	41623.24
627.785	41729.23
628.14	41781.2
628.495	41898.26
628.85	41768.77
629.205	41799.73
629.559	42000.63
629.914	41880.18
630.269	41888.55
630.623	41853.97
630.978	41873.4
631.332	42100.97
631.687	42134.41
632.041	41986.17
632.396	42162.89
632.75	41981.42
633.104	42130.57
633.459	42018.94
633.813	42057.13
634.167	42044.02
634.521	42107.75
634.875	42155.66
635.229	42234.53
635.583	41879.73
635.937	41909.79
636.291	41904.82
636.645	42025.94
636.999	41922.22
637.352	41907.08
637.706	41819.85
638.06	42063.46
638.413	41899.39
638.767	41792.95
639.121	41750.92
639.474	41705.05
639.828	41732.62
640.181	41859.85
640.534	41944.14
640.888	41837.47
641.241	41645.39
641.594	41732.17
641.947	41851.03
642.301	41537.82
642.654	41715.22
643.007	41698.72
643.36	41666.63
643.713	41650.13
644.066	41778.72
644.419	41527.43
644.771	41297.83
645.124	40823.94
645.477	40898.52
645.83	40667.33
646.182	40594.79
646.535	40467.57
646.888	40574.23
647.24	40252.2
647.593	40508.69
647.945	40439.77
648.298	40186.67
648.65	40295.14
649.002	40220.79
649.355	40328.59
649.707	40207.01
650.059	40491.75
650.411	40807.9
650.763	40790.5
651.115	41228.9
651.467	41229.81
651.819	41161.11
652.171	41109.13
652.523	40999.98
652.875	41072.3
653.227	40861.23
653.578	41213.99
653.93	41148.9
654.282	40852.19
654.633	40846.09
654.985	40912.98
655.337	40887.67
655.688	40854.45
656.039	40963.15
656.391	40631.18
656.742	40712.08
657.094	40779.65
657.445	40893.54
657.796	40773.55
658.147	40777.16
658.498	40687.9
658.849	40771.06
659.2	40758.18
659.551	40630.5
659.902	40710.5
660.253	40752.3
660.604	40802.92
660.955	40598.64
661.306	40770.83
661.656	40694.9
662.007	40672.08
662.358	40695.58
662.708	40668.01
663.059	40582.82
663.409	40443.61
663.76	40761.12
664.11	40568.81
664.461	40764.73
664.811	40559.54
665.161	40750.95
665.511	40517.96
665.862	40562.03
666.212	40639.09
666.562	40642.02
666.912	40537.85
667.262	40575.81
667.612	40636.38
667.962	40636.83
668.312	40440.45
668.662	40623.95
669.011	40540.11
669.361	40496.27
669.711	40491.07
670.06	40441.8
670.41	40331.07
670.76	40283.16
671.109	40398.87
671.459	40473.22
671.808	40211.98
672.157	40356.38
672.507	40147.8
672.856	40111.64
673.205	40212.43
673.554	40336.5
673.904	40225.31
674.253	40381.69
674.602	40166.56
674.951	39763.18
675.3	39531.55
675.649	40126.11
675.998	40180.12
676.346	40223.96
676.695	40248.14
677.044	39858.32
677.393	40066.9
677.741	40153.9
678.09	39881.37
678.438	39860.8
678.787	39930.4
679.135	40011.08
679.484	39680.69
679.832	39886.56
680.181	39664.2
680.529	39623.07
680.877	39581.71
681.225	39578.55
681.573	39822.61
681.922	39378.78
682.27	39275.51
682.618	39377.43
682.966	39361.38
683.314	39307.37
683.661	39171.33
684.009	39105.12
684.357	38986.7
684.705	39068.05
685.053	39117.54
685.4	38966.14
685.748	38741.74
686.095	38876.87
686.443	38630.33
686.79	38739.48
687.138	38631.68
687.485	38594.85
687.832	38428.3
688.18	38606.37
688.527	38351.92
688.874	38273.27
689.221	38204.12
689.568	38023.11
689.915	38180.62
690.262	38137.46
690.609	38001.64
690.956	37759.84
691.303	37775.43
691.65	37629.45
691.997	37520.3
692.344	37425.84
692.69	37317.82
693.037	37466.06
693.383	37050.03
693.73	37339.96
694.077	37099.74
694.423	37009.35
694.769	36949.92
695.116	36807.55
695.462	36798.51
695.808	36670.83
696.155	36586.99
696.501	36420.44
696.847	36321.01
697.193	36232.65
697.539	36293.89
697.885	35988.59
698.231	35845.77
698.577	35897.97
698.923	35970.73
699.269	35652.33
699.614	35575.72
699.96	35488.26
700.306	35537.07
700.651	35262.51
700.997	35253.24
701.342	35168.5
701.688	35160.59
702.033	35085.33
702.379	34980.48
702.724	34873.59
703.069	34937.32
703.415	34604.22
703.76	34590.88
704.105	34576.2
704.45	34578.68
704.795	34249.65
705.14	34288.07
705.485	34178.47
705.83	34050.33
706.175	34106.38
706.52	34005.36
706.865	33835.65
707.209	33884.01
707.554	33783.9
707.899	33871.81
708.243	33480.86
708.588	33591.59
708.932	33419.62
709.277	33199.06
709.621	33313.86
709.966	33216.01
710.31	33249
710.654	32976.69
710.998	32977.14
711.342	32978.95
711.687	32820.54
712.031	32653.53
712.375	32595.91
712.719	32778.28
713.063	32569.92
713.407	32696.7
713.75	32492.41
714.094	32656.92
714.438	32183.72
714.782	32246.09
715.125	32139.88
715.469	32342.81
715.812	32087
716.156	31835.93
716.499	31912.31
716.843	31957.51
717.186	31731.07
717.53	31939.88
717.873	31964.29
718.216	31758.42
718.559	31586.9
718.902	31452.21
719.246	31501.47
719.589	31445.2
719.932	31231.2
720.275	31404.3
720.617	31332.66
720.96	31154.59
721.303	31172.44
721.646	31136.29
721.989	30990.07
722.331	31055.16
722.674	31056.06
723.016	30975.61
723.359	30898.33
723.701	31005.67
724.044	30714.15
724.386	30643.19
724.729	30762.28
725.071	30551.67
725.413	30612.68
725.755	30660.37
726.097	30534.04
726.439	30403.88
726.782	30224.67
727.124	30417.66
727.465	30299.47
727.807	30297.66
728.149	30173.37
728.491	30036.65
728.833	30132.24
729.175	30037.11
729.516	30058.57
729.858	29958.46
730.199	29942.19
730.541	29876.88
730.882	29807.73
731.224	29959.37
731.565	29813.38
731.906	29677.79
732.248	29671.92
732.589	29552.15
732.93	29516.89
733.271	29329.78
733.612	29605.7
733.953	29513.05
734.294	29317.35
734.635	29410.68
734.976	29249.1
735.317	29241.65
735.658	29295.88
735.999	29213.17
736.339	29077.81
736.68	29143.57
737.021	29173.4
737.361	29081.2
737.702	29077.81
738.042	28954.42
738.383	28921.2
738.723	28967.53
739.063	28911.71
739.404	28853.86
739.744	28814.76
740.084	28747.87
740.424	28802.56
740.764	28643.02
741.104	28773.41
741.444	28591.72
741.784	28543.81
742.124	28564.15
742.464	28390.37
742.804	28479.63
743.143	28167.55
743.483	28443.48
743.823	28209.81
744.162	28110.15
744.502	28205.52
744.841	28067.89
745.181	28144.27
745.52	28064.73
745.86	28075.8
746.199	28036.03
746.538	27994.22
746.877	28085.29
747.216	28014.79
747.556	27793.55
747.895	27887.11
748.234	27805.98
748.573	27829.25
748.911	27598.75
749.25	27647.56
749.589	27568.7
749.928	27638.07
750.267	27542.03
750.605	27504.29
750.944	27390.85
751.283	27349.04
751.621	27370.28
751.96	27322.15
752.298	27262.26
752.636	27235.37
752.975	27072.21
753.313	27134.58
753.651	27155.37
753.989	27002.38
754.327	26974.81
754.666	26759.23
755.004	26794.48
755.342	26854.82
755.679	26780.92
756.017	26644.43
756.355	26711.77
756.693	26730.07
757.031	26674.48
757.368	26354.72
757.706	26493.7
758.044	26217.55
758.381	26416.64
758.719	26235.85
759.056	26263.19
