Data from hue_140_FLMS001491_00001.txt Node
Date: Tue Feb 07 16:55:16 GMT 2017
User: dcchb
Spectrometer: FLMS00149
Trigger mode: 0
Integration Time (sec): 2.000000E-2
Scans to average: 10
Electric dark correction enabled: true
Nonlinearity correction enabled: false
Boxcar width: 0
XAxis mode: Wavelengths
Number of Pixels in Spectrum: 2048
>>>>>Begin Spectral Data<<<<<
341.393	-17.1
341.776	-17.1
342.16	-17.1
342.543	-70.21
342.927	-63.43
343.31	-60.49
343.693	-79.7
344.077	-60.72
344.46	-53.71
344.843	-54.17
345.226	-54.84
345.61	-16.43
345.993	-18.23
346.376	-13.26
346.759	7.53
347.142	29.45
347.525	41.43
347.908	65.38
348.291	68.54
348.674	89.79
349.057	109.45
349.44	133.63
349.823	146.51
350.206	173.85
350.588	184.25
350.971	202.78
351.354	225.15
351.737	245.04
352.119	264.47
352.502	264.02
352.884	259.5
353.267	286.84
353.65	292.49
354.032	288.65
354.414	291.81
354.797	307.41
355.179	317.8
355.562	316.67
355.944	329.55
356.326	338.14
356.709	339.27
357.091	340.4
357.473	331.14
357.855	354.41
358.238	343.79
358.62	338.37
359.002	335.88
359.384	349.67
359.766	332.04
360.148	355.54
360.53	332.04
360.912	330.46
361.294	344.47
361.676	347.41
362.057	334.07
362.439	344.69
362.821	340.4
363.203	328.2
363.584	333.85
363.966	326.39
364.348	308.76
364.729	320.06
365.111	332.72
365.493	324.13
365.874	332.94
366.256	316.22
366.637	315.77
367.019	320.51
367.4	344.47
367.781	314.64
368.163	317.35
368.544	323.9
368.925	312.38
369.306	329.33
369.688	309.89
370.069	309.67
370.45	321.42
370.831	311.7
371.212	347.86
371.593	334.07
371.974	325.49
372.355	317.35
372.736	319.16
373.117	332.04
373.498	328.2
373.879	313.73
374.26	313.06
374.641	309.44
375.021	299.5
375.402	329.78
375.783	359.61
376.163	332.94
376.544	336.33
376.925	341.53
377.305	333.17
377.686	336.11
378.066	309.67
378.447	337.69
378.827	334.75
379.208	339.04
379.588	338.37
379.968	359.38
380.349	346.95
380.729	335.2
381.109	338.59
381.489	341.98
381.87	334.07
382.25	334.53
382.63	345.37
383.01	346.05
383.39	347.41
383.77	344.92
384.15	338.14
384.53	350.8
384.91	373.17
385.29	352.15
385.67	346.95
386.049	350.57
386.429	350.57
386.809	357.12
387.189	371.59
387.568	359.84
387.948	346.05
388.328	370
388.707	363.22
389.087	370.68
389.466	359.38
389.846	363
390.225	374.07
390.605	372.04
390.984	379.95
391.363	367.29
391.743	353.28
392.122	375.65
392.501	385.37
392.881	363.68
393.26	388.99
393.639	387.86
394.018	367.74
394.397	379.72
394.776	378.59
395.155	399.83
395.534	389.44
395.913	390.79
396.292	400.74
396.671	411.59
397.05	403
397.429	399.83
397.808	385.82
398.186	398.48
398.565	382.21
398.944	407.29
399.323	415.65
399.701	393.28
400.08	394.41
400.458	394.86
400.837	400.51
401.215	404.58
401.594	407.52
401.972	407.07
402.351	421.75
402.729	399.83
403.107	406.61
403.486	420.4
403.864	412.04
404.242	415.43
404.62	415.43
404.999	415.43
405.377	429.44
405.755	439.83
406.133	447.97
406.511	431.7
406.889	438.03
407.267	452.26
407.645	441.64
408.023	445.48
408.401	451.36
408.779	430.34
409.156	461.53
409.534	463.11
409.912	464.69
410.29	466.27
410.667	466.5
411.045	468.31
411.422	463.34
411.8	479.61
412.178	452.49
412.555	465.82
412.933	480.96
413.31	475.31
413.687	487.74
414.065	484.58
414.442	478.7
414.819	492.26
415.197	517.57
415.574	493.39
415.951	518.48
416.328	507.85
416.705	516.67
417.082	508.53
417.46	496.55
417.837	521.64
418.214	531.58
418.591	535.42
418.967	538.59
419.344	544.24
419.721	515.54
420.098	538.81
420.475	547.85
420.852	542.2
421.228	559.15
421.605	548.98
421.982	552.6
422.358	544.69
422.735	582.43
423.111	572.26
423.488	574.97
423.864	576.55
424.241	576.78
424.617	568.87
424.994	584.69
425.37	570
425.746	570.45
426.123	590.34
426.499	616.1
426.875	625.59
427.251	607.74
427.627	596.67
428.003	624.23
428.379	642.54
428.756	614.74
429.132	639.6
429.507	647.29
429.883	627.62
430.259	631.92
430.635	673.95
431.011	671.69
431.387	660.17
431.763	665.36
432.138	676.21
432.514	669.88
432.89	684.12
433.265	699.26
433.641	689.77
434.016	696.32
434.392	698.58
434.767	730.9
435.143	729.54
435.518	727.51
435.894	748.98
436.269	734.06
436.644	771.58
437.02	749.43
437.395	755.76
437.77	764.12
438.145	779.03
438.52	772.03
438.895	793.72
439.271	773.16
439.646	788.52
440.021	828.07
440.395	792.37
440.77	814.29
441.145	807.06
441.52	835.3
441.895	827.17
442.27	812.25
442.645	833.72
443.019	827.17
443.394	825.59
443.769	828.98
444.143	831.24
444.518	850.22
444.892	854.96
445.267	859.71
445.641	895.41
446.016	868.52
446.39	878.47
446.764	891.35
447.139	876.66
447.513	910.78
447.887	899.71
448.262	891.8
448.636	919.14
449.01	927.5
449.384	945.36
449.758	937
450.132	930.89
450.506	962.98
450.88	932.25
451.254	955.98
451.628	957.11
452.002	990.1
452.376	984.9
452.75	975.19
453.123	1009.08
453.497	1029.2
453.871	1016.54
454.244	1056.77
454.618	1036.2
454.992	1028.29
455.365	1052.7
455.739	1081.4
456.112	1091.34
456.486	1088.63
456.859	1100.83
457.232	1123.88
457.606	1110.78
457.979	1116.65
458.352	1171.79
458.725	1146.26
459.099	1194.39
459.472	1222.41
459.845	1221.28
460.218	1227.61
460.591	1240.26
460.964	1240.26
461.337	1279.58
461.71	1289.98
462.083	1301.51
462.456	1290.21
462.829	1331.34
463.201	1351.45
463.574	1323.88
463.947	1368.17
464.32	1386.47
464.692	1400.03
465.065	1433.71
465.438	1427.83
465.81	1473.48
466.183	1484.33
466.555	1500.6
466.928	1574.94
467.3	1545.34
467.672	1560.71
468.045	1594.15
468.417	1603.42
468.789	1641.84
469.161	1677.77
469.534	1729.74
469.906	1732.45
470.278	1765.67
470.65	1780.14
471.022	1825.33
471.394	1861.04
471.766	1875.95
472.138	1936.52
472.51	1982.17
472.882	1980.81
473.253	2019.9
473.625	2055.38
473.997	2151.2
474.369	2142.84
474.74	2183.06
475.112	2227.58
475.484	2302.83
475.855	2361.14
476.227	2388.48
476.598	2498.31
476.97	2508.25
477.341	2581.25
477.713	2689.94
478.084	2701.24
478.455	2774.91
478.827	2857.17
479.198	2987.79
479.569	2980.33
479.94	3117.28
480.311	3162.93
480.682	3258.74
481.053	3376.25
481.424	3432.52
481.795	3515.91
482.166	3601.78
482.537	3700.31
482.908	3814.43
483.279	3897.37
483.65	4001.32
484.021	4167.64
484.391	4258.04
484.762	4312.05
485.133	4435.43
485.503	4561.08
485.874	4718.59
486.244	4750.68
486.615	4876.55
486.985	5021.86
487.356	5197.22
487.726	5272.02
488.097	5456.88
488.467	5522.41
488.837	5691.67
489.207	5841.27
489.578	6008.73
489.948	6128.27
490.318	6272
490.688	6369.39
491.058	6455.72
491.428	6664.75
491.798	6807.12
492.168	6978.64
492.538	7067.46
492.908	7238.98
493.278	7380.89
493.648	7431.97
494.017	7617.72
494.387	7833.76
494.757	7881.45
495.126	8071.27
495.496	8096.58
495.866	8266.07
496.235	8460.64
496.605	8568.21
496.974	8721.42
497.344	8804.58
497.713	8925.49
498.082	9041.64
498.452	9220.17
498.821	9277.11
499.19	9341.07
499.559	9583.55
499.928	9607.73
500.298	9776.08
500.667	9930.66
501.036	9943.09
501.405	10084.78
501.774	10150.54
502.143	10266.02
502.512	10330.65
502.88	10508.04
503.249	10546.46
503.618	10589.85
503.987	10732.9
504.356	10794.14
504.724	10932.89
505.093	10951.42
505.462	11039.33
505.83	11117.29
506.199	11237.97
506.567	11348.25
506.936	11475.48
507.304	11584.17
507.672	11600.67
508.041	11743.26
508.409	11818.29
508.777	11895.8
509.145	11926.99
509.514	12030.94
509.882	12191.16
510.25	12127.89
510.618	12246.08
510.986	12218.05
511.354	12365.17
511.722	12481.78
512.09	12556.35
512.458	12572.85
512.826	12613.52
513.193	12644.94
513.561	12716.35
513.929	12760.41
514.297	12840.41
514.664	12928.77
515.032	12950.01
515.4	12945.27
515.767	13081.53
516.135	13088.77
516.502	13020.29
516.869	13231.81
517.237	13210.8
517.604	13161.08
517.972	13294.86
518.339	13392.94
518.706	13347.52
519.073	13344.58
519.44	13413.05
519.808	13543.44
520.175	13476.1
520.542	13639.71
520.909	13703.89
521.276	13674.74
521.643	13707.51
522.009	13762.87
522.376	13770.78
522.743	13789.54
523.11	13988.18
523.477	13997.89
523.843	13978.46
524.21	14015.07
524.577	14096.42
524.943	14076.31
525.31	14069.31
525.676	14196.99
526.043	14208.28
526.409	14156.99
526.776	14285.12
527.142	14216.65
527.508	14310.88
527.874	14371.9
528.241	14307.49
528.607	14369.18
528.973	14467.94
529.339	14401.73
529.705	14408.28
530.071	14480.37
530.437	14553.59
530.803	14581.61
531.169	14551.78
531.535	14431.56
531.901	14471.55
532.267	14430.65
532.632	14414.61
532.998	14401.73
533.364	14488.28
533.73	14463.65
534.095	14501.84
534.461	14435.85
534.826	14455.74
535.192	14408.51
535.557	14474.04
535.923	14367.15
536.288	14366.25
536.653	14333.71
537.019	14260.71
537.384	14276.98
537.749	14307.27
538.114	14294.61
538.479	14257.32
538.845	14264.33
539.21	14186.36
539.575	14170.09
539.94	14052.81
540.305	14184.56
540.67	14032.47
541.034	14089.87
541.399	14039.25
541.764	13995.41
542.129	14058.68
542.494	13934.62
542.858	13941.17
543.223	13878.8
543.587	13931.68
543.952	13853.27
544.316	13763.1
544.681	13763.1
545.045	13697.56
545.41	13781.63
545.774	13714.74
546.138	13722.2
546.503	13627.51
546.867	13554.97
547.231	13671.8
547.595	13573.95
547.959	13503.44
548.324	13434.29
548.688	13441.75
549.052	13346.16
549.416	13367.18
549.779	13367.4
550.143	13302.32
550.507	13341.41
550.871	13323.56
551.235	13296.9
551.599	13311.13
551.962	13172.38
552.326	13286.5
552.689	13262.55
553.053	13199.95
553.417	13083.12
553.78	13263
554.143	13138.03
554.507	13119.73
554.87	13163.79
555.234	13147.52
555.597	13078.82
555.96	13033.4
556.323	13005.15
556.686	12968.54
557.05	13077.24
557.413	13031.82
557.776	12998.82
558.139	13060.97
558.502	12940.75
558.865	12928.09
559.228	13007.64
559.59	13020.75
559.953	12960.86
560.316	13051.03
560.679	13049.9
561.041	13040.63
561.404	13060.97
561.767	13057.35
562.129	12942.56
562.492	13039.73
562.854	12978.03
563.217	13033.4
563.579	13053.96
563.941	13079.27
564.304	13124.25
564.666	13065.04
565.028	13056
565.39	13047.86
565.753	13154.08
566.115	13084.47
566.477	13123.57
566.839	13077.47
567.201	13185.26
567.563	13182.1
567.925	13165.6
568.287	13261.64
568.648	13171.02
569.01	13246.05
569.372	13264.35
569.734	13236.11
570.095	13237.24
570.457	13381.41
570.819	13300.29
571.18	13262.09
571.542	13392.94
571.903	13336.22
572.265	13362.43
572.626	13376.22
572.987	13307.52
573.349	13379.15
573.71	13362.43
574.071	13402.2
574.432	13403.79
574.794	13522.2
575.155	13466.38
575.516	13453.05
575.877	13438.81
576.238	13363.34
576.599	13503.67
576.96	13481.75
577.32	13436.1
577.681	13528.75
578.042	13511.81
578.403	13514.29
578.763	13575.31
579.124	13473.61
579.485	13528.98
579.845	13569.21
580.206	13550.45
580.566	13469.55
580.927	13594.97
581.287	13565.82
581.648	13479.26
582.008	13574.63
582.368	13506.83
582.728	13552.93
583.089	13531.47
583.449	13470
583.809	13434.07
584.169	13471.35
584.529	13429.77
584.889	13556.78
585.249	13356.56
585.609	13313.39
585.969	13529.43
586.329	13349.32
586.688	13400.85
587.048	13453.05
587.408	13368.08
587.768	13374.41
588.127	13270.68
588.487	13339.15
588.846	13431.13
589.206	13343.45
589.565	13340.51
589.925	13439.27
590.284	13311.13
590.643	13309.55
591.003	13351.81
591.362	13361.3
591.721	13307.29
592.08	13319.95
592.44	13327.63
592.799	13338.7
593.158	13319.95
593.517	13268.2
593.876	13291.7
594.235	13284.69
594.593	13186.39
594.952	13214.64
595.311	13294.86
595.67	13280.4
596.029	13325.14
596.387	13264.35
596.746	13265.48
597.104	13257.58
597.463	13201.98
597.822	13251.25
598.18	13270
598.538	13175.54
598.897	13281.3
599.255	13258.93
599.613	13338.02
599.972	13274.98
600.33	13298.03
600.688	13202.66
601.046	13265.71
601.404	13321.53
601.762	13232.27
602.12	13264.35
602.478	13231.36
602.836	13266.84
603.194	13137.58
603.552	13251.7
603.91	13166.05
604.268	13310.68
604.625	13225.49
604.983	13277.24
605.341	13181.19
605.698	13193.17
606.056	13270.91
606.413	13263.22
606.771	13204.92
607.128	13303.9
607.485	13177.35
607.843	13214.19
608.2	13322.43
608.557	13310.68
608.914	13209.89
609.272	13366.05
609.629	13312.04
609.986	13390.45
610.343	13324.24
610.7	13430
611.057	13265.48
611.414	13361.08
611.771	13426.16
612.127	13429.32
612.484	13458.25
612.841	13440.62
613.198	13459.83
613.554	13372.6
613.911	13426.16
614.267	13406.05
614.624	13455.99
614.98	13467.29
615.337	13580.28
615.693	13424.12
616.05	13507.96
616.406	13522.88
616.762	13447.63
617.118	13560.17
617.475	13478.13
617.831	13560.62
618.187	13579.15
618.543	13654.4
618.899	13742.76
619.255	13689.43
619.611	13554.74
619.967	13647.4
620.323	13632.71
620.678	13649.43
621.034	13568.75
621.39	13592.71
621.746	13579.37
622.101	13745.25
622.457	13600.39
622.812	13607.85
623.168	13643.33
623.523	13676.32
623.879	13608.75
624.234	13619.6
624.589	13653.95
624.945	13601.29
625.3	13669.32
625.655	13615.98
626.01	13584.8
626.365	13652.59
626.72	13641.75
627.075	13606.49
627.43	13588.19
627.785	13671.12
628.14	13656.43
628.495	13623.44
628.85	13563.56
629.205	13491.47
629.559	13556.78
629.914	13569.66
630.269	13634.06
630.623	13433.84
630.978	13561.97
631.332	13532.82
631.687	13576.21
632.041	13486.04
632.396	13536.21
632.75	13543.9
633.104	13489.43
633.459	13358.36
633.813	13421.41
634.167	13453.28
634.521	13408.53
634.875	13416.22
635.229	13408.31
635.583	13353.39
635.937	13298.03
636.291	13347.52
636.645	13247.63
636.999	13266.16
637.352	13395.2
637.706	13197.24
638.06	13310.23
638.413	13164.92
638.767	13148.65
639.121	13215.99
639.474	13141.87
639.828	13139.16
640.181	13214.41
640.534	13141.65
640.888	13110.91
641.241	13050.35
641.594	13102.55
641.947	13112.95
642.301	13088.09
642.654	13106.39
643.007	13147.97
643.36	13099.39
643.713	13088.77
644.066	13180.52
644.419	13021.2
644.771	12930.58
645.124	12860.07
645.477	12747.08
645.83	12772.84
646.182	12682
646.535	12719.96
646.888	12760.19
647.24	12649.23
647.593	12657.36
647.945	12637.25
648.298	12602.45
648.65	12542.79
649.002	12635.22
649.355	12627.76
649.707	12587.08
650.059	12643.58
650.411	12793.18
650.763	12869.11
651.115	12974.19
651.467	12892.84
651.819	12867.98
652.171	12877.92
652.523	12759.96
652.875	12830.47
653.227	12816.68
653.578	12955.21
653.93	12927.64
654.282	12846.74
654.633	12754.99
654.985	12837.93
655.337	12860.07
655.688	12869.79
656.039	12867.3
656.391	12826.17
656.742	12752.5
657.094	12870.69
657.445	12923.12
657.796	12853.74
658.147	12954.31
658.498	12845.83
658.849	12904.82
659.2	12871.37
659.551	12838.38
659.902	12885.16
660.253	12862.11
660.604	12904.59
660.955	12813.07
661.306	13017.13
661.656	12891.48
662.007	12860.98
662.358	12948.88
662.708	12946.85
663.059	12900.3
663.409	12849
663.76	12981.88
664.11	12917.25
664.461	12958.15
664.811	13014.19
665.161	12845.61
665.511	12890.13
665.862	12884.25
666.212	12967.87
666.562	12963.8
666.912	13001.99
667.262	12880.41
667.612	13002.89
667.962	12987.53
668.312	12875.44
668.662	12895.78
669.011	12870.69
669.361	12900.07
669.711	12928.54
670.06	12851.71
670.41	12774.65
670.76	12840.41
671.109	12871.6
671.459	12818.04
671.808	12862.33
672.157	12896.68
672.507	12730.36
672.856	12744.37
673.205	12800.86
673.554	12743.92
673.904	12812.16
674.253	12831.82
674.602	12766.97
674.951	12620.08
675.3	12514.77
675.649	12675.9
675.998	12756.8
676.346	12726.06
676.695	12757.48
677.044	12685.61
677.393	12728.1
677.741	12673.18
678.09	12661.66
678.438	12665.95
678.787	12658.72
679.135	12671.38
679.484	12576.24
679.832	12663.92
680.181	12453.53
680.529	12553.86
680.877	12521.32
681.225	12537.59
681.573	12549.8
681.922	12457.82
682.27	12420.99
682.618	12409.24
682.966	12414.89
683.314	12345.73
683.661	12400.87
684.009	12316.36
684.357	12291.05
684.705	12368.33
685.053	12371.95
685.4	12333.98
685.748	12159.75
686.095	12209.69
686.443	12078.4
686.79	11976.48
687.138	12083.59
687.485	12032.52
687.832	12056.25
688.18	12066.42
688.527	11987.33
688.874	11948.23
689.221	11917.95
689.568	11830.04
689.915	11928.34
690.262	11819.87
690.609	11743.94
690.956	11743.26
691.303	11740.1
691.65	11639.09
691.997	11682.93
692.344	11607.45
692.69	11639.99
693.037	11535.59
693.383	11495.59
693.73	11517.06
694.077	11403.39
694.423	11452.2
694.769	11378.75
695.116	11395.7
695.462	11369.04
695.808	11248.59
696.155	11314.12
696.501	11104.86
696.847	11228.02
697.193	11092.21
697.539	11148.7
697.885	11074.13
698.231	11007.46
698.577	11037.29
698.923	11020.12
699.269	10915.49
699.614	10872.78
699.96	10795.94
700.306	10790.3
700.651	10745.1
700.997	10718.66
701.342	10661.03
701.688	10714.59
702.033	10613.12
702.379	10576.52
702.724	10556.63
703.069	10581.49
703.415	10431.89
703.76	10410.87
704.105	10455.16
704.45	10437.99
704.795	10311.66
705.14	10326.58
705.485	10345.34
705.83	10258.11
706.175	10291.1
706.52	10268.5
706.865	10142.4
707.209	10172.46
707.554	10051.78
707.899	10107.38
708.243	10055.17
708.588	10032.35
708.932	9933.37
709.277	9951.67
709.621	9945.8
709.966	9867.83
710.31	9951.67
710.654	9811.34
710.998	9857.89
711.342	9863.54
711.687	9804.33
712.031	9781.73
712.375	9725.69
712.719	9730.66
713.063	9641.4
713.407	9714.84
713.75	9641.17
714.094	9664.9
714.438	9590.78
714.782	9664.68
715.125	9584.68
715.469	9594.62
715.812	9538.58
716.156	9536.09
716.499	9506.71
716.843	9497.67
717.186	9421.07
717.53	9529.76
717.873	9534.28
718.216	9454.96
718.559	9471.91
718.902	9367.96
719.246	9421.97
719.589	9431.91
719.932	9404.12
720.275	9344.01
720.617	9303.1
720.96	9355.76
721.303	9329.99
721.646	9288.41
721.989	9311.24
722.331	9273.5
722.674	9249.77
723.016	9172.94
723.359	9285.25
723.701	9252.48
724.044	9196.44
724.386	9141.3
724.729	9226.27
725.071	9198.02
725.413	9156.44
725.755	9241.41
726.097	9099.94
726.439	9101.75
726.782	9158.25
727.124	9190.11
727.465	9049.78
727.807	9084.8
728.149	9137.91
728.491	9068.31
728.833	9121.19
729.175	9093.39
729.516	9050.91
729.858	9066.5
730.199	9115.54
730.541	9088.19
730.882	9056.56
731.224	9104.46
731.565	9058.82
731.906	9060.4
732.248	9097.68
732.589	9036.44
732.93	8986.73
733.271	9027.4
733.612	9079.15
733.953	9058.82
734.294	9087.74
734.635	8993.05
734.976	9087.29
735.317	8956.9
735.658	9083.9
735.999	9050.23
736.339	9003
736.68	9030.57
737.021	9083.9
737.361	9000.96
737.702	9100.85
738.042	9040.51
738.383	9037.12
738.723	9128.64
739.063	9070.57
739.404	9124.58
739.744	9083.67
740.084	9043.22
740.424	9096.33
740.764	9097.91
741.104	9166.61
741.444	9141.75
741.784	9106.05
742.124	9161.64
742.464	9215.65
742.804	9125.48
743.143	9167.74
743.483	9264.46
743.823	9193.5
744.162	9301.97
744.502	9318.47
744.841	9378.13
745.181	9440.95
745.52	9391.91
745.86	9389.65
746.199	9448.18
746.538	9489.31
746.877	9581.51
747.216	9684.56
747.556	9594.62
747.895	9678.69
748.234	9698.57
748.573	9785.58
748.911	9768.63
749.25	9855.18
749.589	10035.96
749.928	10028.06
750.267	10061.73
750.605	10111.67
750.944	10171.55
751.283	10244.55
751.621	10451.32
751.96	10449.74
752.298	10476.41
752.636	10650.86
752.975	10702.84
753.313	10809.96
753.651	10961.59
753.989	10995.71
754.327	11160.68
754.666	11212.88
755.004	11291.07
755.342	11459.2
755.679	11683.38
756.017	11701.68
756.355	11904.39
756.693	12038.4
757.031	12143.48
757.368	12205.4
757.706	12387.54
758.044	12618.27
758.381	12826.17
758.719	12933.29
