Data from hue_330_FLMS001491_33.txt Node
Date: Mon Feb 06 15:45:18 GMT 2017
User: dcchb
Spectrometer: FLMS00149
Trigger mode: 0
Integration Time (sec): 2.000000E-2
Scans to average: 10
Electric dark correction enabled: true
Nonlinearity correction enabled: false
Boxcar width: 0
XAxis mode: Wavelengths
Number of Pixels in Spectrum: 2048
>>>>>Begin Spectral Data<<<<<
341.393	-19.32
341.776	-19.32
342.16	-19.32
342.543	-59.32
342.927	-63.84
343.31	-78.75
343.693	-79.21
344.077	-48.7
344.46	-79.21
344.843	-41.92
345.226	-30.17
345.61	-15.25
345.993	-15.25
346.376	-9.83
346.759	4.63
347.142	20.45
347.525	43.05
347.908	57.96
348.291	77.85
348.674	82.14
349.057	112.2
349.44	115.59
349.823	163.95
350.206	180.67
350.588	189.26
350.971	202.14
351.354	230.84
351.737	229.94
352.119	245.3
352.502	270.84
352.884	283.72
353.267	282.59
353.65	276.49
354.032	281.69
354.414	290.95
354.797	313.1
355.179	311.74
355.562	309.94
355.944	302.7
356.326	323.95
356.709	328.92
357.091	325.08
357.473	342.02
357.855	350.39
358.238	340.67
358.62	338.64
359.002	317.17
359.384	328.69
359.766	334.34
360.148	333.89
360.53	328.24
360.912	333.66
361.294	316.71
361.676	326.43
362.057	324.17
362.439	335.47
362.821	321.01
363.203	316.26
363.584	330.5
363.966	314
364.348	307.68
364.729	314
365.111	322.14
365.493	310.61
365.874	315.36
366.256	331.4
366.637	304.29
367.019	315.13
367.4	298.86
367.781	318.3
368.163	300.67
368.544	299.09
368.925	298.64
369.306	307
369.688	298.64
370.069	319.43
370.45	306.32
370.831	297.96
371.212	312.65
371.593	325.08
371.974	294.12
372.355	306.09
372.736	301.35
373.117	314.23
373.498	301.8
373.879	287.56
374.26	310.84
374.641	307
375.021	291.4
375.402	338.64
375.783	304.51
376.163	318.52
376.544	299.99
376.925	307.9
377.305	308.81
377.686	318.52
378.066	319.88
378.447	337.51
378.827	305.64
379.208	318.75
379.588	316.26
379.968	329.14
380.349	322.82
380.729	348.13
381.109	339.99
381.489	344.06
381.87	335.02
382.25	337.73
382.63	341.35
383.01	343.61
383.39	332.76
383.77	342.7
384.15	348.58
384.53	330.27
384.91	342.7
385.29	354.91
385.67	340.89
386.049	325.3
386.429	328.24
386.809	360.78
387.189	354.45
387.568	365.75
387.948	333.89
388.328	348.8
388.707	356.49
389.087	362.59
389.466	348.8
389.846	340.67
390.225	367.33
390.605	344.28
390.984	368.24
391.363	371.4
391.743	378.63
392.122	360.56
392.501	364.17
392.881	376.15
393.26	356.04
393.639	376.83
394.018	349.93
394.397	368.01
394.776	379.54
395.155	385.87
395.534	354.45
395.913	371.4
396.292	376.6
396.671	368.46
397.05	362.14
397.429	378.41
397.808	397.16
398.186	377.73
398.565	368.01
398.944	371.85
399.323	380.44
399.701	372.76
400.08	377.73
400.458	403.04
400.837	402.59
401.215	387.45
401.594	365.53
401.972	370.05
402.351	391.29
402.729	384.74
403.107	406.66
403.486	402.36
403.864	378.18
404.242	375.02
404.62	415.02
404.999	417.5
405.377	435.81
405.755	401.68
406.133	430.38
406.511	415.02
406.889	410.27
407.267	403.94
407.645	432.87
408.023	442.14
408.401	419.31
408.779	435.13
409.156	456.82
409.534	457.5
409.912	453.21
410.29	439.2
410.667	455.24
411.045	457.5
411.422	451.85
411.8	465.19
412.178	478.29
412.555	481.68
412.933	507.44
413.31	515.58
413.687	485.07
414.065	507.67
414.442	511.29
414.819	500.66
415.197	489.82
415.574	519.87
415.951	539.76
416.328	515.81
416.705	531.85
417.082	538.63
417.46	551.06
417.837	569.14
418.214	554
418.591	565.75
418.967	593.77
419.344	575.47
419.721	583.37
420.098	594.22
420.475	580.21
420.852	608.23
421.228	582.24
421.605	619.76
421.982	618.4
422.358	641
422.735	628.35
423.111	654.11
423.488	631.96
423.864	646.2
424.241	648.23
424.617	631.96
424.994	651.85
425.37	683.48
425.746	674.22
426.123	680.32
426.499	669.7
426.875	697.5
427.251	702.92
427.627	687.1
428.003	709.92
428.379	715.35
428.756	730.04
429.132	753.77
429.507	739.08
429.883	753.99
430.259	752.64
430.635	753.77
431.011	757.38
431.387	768.23
431.763	802.13
432.138	787.44
432.514	808.91
432.89	800.77
433.265	815.01
433.641	804.39
434.016	801
434.392	851.84
434.767	857.49
435.143	840.32
435.518	851.84
435.894	866.08
436.269	868.79
436.644	875.57
437.02	876.25
437.395	891.16
437.77	911.28
438.145	917.38
438.52	900.43
438.895	936.13
439.271	936.13
439.646	956.02
440.021	961.22
440.395	963.7
440.77	961.67
441.145	939.07
441.52	969.81
441.895	987.43
442.27	978.62
442.645	991.27
443.019	993.99
443.394	977.49
443.769	964.83
444.143	1005.51
444.518	1009.13
444.892	1014.78
445.267	1008
445.641	1023.81
446.016	1034.89
446.39	1061.1
446.764	1008.45
447.139	1039.41
447.513	1045.96
447.887	1009.13
448.262	1024.72
448.636	1065.62
449.01	1063.59
449.384	1064.27
449.758	1098.84
450.132	1064.27
450.506	1078.05
450.88	1056.81
451.254	1095.68
451.628	1107.88
452.002	1091.16
452.376	1100.65
452.75	1112.63
453.123	1116.92
453.497	1120.54
453.871	1126.41
454.244	1139.52
454.618	1161.21
454.992	1145.62
455.365	1143.36
455.739	1180.65
456.112	1197.37
456.486	1178.84
456.859	1194.21
457.232	1228.1
457.606	1215.45
457.979	1197.82
458.352	1242.11
458.725	1252.96
459.099	1273.98
459.472	1258.38
459.845	1282.57
460.218	1259.97
460.591	1303.36
460.964	1318.95
461.337	1303.81
461.71	1322.79
462.083	1342.45
462.456	1340.87
462.829	1337.7
463.201	1334.77
463.574	1347.87
463.947	1366.18
464.32	1411.6
464.692	1403.92
465.065	1413.18
465.438	1404.6
465.81	1436.23
466.183	1431.26
466.555	1451.6
466.928	1474.2
467.3	1464.03
467.672	1489.57
468.045	1532.28
468.417	1522.11
468.789	1522.33
469.161	1535.89
469.534	1544.71
469.906	1586.29
470.278	1582.67
470.65	1602.1
471.022	1634.19
471.394	1636
471.766	1647.53
472.138	1650.01
472.51	1679.84
472.882	1709.22
473.253	1745.83
473.625	1754.64
473.997	1771.82
474.369	1790.12
474.74	1807.3
475.112	1813.17
475.484	1835.54
475.855	1899.5
476.227	1884.81
476.598	1937.24
476.97	1920.06
477.341	1965.03
477.713	1960.97
478.084	1986.5
478.455	2028.08
478.827	2055.88
479.198	2100.62
479.569	2098.36
479.94	2126.16
480.311	2137.23
480.682	2179.26
481.053	2231.47
481.424	2229.43
481.795	2256.32
482.166	2273.95
482.537	2346.94
482.908	2338.13
483.279	2338.58
483.65	2384.68
484.021	2408.86
484.391	2472.82
484.762	2479.37
485.133	2466.04
485.503	2507.17
485.874	2568.18
486.244	2595.98
486.615	2622.87
486.985	2614.51
487.356	2656.77
487.726	2702.87
488.097	2740.38
488.467	2793.03
488.837	2785.8
489.207	2798.46
489.578	2833.71
489.948	2826.71
490.318	2897.89
490.688	2898.79
491.058	2920.04
491.428	2960.26
491.798	3000.71
492.168	3078.9
492.538	3044.33
492.908	3040.94
493.278	3057.66
493.648	3102.18
494.017	3135.85
494.387	3173.81
494.757	3187.15
495.126	3220.82
495.496	3256.52
495.866	3229.63
496.235	3248.84
496.605	3277.31
496.974	3320.7
497.344	3329.74
497.713	3326.35
498.082	3339.69
498.452	3405.9
498.821	3378.78
499.19	3406.13
499.559	3434.82
499.928	3433.7
500.298	3437.76
500.667	3502.62
501.036	3476.41
501.405	3504.43
501.774	3478.21
502.143	3554.6
502.512	3572.67
502.88	3569.96
503.249	3554.14
503.618	3560.47
503.987	3586.69
504.356	3596.18
504.724	3635.05
505.093	3658.77
505.462	3622.39
505.83	3641.6
506.199	3635.95
506.567	3685.44
506.936	3693.8
507.304	3721.82
507.672	3708.26
508.041	3740.13
508.409	3796.85
508.777	3745.33
509.145	3813.8
509.514	3814.7
509.882	3791.43
510.25	3793.69
510.618	3844.76
510.986	3813.57
511.354	3909.84
511.722	3919.78
512.09	3875.04
512.458	3907.58
512.826	3887.69
513.193	3915.49
513.561	3942.83
513.929	3943.96
514.297	3966.11
514.664	3972.89
515.032	4005.43
515.4	3994.36
515.767	4002.27
516.135	4030.74
516.502	4014.7
516.869	4071.19
517.237	4029.61
517.604	4033
517.972	4060.35
518.339	4093.11
518.706	4091.3
519.073	4051.31
519.44	4105.54
519.808	4087.92
520.175	4116.84
520.542	4114.58
520.909	4186.44
521.276	4148.7
521.643	4143.05
522.009	4225.09
522.376	4234.35
522.743	4222.83
523.11	4225.76
523.477	4291.98
523.843	4281.81
524.21	4310.28
524.577	4324.75
524.943	4363.84
525.31	4369.72
525.676	4384.63
526.043	4409.71
526.409	4399.09
526.776	4457.62
527.142	4397.06
527.508	4472.31
527.874	4515.25
528.241	4554.34
528.607	4549.82
528.973	4538.52
529.339	4555.47
529.705	4607.68
530.071	4631.86
530.437	4618.75
530.803	4654.91
531.169	4663.95
531.535	4680.22
531.901	4718.18
532.267	4706.2
532.632	4774.22
532.998	4759.31
533.364	4745.75
533.73	4777.39
534.095	4824.84
534.461	4914.11
534.826	4857.39
535.192	4864.84
535.557	4905.07
535.923	4915.24
536.288	4901.91
536.653	4990.72
537.019	4979.87
537.384	4951.85
537.749	4988.23
538.114	5048.12
538.479	5009.02
538.845	5038.17
539.21	5053.77
539.575	5049.25
539.94	5103.03
540.305	5136.7
540.67	5133.76
541.034	5175.8
541.399	5186.42
541.764	5232.29
542.129	5240.88
542.494	5234.33
542.858	5281.1
543.223	5313.42
543.587	5333.98
543.952	5327.2
544.316	5352.51
544.681	5339.18
545.045	5393.64
545.41	5422.34
545.774	5449.01
546.138	5452.85
546.503	5496.92
546.867	5509.12
547.231	5543.47
547.595	5545.05
547.959	5582.79
548.324	5644.26
548.688	5626.86
549.052	5607.42
549.416	5614.2
549.779	5649.46
550.143	5639.96
550.507	5689.68
550.871	5728.55
551.235	5674.99
551.599	5761.77
551.962	5781.88
552.326	5763.13
552.689	5754.09
553.053	5765.16
553.417	5829.56
553.78	5864.14
554.143	5910.24
554.507	5873.18
554.87	5886.29
555.234	5966.51
555.597	5902.78
555.96	5901.65
556.323	5983.46
556.686	5995.21
557.05	6015.77
557.413	6035.21
557.776	6045.38
558.139	6060.74
558.502	6048.54
558.865	6039.95
559.228	6115.21
559.59	6182.55
559.953	6114.98
560.316	6205.37
560.679	6184.13
561.041	6188.65
561.404	6229.33
561.767	6251.7
562.129	6253.73
562.492	6284.69
562.854	6259.16
563.217	6300.06
563.579	6314.07
563.941	6375.31
564.304	6368.31
564.666	6408.08
565.028	6368.31
565.39	6401.3
565.753	6462.99
566.115	6489.89
566.477	6506.16
566.839	6495.08
567.201	6585.25
567.563	6520.17
567.925	6586.38
568.287	6628.64
568.648	6607.85
569.01	6666.83
569.372	6699.37
569.734	6666.6
570.095	6721.52
570.457	6803.1
570.819	6821.63
571.18	6832.02
571.542	6877.9
571.903	6801.52
572.265	6953.38
572.626	6942.08
572.987	7004.67
573.349	7050.1
573.71	7057.1
574.071	7067.72
574.432	7146.37
574.794	7226.36
575.155	7376.42
575.516	7316.3
575.877	7361.95
576.238	7429.3
576.599	7528.73
576.96	7564.43
577.32	7684.43
577.681	7712.68
578.042	7794.03
578.403	7841.71
578.763	7885.78
579.124	8041.48
579.485	8107.02
579.845	8220.91
580.206	8319.44
580.566	8441.25
580.927	8538.65
581.287	8710.17
581.648	8774.12
582.008	8901.12
582.368	9043.27
582.728	9161.45
583.089	9295.46
583.449	9466.76
583.809	9585.17
584.169	9790.82
584.529	9949.91
584.889	10195.33
585.249	10323.01
585.609	10502.66
585.969	10777
586.329	10937
586.688	11176.99
587.048	11350.77
587.408	11487.04
587.768	11727.71
588.127	11924.09
588.487	12217.19
588.846	12506.68
589.206	12699.44
589.565	12936.27
589.925	13203.16
590.284	13337.39
590.643	13676.36
591.003	13970.37
591.362	14246.29
591.721	14477.92
592.08	14808.99
592.44	15008.76
592.799	15400.61
593.158	15632.7
593.517	15928.06
593.876	16208.73
594.235	16421.83
594.593	16755.6
594.952	17100.68
595.311	17194.92
595.67	17661.12
596.029	18103.14
596.387	18246.86
596.746	18578.61
597.104	18736.34
597.463	19074.19
597.822	19424.01
598.18	19542.65
598.538	19935.86
598.897	20287.49
599.255	20365
599.613	21002.05
599.972	21116.39
600.33	21375.6
600.688	21730.62
601.046	22004.51
601.404	22324.27
601.762	22596.36
602.12	22923.58
602.478	23104.36
602.836	23374.41
603.194	23498.25
603.552	23856.66
603.91	24048.97
604.268	24287.38
604.625	24519.92
604.983	24956.07
605.341	25004.65
605.698	25350.41
606.056	25670.17
606.413	25811.86
606.771	26148.13
607.128	26424.28
607.485	26450.26
607.843	26705.17
608.2	27082.56
608.557	27375.44
608.914	27528.2
609.272	27836.44
609.629	28074.86
609.986	28459.93
610.343	28448.86
610.7	28727.04
611.057	28882.97
611.414	29098.56
611.771	29360.24
612.127	29500.13
612.484	29755.26
612.841	29965.2
613.198	30101.69
613.554	30147.12
613.911	30542.36
614.267	30617.39
614.624	30699.19
614.98	30991.84
615.337	31207.88
615.693	31341.21
616.05	31445.16
616.406	31757.24
616.762	31752.72
617.118	31958.37
617.475	31940.97
617.831	32341.41
618.187	32405.36
618.543	32580.27
618.899	32853.71
619.255	32985.46
619.611	32996.99
619.967	33243.08
620.323	33334.6
620.678	33420.25
621.034	33318.33
621.39	33406.47
621.746	33653.24
622.101	34002.16
622.457	33812.56
622.812	34097.3
623.168	34132.55
623.523	34203.06
623.879	34352.88
624.234	34227.46
624.589	34410.96
624.945	34566.44
625.3	34701.12
625.655	34681.69
626.01	34946.31
626.365	35029.7
626.72	34985.86
627.075	35059.98
627.43	35020.89
627.785	35085.29
628.14	35149.47
628.495	35269.24
628.85	35367.77
629.205	35176.36
629.559	35608.22
629.914	35403.25
630.269	35389.92
630.623	35519.63
630.978	35445.06
631.332	35695.22
631.687	35844.59
632.041	35662.23
632.396	35845.72
632.75	35633.53
633.104	35731.38
633.459	35584.49
633.813	35619.52
634.167	35720.53
634.521	35861.09
634.875	35798.95
635.229	35656.12
635.583	35645.05
635.937	35610.25
636.291	35591.95
636.645	35690.25
636.999	35678.27
637.352	35832.62
637.706	35695.9
638.06	35940.86
638.413	35726.41
638.767	35772.73
639.121	35905.16
639.474	35575
639.828	35694.99
640.181	35803.69
640.534	35664.03
640.888	35528.44
641.241	35490.93
641.594	35723.24
641.947	35756.69
642.301	35745.84
642.654	35654.09
643.007	35755.56
643.36	35773.86
643.713	35611.83
644.066	35880.53
644.419	35605.28
644.771	35373.19
645.124	35045.97
645.477	34914.45
645.83	34803.94
646.182	34714.45
646.535	34722.59
646.888	34696.38
647.24	34423.84
647.593	34634
647.945	34721.46
648.298	34542.71
648.65	34484.63
649.002	34428.36
649.355	34586.55
649.707	34474.46
650.059	34707.22
650.411	35051.17
650.763	35008.46
651.115	35419.07
651.467	35302.69
651.819	35383.59
652.171	35237.83
652.523	35279.41
652.875	35324.38
653.227	35100.66
653.578	35324.83
653.93	35234.89
654.282	35106.08
654.633	35012.3
654.985	35133.43
655.337	35252.29
655.688	35131.39
656.039	35193.99
656.391	35001.68
656.742	35043.71
657.094	35074.67
657.445	35070.83
657.796	34983.83
658.147	34963.94
658.498	35087.1
658.849	35056.14
659.2	35000.77
659.551	35058.4
659.902	35166.87
660.253	34924.84
660.604	35080.55
660.955	34972.3
661.306	35172.52
661.656	35050.72
662.007	34891.17
662.358	34961
662.708	34927.1
663.059	34953.32
663.409	34795.13
663.76	34994.67
664.11	34988.12
664.461	35057.04
664.811	34963.49
665.161	34974.79
665.511	34956.48
665.862	34909.7
666.212	35131.62
666.562	35099.08
666.912	34929.36
667.262	34930.72
667.612	34825.64
667.962	34932.75
668.312	34754.23
668.662	35030.6
669.011	34905.64
669.361	34813.43
669.711	34951.06
670.06	34834.68
670.41	34819.08
670.76	34802.81
671.109	34803.94
671.459	34867.44
671.808	34751.97
672.157	34834.9
672.507	34544.06
672.856	34632.42
673.205	34632.42
673.554	34739.31
673.904	34708.58
674.253	34881.46
674.602	34635.59
674.951	34241.92
675.3	34060.91
675.649	34598.07
675.998	34645.08
676.346	34714.23
676.695	34689.14
677.044	34473.1
677.393	34583.38
677.741	34549.49
678.09	34510.39
678.438	34468.59
678.787	34493.44
679.135	34416.61
679.484	34254.58
679.832	34403.73
680.181	34251.87
680.529	34224.75
680.877	34154.02
681.225	34291.41
681.573	34425.42
681.922	34146.33
682.27	34057.97
682.618	34055.26
682.966	33908.83
683.314	33993.12
683.661	33829.96
684.009	33725.33
684.357	33754.71
684.705	33647.59
685.053	33630.42
685.4	33604.88
685.748	33526.01
686.095	33493.7
686.443	33388.84
686.79	33390.87
687.138	33405.79
687.485	33428.39
687.832	33314.94
688.18	33316.98
688.527	33106.59
688.874	33156.3
689.221	33023.65
689.568	32971.22
689.915	32981.39
690.262	33006.02
690.609	32791.57
690.956	32674.96
691.303	32650.55
691.65	32517.9
691.997	32449.88
692.344	32358.58
692.69	32306.83
693.037	32422.31
693.383	31996.79
693.73	32275.42
694.077	31971.93
694.423	32101.64
694.769	31942.32
695.116	31767.87
695.462	31762.22
695.808	31735.32
696.155	31744.59
696.501	31517.7
696.847	31566.06
697.193	31240.42
697.539	31351.38
697.885	31266.86
698.231	31244.94
698.577	31082.91
698.923	31137.83
699.269	30978.73
699.614	30818.96
699.96	30760.66
700.306	30771.96
700.651	30628.23
700.997	30517.73
701.342	30576.94
701.688	30574.22
702.033	30384.62
702.379	30297.85
702.724	30276.38
703.069	30262.14
703.415	29811.08
703.76	29915.26
704.105	30148.25
704.45	29931.98
704.795	29611.09
705.14	29506.91
705.485	29679.11
705.83	29623.51
706.175	29581.93
706.52	29476.4
706.865	29294.48
707.209	29208.16
707.554	29265.78
707.899	29287.03
708.243	29104.21
708.588	29088.16
708.932	28858.56
709.277	28912.35
709.621	28893.82
709.966	28761.39
710.31	28840.71
710.654	28576.76
710.998	28593.03
711.342	28626.93
711.687	28436.2
712.031	28416.99
712.375	28301.52
712.719	28318.24
713.063	28306.26
713.407	28239.37
713.75	28136.55
714.094	28098.81
714.438	27958.02
714.782	28038.92
715.125	27953.5
715.469	27949.21
715.812	27878.93
716.156	27652.49
716.499	27660.18
716.843	27692.94
717.186	27478.03
717.53	27620.86
717.873	27641.87
718.216	27509.9
718.559	27340.41
718.902	27140.42
719.246	27368.21
719.589	27184.48
719.932	27070.36
720.275	27125.05
720.617	27083.02
720.96	27015.9
721.303	27078.95
721.646	26944.26
721.989	26878.5
722.331	27004.37
722.674	26827.43
723.016	26846.41
723.359	26818.62
723.701	26816.36
724.044	26618.62
724.386	26525.52
724.729	26598.06
725.071	26559.19
725.413	26597.61
725.755	26506.53
726.097	26492.52
726.439	26347.44
726.782	26359.65
727.124	26330.49
727.465	26246.88
727.807	26246.88
728.149	26181.12
728.491	26148.58
728.833	26138.41
729.175	26131.63
729.516	26015.02
729.858	25936.83
730.199	26043.27
730.541	25949.04
730.882	26027.68
731.224	26010.28
731.565	25689.61
731.906	25815.93
732.248	25838.76
732.589	25750.85
732.93	25621.59
733.271	25647.8
733.612	25594.02
733.953	25584.07
734.294	25435.6
734.635	25422.72
734.976	25418.2
735.317	25381.14
735.658	25393.34
735.999	25350.41
736.339	25238.55
736.68	25434.47
737.021	25219.79
737.361	25191.99
737.702	25281.71
738.042	25146.34
738.383	25154.48
738.723	25240.81
739.063	25076.74
739.404	24925.56
739.744	24941.38
740.084	24854.6
740.424	24897.31
740.764	24829.29
741.104	24900.02
741.444	24815.51
741.784	24670.65
742.124	24825.9
742.464	24835.39
742.804	24625.91
743.143	24548.85
743.483	24599.01
743.823	24424.78
744.162	24492.35
744.502	24454.39
744.841	24406.48
745.181	24500.03
745.52	24342.07
745.86	24481.5
746.199	24250.32
746.538	24276.31
746.877	24211.45
747.216	24281.06
747.556	24240.38
747.895	24121.06
748.234	24037.22
748.573	23957.45
748.911	23986.6
749.25	23903.44
749.589	23854.18
749.928	23794.06
750.267	23758.36
750.605	23816.66
750.944	23780.05
751.283	23682.88
751.621	23734.86
751.96	23607.4
752.298	23676.33
752.636	23644.46
752.975	23436.78
753.313	23446.05
753.651	23489.66
753.989	23302.55
754.327	23366.28
754.666	23210.12
755.004	23260.52
755.342	23295.09
755.679	23207.64
756.017	23068.21
756.355	23057.59
756.693	22946.18
757.031	22973.52
757.368	22902.34
757.706	22761.77
758.044	22683.58
758.381	22891.04
758.719	22760.87
759.056	22713.87
759.394	22557.03
759.731	22382.8
760.068	22523.14
760.405	22394.55
