Data from hue_160_FLMS001491_00006.txt Node
Date: Tue Feb 07 16:50:40 GMT 2017
User: dcchb
Spectrometer: FLMS00149
Trigger mode: 0
Integration Time (sec): 2.000000E-2
Scans to average: 10
Electric dark correction enabled: true
Nonlinearity correction enabled: false
Boxcar width: 0
XAxis mode: Wavelengths
Number of Pixels in Spectrum: 2048
>>>>>Begin Spectral Data<<<<<
341.393	-13.95
341.776	-13.95
342.16	-13.95
342.543	-50.34
342.927	-74.29
343.31	-72.71
343.693	-86.95
344.077	-60.73
344.46	-42.88
344.843	-63.9
345.226	-34.74
345.61	-34.52
345.993	9.1
346.376	-13.28
346.759	-5.59
347.142	20.39
347.525	37.8
347.908	56.33
348.291	71.47
348.674	113.95
349.057	106.27
349.44	124.57
349.823	118.25
350.206	166.38
350.588	179.03
350.971	209.99
351.354	222.42
351.737	242.76
352.119	235.08
352.502	248.64
352.884	239.15
353.267	279.37
353.65	281.86
354.032	279.15
354.414	298.13
354.797	303.1
355.179	315.98
355.562	317.79
355.944	311.46
356.326	346.71
356.709	339.48
357.091	346.04
357.473	348.75
357.855	332.93
358.238	341.97
358.62	349.43
359.002	342.87
359.384	343.1
359.766	328.64
360.148	325.02
360.53	331.57
360.912	340.39
361.294	319.14
361.676	343.1
362.057	337.45
362.439	334.28
362.821	337
363.203	315.98
363.584	308.52
363.966	314.4
364.348	321.18
364.729	325.47
365.111	307.39
365.493	294.06
365.874	324.34
366.256	296.77
366.637	319.6
367.019	299.94
367.4	296.55
367.781	322.08
368.163	301.97
368.544	280.95
368.925	280.05
369.306	310.56
369.688	297.9
370.069	332.48
370.45	328.41
370.831	288.18
371.212	299.03
371.593	311.69
371.974	318.69
372.355	320.95
372.736	317.56
373.117	322.99
373.498	307.62
373.879	304.68
374.26	298.58
374.641	304.91
375.021	311.23
375.402	314.62
375.783	318.47
376.163	337.45
376.544	339.26
376.925	323.89
377.305	329.99
377.686	309.2
378.066	328.41
378.447	324.12
378.827	304
379.208	287.73
379.588	326.83
379.968	338.58
380.349	322.99
380.729	319.37
381.109	324.12
381.489	334.28
381.87	324.34
382.25	338.8
382.63	338.13
383.01	342.19
383.39	341.06
383.77	344.23
384.15	344.45
384.53	342.65
384.91	330.67
385.29	347.62
385.67	347.39
386.049	371.35
386.429	331.35
386.809	356.66
387.189	335.64
387.568	356.66
387.948	376.54
388.328	368.63
388.707	348.52
389.087	345.58
389.466	345.36
389.846	363.44
390.225	339.03
390.605	342.42
390.984	358.69
391.363	359.6
391.743	348.52
392.122	371.35
392.501	370.22
392.881	367.28
393.26	377.45
393.639	353.49
394.018	351.01
394.397	356.66
394.776	364.34
395.155	377.67
395.534	360.72
395.913	375.19
396.292	386.04
396.671	370.67
397.05	370.22
397.429	384.91
397.808	391.68
398.186	400.05
398.565	396.66
398.944	388.52
399.323	405.24
399.701	397.56
400.08	398.01
400.458	390.1
400.837	379.93
401.215	377.22
401.594	392.59
401.972	402.76
402.351	399.59
402.729	414.96
403.107	398.69
403.486	409.54
403.864	410.44
404.242	438.01
404.62	412.02
404.999	400.5
405.377	426.26
405.755	411.57
406.133	440.95
406.511	427.62
406.889	421.74
407.267	414.96
407.645	433.72
408.023	420.84
408.401	435.75
408.779	431.01
409.156	436.66
409.534	455.19
409.912	456.32
410.29	445.47
410.667	437.33
411.045	464.9
411.422	463.77
411.8	475.98
412.178	458.35
412.555	480.04
412.933	446.82
413.31	487.73
413.687	482.3
414.065	482.3
414.442	474.85
414.819	498.57
415.197	480.72
415.574	495.18
415.951	484.34
416.328	498.57
416.705	494.05
417.082	500.83
417.46	507.61
417.837	481.4
418.214	514.85
418.591	536.77
418.967	538.12
419.344	519.82
419.721	529.08
420.098	505.58
420.475	538.12
420.852	544.22
421.228	535.41
421.605	561.4
421.982	578.12
422.358	570.21
422.735	560.27
423.111	550.55
423.488	578.8
423.864	548.74
424.241	560.27
424.617	586.93
424.994	598.23
425.37	579.25
425.746	585.8
426.123	581.74
426.499	593.04
426.875	607.27
427.251	615.41
427.627	615.18
428.003	623.77
428.379	634.62
428.756	628.06
429.132	620.83
429.507	652.24
429.883	644.79
430.259	635.52
430.635	648.18
431.011	634.84
431.387	665.8
431.763	665.8
432.138	676.87
432.514	671
432.89	689.3
433.265	672.36
433.641	716.87
434.016	731.56
434.392	700.83
434.767	723.88
435.143	726.59
435.518	737.89
435.894	731.79
436.269	736.99
436.644	753.71
437.02	795.74
437.395	759.13
437.77	769.75
438.145	784.22
438.52	803.43
438.895	791.45
439.271	791.9
439.646	803.2
440.021	840.26
440.395	837.55
440.77	839.58
441.145	842.52
441.52	847.94
441.895	839.58
442.27	859.92
442.645	855.63
443.019	869.86
443.394	862.41
443.769	882.29
444.143	879.36
444.518	886.36
444.892	883.2
445.267	889.75
445.641	916.64
446.016	919.13
446.39	916.87
446.764	920.71
447.139	927.49
447.513	945.12
447.887	941.27
448.262	939.69
448.636	947.38
449.01	947.6
449.384	973.14
449.758	957.32
450.132	977.21
450.506	985.57
450.88	982.18
451.254	992.57
451.628	1012.23
452.002	1023.76
452.376	1037.77
452.75	1048.62
453.123	1056.3
453.497	1061.72
453.871	1064.89
454.244	1074.6
454.618	1104.66
454.992	1105.56
455.365	1108.05
455.739	1127.48
456.112	1156.86
456.486	1143.98
456.859	1182.85
457.232	1204.09
457.606	1178.33
457.979	1205
458.352	1244.09
458.725	1226.92
459.099	1256.97
459.472	1269.63
459.845	1277.76
460.218	1298.55
460.591	1298.1
460.964	1313.24
461.337	1317.08
461.71	1364.54
462.083	1356.41
462.456	1390.08
462.829	1384.88
463.201	1409.74
463.574	1415.61
463.947	1431.66
464.32	1481.37
464.692	1502.16
465.065	1513.46
465.438	1535.16
465.81	1559.34
466.183	1598.21
466.555	1622.39
466.928	1625.1
467.3	1626.68
467.672	1687.47
468.045	1729.5
468.417	1751.42
468.789	1715.27
469.161	1771.08
469.534	1801.14
469.906	1856.73
470.278	1889.95
470.65	1893.11
471.022	1922.27
471.394	1996.39
471.766	2030.06
472.138	2053.56
472.51	2105.54
472.882	2133.11
473.253	2149.6
473.625	2222.37
473.997	2286.78
474.369	2287.68
474.74	2341.24
475.112	2425.53
475.484	2479.09
475.855	2552.76
476.227	2571.29
476.598	2680.21
476.97	2663.26
477.341	2773.77
477.713	2826.2
478.084	2889.02
478.455	3008.34
478.827	3058.73
479.198	3149.35
479.569	3180.31
479.94	3302.57
480.311	3355.67
480.682	3457.37
481.053	3547.99
481.424	3632.73
481.795	3734.42
482.166	3849.9
482.537	3909.33
482.908	4032.49
483.279	4102.1
483.65	4208.53
484.021	4338.47
484.391	4411.92
484.762	4495.76
485.133	4598.13
485.503	4704.11
485.874	4855.97
486.244	4958.8
486.615	5020.94
486.985	5141.39
487.356	5307.94
487.726	5433.81
488.097	5596.97
488.467	5630.87
488.837	5871.54
489.207	5955.61
489.578	6088.03
489.948	6216.39
490.318	6325.77
490.688	6445.08
491.058	6526.66
491.428	6730.73
491.798	6837.84
492.168	7012.75
492.538	7077.16
492.908	7243.93
493.278	7382.24
493.648	7491.61
494.017	7596.24
494.387	7716.46
494.757	7876.01
495.126	7973.86
495.496	8033.97
495.866	8220.18
496.235	8352.83
496.605	8484.58
496.974	8578.59
497.344	8699.26
497.713	8814.51
498.082	8829.65
498.452	8975.64
498.821	9109.87
499.19	9187.84
499.559	9271.23
499.928	9382.86
500.298	9549.41
500.667	9590.99
501.036	9660.59
501.405	9795.28
501.774	9821.72
502.143	9875.28
502.512	9954.82
502.88	10063.75
503.249	10074.14
503.618	10230.52
503.987	10291.54
504.356	10345.77
504.724	10492.44
505.093	10527.24
505.462	10627.8
505.83	10646.56
506.199	10759.32
506.567	10934.68
506.936	10992.54
507.304	11071.18
507.672	10956.6
508.041	11130.61
508.409	11154.11
508.777	11294.45
509.145	11316.14
509.514	11399.08
509.882	11406.54
510.25	11418.06
510.618	11575.8
510.986	11560.66
511.354	11702.35
511.722	11705.06
512.09	11888.56
512.458	11825.73
512.826	11948.44
513.193	11992.28
513.561	11950.02
513.929	11995.67
514.297	12039.74
514.664	12114.09
515.032	12165.39
515.4	12213.97
515.767	12217.36
516.135	12297.36
516.502	12139.62
516.869	12385.49
517.237	12345.27
517.604	12353.63
517.972	12376.68
518.339	12477.69
518.706	12477.92
519.073	12432.72
519.44	12539.39
519.808	12643.34
520.175	12566.73
520.542	12780.29
520.909	12658.48
521.276	12774.64
521.643	12793.84
522.009	12775.54
522.376	12788.42
522.743	12876.55
523.11	12984.35
523.477	13050.79
523.843	13015.99
524.21	13055.98
524.577	13112.71
524.943	13121.07
525.31	13049.66
525.676	13223.89
526.043	13097.34
526.409	13188.41
526.776	13306.37
527.142	13244.45
527.508	13219.37
527.874	13349.31
528.241	13297.11
528.607	13267.05
528.973	13376.2
529.339	13280.61
529.705	13382.3
530.071	13357.9
530.437	13335.53
530.803	13374.17
531.169	13380.04
531.535	13349.99
531.901	13294.85
532.267	13286.71
532.632	13313.6
532.998	13246.04
533.364	13330.78
533.73	13312.7
534.095	13322.42
534.461	13297.33
534.826	13326.03
535.192	13188.18
535.557	13198.13
535.923	13235.41
536.288	13224.34
536.653	13187.73
537.019	13150.67
537.384	13123.55
537.749	13162.65
538.114	13105.93
538.479	13022.76
538.845	13079.49
539.21	12988.19
539.575	13010.34
539.94	12876.78
540.305	13011.47
540.67	12838.36
541.034	12903.67
541.399	12832.94
541.764	12827.74
542.129	12724.24
542.494	12714.75
542.858	12695.99
543.223	12651.93
543.587	12719.5
543.952	12639.95
544.316	12571.48
544.681	12551.59
545.045	12539.61
545.41	12563.79
545.774	12492.16
546.138	12466.17
546.503	12381.2
546.867	12347.75
547.231	12330.35
547.595	12314.53
547.959	12249.45
548.324	12259.4
548.688	12182.56
549.052	12211.94
549.416	12143.47
549.779	12097.14
550.143	12066.63
550.507	12046.07
550.871	12095.33
551.235	12044.49
551.599	12035.67
551.962	11945.51
552.326	11930.59
552.689	11953.41
553.053	11857.82
553.417	11888.56
553.78	11865.28
554.143	11825.51
554.507	11812.63
554.87	11867.99
555.234	11849.91
555.597	11794.32
555.96	11762.23
556.323	11724.49
556.686	11801.33
557.05	11824.83
557.413	11728.79
557.776	11661.67
558.139	11653.76
558.502	11605.4
558.865	11725.85
559.228	11657.15
559.59	11658.06
559.953	11664.61
560.316	11695.12
560.679	11721.33
561.041	11716.36
561.404	11620.09
561.767	11685.17
562.129	11663.25
562.492	11763.36
562.854	11700.09
563.217	11675.23
563.579	11716.13
563.941	11668
564.304	11668.68
564.666	11761.78
565.028	11676.36
565.39	11697.6
565.753	11670.71
566.115	11784.83
566.477	11783.7
566.839	11757.49
567.201	11772.63
567.563	11745.51
567.925	11843.13
568.287	11745.28
568.648	11779.63
569.01	11828.22
569.372	11893.53
569.734	11859.63
570.095	11846.75
570.457	11821.21
570.819	11841.55
571.18	11835.45
571.542	11924.94
571.903	11886.75
572.265	11947.54
572.626	11987.09
572.987	11920.87
573.349	11987.54
573.71	11980.53
574.071	11948.22
574.432	11992.28
574.794	12088.33
575.155	11994.32
575.516	11971.95
575.877	12040.64
576.238	12053.3
576.599	12012.17
576.96	12079.74
577.32	12016.92
577.681	12048.55
578.042	12047.65
578.403	11966.75
578.763	12020.98
579.124	12129.46
579.485	12073.19
579.845	12090.13
580.206	12105.5
580.566	12067.31
580.927	12109.34
581.287	12121.55
581.648	11990.93
582.008	12061.43
582.368	12042.9
582.728	12097.14
583.089	12020.08
583.449	12010.14
583.809	11955.22
584.169	12044.71
584.529	11991.15
584.889	12100.3
585.249	11952.51
585.609	11855.79
585.969	11952.28
586.329	11865.51
586.688	11937.82
587.048	11954.09
587.408	11895.56
587.768	11848.78
588.127	11865.96
588.487	11963.58
588.846	11917.26
589.206	11873.87
589.565	11902.12
589.925	11872.29
590.284	11892.63
590.643	11902.57
591.003	11840.88
591.362	11843.59
591.721	11832.97
592.08	11890.59
592.44	11819.86
592.799	11859.18
593.158	11786.87
593.517	11757.71
593.876	11763.59
594.235	11772.18
594.593	11806.07
594.952	11786.87
595.311	11696.25
595.67	11765.62
596.029	11841.55
596.387	11821.44
596.746	11794.77
597.104	11732.4
597.463	11792.29
597.822	11819.18
598.18	11811.05
598.538	11723.59
598.897	11781.22
599.255	11729.69
599.613	11793.64
599.972	11721.78
600.33	11808.33
600.688	11688.79
601.046	11762.69
601.404	11768.56
601.762	11794.77
602.12	11773.98
602.478	11809.92
602.836	11767.66
603.194	11765.17
603.552	11756.36
603.91	11635.91
604.268	11760.2
604.625	11734.21
604.983	11763.59
605.341	11658.73
605.698	11738.5
606.056	11760.65
606.413	11758.39
606.771	11767.88
607.128	11734.44
607.485	11740.76
607.843	11726.53
608.2	11823.47
608.557	11850.14
608.914	11712.97
609.272	11805.4
609.629	11777.6
609.986	11815.34
610.343	11828.67
610.7	11876.35
611.057	11812.85
611.414	11802.91
611.771	11792.97
612.127	11828.45
612.484	11867.32
612.841	11925.84
613.198	11891.04
613.554	11825.06
613.911	11928.56
614.267	11962
614.624	11933.3
614.98	11939.18
615.337	11934.21
615.693	11952.51
616.05	11941.89
616.406	12038.61
616.762	11958.16
617.118	11901.21
617.475	11952.06
617.831	12013.07
618.187	11952.96
618.543	12102.11
618.899	12064.15
619.255	12071.6
619.611	12111.15
619.967	12070.47
620.323	12131.04
620.678	11987.99
621.034	12000.87
621.39	12102.11
621.746	12028.67
622.101	12163.8
622.457	12011.72
622.812	12055.11
623.168	12084.48
623.523	12098.5
623.879	12144.82
624.234	12036.35
624.589	12090.36
624.945	12067.08
625.3	12070.93
625.655	12006.29
626.01	12092.17
626.365	12008.78
626.72	11969.91
627.075	12116.12
627.43	12100.98
627.785	12051.72
628.14	12003.13
628.495	12019.85
628.85	12063.02
629.205	11970.82
629.559	12084.71
629.914	12030.25
630.269	11987.09
630.623	11933.08
630.978	11877.03
631.332	11948.22
631.687	12041.1
632.041	11908.22
632.396	11938.27
632.75	11837.94
633.104	11954.32
633.459	11799.07
633.813	11835.45
634.167	11795.23
634.521	11861.67
634.875	11904.83
635.229	11899.4
635.583	11781.89
635.937	11819.86
636.291	11751.39
636.645	11780.54
636.999	11725.62
637.352	11761.78
637.706	11770.37
638.06	11785.51
638.413	11754.55
638.767	11642.24
639.121	11691.95
639.474	11590.26
639.828	11635.46
640.181	11623.25
640.534	11628.9
640.888	11526.08
641.241	11533.76
641.594	11546.19
641.947	11577.15
642.301	11588.23
642.654	11555.23
643.007	11533.54
643.36	11611.28
643.713	11525.18
644.066	11599.53
644.419	11485.4
644.771	11435.01
645.124	11355.24
645.477	11251.96
645.83	11199.08
646.182	11217.84
646.535	11159.76
646.888	11269.82
647.24	11130.39
647.593	11215.13
647.945	11242.7
648.298	11184.17
648.65	11137.84
649.002	11055.13
649.355	11149.14
649.707	11138.29
650.059	11157.05
650.411	11352.07
650.763	11378.51
651.115	11454.67
651.467	11353.66
651.819	11379.19
652.171	11360.89
652.523	11323.83
652.875	11345.52
653.227	11302.13
653.578	11441.56
653.93	11358.4
654.282	11289.7
654.633	11380.32
654.985	11335.58
655.337	11356.82
655.688	11405.41
656.039	11359.31
656.391	11292.87
656.742	11319.98
657.094	11343.26
657.445	11385.52
657.796	11292.19
658.147	11308.69
658.498	11365.41
658.849	11380.32
659.2	11423.26
659.551	11391.62
659.902	11533.54
660.253	11381
660.604	11407.89
660.955	11383.71
661.306	11472.98
661.656	11408.34
662.007	11478.4
662.358	11425.07
662.708	11482.92
663.059	11453.99
663.409	11341.45
663.76	11420.1
664.11	11493.31
664.461	11457.38
664.811	11394.33
665.161	11408.57
665.511	11428.23
665.862	11406.08
666.212	11419.64
666.562	11474.56
666.912	11402.02
667.262	11449.7
667.612	11417.61
667.962	11464.39
668.312	11420.77
668.662	11429.59
669.011	11415.58
669.361	11413.09
669.711	11369.02
670.06	11417.16
670.41	11388.68
670.76	11327.22
671.109	11499.87
671.459	11381.9
671.808	11334.45
672.157	11422.81
672.507	11414.9
672.856	11301.68
673.205	11303.94
673.554	11357.95
673.904	11313.88
674.253	11389.36
674.602	11315.47
674.951	11118.63
675.3	11126.54
675.649	11357.95
675.998	11292.41
676.346	11216.26
676.695	11330.83
677.044	11152.76
677.393	11245.86
677.741	11270.49
678.09	11165.86
678.438	11116.83
678.787	11099.88
679.135	11146.43
679.484	11110.72
679.832	11142.14
680.181	11088.13
680.529	11153.89
680.877	11069.14
681.225	11009.03
681.573	11062.36
681.922	11005.42
682.27	10987.34
682.618	11005.42
682.966	10966.32
683.314	10972.88
683.661	10947.79
684.009	10961.35
684.357	10849.04
684.705	10896.49
685.053	10871.41
685.4	10825.76
685.748	10802.94
686.095	10830.28
686.443	10757.06
686.79	10745.08
687.138	10704.18
687.485	10774.69
687.832	10618.53
688.18	10723.62
688.527	10567.24
688.874	10583.73
689.221	10512.55
689.568	10510.51
689.915	10519.55
690.262	10458.09
690.609	10436.62
690.956	10335.15
691.303	10381.93
691.65	10316.62
691.997	10373.57
692.344	10288.83
692.69	10261.48
693.037	10202.05
693.383	10195.95
693.73	10202.27
694.077	10111.43
694.423	10013.35
694.769	9996.18
695.116	10041.83
695.462	10063.52
695.808	10052.67
696.155	9982.17
696.501	9889.06
696.847	9891.77
697.193	9787.6
697.539	9795.05
697.885	9776.75
698.231	9734.72
698.577	9761.16
698.923	9691.33
699.269	9618.56
699.614	9586.7
699.96	9596.19
700.306	9541.5
700.651	9563.87
700.997	9449.98
701.342	9421.28
701.688	9416.08
702.033	9337.66
702.379	9351.68
702.724	9343.09
703.069	9289.76
703.415	9117.56
703.76	9175.86
704.105	9187.16
704.45	9157.78
704.795	9132.25
705.14	9115.3
705.485	9046.37
705.83	9065.58
706.175	9047.5
706.52	8984.23
706.865	8925.02
707.209	8917.34
707.554	8899.03
707.899	8911.23
708.243	8827.17
708.588	8809.09
708.932	8757.34
709.277	8764.57
709.621	8821.75
709.966	8729.77
710.31	8790.11
710.654	8622.65
710.998	8664.24
711.342	8671.47
711.687	8607.29
712.031	8614.97
712.375	8628.3
712.719	8577.91
713.063	8548.31
713.407	8588.53
713.75	8519.15
714.094	8494.07
714.438	8449.55
714.782	8499.72
715.125	8420.4
715.469	8494.52
715.812	8503.56
716.156	8348.76
716.499	8384.69
716.843	8459.72
717.186	8342.44
717.53	8386.73
717.873	8394.19
718.216	8345.83
718.559	8360.97
718.902	8222.89
719.246	8282.32
719.589	8229.44
719.932	8275.77
720.275	8201.87
720.617	8221.08
720.96	8190.58
721.303	8170.69
721.646	8193.74
721.989	8167.75
722.331	8180.18
722.674	8134.08
723.016	8128.88
723.359	8165.49
723.701	8103.57
724.044	8097.02
724.386	8085.72
724.729	8211.37
725.071	8081.88
725.413	8135.89
725.755	8101.31
726.097	7999.39
726.439	7994.42
726.782	8058.83
727.124	8077.58
727.465	8083.46
727.807	8046.85
728.149	8062.9
728.491	8063.35
728.833	8066.74
729.175	8022.22
729.516	8036.23
729.858	8001.2
730.199	7969.56
730.541	8001.2
730.882	8044.36
731.224	8059.28
731.565	8024.48
731.906	7986.06
732.248	8040.3
732.589	7970.24
732.93	7951.03
733.271	8006.85
733.612	7968.89
733.953	7993.07
734.294	7975.44
734.635	7987.64
734.976	8040.98
735.317	7944.03
735.658	7957.14
735.999	7938.15
736.339	7986.74
736.68	7975.44
737.021	8005.72
737.361	7971.82
737.702	8035.78
738.042	7931.37
738.383	8000.98
738.723	8027.19
739.063	7998.26
739.404	8081.2
739.744	8054.99
740.084	7981.77
740.424	8067.41
740.764	8045.95
741.104	8101.54
741.444	8130.46
741.784	8070.58
742.124	8150.12
742.464	8117.81
742.804	8172.72
743.143	8136.57
743.483	8131.59
743.823	8141.54
744.162	8204.36
744.502	8269.44
744.841	8263.34
745.181	8325.94
745.52	8330.91
745.86	8336.79
746.199	8379.95
746.538	8465.37
746.877	8511.7
747.216	8508.08
747.556	8545.14
747.895	8648.64
748.234	8713.5
748.573	8707.62
748.911	8814.97
749.25	8794.18
749.589	8802.76
749.928	8916.43
750.267	9111.23
750.605	9051.12
750.944	9104.68
751.283	9171.34
751.621	9272.58
751.96	9311.9
752.298	9469.86
752.636	9588.96
752.975	9676.19
753.313	9740.14
753.651	9830.53
753.989	9874.37
754.327	10036.4
754.666	10150.52
755.004	10204.31
755.342	10432.32
755.679	10531.98
756.017	10585.31
756.355	10769.49
756.693	10906.66
757.031	10989.82
757.368	11169.25
757.706	11216.71
758.044	11392.53
758.381	11545.29
758.719	11732.18
759.056	11876.81
