Data from hue_34_FLMS001491_00003.txt Node
Date: Tue Feb 07 17:25:07 GMT 2017
User: dcchb
Spectrometer: FLMS00149
Trigger mode: 0
Integration Time (sec): 2.000000E-2
Scans to average: 10
Electric dark correction enabled: true
Nonlinearity correction enabled: false
Boxcar width: 0
XAxis mode: Wavelengths
Number of Pixels in Spectrum: 2048
>>>>>Begin Spectral Data<<<<<
341.393	-8.19
341.776	-8.19
342.16	-8.19
342.543	-58.81
342.927	-73.27
343.31	-72.14
343.693	-76.21
344.077	-61.07
344.46	-65.59
344.843	-52.26
345.226	-26.72
345.61	-29.43
345.993	-23.11
346.376	-5.71
346.759	1.75
347.142	21.19
347.525	21.64
347.908	51.69
348.291	81.98
348.674	128.08
349.057	105.93
349.44	136.66
349.823	147.74
350.206	168.98
350.588	186.83
350.971	221.63
351.354	225.25
351.737	251.91
352.119	236.77
352.502	243.33
352.884	266.15
353.267	281.74
353.65	305.25
354.032	306.15
354.414	317.22
354.797	323.55
355.179	334.17
355.562	332.36
355.944	333.04
356.326	337.56
356.709	338.01
357.091	338.01
357.473	348.18
357.855	349.54
358.238	319.48
358.62	375.07
359.002	349.99
359.384	352.48
359.766	344.79
360.148	336.43
360.53	343.44
360.912	342.76
361.294	330.78
361.676	352.02
362.057	335.08
362.439	331.69
362.821	335.3
363.203	350.67
363.584	332.36
363.966	318.58
364.348	333.72
364.729	330.78
365.111	328.97
365.493	317
365.874	324.45
366.256	311.8
366.637	338.69
367.019	324.45
367.4	329.2
367.781	317
368.163	316.55
368.544	312.48
368.925	326.04
369.306	332.59
369.688	322.65
370.069	320.16
370.45	305.7
370.831	310.22
371.212	331.01
371.593	314.06
371.974	330.33
372.355	336.43
372.736	311.8
373.117	324.91
373.498	312.93
373.879	311.12
374.26	318.81
374.641	307.96
375.021	326.04
375.402	330.56
375.783	298.69
376.163	321.97
376.544	343.44
376.925	336.43
377.305	330.56
377.686	329.43
378.066	335.3
378.447	333.27
378.827	342.53
379.208	343.89
379.588	318.81
379.968	331.69
380.349	342.53
380.729	326.49
381.109	342.76
381.489	347.28
381.87	331.91
382.25	359.71
382.63	351.57
383.01	346.38
383.39	342.31
383.77	330.56
384.15	361.52
384.53	354.96
384.91	357
385.29	366.04
385.67	341.86
386.049	353.15
386.429	352.93
386.809	348.18
387.189	356.77
387.568	370.33
387.948	365.81
388.328	348.18
388.707	345.02
389.087	381.63
389.466	368.3
389.846	354.74
390.225	368.97
390.605	348.41
390.984	368.3
391.363	363.1
391.743	352.02
392.122	354.28
392.501	397.67
392.881	392.48
393.26	378.69
393.639	372.14
394.018	363.55
394.397	377.33
394.776	406.49
395.155	387.5
395.534	378.01
395.913	382.31
396.292	378.01
396.671	364.45
397.05	380.72
397.429	392.02
397.808	395.41
398.186	384.11
398.565	396.54
398.944	389.31
399.323	394.28
399.701	397.45
400.08	386.15
400.458	405.13
400.837	390.89
401.215	399.03
401.594	401.06
401.972	394.51
402.351	434.51
402.729	425.02
403.107	407.39
403.486	418.24
403.864	404.45
404.242	391.8
404.62	427.28
404.999	437.67
405.377	434.28
405.755	411.01
406.133	422.98
406.511	410.78
406.889	451.68
407.267	433.38
407.645	445.13
408.023	444
408.401	464.79
408.779	428.18
409.156	450.1
409.534	445.13
409.912	463.43
410.29	451.68
410.667	458.24
411.045	463.89
411.422	465.47
411.8	457.56
412.178	477.67
412.555	468.63
412.933	481.51
413.31	471.8
413.687	474.28
414.065	509.08
414.442	496.2
414.819	480.61
415.197	500.5
415.574	503.66
415.951	482.42
416.328	490.55
416.705	493.94
417.082	507.95
417.46	525.58
417.837	491.68
418.214	528.97
418.591	509.31
418.967	508.63
419.344	522.19
419.721	519.7
420.098	511.57
420.475	530.1
420.852	507.73
421.228	571.91
421.605	543.43
421.982	554.96
422.358	542.53
422.735	544.34
423.111	530.78
423.488	551.57
423.864	550.44
424.241	561.51
424.617	564.22
424.994	578.46
425.37	569.42
425.746	571.68
426.123	583.21
426.499	576.2
426.875	586.82
427.251	610.1
427.627	594.96
428.003	607.61
428.379	611.9
428.756	606.48
429.132	635.86
429.507	609.19
429.883	628.63
430.259	629.08
430.635	621.62
431.011	641.51
431.387	652.58
431.763	646.03
432.138	664.78
432.514	649.64
432.89	660.49
433.265	695.74
433.641	684.22
434.016	703.65
434.392	676.99
434.767	669.08
435.143	710.89
435.518	714.05
435.894	715.4
436.269	730.55
436.644	735.97
437.02	726.7
437.395	719.02
437.77	755.4
438.145	745.91
438.52	731.45
438.895	750.66
439.271	764.67
439.646	756.76
440.021	751.34
440.395	777.78
440.77	783.2
441.145	773.93
441.52	787.27
441.895	797.66
442.27	788.17
442.645	778.23
443.019	830.2
443.394	803.76
443.769	787.04
444.143	793.59
444.518	813.93
444.892	811.67
445.267	837.21
445.641	847.38
446.016	848.96
446.39	833.37
446.764	838.79
447.139	867.27
447.513	866.81
447.887	865.68
448.262	880.82
448.636	870.2
449.01	879.02
449.384	881.95
449.758	917.21
450.132	876.98
450.506	916.53
450.88	895.06
451.254	896.87
451.628	935.96
452.002	911.11
452.376	929.86
452.75	916.98
453.123	925.57
453.497	955.85
453.871	961.05
454.244	969.41
454.618	974.38
454.992	1009.86
455.365	998.79
455.739	1003.98
456.112	1006.02
456.486	1007.15
456.859	1016.41
457.232	1045.79
457.606	1048.96
457.979	1055.51
458.352	1082.85
458.725	1100.48
459.099	1102.51
459.472	1131.44
459.845	1126.02
460.218	1133.02
460.591	1134.6
460.964	1147.26
461.337	1161.72
461.71	1171.89
462.083	1195.39
462.456	1224.54
462.829	1215.5
463.201	1230.87
463.574	1225.45
463.947	1248.27
464.32	1282.17
464.692	1267.71
465.065	1293.02
465.438	1329.85
465.81	1344.99
466.183	1353.13
466.555	1367.37
466.928	1401.71
467.3	1398.1
467.672	1408.27
468.045	1437.19
468.417	1462.96
468.789	1444.2
469.161	1478.1
469.534	1514.03
469.906	1533.91
470.278	1570.52
470.65	1579.34
471.022	1639.22
471.394	1647.81
471.766	1646.68
472.138	1681.71
472.51	1725.55
472.882	1750.41
473.253	1782.27
473.625	1831.31
473.997	1841.48
474.369	1864.08
474.74	1897.07
475.112	1946.11
475.484	1955.6
475.855	2014.35
476.227	2021.59
476.598	2074.92
476.97	2135.48
477.341	2176.16
477.713	2210.28
478.084	2261.13
478.455	2319.88
478.827	2354.68
479.198	2422.7
479.569	2469.71
479.94	2532.98
480.311	2570.95
480.682	2626.54
481.053	2713.09
481.424	2778.18
481.795	2819.53
482.166	2892.07
482.537	2905.4
482.908	3024.04
483.279	3056.13
483.65	3156.47
484.021	3243.7
484.391	3313.08
484.762	3377.26
485.133	3408.44
485.503	3474.88
485.874	3579.96
486.244	3625.38
486.615	3750.58
486.985	3767.98
487.356	3871.48
487.726	3984.02
488.097	4064.47
488.467	4109.44
488.837	4270.34
489.207	4300.4
489.578	4386.27
489.948	4465.59
490.318	4599.82
490.688	4638.92
491.058	4747.84
491.428	4846.14
491.798	4962.52
492.168	5046.82
492.538	5060.6
492.908	5202.07
493.278	5227.38
493.648	5331.1
494.017	5418.11
494.387	5502.4
494.757	5538.1
495.126	5717.08
495.496	5773.8
495.866	5839.34
496.235	5880.24
496.605	5969.96
496.974	6050.86
497.344	6095.83
497.713	6204.53
498.082	6262.6
498.452	6336.95
498.821	6402.71
499.19	6456.27
499.559	6617.85
499.928	6655.36
500.298	6657.85
500.667	6762.7
501.036	6809.03
501.405	6913.66
501.774	6878.41
502.143	6973.09
502.512	7088.57
502.88	7077.05
503.249	7184.84
503.618	7326.3
503.987	7355.68
504.356	7393.42
504.724	7434.55
505.093	7539.41
505.462	7590.03
505.83	7593.64
506.199	7705.05
506.567	7777.37
506.936	7772.39
507.304	7929.23
507.672	7945.05
508.041	8060.97
508.409	8065.95
508.777	8220.74
509.145	8218.26
509.514	8211.03
509.882	8290.57
510.25	8388.2
510.618	8415.32
510.986	8481.53
511.354	8490.12
511.722	8615.08
512.09	8674.97
512.458	8706.16
512.826	8834.51
513.193	8823.67
513.561	8823.44
513.929	8935.98
514.297	8966.04
514.664	9060.5
515.032	9060.04
515.4	9187.72
515.767	9143.88
516.135	9250.32
516.502	9194.73
516.869	9341.84
517.237	9374.39
517.604	9418.23
517.972	9515.63
518.339	9530.77
518.706	9533.48
519.073	9648.96
519.44	9639.92
519.808	9777.09
520.175	9727.82
520.542	9813.24
520.909	9937.76
521.276	9858.44
521.643	10055.27
522.009	10130.75
522.376	10161.26
522.743	10167.81
523.11	10264.98
523.477	10340.91
523.843	10435.38
524.21	10601.47
524.577	10587.69
524.943	10580.23
525.31	10731.86
525.676	10690.74
526.043	10771.64
526.409	10816.16
526.776	10965.3
527.142	10987.9
527.508	11061.8
527.874	11195.81
528.241	11204.17
528.607	11149.03
528.973	11312.19
529.339	11397.84
529.705	11467.66
530.071	11484.16
530.437	11537.49
530.803	11636.93
531.169	11640.99
531.535	11690.03
531.901	11754.44
532.267	11817.94
532.632	11861.1
532.998	11838.73
533.364	12001.44
533.73	11991.72
534.095	12086.41
534.461	12137.03
534.826	12241.43
535.192	12292.05
535.557	12328.21
535.923	12427.87
536.288	12381.99
536.653	12477.58
537.019	12490.91
537.384	12541.99
537.749	12652.94
538.114	12702.43
538.479	12595.54
538.845	12728.65
539.21	12764.58
539.575	12787.86
539.94	12863.56
540.305	12987.62
540.67	12953.73
541.034	12998.47
541.399	13066.94
541.764	13167.28
542.129	13227.39
542.494	13240.95
542.858	13279.59
543.223	13329.08
543.587	13391.46
543.952	13404.79
544.316	13430.78
544.681	13507.84
545.045	13567.95
545.41	13682.07
545.774	13675.74
546.138	13750.77
546.503	13782.63
546.867	13818.34
547.231	13916.41
547.595	13880.71
547.959	13986.92
548.324	13999.58
548.688	14010.65
549.052	14101.27
549.416	14103.98
549.779	14142.85
550.143	14229.63
550.507	14352.79
550.871	14397.31
551.235	14355.95
551.599	14369.51
551.962	14477.98
552.326	14545.32
552.689	14715.49
553.053	14567.02
553.417	14586
553.78	14785.54
554.143	14706.45
554.507	14772.89
554.87	14911.64
555.234	14965.88
555.597	15014.01
555.96	14974.24
556.323	15058.76
556.686	15105.99
557.05	15191.63
557.413	15184.85
557.776	15263.72
558.139	15330.39
558.502	15317.51
558.865	15309.15
559.228	15485.19
559.59	15511.63
559.953	15614.9
560.316	15733.09
560.679	15702.13
561.041	15766.99
561.404	15841.11
561.767	15971.73
562.129	15873.42
562.492	16033.42
562.854	16127.2
563.217	16077.49
563.579	16146.86
563.941	16240.87
564.304	16273.41
564.666	16382.34
565.028	16417.36
565.39	16477.48
565.753	16550.24
566.115	16486.97
566.477	16591.15
566.839	16641.31
567.201	16852.38
567.563	16840.18
567.925	16903.45
568.287	16945.94
568.648	17006.95
569.01	17215.76
569.372	17170.34
569.734	17131.24
570.095	17338.24
570.457	17500.5
570.819	17408.53
571.18	17434.97
571.542	17552.25
571.903	17596.77
572.265	17695.75
572.626	17697.33
572.987	17792.47
573.349	17947.49
573.71	18044.67
574.071	18167.38
574.432	18172.57
574.794	18421.15
575.155	18422.51
575.516	18447.59
575.877	18570.98
576.238	18707.02
576.599	18834.02
576.96	18897.75
577.32	18951.31
577.681	19142.27
578.042	19328.02
578.403	19368.93
578.763	19396.95
579.124	19587
579.485	19752.64
579.845	19864.73
580.206	19984.28
580.566	20083.71
580.927	20273.99
581.287	20442.57
581.648	20580.19
582.008	20807.53
582.368	21009.33
582.728	21204.58
583.089	21287.52
583.449	21457.01
583.809	21670.33
584.169	21879.59
584.529	21976.09
584.889	22487.26
585.249	22412.46
585.609	22538.33
585.969	23010.19
586.329	23158.88
586.688	23312.78
587.048	23608.14
587.408	23735.14
587.768	23967
588.127	24254
588.487	24426.87
588.846	24735.11
589.206	24892.62
589.565	25201.09
589.925	25437.01
590.284	25632.94
590.643	26057.56
591.003	26140.05
591.362	26481.06
591.721	26716.98
592.08	26859.12
592.44	27201.94
592.799	27574.81
593.158	27688.03
593.517	27821.81
593.876	28251.18
594.235	28397.84
594.593	28631.51
594.952	28966.64
595.311	29110.36
595.67	29490.24
596.029	29724.59
596.387	30069.21
596.746	30332.25
597.104	30403.89
597.463	30768.63
597.822	30925.01
598.18	31170.88
598.538	31417.2
598.897	31741.48
599.255	31774.48
599.613	32320.22
599.972	32298.08
600.33	32745.52
600.688	32612.65
601.046	33150.94
601.404	33378.05
601.762	33414.66
602.12	33833.63
602.478	34102.1
602.836	34155.2
603.194	34192.49
603.552	34465.7
603.91	34476.1
604.268	34855.07
604.625	34926.71
604.983	35346.13
605.341	35292.12
605.698	35665.45
606.056	35943.18
606.413	36020.92
606.771	36267.46
607.128	36444.18
607.485	36551.98
607.843	36668.36
608.2	36998.29
608.557	37094.34
608.914	37298.62
609.272	37581.33
609.629	37766.63
609.986	37957.82
610.343	37938.61
610.7	38165.27
611.057	38316.9
611.414	38482.55
611.771	38620.62
612.127	38880.5
612.484	38995.3
612.841	39130.44
613.198	39219.48
613.554	39372.92
613.911	39581.95
614.267	39715.96
614.624	39644.32
614.98	39916.63
615.337	40138.32
615.693	40308.26
616.05	40249.96
616.406	40555.49
616.762	40507.8
617.118	40668.48
617.475	40737.4
617.831	40867.12
618.187	40961.58
618.543	40988.92
618.899	41346.65
619.255	41238.18
619.611	41268.91
619.967	41571.96
620.323	41743.03
620.678	41597.27
621.034	41699.86
621.39	41754.78
621.746	41702.12
622.101	42127.65
622.457	41999.74
622.812	42100.53
623.168	42268.21
623.523	42260.3
623.879	42393.86
624.234	42293.75
624.589	42442.22
624.945	42515.66
625.3	42687.18
625.655	42625.04
626.01	42756.79
626.365	42881.98
626.72	42634.53
627.075	42856.44
627.43	42837.24
627.785	42688.99
628.14	42776.45
628.495	42821.87
628.85	42889.44
629.205	42829.33
629.559	43056.21
629.914	42975.08
630.269	42939.15
630.623	42928.08
630.978	42799.04
631.332	43044.69
631.687	43218.47
632.041	42998.59
632.396	43139.15
632.75	42897.35
633.104	43116.55
633.459	43022.99
633.813	43030.68
634.167	42881.3
634.521	43013.73
634.875	42952.94
635.229	43011.47
635.583	42827.29
635.937	42852.38
636.291	42826.16
636.645	42973.28
636.999	42863.22
637.352	43042.88
637.706	42767.18
638.06	43048.08
638.413	42851.7
638.767	42858.93
639.121	42933.05
639.474	42775.32
639.828	42831.36
640.181	42842.88
640.534	42995.88
640.888	42714.98
641.241	42577.13
641.594	42658.03
641.947	42757.69
642.301	42523.12
642.654	42620.07
643.007	42576.68
643.36	42516.34
643.713	42454.42
644.066	42649.9
644.419	42404.48
644.771	42283.35
645.124	41912.51
645.477	41771.27
645.83	41592.3
646.182	41366.31
646.535	41341
646.888	41375.58
647.24	41205.87
647.593	41425.52
647.945	41327.22
648.298	41120.9
648.65	41185.75
649.002	41105.98
649.355	41267.56
649.707	41283.38
650.059	41424.39
650.411	41828.67
650.763	41874.1
651.115	42205.16
651.467	42105.5
651.819	42158.61
652.171	41950.03
652.523	41980.31
652.875	42037.71
653.227	41754.55
653.578	42130.14
653.93	42081.55
654.282	41870.71
654.633	41651.73
654.985	41936.24
655.337	41969.69
655.688	41705.29
656.039	41975.56
656.391	41678.85
656.742	41661.22
657.094	41889.46
657.445	41907.77
657.796	41841.56
658.147	41841.56
658.498	41705.29
658.849	41776.92
659.2	41724.95
659.551	41625.97
659.902	41648.57
660.253	41717.49
660.604	41781.44
660.955	41586.65
661.306	41819.41
661.656	41609.92
662.007	41634.33
662.358	41651.73
662.708	41686.53
663.059	41737.38
663.409	41291.97
663.76	41817.83
664.11	41533.77
664.461	41716.36
664.811	41622.35
665.161	41725.85
665.511	41503.71
665.862	41411.06
666.212	41629.36
666.562	41663.25
666.912	41418.74
667.262	41523.37
667.612	41449.02
667.962	41491.28
668.312	41463.94
668.662	41690.37
669.011	41535.57
669.361	41431.62
669.711	41452.86
670.06	41413.77
670.41	41432.98
670.76	41270.95
671.109	41395.69
671.459	41406.76
671.808	41179.88
672.157	41376.71
672.507	41241.34
672.856	41243.38
673.205	41369.25
673.554	41290.61
673.904	41117.05
674.253	41323.38
674.602	41340.55
674.951	40694.01
675.3	40394.14
675.649	41264.4
675.998	41093.1
676.346	41178.3
676.695	41249.71
677.044	40912.31
677.393	41023.05
677.741	41096.26
678.09	40936.95
678.438	40739.66
678.787	40971.3
679.135	40974.01
679.484	40669.16
679.832	40884.52
680.181	40562.27
680.529	40815.59
680.877	40482.95
681.225	40716.84
681.573	40885.2
681.922	40454.02
682.27	40423.29
682.618	40512.55
682.966	40433
683.314	40507.35
683.661	40338.09
684.009	40061.04
684.357	40093.8
684.705	40062.84
685.053	40108.27
685.4	40119.11
685.748	39947.37
686.095	39881.61
686.443	39771.55
686.79	39644.32
687.138	39778.11
687.485	39832.79
687.832	39584.67
688.18	39628.96
688.527	39282.98
688.874	39404.78
689.221	39323.43
689.568	39151.68
689.915	39183.55
690.262	39118.01
690.609	38932.25
690.956	38888.19
691.303	38827.17
691.65	38675.76
691.997	38574.52
692.344	38524.35
692.69	38526.84
693.037	38450.23
693.383	38128.66
693.73	38244.36
694.077	37914.65
694.423	38003.92
694.769	37739.74
695.116	37751.27
695.462	37830.14
695.808	37555.34
696.155	37755.33
696.501	37409.81
696.847	37408
697.193	37146.99
697.539	37380.66
697.885	37132.53
698.231	37007.78
698.577	37095.92
698.923	36963.49
699.269	36800.78
699.614	36727.79
699.96	36712.42
700.306	36684.63
700.651	36389.27
700.997	36236.28
701.342	36089.62
701.688	36231.53
702.033	36062.05
702.379	35953.35
702.724	35934.37
703.069	36059.56
703.415	35575.28
703.76	35673.36
704.105	35569.4
704.45	35436.07
704.795	35335.74
705.14	35222.07
705.485	35199.47
705.83	35140.49
706.175	35133.71
706.52	35022.98
706.865	34937.1
707.209	34977.1
707.554	34668.86
707.899	34848.97
708.243	34651.46
708.588	34614.17
708.932	34389.55
709.277	34290.34
709.621	34381.86
709.966	34177.12
710.31	34218.7
710.654	33973.74
710.998	34273.39
711.342	34056
711.687	33773.52
712.031	33655.78
712.375	33611.94
712.719	33710.24
713.063	33599.06
713.407	33698.27
713.75	33373.08
714.094	33507.76
714.438	33390.93
714.782	33386.18
715.125	33213.99
715.469	33167.66
715.812	32953.65
716.156	32863.94
716.499	32956.37
716.843	32984.16
717.186	32784.84
717.53	32968.79
717.873	32915.69
718.216	32819.65
718.559	32670.5
718.902	32350.05
719.246	32490.61
719.589	32394.12
719.932	32325.87
720.275	32424.63
720.617	32334.46
720.96	32167.91
721.303	32171.98
721.646	32196.39
721.989	31919.78
722.331	32026.9
722.674	32102.38
723.016	32029.16
723.359	31901.25
723.701	31855.83
724.044	31751.43
724.386	31706.23
724.729	31748.49
725.071	31506.46
725.413	31576.06
725.755	31667.59
726.097	31376.07
726.439	31236.18
726.782	31285.22
727.124	31479.34
727.465	31312.11
727.807	31366.12
728.149	31292.45
728.491	31185.11
728.833	31239.12
729.175	31075.74
729.516	30985.57
729.858	30912.8
730.199	31053.82
730.541	30819.7
730.882	30773.15
731.224	30995.74
731.565	30707.84
731.906	30783.77
732.248	30692.47
732.589	30535.86
732.93	30487.05
733.271	30651.11
733.612	30477.79
733.953	30633.49
734.294	30307.17
734.635	30361.63
734.976	30465.36
735.317	30281.86
735.658	30196.21
735.999	30213.61
736.339	30156.66
736.68	30268.98
737.021	30005.93
737.361	29963.22
737.702	30138.81
738.042	29987.18
738.383	29886.84
738.723	29824.7
739.063	29741.08
739.404	29835.54
739.744	29705.15
740.084	29593.29
740.424	29685.04
740.764	29547.64
741.104	29718.48
741.444	29544.25
741.784	29353.97
742.124	29538.38
742.464	29540.64
742.804	29391.04
743.143	29315.56
743.483	29324.14
743.823	29073.3
744.162	29271.26
744.502	29199.63
744.841	29206.18
745.181	29156.01
745.52	29038.28
745.86	29225.16
746.199	29067.43
746.538	29007.09
746.877	29078.5
747.216	29103.81
747.556	28977.94
747.895	28885.74
748.234	28733.2
748.573	28693.65
748.911	28676.25
749.25	28625.63
749.589	28430.83
749.928	28553.54
750.267	28629.02
750.605	28466.31
750.944	28424.28
751.283	28279.65
751.621	28443.72
751.96	28175.93
752.298	28242.14
752.636	28302.7
752.975	28006.66
753.313	28016.16
753.651	28181.12
753.989	27913.56
754.327	27820.68
754.666	27819.78
755.004	27848.7
755.342	27759.67
755.679	27820
756.017	27626.11
756.355	27779.1
756.693	27506.34
757.031	27550.86
757.368	27388.15
