Data from hue_26_FLMS001491_00061.txt Node
Date: Tue Feb 07 17:14:20 GMT 2017
User: dcchb
Spectrometer: FLMS00149
Trigger mode: 0
Integration Time (sec): 2.000000E-2
Scans to average: 10
Electric dark correction enabled: true
Nonlinearity correction enabled: false
Boxcar width: 0
XAxis mode: Wavelengths
Number of Pixels in Spectrum: 2048
>>>>>Begin Spectral Data<<<<<
341.393	-21.37
341.776	-21.37
342.16	-21.37
342.543	-79.67
342.927	-46.68
343.31	-70.86
343.693	-60.92
344.077	-62.95
344.46	-84.87
344.843	-64.53
345.226	-29.73
345.61	-14.14
345.993	0.55
346.376	-0.58
346.759	-8.26
347.142	36.26
347.525	47.56
347.908	59.98
348.291	75.58
348.674	86.2
349.057	90.72
349.44	118.51
349.823	142.24
350.206	168.68
350.588	201.45
350.971	216.59
351.354	247.55
351.737	237.61
352.119	261.56
352.502	257.27
352.884	256.82
353.267	287.55
353.65	276.02
354.032	292.29
354.414	304.72
354.797	318.96
355.179	328.23
355.562	324.16
355.944	341.11
356.326	322.35
356.709	335.91
357.091	331.62
357.473	359.41
357.855	342.24
358.238	337.72
358.62	345.17
359.002	372.74
359.384	332.97
359.766	351.05
360.148	343.59
360.53	351.5
360.912	359.19
361.294	345.63
361.676	337.49
362.057	357.38
362.439	347.89
362.821	330.03
363.203	327.77
363.584	325.29
363.966	337.72
364.348	322.35
364.729	313.31
365.111	340.88
365.493	329.13
365.874	327.32
366.256	325.97
366.637	333.88
367.019	332.97
367.4	312.18
367.781	321.67
368.163	302.46
368.544	308.57
368.925	317.83
369.306	332.29
369.688	335.68
370.069	329.13
370.45	319.19
370.831	329.13
371.212	301.33
371.593	312.63
371.974	331.84
372.355	332.29
372.736	328.68
373.117	323.48
373.498	336.81
373.879	325.06
374.26	331.39
374.641	332.75
375.021	333.42
375.402	350.6
375.783	355.12
376.163	363.93
376.544	345.17
376.925	337.27
377.305	325.74
377.686	344.04
378.066	342.69
378.447	358.51
378.827	340.43
379.208	349.69
379.588	328.9
379.968	344.27
380.349	348.56
380.729	351.5
381.109	365.51
381.489	378.62
381.87	341.33
382.25	351.73
382.63	351.5
383.01	344.95
383.39	364.61
383.77	363.25
384.15	360.09
384.53	362.8
384.91	352.63
385.29	380.43
385.67	366.42
386.049	370.03
386.429	373.42
386.809	365.96
387.189	371.61
387.568	367.77
387.948	375.46
388.328	398.51
388.707	363.71
389.087	388.79
389.466	382.01
389.846	374.1
390.225	371.39
390.605	376.36
390.984	381.56
391.363	381.56
391.743	395.79
392.122	400.09
392.501	387.66
392.881	408.68
393.26	393.99
393.639	401.44
394.018	379.75
394.397	392.18
394.776	388.56
395.155	408.22
395.534	409.81
395.913	410.26
396.292	393.31
396.671	408.45
397.05	413.65
397.429	393.08
397.808	406.19
398.186	435.34
398.565	410.71
398.944	404.38
399.323	440.09
399.701	423.82
400.08	415.91
400.458	424.49
400.837	431.5
401.215	414.78
401.594	446.41
401.972	430.14
402.351	448
402.729	466.08
403.107	431.5
403.486	452.97
403.864	447.54
404.242	456.13
404.62	425.85
404.999	452.06
405.377	475.79
405.755	456.81
406.133	465.62
406.511	447.54
406.889	472.85
407.267	474.66
407.645	480.31
408.023	481.44
408.401	487.54
408.779	483.02
409.156	495.91
409.534	473.08
409.912	478.5
410.29	506.3
410.667	495.23
411.045	503.81
411.422	486.41
411.8	525.28
412.178	518.5
412.555	527.77
412.933	513.08
413.31	534.32
413.687	565.73
414.065	549.91
414.442	535.68
414.819	537.26
415.197	547.2
415.574	546.53
415.951	562.12
416.328	574.55
416.705	566.19
417.082	551.95
417.46	555.11
417.837	565.51
418.214	586.75
418.591	567.77
418.967	553.3
419.344	581.78
419.721	601.21
420.098	582.91
420.475	598.73
420.852	599.18
421.228	610.25
421.605	603.02
421.982	601.21
422.358	613.19
422.735	614.77
423.111	622.46
423.488	636.01
423.864	619.74
424.241	643.25
424.617	641.66
424.994	628.56
425.37	653.42
425.746	656.8
426.123	663.36
426.499	676.69
426.875	649.57
427.251	684.37
427.627	668.1
428.003	667.2
428.379	670.14
428.756	708.1
429.132	713.53
429.507	704.94
429.883	703.13
430.259	707.2
430.635	707.2
431.011	739.06
431.387	733.64
431.763	767.31
432.138	765.73
432.514	741.32
432.89	755.11
433.265	757.37
433.641	781.77
434.016	778.16
434.392	767.99
434.767	802.11
435.143	812.73
435.518	812.05
435.894	814.54
436.269	833.07
436.644	827.42
437.02	836.46
437.395	852.28
437.77	833.07
438.145	855.67
438.52	864.71
438.895	879.62
439.271	872.62
439.646	902.9
440.021	907.19
440.395	895.89
440.77	884.14
441.145	909.91
441.52	916.91
441.895	886.18
442.27	924.82
442.645	902.9
443.019	936.12
443.394	921.88
443.769	962.56
444.143	949
444.518	979.06
444.892	974.99
445.267	956.23
445.641	952.62
446.016	981.99
446.39	959.85
446.764	962.56
447.139	1005.72
447.513	999.17
447.887	1021.31
448.262	1026.96
448.636	1011.37
449.01	1025.83
449.384	1033.29
449.758	1050.69
450.132	1051.6
450.506	1078.94
450.88	1063.12
451.254	1057.47
451.628	1074.19
452.002	1093.4
452.376	1074.65
452.75	1101.76
453.123	1101.31
453.497	1154.42
453.871	1160.97
454.244	1154.64
454.618	1146.28
454.992	1164.81
455.365	1161.42
455.739	1178.37
456.112	1211.37
456.486	1222.21
456.859	1215.43
457.232	1223.57
457.606	1233.06
457.979	1255.21
458.352	1271.48
458.725	1278.71
459.099	1280.74
459.472	1318.03
459.845	1331.82
460.218	1340.63
460.591	1365.94
460.964	1356
461.337	1400.51
461.71	1402.32
462.083	1438.25
462.456	1441.87
462.829	1431.93
463.201	1451.59
463.574	1452.72
463.947	1457.69
464.32	1517.8
464.692	1529.32
465.065	1533.62
465.438	1538.59
465.81	1563
466.183	1567.06
466.555	1611.81
466.928	1682.31
467.3	1640.96
467.672	1650.68
468.045	1693.39
468.417	1725.93
468.789	1729.77
469.161	1754.4
469.534	1759.83
469.906	1784.68
470.278	1817
470.65	1856.1
471.022	1881.86
471.394	1905.81
471.766	1912.82
472.138	1937.22
472.51	2011.12
472.882	2034.17
473.253	2025.36
473.625	2084.56
473.997	2110.55
474.369	2132.02
474.74	2144.22
475.112	2204.33
475.484	2212.24
475.855	2287.5
476.227	2300.38
476.598	2378.34
476.97	2367.49
477.341	2432.58
477.713	2489.98
478.084	2533.14
478.455	2574.27
478.827	2634.15
479.198	2688.39
479.569	2719.8
479.94	2773.59
480.311	2816.52
480.682	2840.7
481.053	2894.71
481.424	3000.25
481.795	3017.19
482.166	3116.4
482.537	3121.82
482.908	3169.28
483.279	3222.84
483.65	3316.4
484.021	3375.38
484.391	3442.95
484.762	3463.74
485.133	3517.29
485.503	3538.76
485.874	3666.9
486.244	3722.71
486.615	3765.65
486.985	3824.18
487.356	3888.58
487.726	3916.38
488.097	4038.64
488.467	4076.15
488.837	4131.74
489.207	4155.02
489.578	4286.31
489.948	4298.52
490.318	4370.38
490.688	4425.75
491.058	4472.98
491.428	4581.9
491.798	4624.38
492.168	4753.42
492.538	4779.63
492.908	4837.03
493.278	4902.57
493.648	4864.6
494.017	4958.84
494.387	5024.37
494.757	5087.87
495.126	5165.16
495.496	5155.67
495.866	5184.37
496.235	5255.78
496.605	5346.85
496.974	5317.25
497.344	5390.92
497.713	5388.88
498.082	5463.91
498.452	5521.99
498.821	5597.92
499.19	5624.36
499.559	5698.48
499.928	5697.8
500.298	5754.3
500.667	5801.75
501.036	5817.12
501.405	5849.89
501.774	5859.38
502.143	5945.03
502.512	6001.07
502.88	5994.97
503.249	6044.46
503.618	6077.91
503.987	6127.17
504.356	6161.52
504.724	6220.05
505.093	6257.56
505.462	6229.54
505.83	6289.65
506.199	6327.39
506.567	6386.82
506.936	6382.53
507.304	6487.16
507.672	6524.45
508.041	6519.25
508.409	6662.3
508.777	6657.32
509.145	6660.26
509.514	6658.23
509.882	6723.76
510.25	6760.6
510.618	6800.6
510.986	6798.11
511.354	6828.85
511.722	6921.95
512.09	6983.64
512.458	6960.82
512.826	7050.99
513.193	7084.88
513.561	7093.92
513.929	7107.71
514.297	7147.26
514.664	7212.11
515.032	7232.68
515.4	7301.38
515.767	7319
516.135	7362.84
516.502	7345.22
516.869	7374.82
517.237	7462.95
517.604	7438.1
517.972	7524.87
518.339	7498.66
518.706	7554.7
519.073	7621.82
519.44	7624.76
519.808	7686
520.175	7593.35
520.542	7737.3
520.909	7744.75
521.276	7775.26
521.643	7865.88
522.009	7950.85
522.376	7991.75
522.743	8038.98
523.11	8072.43
523.477	8133.22
523.843	8147.91
524.21	8263.38
524.577	8343.83
524.943	8397.84
525.31	8330.5
525.676	8484.62
526.043	8489.82
526.409	8559.42
526.776	8605.52
527.142	8567.33
527.508	8648.46
527.874	8676.25
528.241	8789.02
528.607	8752.41
528.973	8864.05
529.339	8866.98
529.705	8920.77
530.071	9007.32
530.437	9084.15
530.803	9078.28
531.169	9083.7
531.535	9198.05
531.901	9221.1
532.267	9238.95
532.632	9344.94
532.998	9357.59
533.364	9358.27
533.73	9486.63
534.095	9511.04
534.461	9551.26
534.826	9567.98
535.192	9560.75
535.557	9638.26
535.923	9588.32
536.288	9689.11
536.653	9750.35
537.019	9780.41
537.384	9819.73
537.749	9816.56
538.114	9865.15
538.479	9925.04
538.845	10000.06
539.21	9977.24
539.575	10025.6
539.94	10087.97
540.305	10142.43
540.67	10119.15
541.034	10197.8
541.399	10235.31
541.764	10196.67
542.129	10309.66
542.494	10332.93
542.858	10393.05
543.223	10408.86
543.587	10475.98
543.952	10452.71
544.316	10512.82
544.681	10534.96
545.045	10685.92
545.41	10692.25
545.774	10701.51
546.138	10679.82
546.503	10794.39
546.867	10805.69
547.231	10855.86
547.595	10909.42
547.959	10926.14
548.324	10997.1
548.688	11026.7
549.052	11033.93
549.416	11124.55
549.779	11184.21
550.143	11095.63
550.507	11233.7
550.871	11293.14
551.235	11239.35
551.599	11364.55
551.962	11322.74
552.326	11440.25
552.689	11483.41
553.053	11437.09
553.417	11505.33
553.78	11674.59
554.143	11525.45
554.507	11648.15
554.87	11628.49
555.234	11728.38
555.597	11830.07
555.96	11817.42
556.323	11815.16
556.686	11818.32
557.05	11874.81
557.413	11988.94
557.776	12009.95
558.139	12102.15
558.502	12087.24
558.865	12153
559.228	12157.07
559.59	12164.98
559.953	12188.48
560.316	12355.71
560.679	12365.88
561.041	12369.04
561.404	12488.81
561.767	12520.9
562.129	12546.89
562.492	12604.51
562.854	12585.08
563.217	12515.02
563.579	12654.46
563.941	12730.16
564.304	12797.5
564.666	12903.26
565.028	12842.7
565.39	12930.61
565.753	13028
566.115	13076.37
566.477	13109.13
566.839	13185.06
567.201	13270.48
567.563	13202.01
567.925	13365.85
568.287	13365.85
568.648	13416.47
569.01	13479.29
569.372	13522.23
569.734	13538.27
570.095	13576.92
570.457	13719.06
570.819	13759.74
571.18	13806.97
571.542	13905.95
571.903	13886.74
572.265	13931.48
572.626	13965.61
572.987	14016.91
573.349	14175.32
573.71	14196.79
574.071	14244.7
574.432	14312.94
574.794	14491.24
575.155	14526.5
575.516	14491.24
575.877	14679.03
576.238	14732.37
576.599	14800.39
576.96	14897.33
577.32	15010.33
577.681	15084.67
578.042	15187.95
578.403	15266.82
578.763	15358.34
579.124	15481.73
579.485	15603.98
579.845	15742.96
580.206	15893.24
580.566	15974.37
580.927	16132.1
581.287	16297.75
581.648	16300.46
582.008	16594.01
582.368	16650.73
582.728	16902.03
583.089	17008.69
583.449	17173.66
583.809	17487.77
584.169	17608
584.529	17697.71
584.889	18034.43
585.249	18096.35
585.609	18355.77
585.969	18683.45
586.329	18836.89
586.688	19103.55
587.048	19225.36
587.408	19570.66
587.768	19822.85
588.127	19963.64
588.487	20284.99
588.846	20687.92
589.206	20739.89
589.565	21050.17
589.925	21502.81
590.284	21727.89
590.643	21940.76
591.003	22301.21
591.362	22759.73
591.721	22922.43
592.08	23248.75
592.44	23686.48
592.799	23977.55
593.158	24240.59
593.517	24513.35
593.876	24903.4
594.235	25166.67
594.593	25453.21
594.952	25857.5
595.311	26055.68
595.67	26490.93
596.029	27048.65
596.387	27259.27
596.746	27773.83
597.104	27854.51
597.463	28196.87
597.822	28696.75
598.18	28915.5
598.538	29139.45
598.897	29589.6
599.255	29743.5
599.613	30485.62
599.972	30547.32
600.33	30969.91
600.688	31179.62
601.046	31518.14
601.404	32036.09
601.762	32322.64
602.12	32792.01
602.478	32978.89
602.836	33290.07
603.194	33426.11
603.552	33779.1
603.91	34035.14
604.268	34555.57
604.625	34618.62
604.983	34963.7
605.341	35180.42
605.698	35675.09
606.056	35974.52
606.413	36282.31
606.771	36590.1
607.128	36990.31
607.485	36806.14
607.843	37327.93
608.2	37690.63
608.557	37920.23
608.914	38266.66
609.272	38442.93
609.629	38784.16
609.986	39104.38
610.343	39258.73
610.7	39599.28
611.057	39778.04
611.414	39930.57
611.771	40006.5
612.127	40527.39
612.484	40677.22
612.841	41020.26
613.198	41095.29
613.554	41248.05
613.911	41644.43
614.267	41772.56
614.624	41809.4
614.98	42175.49
615.337	42600.11
615.693	42574.57
616.05	42614.8
616.406	43093.2
616.762	43076.48
617.118	43220.43
617.475	43299.53
617.831	43578.39
618.187	43841.21
618.543	43883.01
618.899	44202.55
619.255	44242.33
619.611	44429.21
619.967	44599.6
620.323	44801.18
620.678	44604.12
621.034	44881.4
621.39	44920.05
621.746	44995.07
622.101	45511.44
622.457	45261.73
622.812	45496.3
623.168	45632.8
623.523	45835.73
623.879	45887.71
624.234	45731.78
624.589	45994.6
624.945	45993.01
625.3	46173.57
625.655	46188.94
626.01	46305.55
626.365	46475.26
626.72	46475.26
627.075	46466.9
627.43	46520.23
627.785	46626.9
628.14	46741.24
628.495	46689.49
628.85	46797.29
629.205	46686.78
629.559	46905.98
629.914	46764.07
630.269	46984.17
630.623	46986.43
630.978	46776.04
631.332	47008.13
631.687	47158.63
632.041	46974.68
632.396	47097.39
632.75	47028.92
633.104	47167.45
633.459	47028.47
633.813	47157.5
634.167	47029.6
634.521	47144.85
634.875	47255.81
635.229	47069.37
635.583	46940.56
635.937	47096.26
636.291	46994.34
636.645	47129.26
636.999	46973.1
637.352	47167.67
637.706	46886.78
638.06	47170.84
638.413	47174.9
638.767	47035.47
639.121	47145.53
639.474	46800.22
639.828	46919.77
640.181	46971.75
640.534	47104.85
640.888	46993.89
641.241	46811.3
641.594	46864.63
641.947	46942.59
642.301	46898.98
642.654	46983.04
643.007	46910.05
643.36	46936.27
643.713	46743.28
644.066	47097.17
644.419	46712.77
644.771	46472.78
645.124	46070.98
645.477	46060.58
645.83	45943.52
646.182	45835.73
646.535	45527.04
646.888	45683.87
647.24	45607.94
647.593	45697.43
647.945	45694.49
648.298	45477.77
648.65	45361.17
649.002	45463.76
649.355	45545.79
649.707	45524.55
650.059	45668.5
650.411	46183.29
650.763	46077.53
651.115	46666.67
651.467	46462.38
651.819	46449.95
652.171	46450.18
652.523	46321.82
652.875	46184.42
653.227	46127.25
653.578	46391.65
653.93	46466.9
654.282	46134.25
654.633	46136.96
654.985	46161.15
655.337	46173.8
655.688	46171.31
656.039	46408.82
656.391	45989.4
656.742	46103.07
657.094	46131.09
657.445	46317.75
657.796	46238.88
658.147	46117.53
658.498	46119.79
658.849	46232.78
659.2	46147.81
659.551	45906.24
659.902	46146.68
660.253	45976.29
660.604	46025.33
660.955	45929.96
661.306	46175.38
661.656	45976.74
662.007	45990.08
662.358	45883.41
662.708	46050.19
663.059	45968.83
663.409	45771.1
663.76	46061.71
664.11	45921.6
664.461	46035.05
664.811	45961.15
665.161	45946.24
665.511	45816.07
665.862	45873.24
666.212	45899.46
666.562	46027.14
666.912	45947.82
667.262	45831.89
667.612	45809.74
667.962	45842.28
668.312	45777.2
668.662	46104.42
669.011	45890.19
669.361	45948.5
669.711	45767.94
670.06	45784.66
670.41	45733.81
670.76	45644.1
671.109	45912.34
671.459	45715.28
671.808	45722.06
672.157	45786.47
672.507	45557.55
672.856	45603.19
673.205	45518.22
673.554	45698.11
673.904	45522.74
674.253	45799.12
674.602	45560.93
674.951	45055.86
675.3	44803.89
675.649	45381.73
675.998	45324.56
676.346	45339.92
676.695	45565.91
677.044	45231.45
677.393	45284.11
677.741	45404.33
678.09	45219.25
678.438	45212.92
678.787	45214.05
679.135	45259.02
679.484	45073.94
679.832	45227.16
680.181	44935.41
680.529	45025.36
680.877	44986.26
681.225	44917.34
681.573	45239.59
681.922	44894.96
682.27	44653.16
682.618	44766.83
682.966	44692.71
683.314	44822.2
683.661	44687.51
684.009	44485.26
684.357	44410.46
684.705	44308.99
685.053	44286.62
685.4	44287.52
685.748	44033.74
686.095	44094.98
686.443	43871.49
686.79	43824.48
687.138	43945.84
687.485	44026.06
687.832	43649.57
688.18	43795.33
688.527	43546.07
688.874	43551.5
689.221	43429.92
689.568	43452.06
689.915	43265.63
690.262	43281.67
690.609	43058.63
690.956	43156.48
691.303	43089.81
691.65	42797.17
691.997	42854.57
692.344	42594.01
692.69	42510.85
693.037	42613.22
693.383	42219.55
693.73	42469.94
694.077	42250.06
694.423	42184.3
694.769	42005.32
695.116	41917.64
695.462	41941.14
695.808	41746.8
696.155	41993.12
696.501	41660.02
696.847	41626.8
697.193	41393.36
697.539	41388.62
697.885	41135.74
698.231	40965.12
698.577	41139.58
698.923	40974.61
699.269	40835.41
699.614	40696.88
699.96	40503.44
700.306	40534.4
700.651	40263.9
700.997	40250.57
701.342	40319.72
701.688	40213.96
702.033	39990.46
702.379	40034.3
702.724	39879.95
703.069	40039.27
703.415	39593.18
703.76	39687.19
704.105	39543.92
704.45	39470.02
704.795	39120.88
705.14	39139.18
705.485	39026.19
705.83	38873.88
706.175	39044.5
706.52	38770.38
706.865	38744.39
707.209	38816.03
707.554	38566.09
707.899	38622.36
708.243	38478.18
708.588	38475.7
708.932	38137.85
709.277	38338.75
709.621	38129.94
709.966	37861.48
710.31	37977.41
710.654	37745.55
710.998	37721.14
711.342	37677.98
711.687	37623.06
712.031	37513.01
712.375	37335.61
712.719	37386.01
713.063	37293.13
713.407	37439.34
713.75	37197.54
714.094	37232.57
714.438	36978.34
714.782	37094.49
715.125	36815.85
715.469	36899.92
715.812	36689.08
716.156	36435.3
716.499	36647.27
716.843	36523.21
717.186	36359.82
717.53	36538.57
717.873	36527.73
718.216	36328.41
718.559	36256.55
718.902	36138.13
719.246	36079.15
719.589	36079.83
719.932	35961.87
720.275	35927.97
720.617	35865.14
720.96	35764.81
721.303	35713.96
721.646	35765.03
721.989	35475.78
722.331	35662.89
722.674	35480.75
723.016	35392.84
723.359	35444.14
723.701	35494.31
724.044	35307.65
724.386	35037.82
724.729	35276.01
725.071	35232.84
725.413	34974.55
725.755	35118.05
726.097	34953.76
726.439	34929.35
726.782	34736.59
727.124	34917.15
727.465	34728.23
727.807	34731.16
728.149	34585.4
728.491	34563.71
728.833	34563.48
729.175	34492.98
729.516	34337.95
729.858	34403.71
730.199	34468.8
730.541	34241.68
730.882	34206.66
731.224	34349.93
731.565	34144.06
731.906	34170.5
732.248	34170.95
732.589	33976.83
732.93	33804.41
733.271	33887.34
733.612	33956.49
733.953	33855.93
734.294	33640.34
734.635	33608.71
734.976	33709.5
735.317	33454.13
735.658	33524.19
735.999	33471.31
736.339	33493.46
736.68	33664.98
737.021	33397.41
737.361	33196.74
737.702	33379.33
738.042	33370.97
738.383	33205.55
738.723	33288.72
739.063	33127.36
739.404	33290.97
739.744	33151.77
740.084	32909.52
740.424	32950.64
740.764	32949.06
741.104	32998.1
741.444	32761.27
741.784	32757.88
742.124	32834.72
742.464	32778.45
742.804	32646.02
743.143	32441.28
743.483	32581.39
743.823	32389.76
744.162	32276.99
744.502	32506.14
744.841	32311.34
745.181	32395.63
745.52	32261.62
745.86	32246.26
746.199	32256.2
746.538	32202.19
746.877	32174.62
747.216	31993.38
747.556	31927.85
747.895	32047.17
748.234	31865.7
748.573	31930.11
748.911	31818.02
749.25	31909.77
749.589	31640.62
749.928	31869.09
750.267	31769.43
750.605	31561.98
750.944	31719.04
751.283	31471.36
751.621	31570.12
751.96	31368.54
752.298	31382.55
752.636	31413.74
752.975	31192.5
753.313	31164.93
753.651	31381.65
753.989	31086.06
754.327	30990.24
754.666	30898.5
755.004	30902.34
755.342	31059.62
755.679	30897.14
756.017	30660.08
756.355	30647.88
756.693	30605.17
757.031	30564.04
757.368	30385.74
757.706	30401.79
758.044	30382.12
