Data from hue_230_FLMS001491_00027.txt Node
Date: Tue Feb 07 16:37:00 GMT 2017
User: dcchb
Spectrometer: FLMS00149
Trigger mode: 0
Integration Time (sec): 2.000000E-2
Scans to average: 10
Electric dark correction enabled: true
Nonlinearity correction enabled: false
Boxcar width: 0
XAxis mode: Wavelengths
Number of Pixels in Spectrum: 2048
>>>>>Begin Spectral Data<<<<<
341.393	-0.51
341.776	-0.51
342.16	-0.51
342.543	-41.64
342.927	-53.16
343.31	-57.91
343.693	-65.14
344.077	-56.78
344.46	-65.14
344.843	-57.23
345.226	-47.06
345.61	-18.81
345.993	-21.75
346.376	-12.49
346.759	-12.49
347.142	21.19
347.525	51.69
347.908	81.75
348.291	69.32
348.674	88.98
349.057	101.86
349.44	116.32
349.823	154.74
350.206	179.15
350.588	177.79
350.971	196.1
351.354	209.88
351.737	228.41
352.119	251.24
352.502	267.06
352.884	249.43
353.267	288.07
353.65	297.56
354.032	280.84
354.414	284
354.797	297.56
355.179	320.39
355.562	319.48
355.944	314.06
356.326	322.42
356.709	346.83
357.091	322.42
357.473	342.76
357.855	321.29
358.238	332.36
358.62	333.04
359.002	344.34
359.384	346.83
359.766	334.85
360.148	317.68
360.53	336.21
360.912	340.05
361.294	342.31
361.676	338.69
362.057	346.83
362.439	336.88
362.821	329.43
363.203	320.84
363.584	335.53
363.966	330.56
364.348	338.69
364.729	322.42
365.111	324.23
365.493	312.03
365.874	321.29
366.256	337.34
366.637	305.92
367.019	320.61
367.4	316.32
367.781	291.46
368.163	312.7
368.544	312.7
368.925	306.6
369.306	326.49
369.688	317.45
370.069	319.26
370.45	317.22
370.831	333.04
371.212	301.18
371.593	312.93
371.974	313.61
372.355	318.35
372.736	318.35
373.117	323.55
373.498	315.87
373.879	300.05
374.26	316.09
374.641	329.88
375.021	301.18
375.402	307.51
375.783	312.93
376.163	310.44
376.544	320.16
376.925	319.94
377.305	325.58
377.686	343.66
378.066	335.53
378.447	320.39
378.827	315.19
379.208	329.65
379.588	328.52
379.968	341.86
380.349	338.47
380.729	348.41
381.109	330.33
381.489	327.17
381.87	345.02
382.25	335.98
382.63	327.84
383.01	366.04
383.39	334.17
383.77	331.23
384.15	324.23
384.53	362.65
384.91	352.93
385.29	340.95
385.67	345.02
386.049	351.57
386.429	343.21
386.809	326.04
387.189	350.22
387.568	349.76
387.948	361.52
388.328	369.65
388.707	333.27
389.087	360.16
389.466	385.24
389.846	366.49
390.225	355.87
390.605	354.96
390.984	355.87
391.363	362.19
391.743	388.63
392.122	390.22
392.501	368.97
392.881	388.18
393.26	396.77
393.639	355.64
394.018	375.98
394.397	365.58
394.776	383.66
395.155	375.07
395.534	385.47
395.913	403.77
396.292	408.29
396.671	414.4
397.05	373.94
397.429	397.67
397.808	389.76
398.186	406.03
398.565	392.48
398.944	389.54
399.323	426.82
399.701	402.64
400.08	404.68
400.458	414.4
400.837	410.33
401.215	407.16
401.594	411.01
401.972	428.18
402.351	420.27
402.729	418.46
403.107	442.42
403.486	428.86
403.864	406.71
404.242	430.89
404.62	459.82
404.999	408.97
405.377	432.47
405.755	444.9
406.133	440.38
406.511	440.16
406.889	465.24
407.267	475.19
407.645	459.59
408.023	450.33
408.401	483.32
408.779	467.05
409.156	481.74
409.534	491.46
409.912	481.06
410.29	503.21
410.667	507.05
411.045	522.64
411.422	508.63
411.8	546.82
412.178	534.62
412.555	519.93
412.933	550.66
413.31	527.39
413.687	578.23
414.065	566.26
414.442	572.81
414.819	574.39
415.197	603.77
415.574	592.02
415.951	600.61
416.328	573.49
416.705	595.63
417.082	614.84
417.46	644.67
417.837	611.45
418.214	640.38
418.591	616.2
418.967	629.76
419.344	614.16
419.721	654.84
420.098	662.98
420.475	663.2
420.852	701.85
421.228	675.86
421.605	705.91
421.982	712.24
422.358	708.4
422.735	759.92
423.111	718.79
423.488	732.13
423.864	766.25
424.241	773.26
424.617	792.69
424.994	784.56
425.37	775.74
425.746	807.38
426.123	815.29
426.499	808.28
426.875	829.75
427.251	851.67
427.627	850.54
428.003	849.86
428.379	881.05
428.756	896.42
429.132	906.13
429.507	894.16
429.883	929.86
430.259	912.46
430.635	917.89
431.011	906.81
431.387	954.27
431.763	961.95
432.138	959.47
432.514	975.96
432.89	999.24
433.265	1039.24
433.641	1017.54
434.016	1050.09
434.392	1066.58
434.767	1070.2
435.143	1100.25
435.518	1107.49
435.894	1126.47
436.269	1128.28
436.644	1149.29
437.02	1165.79
437.395	1182.06
437.77	1199.46
438.145	1233.36
438.52	1227.93
438.895	1247.59
439.271	1258.67
439.646	1270.64
440.021	1294.6
440.395	1322.17
440.77	1294.37
441.145	1346.12
441.52	1370.53
441.895	1344.99
442.27	1380.02
442.645	1375.95
443.019	1411.21
443.394	1416.86
443.769	1420.7
444.143	1420.25
444.518	1442.17
444.892	1450.98
445.267	1485.55
445.641	1495.5
446.016	1485.1
446.39	1491.66
446.764	1525.1
447.139	1507.02
447.513	1537.53
447.887	1519.68
448.262	1542.05
448.636	1515.61
449.01	1601.03
449.384	1594.93
449.758	1574.59
450.132	1609.84
450.506	1606.23
450.88	1620.24
451.254	1645.32
451.628	1656.62
452.002	1652.33
452.376	1667.24
452.75	1679.45
453.123	1683.06
453.497	1724.42
453.871	1750.86
454.244	1772.78
454.618	1778.65
454.992	1795.83
455.365	1797.64
455.739	1830.18
456.112	1889.61
456.486	1897.52
456.859	1888.03
457.232	1925.32
457.606	1931.64
457.979	1938.65
458.352	1986.56
458.725	2010.74
459.099	1995.82
459.472	2002.38
459.845	2052.54
460.218	2057.29
460.591	2097.29
460.964	2100.45
461.337	2127.8
461.71	2145.2
462.083	2198.3
462.456	2208.92
462.829	2184.29
463.201	2250.05
463.574	2231.75
463.947	2277.85
464.32	2324.18
464.692	2302.26
465.065	2344.74
465.438	2374.57
465.81	2398.3
466.183	2399.88
466.555	2461.12
466.928	2492.99
467.3	2455.25
467.672	2546.32
468.045	2610.27
468.417	2604.62
468.789	2621.8
469.161	2624.51
469.534	2675.58
469.906	2696.37
470.278	2749.02
470.65	2797.84
471.022	2796.93
471.394	2856.14
471.766	2867.44
472.138	2863.15
472.51	2942.24
472.882	2977.94
473.253	2982.46
473.625	3046.87
473.997	3112.4
474.369	3122.12
474.74	3183.81
475.112	3191.05
475.484	3234.89
475.855	3295.45
476.227	3367.76
476.598	3408.89
476.97	3425.39
477.341	3480.76
477.713	3549.68
478.084	3504.03
478.455	3671.94
478.827	3639.4
479.198	3767.3
479.569	3780.64
479.94	3795.55
480.311	3828.77
480.682	3873.06
481.053	4004.58
481.424	4079.84
481.795	4090.91
482.166	4085.03
482.537	4139.04
482.908	4227.63
483.279	4258.81
483.65	4354.41
484.021	4423.78
484.391	4485.7
484.762	4482.54
485.133	4511.24
485.503	4548.07
485.874	4657.67
486.244	4697.22
486.615	4728.86
486.985	4818.12
487.356	4916.65
487.726	4886.37
488.097	5013.37
488.467	5017.66
488.837	5130.88
489.207	5150.77
489.578	5202.29
489.948	5214.72
490.318	5305.11
490.688	5297.88
491.058	5391.21
491.428	5411.1
491.798	5501.04
492.168	5594.37
492.538	5604.77
492.908	5674.6
493.278	5674.14
493.648	5708.72
494.017	5811.09
494.387	5803.86
494.757	5856.06
495.126	5862.39
495.496	5885.21
495.866	5911.43
496.235	5959.11
496.605	6029.39
496.974	6045.43
497.344	6134.02
497.713	6085.89
498.082	6129.73
498.452	6212.89
498.821	6205.2
499.19	6220.57
499.559	6294.24
499.928	6252.66
500.298	6345.31
500.667	6338.99
501.036	6362.71
501.405	6421.7
501.774	6401.13
502.143	6488.81
502.512	6495.14
502.88	6509.6
503.249	6477.29
503.618	6531.3
503.987	6561.8
504.356	6529.04
504.724	6643.38
505.093	6626.89
505.462	6666.89
505.83	6668.24
506.199	6668.02
506.567	6797.73
506.936	6716.15
507.304	6838.63
507.672	6816.04
508.041	6836.83
508.409	6793.44
508.777	6803.38
509.145	6926.99
509.514	6918.18
509.882	6916.15
510.25	6950.27
510.618	7005.64
510.986	7007.67
511.354	7033.66
511.722	7108.01
512.09	7063.49
512.458	7023.71
512.826	7104.84
513.193	7141.45
513.561	7112.98
513.929	7134.22
514.297	7153.65
514.664	7241.56
515.032	7265.74
515.4	7261.45
515.767	7275.46
516.135	7268.9
516.502	7171.73
516.869	7292.86
517.237	7323.82
517.604	7244.95
517.972	7307.55
518.339	7307.55
518.706	7342.8
519.073	7303.03
519.44	7367.21
519.808	7397.94
520.175	7394.78
520.542	7490.82
520.909	7438.39
521.276	7403.36
521.643	7439.52
522.009	7458.28
522.376	7412.63
522.743	7572.85
523.11	7569.01
523.477	7602.23
523.843	7616.47
524.21	7658.95
524.577	7594.55
524.943	7659.63
525.31	7629.8
525.676	7673.41
526.043	7655.11
526.409	7705.5
526.776	7758.16
527.142	7733.53
527.508	7750.25
527.874	7818.95
528.241	7785.5
528.607	7768.55
528.973	7811.04
529.339	7779.63
529.705	7830.47
530.071	7842
530.437	7862.56
530.803	7869.12
531.169	7955.44
531.535	7846.29
531.901	7862.11
532.267	7817.14
532.632	7865.5
532.998	7863.47
533.364	7859.4
533.73	7882
534.095	7870.02
534.461	7833.64
534.826	7856.23
535.192	7899.62
535.557	7940.07
535.923	7924.03
536.288	7820.75
536.653	7853.52
537.019	7852.17
537.384	7851.49
537.749	7859.17
538.114	7805.61
538.479	7898.72
538.845	7867.08
539.21	7829.34
539.575	7757.03
539.94	7823.69
540.305	7830.25
540.67	7763.58
541.034	7814.43
541.399	7748.67
541.764	7759.97
542.129	7831.83
542.494	7716.8
542.858	7762
543.223	7723.36
543.587	7804.71
543.952	7699.63
544.316	7748.67
544.681	7693.07
545.045	7683.81
545.41	7738.95
545.774	7669.57
546.138	7694.2
546.503	7718.84
546.867	7628.9
547.231	7710.7
547.595	7679.97
547.959	7691.94
548.324	7718.61
548.688	7624.38
549.052	7649.23
549.416	7609.01
549.779	7590.7
550.143	7562.46
550.507	7615.79
550.871	7565.62
551.235	7601.1
551.599	7620.76
551.962	7588.44
552.326	7622.79
552.689	7597.48
553.053	7563.13
553.417	7576.47
553.78	7603.36
554.143	7534.21
554.507	7513.19
554.87	7558.16
555.234	7579.63
555.597	7531.95
555.96	7567.43
556.323	7580.08
556.686	7571.72
557.05	7524.04
557.413	7553.87
557.776	7592.74
558.139	7543.7
558.502	7595.22
558.865	7587.31
559.228	7589.12
559.59	7631.83
559.953	7644.71
560.316	7663.47
560.679	7640.65
561.041	7617.82
561.404	7675.9
561.767	7684.26
562.129	7687.88
562.492	7689.68
562.854	7692.4
563.217	7670.93
563.579	7728.33
563.941	7750.02
564.304	7799.96
564.666	7811.26
565.028	7876.35
565.39	7842.9
565.753	7845.39
566.115	7835.44
566.477	7863.47
566.839	7854.65
567.201	7888.78
567.563	7901.66
567.925	7959.96
568.287	7943.01
568.648	7946.63
569.01	7975.55
569.372	7985.04
569.734	8021.2
570.095	8048.09
570.457	8049.68
570.819	8046.74
571.18	8057.36
571.542	8131.03
571.903	8076.79
572.265	8153.18
572.626	8102.1
572.987	8146.4
573.349	8218.03
573.71	8204.25
574.071	8243.12
574.432	8202.89
574.794	8297.8
575.155	8307.97
575.516	8248.99
575.877	8345.49
576.238	8286.28
576.599	8296.9
576.96	8313.17
577.32	8368.99
577.681	8413.73
578.042	8414.86
578.403	8401.08
578.763	8380.97
579.124	8419.84
579.485	8444.47
579.845	8461.87
580.206	8453.96
580.566	8498.25
580.927	8502.77
581.287	8534.63
581.648	8502.77
582.008	8594.97
582.368	8553.16
582.728	8551.13
583.089	8553.62
583.449	8688.08
583.809	8650.79
584.169	8746.38
584.529	8645.59
584.889	8692.82
585.249	8688.53
585.609	8656.21
585.969	8660.51
586.329	8683.56
586.688	8743.89
587.048	8773.5
587.408	8705.7
587.768	8735.53
588.127	8686.04
588.487	8763.55
588.846	8855.08
589.206	8845.59
589.565	8781.18
589.925	8822.31
590.284	8754.52
590.643	8817.34
591.003	8822.08
591.362	8919.26
591.721	8820.28
592.08	8856.43
592.44	8874.29
592.799	8962.87
593.158	8879.71
593.517	8890.33
593.876	8902.99
594.235	8885.59
594.593	8937.56
594.952	8974.17
595.311	8906.83
595.67	8972.59
596.029	8991.12
596.387	8972.81
596.746	9011.01
597.104	9006.26
597.463	9006.26
597.822	9117.22
598.18	8985.24
598.538	9000.84
598.897	9010.55
599.255	8955.41
599.613	9090.55
599.972	8996.77
600.33	9076.54
600.688	9079.25
601.046	9159.25
601.404	9118.12
601.762	9060.72
602.12	9115.18
602.478	9124.9
602.836	9139.82
603.194	9093.49
603.552	9093.72
603.91	9091.91
604.268	9113.83
604.625	9094.85
604.983	9145.69
605.341	9061.85
605.698	9200.61
606.056	9205.8
606.413	9136.43
606.771	9192.47
607.128	9196.09
607.485	9175.52
607.843	9217.55
608.2	9262.98
608.557	9223.2
608.914	9220.72
609.272	9287.83
609.629	9246.71
609.986	9345.01
610.343	9258.46
610.7	9310.89
611.057	9299.59
611.414	9296.87
611.771	9277.44
612.127	9364.22
612.484	9331.9
612.841	9277.89
613.198	9335.74
613.554	9294.61
613.911	9391.79
614.267	9380.94
614.624	9344.33
614.98	9318.34
615.337	9403.31
615.693	9365.35
616.05	9365.57
616.406	9439.02
616.762	9336.2
617.118	9393.14
617.475	9413.93
617.831	9434.72
618.187	9408.96
618.543	9450.99
618.899	9518.56
619.255	9472.24
619.611	9392.24
619.967	9542.74
620.323	9489.64
620.678	9468.17
621.034	9467.72
621.39	9393.37
621.746	9430.66
622.101	9488.51
622.457	9377.32
622.812	9475.17
623.168	9514.04
623.523	9531.22
623.879	9508.17
624.234	9430.66
624.589	9374.84
624.945	9425.23
625.3	9473.82
625.655	9511.11
626.01	9531.44
626.365	9477.21
626.72	9485.12
627.075	9434.27
627.43	9535.06
627.785	9479.24
628.14	9533.48
628.495	9509.3
628.85	9540.94
629.205	9463.2
629.559	9437.89
629.914	9427.04
630.269	9456.64
630.623	9443.54
630.978	9445.34
631.332	9486.93
631.687	9389.98
632.041	9394.72
632.396	9400.37
632.75	9337.33
633.104	9449.41
633.459	9371.22
633.813	9359.25
634.167	9271.34
634.521	9312.02
634.875	9324.9
635.229	9326.25
635.583	9330.77
635.937	9283.09
636.291	9289.64
636.645	9315.63
636.999	9271.34
637.352	9288.29
637.706	9184.33
638.06	9195.86
638.413	9195.86
638.767	9182.3
639.121	9194.28
639.474	9139.36
639.828	9150.89
640.181	9147.5
640.534	9187.27
640.888	9130.1
641.241	9097.33
641.594	9041.74
641.947	9095.3
642.301	9089.87
642.654	9149.99
643.007	9105.92
643.36	9110.44
643.713	9021.4
644.066	9083.09
644.419	8993.83
644.771	9013.49
645.124	8919.48
645.477	8868.18
645.83	8851.24
646.182	8799.49
646.535	8746.61
646.888	8806.72
647.24	8731.47
647.593	8772.82
647.945	8755.19
648.298	8737.79
648.65	8677.68
649.002	8707.51
649.355	8781.63
649.707	8773.5
650.059	8781.86
650.411	8915.64
650.763	8860.95
651.115	8980.72
651.467	8903.89
651.819	8902.53
652.171	8895.08
652.523	8908.86
652.875	8936.21
653.227	8855.76
653.578	8934.85
653.93	8935.08
654.282	8864.34
654.633	8884.46
654.985	8863.67
655.337	8844.91
655.688	8903.66
656.039	8902.31
656.391	8842.87
656.742	8870.44
657.094	8824.57
657.445	8921.74
657.796	8947.28
658.147	8844.68
658.498	8857.34
658.849	8933.95
659.2	8908.18
659.551	8844
659.902	8938.69
660.253	8891.01
660.604	8859.15
660.955	8800.62
661.306	8856.43
661.656	8911.57
662.007	8888.75
662.358	8899.82
662.708	8942.53
663.059	8881.52
663.409	8839.71
663.76	8896.21
664.11	8948.18
664.461	8887.17
664.811	8865.7
665.161	8874.06
665.511	8833.61
665.862	8921.97
666.212	8936.88
666.562	8894.85
666.912	8866.83
667.262	8861.86
667.612	8931.91
667.962	8997.67
668.312	8903.44
668.662	8947.28
669.011	8923.32
669.361	8869.31
669.711	8887.85
670.06	8881.97
670.41	8818.02
670.76	8843.1
671.109	8856.21
671.459	8848.3
671.808	8824.34
672.157	8862.08
672.507	8853.27
672.856	8820.05
673.205	8799.94
673.554	8889.88
673.904	8806.04
674.253	8803.55
674.602	8735.53
674.951	8663.67
675.3	8595.88
675.649	8762.88
675.998	8726.49
676.346	8695.31
676.695	8820.28
677.044	8679.72
677.393	8708.19
677.741	8729.43
678.09	8695.08
678.438	8758.13
678.787	8681.75
679.135	8721.97
679.484	8691.01
679.832	8618.02
680.181	8612.6
680.529	8599.72
680.877	8627.74
681.225	8598.14
681.573	8589.1
681.922	8543.45
682.27	8557.68
682.618	8589.55
682.966	8534.18
683.314	8517.46
683.661	8547.52
684.009	8430.91
684.357	8434.98
684.705	8428.42
685.053	8453.73
685.4	8397.91
685.748	8365.37
686.095	8392.27
686.443	8369.67
686.79	8283.34
687.138	8271.59
687.485	8282.66
687.832	8274.53
688.18	8260.97
688.527	8157.7
688.874	8264.58
689.221	8254.42
689.568	8159.95
689.915	8150.46
690.262	8127.19
690.609	8087.64
690.956	8055.32
691.303	8015.55
691.65	8052.84
691.997	8093.97
692.344	7924.03
692.69	7978.26
693.037	7922.9
693.383	7913.18
693.73	7901.2
694.077	7943.46
694.423	7888.78
694.769	7798.61
695.116	7844.48
695.462	7830.92
695.808	7771.26
696.155	7815.56
696.501	7697.82
696.847	7703.47
697.193	7648.56
697.539	7641.55
697.885	7599.52
698.231	7631.38
698.577	7599.07
698.923	7539.18
699.269	7477.26
699.614	7455.79
699.96	7461.67
700.306	7427.09
700.651	7402.46
700.997	7338.51
701.342	7378.96
701.688	7331.5
702.033	7274.33
702.379	7313.2
702.724	7315.46
703.069	7290.15
703.415	7208.12
703.76	7254.89
704.105	7222.13
704.45	7142.81
704.795	7096.93
705.14	7097.84
705.485	7147.78
705.83	7083.15
706.175	7145.07
706.52	7033.2
706.865	7044.73
707.209	7003.6
707.554	6965.86
707.899	6981.91
708.243	6942.59
708.588	6923.38
708.932	6908.91
709.277	6870.27
709.621	6864.4
709.966	6850.61
710.31	6904.39
710.654	6792.53
710.998	6776.04
711.342	6766.77
711.687	6805.87
712.031	6705.08
712.375	6672.54
712.719	6719.31
713.063	6737.39
713.407	6749.37
713.75	6654.01
714.094	6652.2
714.438	6605.42
714.782	6699.43
715.125	6642.93
715.469	6642.93
715.812	6615.36
716.156	6525.87
716.499	6627.79
716.843	6496.95
717.186	6571.3
717.53	6549.38
717.873	6569.94
718.216	6581.01
718.559	6442.26
718.902	6528.36
719.246	6493.56
719.589	6481.13
719.932	6413.11
720.275	6401.36
720.617	6448.36
720.96	6508.7
721.303	6442.94
721.646	6447.01
721.989	6421.7
722.331	6408.59
722.674	6438.87
723.016	6416.95
723.359	6412.43
723.701	6378.53
724.044	6364.3
724.386	6337.4
724.729	6400
725.071	6366.1
725.413	6382.83
725.755	6379.66
726.097	6315.26
726.439	6318.87
726.782	6307.8
727.124	6380.34
727.465	6291.3
727.807	6354.13
728.149	6356.61
728.491	6294.24
728.833	6325.65
729.175	6242.49
729.516	6281.13
729.858	6273.68
730.199	6307.12
730.541	6304.18
730.882	6255.82
731.224	6291.53
731.565	6278.42
731.906	6267.8
732.248	6323.62
732.589	6285.43
732.93	6294.24
733.271	6324.75
733.612	6297.86
733.953	6248.59
734.294	6238.42
734.635	6204.53
734.976	6252.43
735.317	6161.36
735.658	6234.58
735.999	6267.12
736.339	6241.59
736.68	6297.41
737.021	6250.17
737.361	6205.88
737.702	6297.18
738.042	6239.33
738.383	6221.02
738.723	6220.12
739.063	6311.64
739.404	6315.03
739.744	6272.32
740.084	6240.46
740.424	6284.75
740.764	6302.83
741.104	6371.98
741.444	6292.21
741.784	6311.64
742.124	6320.46
742.464	6314.58
742.804	6370.17
743.143	6314.58
743.483	6391.41
743.823	6391.41
744.162	6430.96
744.502	6431.19
744.841	6414.24
745.181	6467.34
745.52	6458.53
745.86	6516.16
746.199	6546.89
746.538	6578.3
746.877	6571.52
747.216	6618.75
747.556	6583.95
747.895	6672.76
748.234	6710.05
748.573	6683.61
748.911	6728.13
749.25	6806.77
749.589	6777.62
749.928	6829.37
750.267	6949.59
750.605	6948.46
750.944	7042.92
751.283	7021.68
751.621	7122.69
751.96	7221
752.298	7230.71
752.636	7255.12
752.975	7337.38
753.313	7374.44
753.651	7489.92
753.989	7511.61
754.327	7603.13
754.666	7664.37
755.004	7774.88
755.342	7927.87
755.679	8005.16
756.017	8039.28
756.355	8178.03
756.693	8243.79
757.031	8326.96
757.368	8442.66
757.706	8471.13
758.044	8568.76
758.381	8727.17
758.719	8804.01
759.056	8945.47
759.394	9084
759.731	9120.83
760.068	9245.35
760.405	9312.02
760.743	9466.36
761.08	9570.99
761.417	9655.96
761.754	9791.32
762.091	9892.11
762.428	10031.09
762.765	10174.82
763.102	10320.12
763.438	10313.34
763.775	10431.53
764.112	10532.1
764.449	10713.56
764.785	10808.02
765.122	10944.74
765.458	11041.46
765.795	11071.52
766.131	11110.84
766.467	11302.47
766.804	11330.49
767.14	11421.56
767.476	11588.11
767.812	11697.94
768.148	11830.37
768.485	11823.59
768.821	11895.68
