Data from hue_36_FLMS001491_00038.txt Node
Date: Tue Feb 07 17:29:44 GMT 2017
User: dcchb
Spectrometer: FLMS00149
Trigger mode: 0
Integration Time (sec): 2.000000E-2
Scans to average: 10
Electric dark correction enabled: true
Nonlinearity correction enabled: false
Boxcar width: 0
XAxis mode: Wavelengths
Number of Pixels in Spectrum: 2048
>>>>>Begin Spectral Data<<<<<
341.393	-9.05
341.776	-9.05
342.16	-9.05
342.543	-46.11
342.927	-76.62
343.31	-73.91
343.693	-57.41
344.077	-63.97
344.46	-66
344.843	-50.18
345.226	-60.35
345.61	-27.58
345.993	-5.66
346.376	-11.31
346.759	10.16
347.142	43.6
347.525	29.14
347.908	74.11
348.291	68.23
348.674	92.19
349.057	98.97
349.44	121.11
349.823	139.42
350.206	162.92
350.588	210.38
350.971	207.21
351.354	222.13
351.737	242.92
352.119	247.44
352.502	255.57
352.884	286.08
353.267	275.01
353.65	288.11
354.032	317.94
354.414	346.64
354.797	313.2
355.179	334.89
355.562	323.37
355.944	343.48
356.326	333.54
356.709	344.38
357.091	353.87
357.473	339.19
357.855	352.29
358.238	344.38
358.62	340.32
359.002	358.85
359.384	357.26
359.766	351.39
360.148	356.36
360.53	328.34
360.912	352.74
361.294	334.89
361.676	339.19
362.057	348.23
362.439	332.18
362.821	320.88
363.203	344.84
363.584	318.62
363.966	341.67
364.348	314.33
364.729	324.27
365.111	343.93
365.493	323.37
365.874	308.23
366.256	311.39
366.637	319.75
367.019	327.21
367.4	328.11
367.781	322.69
368.163	325.4
368.544	314.55
368.925	325.63
369.306	342.8
369.688	306.87
370.069	320.2
370.45	309.36
370.831	327.89
371.212	343.48
371.593	338.06
371.974	318.85
372.355	322.92
372.736	327.21
373.117	311.84
373.498	327.89
373.879	324.27
374.26	316.81
374.641	317.04
375.021	329.24
375.402	327.43
375.783	319.75
376.163	352.97
376.544	326.98
376.925	322.46
377.305	312.75
377.686	324.5
378.066	339.64
378.447	327.89
378.827	338.73
379.208	324.95
379.588	319.98
379.968	332.18
380.349	340.54
380.729	316.36
381.109	332.41
381.489	324.5
381.87	341.9
382.25	344.84
382.63	354.1
383.01	343.25
383.39	346.42
383.77	337.15
384.15	353.65
384.53	337.15
384.91	355.91
385.29	351.39
385.67	375.8
386.049	341.22
386.429	369.47
386.809	348
387.189	344.84
387.568	349.81
387.948	384.61
388.328	362.01
388.707	356.59
389.087	367.21
389.466	364.72
389.846	358.39
390.225	355.68
390.605	382.35
390.984	371.05
391.363	363.59
391.743	374.67
392.122	359.75
392.501	378.51
392.881	357.04
393.26	378.73
393.639	393.87
394.018	363.37
394.397	347.1
394.776	384.83
395.155	363.37
395.534	381.22
395.913	378.73
396.292	387.09
396.671	383.03
397.05	391.61
397.429	367.89
397.808	387.09
398.186	377.6
398.565	376.93
398.944	406.53
399.323	384.83
399.701	380.09
400.08	399.3
400.458	394.33
400.837	400.2
401.215	407.43
401.594	398.85
401.972	410.14
402.351	379.86
402.729	407.43
403.107	411.05
403.486	420.99
403.864	406.75
404.242	406.75
404.62	409.01
404.999	416.02
405.377	416.25
405.755	440.2
406.133	423.7
406.511	425.96
406.889	413.76
407.267	431.84
407.645	435.91
408.023	429.58
408.401	427.77
408.779	416.47
409.156	435.23
409.534	426.42
409.912	444.95
410.29	449.01
410.667	432.74
411.045	435.45
411.422	444.49
411.8	428.68
412.178	428
412.555	454.21
412.933	431.61
413.31	450.14
413.687	483.81
414.065	466.64
414.442	474.32
414.819	463.25
415.197	480.88
415.574	477.49
415.951	481.1
416.328	479.75
416.705	493.76
417.082	476.13
417.46	485.4
417.837	497.83
418.214	494.21
418.591	479.97
418.967	512.29
419.344	501.44
419.721	496.02
420.098	502.8
420.475	510.25
420.852	509.35
421.228	514.77
421.605	511.84
421.982	525.17
422.358	497.15
422.735	519.29
423.111	513.42
423.488	514.32
423.864	534.89
424.241	535.57
424.617	524.27
424.994	541.67
425.37	525.4
425.746	536.92
426.123	536.69
426.499	539.86
426.875	555.68
427.251	576.02
427.627	576.47
428.003	548.67
428.379	566.52
428.756	569.01
429.132	549.12
429.507	583.02
429.883	574.43
430.259	591.38
430.635	596.35
431.011	587.09
431.387	595.45
431.763	615.79
432.138	596.58
432.514	598.61
432.89	613.08
433.265	614.88
433.641	625.05
434.016	612.63
434.392	640.2
434.767	654.66
435.143	643.58
435.518	634.32
435.894	663.25
436.269	656.24
436.644	659.18
437.02	648.56
437.395	642
437.77	661.21
438.145	702.57
438.52	695.11
438.895	713.19
439.271	680.42
439.646	674.09
440.021	694.43
440.395	718.84
440.77	713.87
441.145	696.24
441.52	715.45
441.895	727.2
442.27	710.25
442.645	721.55
443.019	734.43
443.394	724.03
443.769	731.49
444.143	721.1
444.518	726.07
444.892	717.03
445.267	747.99
445.641	748.44
446.016	756.58
446.39	760.19
446.764	761.1
447.139	779.4
447.513	759.06
447.887	757.93
448.262	780.08
448.636	789.34
449.01	795.22
449.384	773.07
449.758	773.3
450.132	795.9
450.506	786.63
450.88	807.65
451.254	823.69
451.628	811.72
452.002	815.56
452.376	818.04
452.75	822.56
453.123	835.9
453.497	853.3
453.871	841.55
454.244	848.78
454.618	877.93
454.992	858.04
455.365	879.06
455.739	903.46
456.112	888.78
456.486	883.13
456.859	928.1
457.232	923.8
457.606	932.39
457.979	939.62
458.352	941.88
458.725	962.9
459.099	953.86
459.472	999.28
459.845	1007.42
460.218	1010.13
460.591	990.24
460.964	1035.66
461.337	1025.72
461.71	1025.72
462.083	1042.9
462.456	1067.53
462.829	1030.02
463.201	1074.76
463.574	1085.38
463.947	1097.81
464.32	1110.69
464.692	1138.26
465.065	1147.53
465.438	1182.78
465.81	1172.61
466.183	1189.11
466.555	1195.21
466.928	1209.9
467.3	1223.91
467.672	1257.58
468.045	1268.65
468.417	1279.05
468.789	1257.13
469.161	1320.63
469.534	1360.4
469.906	1336.45
470.278	1357.46
470.65	1413.73
471.022	1451.7
471.394	1450.34
471.766	1458.48
472.138	1500.29
472.51	1548.87
472.882	1533.28
473.253	1580.28
473.625	1613.5
473.997	1643.11
474.369	1665.25
474.74	1696.66
475.112	1713.84
475.484	1765.14
475.855	1795.42
476.227	1848.3
476.598	1868.64
476.97	1930.56
477.341	1968.52
477.713	2037.67
478.084	2096.65
478.455	2136.43
478.827	2174.62
479.198	2237.44
479.569	2286.48
479.94	2358.57
480.311	2384.1
480.682	2449.41
481.053	2552.24
481.424	2580.48
481.795	2629.75
482.166	2685.34
482.537	2768.95
482.908	2830.87
483.279	2896.18
483.65	2984.54
484.021	3107.25
484.391	3142.5
484.762	3220.92
485.133	3304.08
485.503	3344.3
485.874	3493.45
486.244	3558.76
486.615	3621.59
486.985	3724.86
487.356	3810.96
487.726	3924.18
488.097	3990.62
488.467	4136.83
488.837	4218.63
489.207	4267.9
489.578	4372.75
489.948	4485.97
490.318	4572.97
490.688	4656.36
491.058	4768.9
491.428	4855
491.798	4941.55
492.168	5071.94
492.538	5145.39
492.908	5286.85
493.278	5434.42
493.648	5398.26
494.017	5558.94
494.387	5696.56
494.757	5723.23
495.126	5878.93
495.496	5920.96
495.866	6002.54
496.235	6102.2
496.605	6166.38
496.974	6282.76
497.344	6374.06
497.713	6421.74
498.082	6533.15
498.452	6616.54
498.821	6695.86
499.19	6784.21
499.559	6979.46
499.928	7006.58
500.298	7054.72
500.667	7156.41
501.036	7167.03
501.405	7273.69
501.774	7310.08
502.143	7468.94
502.512	7503.74
502.88	7565.21
503.249	7642.95
503.618	7781.48
503.987	7751.42
504.356	7890.63
504.724	7928.14
505.093	7989.15
505.462	8014.24
505.83	8163.61
506.199	8299.65
506.567	8363.61
506.936	8371.74
507.304	8475.7
507.672	8549.14
508.041	8662.81
508.409	8735.12
508.777	8798.4
509.145	8940.54
509.514	8870.71
509.882	8968.56
510.25	9025.96
510.618	9088.79
510.986	9157.71
511.354	9285.84
511.722	9333.53
512.09	9396.57
512.458	9440.42
512.826	9484.93
513.193	9576.01
513.561	9564.48
513.929	9661.88
514.297	9738.26
514.664	9811.93
515.032	9837.02
515.4	9990.68
515.767	9995.66
516.135	10084.47
516.502	10032.04
516.869	10134.41
517.237	10258.7
517.604	10194.75
517.972	10310.68
518.339	10395.87
518.706	10397.9
519.073	10495.53
519.44	10582.53
519.808	10643.32
520.175	10658.69
520.542	10738.91
520.909	10879.93
521.276	10846.93
521.643	10939.36
522.009	11008.51
522.376	11092.35
522.743	11163.08
523.11	11309.52
523.477	11333.47
523.843	11404.88
524.21	11533.69
524.577	11595.61
524.943	11617.99
525.31	11680.58
525.676	11868.83
526.043	11882.39
526.409	11921.48
526.776	12071.98
527.142	12125.54
527.508	12156.28
527.874	12264.75
528.241	12285.99
528.607	12377.29
528.973	12429.94
529.339	12471.52
529.705	12581.8
530.071	12696.6
530.437	12624.96
530.803	12810.72
531.169	12824.73
531.535	12895.47
531.901	12900.66
532.267	12977.5
532.632	13060.21
532.998	13099.3
533.364	13225.63
533.73	13197.38
534.095	13427.2
534.461	13460.65
534.826	13477.6
535.192	13455.23
535.557	13595.56
535.923	13610.02
536.288	13682.11
536.653	13733.18
537.019	13751.49
537.384	13847.31
537.749	13886.63
538.114	13907.64
538.479	13907.42
538.845	13963.01
539.21	14032.16
539.575	14126.62
539.94	14164.81
540.305	14308.54
540.67	14258.59
541.034	14317.35
541.399	14320.29
541.764	14542.88
542.129	14565.03
542.494	14535.87
542.858	14639.83
543.223	14581.07
543.587	14698.36
543.952	14732.03
544.316	14741.52
544.681	14884.57
545.045	14876.2
545.41	14924.34
545.774	14961.4
546.138	14968.18
546.503	15076.88
546.867	15141.96
547.231	15225.8
547.595	15279.36
547.959	15290.43
548.324	15399.81
548.688	15362.52
549.052	15371.33
549.416	15493.59
549.779	15496.3
550.143	15575.85
550.507	15715.05
550.871	15695.39
551.235	15749.63
551.599	15850.42
551.962	15847.03
552.326	15982.62
552.689	16037.76
553.053	15981.71
553.417	16004.08
553.78	16151.2
554.143	16093.12
554.507	16191.2
554.87	16314.59
555.234	16444.98
555.597	16350.52
555.96	16464.19
556.323	16508.7
556.686	16563.84
557.05	16688.13
557.413	16681.58
557.776	16745.08
558.139	16798.64
558.502	16893.78
558.865	17027.33
559.228	17013.78
559.59	17123.6
559.953	17096.03
560.316	17168.35
560.679	17223.49
561.041	17406.76
561.404	17491.5
561.767	17575.34
562.129	17500.09
562.492	17602.91
562.854	17765.39
563.217	17659.63
563.579	17783.02
563.941	17932.4
564.304	17981.21
564.666	18033.64
565.028	18098.49
565.39	18119.28
565.753	18286.28
566.115	18301.88
566.477	18338.49
566.839	18367.86
567.201	18531.7
567.563	18443.79
567.925	18573.73
568.287	18738.25
568.648	18739.15
569.01	18725.82
569.372	18978.24
569.734	18944.57
570.095	19087.85
570.457	19127.17
570.819	19295.3
571.18	19124.68
571.542	19309.31
571.903	19457.55
572.265	19474.28
572.626	19588.17
572.987	19662.29
573.349	19713.37
573.71	19795.4
574.071	19827.49
574.432	20018.22
574.794	20191.09
575.155	20214.6
575.516	20093.24
575.877	20347.47
576.238	20422.27
576.599	20524.64
576.96	20649.84
577.32	20828.14
577.681	20889.83
578.042	21041.47
578.403	21182.25
578.763	21239.43
579.124	21375.24
579.485	21596.03
579.845	21717.61
580.206	21810.03
580.566	21930.48
580.927	22127.54
581.287	22330.92
581.648	22398.04
582.008	22704.93
582.368	22765.04
582.728	22974.75
583.089	23153.73
583.449	23153.05
583.809	23503.77
584.169	23619.25
584.529	23627.84
584.889	24096.3
585.249	24134.27
585.609	24207.94
585.969	24559.34
586.329	24597.76
586.688	24913.23
587.048	24988.26
587.408	25249.94
587.768	25507.79
588.127	25680.89
588.487	25871.17
588.846	26202.01
589.206	26231.61
589.565	26394.77
589.925	26859.39
590.284	26919.05
590.643	27161.08
591.003	27542.99
591.362	27660.28
591.721	27922.42
592.08	28177.1
592.44	28405.11
592.799	28521.5
593.158	28732.34
593.517	28955.16
593.876	29249.39
594.235	29499.78
594.593	29620
594.952	29939.76
595.311	30009.37
595.67	30268.12
596.029	30697.48
596.387	30854.32
596.746	31137.92
597.104	31109.22
597.463	31342.89
597.822	31723.9
598.18	31778.81
598.538	31940.39
598.897	32325.46
599.255	32335.63
599.613	32927.93
599.972	32839.12
600.33	33044.31
600.688	33115.05
601.046	33357.3
601.404	33690.17
601.762	33653.34
602.12	33930.62
602.478	34252.42
602.836	34362.47
603.194	34308.69
603.552	34595.46
603.91	34617.83
604.268	34831.61
604.625	34953.19
604.983	35274.31
605.341	35225.95
605.698	35486.96
606.056	35590.01
606.413	35710.91
606.771	36089.21
607.128	36168.75
607.485	36082.88
607.843	36384.57
608.2	36705.69
608.557	36681.28
608.914	36789.53
609.272	37083.53
609.629	37202.85
609.986	37443.97
610.343	37364.2
610.7	37810.74
611.057	37632.89
611.414	37852.32
611.771	38006.9
612.127	38185.42
612.484	38241.69
612.841	38440.11
613.198	38371.86
613.554	38518.07
613.911	38713.54
614.267	39151.27
614.624	38856.37
614.98	39096.81
615.337	39257.48
615.693	39269.91
616.05	39352.4
616.406	39591.04
616.762	39606.4
617.118	39492.51
617.475	39773.63
617.831	39913.29
618.187	39985.6
618.543	40109.44
618.899	40372.48
619.255	40320.51
619.611	40273.96
619.967	40471.69
620.323	40594.17
620.678	40516.43
621.034	40440.05
621.39	40594.62
621.746	40549.2
622.101	41182.63
622.457	40968.4
622.812	40915.29
623.168	41050.88
623.523	41125.01
623.879	41331.78
624.234	41055.86
624.589	41280.26
624.945	41440.93
625.3	41386.69
625.655	41456.75
626.01	41507.37
626.365	41562.06
626.72	41556.63
627.075	41472.57
627.43	41639.34
627.785	41574.03
628.14	41653.58
628.495	41757.98
628.85	41761.37
629.205	41588.72
629.559	41889.96
629.914	41751.43
630.269	41771.77
630.623	41732.45
630.978	41769.74
631.332	41861.48
631.687	41968.6
632.041	41809.73
632.396	41736.29
632.75	41601.15
633.104	41867.13
633.459	41644.99
633.813	41654.71
634.167	41664.65
634.521	41709.85
634.875	41853.12
635.229	41843.18
635.583	41634.15
635.937	41671.21
636.291	41695.16
636.645	41701.94
636.999	41547.37
637.352	41606.8
637.706	41497.88
638.06	41731.54
638.413	41638.67
638.767	41482.28
639.121	41569.51
639.474	41421.27
639.828	41412.23
640.181	41503.75
640.534	41469.4
640.888	41434.6
641.241	41333.81
641.594	41397.32
641.947	41471.21
642.301	41390.99
642.654	41336.07
643.007	41380.37
643.36	41378.78
643.713	41311.44
644.066	41522.51
644.419	41202.29
644.771	40849.76
645.124	40592.82
645.477	40471.69
645.83	40399.38
646.182	40220.85
646.535	40219.95
646.888	40261.98
647.24	40115.77
647.593	40340.39
647.945	40092.49
648.298	39943.34
648.65	39923
649.002	39959.84
649.355	40073.06
649.707	39999.16
650.059	40277.8
650.411	40539.03
650.763	40664.45
651.115	40968.17
651.467	40965.24
651.819	40761.4
652.171	40682.31
652.523	40750.55
652.875	40687.05
653.227	40560.73
653.578	40877.1
653.93	40690.22
654.282	40658.58
654.633	40488.19
654.985	40487.51
655.337	40481.18
655.688	40576.32
656.039	40738.8
656.391	40364.57
656.742	40544
657.094	40525.7
657.445	40669.65
657.796	40619.48
658.147	40511.69
658.498	40518.02
658.849	40533.61
659.2	40433.05
659.551	40398.02
659.902	40484.35
660.253	40418.13
660.604	40380.39
660.955	40447.96
661.306	40452.03
661.656	40296.55
662.007	40414.74
662.358	40287.74
662.708	40360.51
663.059	40192.83
663.409	40060.63
663.76	40341.3
664.11	40290.68
664.461	40446.38
664.811	40290.9
665.161	40231.02
665.511	40286.16
665.862	40281.19
666.212	40380.39
666.562	40449.77
666.912	40331.81
667.262	40181.08
667.612	40193.51
667.962	40326.38
668.312	40251.36
668.662	40441.41
669.011	40280.28
669.361	40303.11
669.711	40246.16
670.06	40304.46
670.41	40000.29
670.76	39947.64
671.109	40068.54
671.459	40092.94
671.808	39976.34
672.157	40162.55
672.507	39851.14
672.856	39917.81
673.205	40015.66
673.554	40046.84
673.904	39982.21
674.253	40284.35
674.602	40003.68
674.951	39627.64
675.3	39299.52
675.649	40019.05
675.998	39920.74
676.346	39970.91
676.695	39953.96
677.044	39783.8
677.393	39877.13
677.741	39839.39
678.09	39771.37
678.438	39588.1
678.787	39726.62
679.135	39689.11
679.484	39505.84
679.832	39630.36
680.181	39401.66
680.529	39505.84
680.877	39337.93
681.225	39422
681.573	39518.49
681.922	39367.09
682.27	39203.93
682.618	39283.02
682.966	39152.63
683.314	39240.76
683.661	39043.93
684.009	38949.92
684.357	38735.46
684.705	38775.69
685.053	39006.42
685.4	38669.25
685.748	38592.87
686.095	38662.02
686.443	38430.16
686.79	38441.23
687.138	38431.74
687.485	38554.68
687.832	38345.87
688.18	38428.58
688.527	38184.97
688.874	38194.46
689.221	38142.03
689.568	38077.63
689.915	37988.14
690.262	37874.47
690.609	37903.17
690.956	37688.03
691.303	37562.61
691.65	37463.41
691.997	37400.36
692.344	37252.79
692.69	37196.07
693.037	37239.68
693.383	36958.56
693.73	37254.37
694.077	36885.12
694.423	36853.25
694.769	36803.54
695.116	36688.74
695.462	36674.5
695.808	36510.44
696.155	36538.46
696.501	36329.65
696.847	36318.8
697.193	35975.54
697.539	36266.6
697.885	35972.15
698.231	35911.13
698.577	35864.13
698.923	35937.35
699.269	35576.23
699.614	35499.62
699.96	35455.78
700.306	35521.31
700.651	35364.48
700.997	35140.98
701.342	35094.88
701.688	35062.11
702.033	34953.42
702.379	34913.87
702.724	34903.93
703.069	34934.21
703.415	34443.83
703.76	34696.93
704.105	34575.12
704.45	34463.03
704.795	34296.03
705.14	34206.54
705.485	34229.37
705.83	34033.89
706.175	34156.83
706.52	33945.08
706.865	33945.53
707.209	33960.22
707.554	33719.33
707.899	33755.03
708.243	33660.34
708.588	33541.7
708.932	33350.97
709.277	33350.3
709.621	33314.59
709.966	33178.32
710.31	33181.26
710.654	32992.56
710.998	32924.09
711.342	33138.32
711.687	32905.79
712.031	32667.15
712.375	32576.08
712.719	32682.06
713.063	32646.13
713.407	32696.75
713.75	32492.01
714.094	32547.15
714.438	32312.81
714.782	32482.97
715.125	32139.71
715.469	32265.8
715.812	32267.61
716.156	31864.68
716.499	31917.56
716.843	32004.79
717.186	31842.31
717.53	31915.76
717.873	31889.09
718.216	31850
718.559	31661.53
718.902	31491.36
719.246	31592.15
719.589	31238.94
719.932	31187.19
720.275	31378.82
720.617	31280.07
720.96	31204.36
721.303	31231.71
721.646	31234.19
721.989	31079.39
722.331	31211.59
722.674	30962.34
723.016	31081.43
723.359	30940.64
723.701	30961.43
724.044	30724.15
724.386	30516.7
724.729	30735
725.071	30597.37
725.413	30701.33
725.755	30573.87
726.097	30536.13
726.439	30399.86
726.782	30379.75
727.124	30482.57
727.465	30324.39
727.807	30214.11
728.149	30226.31
728.491	30179.76
728.833	30135.24
729.175	30086.43
729.516	29986.99
729.858	29992.42
730.199	30080.55
730.541	29849.14
730.882	29876.71
731.224	30082.13
731.565	29749.71
731.906	29854.34
732.248	29766.66
732.589	29618.19
732.93	29499.32
733.271	29536.84
733.612	29620.9
733.953	29588.13
734.294	29483.5
734.635	29435.6
734.976	29400.12
735.317	29179.33
735.658	29348.59
735.999	29236.51
736.339	29219.1
736.68	29292.77
737.021	29190.63
737.361	29033.57
737.702	29149.73
738.042	28966.23
738.383	29039.9
738.723	29062.27
739.063	28923.29
739.404	28931.65
739.744	28807.59
740.084	28770.98
740.424	28793.35
740.764	28756.29
741.104	28817.53
741.444	28708.38
741.784	28584.77
742.124	28673.36
742.464	28568.05
742.804	28436.98
743.143	28385.23
743.483	28374.16
743.823	28425.68
744.162	28250.99
744.502	28285.34
744.841	28082.86
745.181	28382.06
745.52	28227.49
745.86	28217.77
746.199	28086.93
746.538	28019.81
746.877	28125.8
747.216	28124.44
747.556	28036.54
747.895	28100.72
748.234	27884.45
748.573	27818.24
748.911	27704.34
749.25	27883.09
749.589	27699.37
749.928	27709.99
750.267	27796.54
750.605	27644.91
750.944	27537.57
751.283	27448.53
751.621	27524.91
751.96	27316.78
752.298	27251.25
752.636	27310.23
752.975	27301.19
753.313	27201.53
753.651	27289.44
753.989	27083.57
754.327	27120.63
754.666	26893.52
755.004	27033.17
755.342	27031.59
755.679	26803.57
756.017	26731.71
756.355	26806.74
756.693	26614.2
757.031	26673.41
757.368	26570.13
757.706	26523.58
