Data from hue_160_FLMS001491_00080.txt Node
Date: Tue Feb 07 16:51:41 GMT 2017
User: dcchb
Spectrometer: FLMS00149
Trigger mode: 0
Integration Time (sec): 2.000000E-2
Scans to average: 10
Electric dark correction enabled: true
Nonlinearity correction enabled: false
Boxcar width: 0
XAxis mode: Wavelengths
Number of Pixels in Spectrum: 2048
>>>>>Begin Spectral Data<<<<<
341.393	-20.41
341.776	-20.41
342.16	-20.41
342.543	-73.97
342.927	-67.87
343.31	-66.96
343.693	-59.28
344.077	-82.33
344.46	-58.6
344.843	-45.72
345.226	-30.35
345.61	-35.1
345.993	-33.52
346.376	-5.72
346.759	18.01
347.142	26.6
347.525	32.92
347.908	44
348.291	65.24
348.674	92.36
349.057	138.46
349.44	121.06
349.823	145.69
350.206	157.44
350.588	176.65
350.971	218
351.354	229.08
351.737	228.85
352.119	234.73
352.502	245.8
352.884	271.33
353.267	277.89
353.65	282.86
354.032	299.58
354.414	292.35
354.797	309.75
355.179	314.27
355.562	319.02
355.944	330.54
356.326	332.35
356.709	306.59
357.091	331.9
357.473	324.89
357.855	335.97
358.238	338.45
358.62	337.1
359.002	323.54
359.384	325.34
359.766	353.14
360.148	331.9
360.53	342.97
360.912	323.08
361.294	342.52
361.676	330.54
362.057	311.79
362.439	325.57
362.821	326.7
363.203	315.18
363.584	324.21
363.966	327.15
364.348	323.99
364.729	307.27
365.111	304.78
365.493	317.66
365.874	294.84
366.256	313.14
366.637	326.47
367.019	309.53
367.4	297.1
367.781	305.46
368.163	296.64
368.544	294.84
368.925	299.58
369.306	312.92
369.688	309.75
370.069	307.49
370.45	313.59
370.831	326.47
371.212	328.73
371.593	337.32
371.974	313.14
372.355	317.66
372.736	320.6
373.117	303.42
373.498	300.71
373.879	312.24
374.26	320.6
374.641	330.99
375.021	316.08
375.402	342.75
375.783	318.34
376.163	343.65
376.544	307.94
376.925	345.68
377.305	322.18
377.686	323.08
378.066	314.05
378.447	321.95
378.827	337.77
379.208	306.36
379.588	309.07
379.968	309.75
380.349	316.53
380.729	352.24
381.109	324.44
381.489	332.8
381.87	328.73
382.25	321.95
382.63	342.52
383.01	334.84
383.39	343.2
383.77	337.55
384.15	369.19
384.53	335.74
384.91	337.55
385.29	342.29
385.67	345.01
386.049	350.43
386.429	346.59
386.809	339.13
387.189	353.14
387.568	329.86
387.948	345.91
388.328	340.71
388.707	357.21
389.087	348.62
389.466	354.04
389.846	359.24
390.225	365.57
390.605	367.6
390.984	360.82
391.363	352.24
391.743	361.5
392.122	371.45
392.501	363.76
392.881	363.54
393.26	367.83
393.639	359.92
394.018	372.12
394.397	367.6
394.776	369.41
395.155	361.5
395.534	361.5
395.913	359.24
396.292	377.77
396.671	385.23
397.05	379.81
397.429	393.59
397.808	381.16
398.186	374.83
398.565	385.23
398.944	399.47
399.323	387.04
399.701	407.38
400.08	387.94
400.458	414.16
400.837	410.09
401.215	391.11
401.594	389.98
401.972	401.05
402.351	408.05
402.729	409.64
403.107	408.96
403.486	397.89
403.864	397.43
404.242	413.25
404.62	404.44
404.999	406.47
405.377	403.76
405.755	417.09
406.133	403.99
406.511	419.35
406.889	437.66
407.267	448.05
407.645	426.13
408.023	445.57
408.401	428.62
408.779	425.23
409.156	427.04
409.534	429.3
409.912	428.17
410.29	444.21
410.667	430.43
411.045	438.11
411.422	462.52
411.8	436.3
412.178	480.82
412.555	482.4
412.933	462.52
413.31	483.08
413.687	473.59
414.065	464.55
414.442	502.29
414.819	506.36
415.197	489.18
415.574	496.87
415.951	498.9
416.328	483.76
416.705	499.35
417.082	481.27
417.46	493.48
417.837	519.46
418.214	512.68
418.591	533.25
418.967	520.37
419.344	526.47
419.721	541.16
420.098	533.25
420.475	528.96
420.852	526.47
421.228	516.98
421.605	547.71
421.982	553.81
422.358	578.22
422.735	553.81
423.111	573.25
423.488	567.37
423.864	559.46
424.241	584.09
424.617	586.58
424.994	582.74
425.37	579.35
425.746	578.22
426.123	591.33
426.499	588.16
426.875	582.06
427.251	608.27
427.627	626.58
428.003	591.78
428.379	623.42
428.756	605.34
429.132	619.8
429.507	610.53
429.883	655.96
430.259	660.48
430.635	653.7
431.011	655.96
431.387	660.25
431.763	665.67
432.138	685.79
432.514	698.22
432.89	675.39
433.265	706.13
433.641	714.26
434.016	702.06
434.392	732.57
434.767	731.44
435.143	716.97
435.518	718.33
435.894	739.34
436.269	729.18
436.644	769.85
437.02	797.2
437.395	773.24
437.77	790.64
438.145	794.03
438.52	799.91
438.895	792
439.271	830.64
439.646	808.27
440.021	800.59
440.395	822.05
440.77	813.02
441.145	829.96
441.52	855.5
441.895	845.33
442.27	852.34
442.645	855.73
443.019	858.21
443.394	871.32
443.769	867.03
444.143	867.48
444.518	897.53
444.892	877.19
445.267	879.45
445.641	903.18
446.016	907.02
446.39	939.11
446.764	912.9
447.139	922.39
447.513	930.07
447.887	935.27
448.262	916.52
448.636	947.25
449.01	973.24
449.384	976.17
449.758	964.42
450.132	956.06
450.506	972.79
450.88	1003.52
451.254	1009.39
451.628	996.97
452.002	1010.52
452.376	1016.17
452.75	1027.25
453.123	1047.81
453.497	1081.71
453.871	1088.04
454.244	1076.96
454.618	1081.48
454.992	1134.14
455.365	1097.75
455.739	1144.76
456.112	1149.05
456.486	1130.75
456.859	1186.34
457.232	1192.67
457.606	1187.69
457.979	1213.91
458.352	1228.37
458.725	1218.2
459.099	1262.95
459.472	1294.36
459.845	1270.63
460.218	1312.66
460.591	1310.63
460.964	1294.81
461.337	1348.82
461.71	1368.03
462.083	1391.76
462.456	1413.9
462.829	1403.51
463.201	1425.88
463.574	1450.29
463.947	1439.44
464.32	1474.24
464.692	1477.4
465.065	1500
465.438	1542.71
465.81	1571.41
466.183	1602.15
466.555	1612.54
466.928	1656.61
467.3	1630.39
467.672	1661.35
468.045	1684.4
468.417	1725.08
468.789	1746.32
469.161	1766.44
469.534	1831.29
469.906	1843.95
470.278	1842.37
470.65	1906.32
471.022	1948.13
471.394	1981.57
471.766	2009.59
472.138	2055.24
472.51	2095.24
472.882	2143.6
473.253	2184.73
473.625	2246.42
473.997	2301.79
474.369	2300.43
474.74	2361.22
475.112	2402.35
475.484	2475.12
475.855	2535.91
476.227	2574.55
476.598	2684.38
476.97	2709.46
477.341	2779.74
477.713	2869.91
478.084	2901.1
478.455	2979.74
478.827	3007.76
479.198	3196
479.569	3200.3
479.94	3296.34
480.311	3336.34
480.682	3456.34
481.053	3567.97
481.424	3635.31
481.795	3730.23
482.166	3815.42
482.537	3899.04
482.908	4052.7
483.279	4070.1
483.65	4234.62
484.021	4299.7
484.391	4473.03
484.762	4468.51
485.133	4632.12
485.503	4727.04
485.874	4873.25
486.244	5005
486.615	5131.32
486.985	5216.97
487.356	5337.87
487.726	5476.85
488.097	5653.34
488.467	5674.58
488.837	5885.65
489.207	5982.6
489.578	6118.41
489.948	6227.11
490.318	6395.02
490.688	6434.79
491.058	6577.16
491.428	6697.83
491.798	6837.49
492.168	7072.96
492.538	7091.49
492.908	7263.24
493.278	7481.99
493.648	7493.07
494.017	7612.61
494.387	7806.28
494.757	7893.28
495.126	7989.1
495.496	8131.92
495.866	8172.14
496.235	8361.07
496.605	8407.39
496.974	8535.07
497.344	8612.36
497.713	8775.74
498.082	8825.23
498.452	9000.14
498.821	9105.23
499.19	9112.23
499.559	9247.6
499.928	9370.08
500.298	9436.97
500.667	9572.11
501.036	9601.48
501.405	9686
501.774	9836.73
502.143	9917.41
502.512	9975.03
502.88	10038.76
503.249	10092.77
503.618	10130.06
503.987	10247.34
504.356	10388.36
504.724	10403.95
505.093	10450.73
505.462	10479.65
505.83	10537.96
506.199	10647.79
506.567	10818.63
506.936	10810.04
507.304	10917.16
507.672	11003.26
508.041	11079.86
508.409	11171.84
508.777	11231.27
509.145	11271.95
509.514	11278.73
509.882	11330.03
510.25	11350.14
510.618	11361.21
510.986	11469.91
511.354	11625.84
511.722	11637.59
512.09	11769.34
512.458	11696.8
512.826	11793.07
513.193	11846.4
513.561	11863.12
513.929	11938.37
514.297	12018.6
514.664	12057.01
515.032	12048.43
515.4	12161.42
515.767	12109.67
516.135	12191.7
516.502	12123.68
516.869	12317.57
517.237	12305.14
517.604	12290.91
517.972	12325.71
518.339	12399.15
518.706	12480.28
519.073	12370.9
519.44	12439.38
519.808	12487.51
520.175	12543.1
520.542	12675.75
520.909	12729.54
521.276	12608.64
521.643	12715.98
522.009	12780.84
522.376	12778.8
522.743	12857.44
523.11	12873.49
523.477	12952.36
523.843	13016.76
524.21	12980.38
524.577	13130.66
524.943	13052.69
525.31	13148.51
525.676	13176.53
526.043	13175.63
526.409	13194.61
526.776	13273.25
527.142	13275.96
527.508	13246.59
527.874	13260.15
528.241	13298.11
528.607	13175.18
528.973	13302.86
529.339	13230.77
529.705	13419.24
530.071	13414.94
530.437	13337.66
530.803	13368.17
531.169	13413.36
531.535	13353.7
531.901	13358.9
532.267	13254.95
532.632	13354.83
532.998	13367.04
533.364	13325.68
533.73	13329.52
534.095	13382.63
534.461	13321.16
534.826	13338.34
535.192	13261.5
535.557	13327.94
535.923	13294.04
536.288	13233.93
536.653	13236.64
537.019	13246.81
537.384	13194.61
537.749	13104.67
538.114	13171.11
538.479	13123.43
538.845	13095.18
539.21	13030.32
539.575	13103.54
539.94	13014.5
540.305	13094.05
540.67	12959.81
541.034	12969.53
541.399	12865.35
541.764	12827.61
542.129	12934.96
542.494	12825.35
542.858	12818.8
543.223	12753.94
543.587	12797.78
543.952	12696.09
544.316	12657.68
544.681	12608.41
545.045	12690.44
545.41	12627.85
545.774	12570.45
546.138	12548.07
546.503	12518.7
546.867	12446.16
547.231	12473.05
547.595	12430.79
547.959	12352.82
548.324	12344.01
548.688	12317.35
549.052	12285.48
549.416	12192.15
549.779	12266.5
550.143	12239.38
550.507	12205.03
550.871	12157.58
551.235	12092.04
551.599	12123
551.962	12142.66
552.326	12067.86
552.689	12119.38
553.053	12036.45
553.417	11989.67
553.78	12079.16
554.143	11981.54
554.507	12010.69
554.87	11980.18
555.234	11985.6
555.597	11966.39
555.96	11847.53
556.323	11899.96
556.686	11874.87
557.05	11903.8
557.413	11875.32
557.776	11774.31
558.139	11849.11
558.502	11810.92
558.865	11800.75
559.228	11849.56
559.59	11760.3
559.953	11736.57
560.316	11861.54
560.679	11806.17
561.041	11865.38
561.404	11826.51
561.767	11881.65
562.129	11763.91
562.492	11852.05
562.854	11788.55
563.217	11782.22
563.579	11933.63
563.941	11799.17
564.304	11824.48
564.666	11876.45
565.028	11866.51
565.39	11883.68
565.753	11837.58
566.115	11953.97
566.477	11953.74
566.839	11937.92
567.201	11936.79
567.563	11979.73
567.925	11998.26
568.287	11975.43
568.648	11904.48
569.01	12010.91
569.372	12031.03
569.734	12026.28
570.095	12107.41
570.457	12082.1
570.819	12076.9
571.18	12067.18
571.542	12069.44
571.903	12088.43
572.265	12090.23
572.626	12236.22
572.987	12121.19
573.349	12178.59
573.71	12147.41
574.071	12186.5
574.432	12258.59
574.794	12282.54
575.155	12283.9
575.516	12172.04
575.877	12206.39
576.238	12300.4
576.599	12202.77
576.96	12164.13
577.32	12256.78
577.681	12203.68
578.042	12248.42
578.403	12226.5
578.763	12217.91
579.124	12278.93
579.485	12228.76
579.845	12269.66
580.206	12224.24
580.566	12158.71
580.927	12176.11
581.287	12238.48
581.648	12177.91
582.008	12267.86
582.368	12160.06
582.728	12214.3
583.089	12241.19
583.449	12143.11
583.809	12148.54
584.169	12242.09
584.529	12198.03
584.889	12245.71
585.249	12076.22
585.609	12170.46
585.969	12167.97
586.329	12098.14
586.688	12154.86
587.048	12038.26
587.408	12139.72
587.768	12101.98
588.127	12062.89
588.487	12043
588.846	12179.04
589.206	12009.33
589.565	12009.78
589.925	12080.97
590.284	12028.31
590.643	12019.73
591.003	12131.59
591.362	12068.99
591.721	12054.98
592.08	12079.61
592.44	12047.75
592.799	12063.79
593.158	12053.4
593.517	11981.99
593.876	12049.78
594.235	11941.54
594.593	11988.99
594.952	11933.17
595.311	11952.16
595.67	11954.42
596.029	11987.64
596.387	11917.36
596.746	11976.79
597.104	11968.2
597.463	11941.08
597.822	11972.5
598.18	11867.19
598.538	11861.76
598.897	11930.46
599.255	11853.18
599.613	11981.54
599.972	11891.59
600.33	11977.92
600.688	11944.7
601.046	12030.35
601.404	12034.19
601.762	11968.43
602.12	12038.71
602.478	11927.07
602.836	11942.67
603.194	12006.17
603.552	11933.85
603.91	11889.56
604.268	11952.61
604.625	11891.37
604.983	11855.44
605.341	11923.46
605.698	11980.41
606.056	12014.75
606.413	11876.45
606.771	11933.17
607.128	11940.86
607.485	11922.78
607.843	11946.28
608.2	12043
608.557	11943.34
608.914	12019.95
609.272	12031.48
609.629	12008.88
609.986	12065.83
610.343	11948.54
610.7	12095.88
611.057	12028.99
611.414	12078.71
611.771	12021.99
612.127	12081.19
612.484	12101.76
612.841	12082.1
613.198	12077.13
613.554	12043
613.911	12029.22
614.267	12127.97
614.624	12033.29
614.98	12107.41
615.337	12178.37
615.693	12140.63
616.05	12161.42
616.406	12195.99
616.762	12198.48
617.118	12141.76
617.475	12175.88
617.831	12188.76
618.187	12179.27
618.543	12261.08
618.899	12304.01
619.255	12255.88
619.611	12190.57
619.967	12286.84
620.323	12333.62
620.678	12255.43
621.034	12302.88
621.39	12317.8
621.746	12224.24
622.101	12362.77
622.457	12274.63
622.812	12275.31
623.168	12348.31
623.523	12351.92
623.879	12320.28
624.234	12268.99
624.589	12250
624.945	12314.41
625.3	12259.27
625.655	12169.33
626.01	12223.79
626.365	12318.48
626.72	12194.86
627.075	12243.45
627.43	12179.5
627.785	12169.1
628.14	12237.8
628.495	12195.09
628.85	12241.19
629.205	12169.55
629.559	12239.61
629.914	12241.64
630.269	12154.86
630.623	12168.65
630.978	12113.51
631.332	12218.82
631.687	12181.98
632.041	12096.11
632.396	12129.1
632.75	12103.57
633.104	12088.88
633.459	11991.25
633.813	11996.68
634.167	12049.78
634.521	12052.27
634.875	12008.43
635.229	12036
635.583	11919.16
635.937	11993.06
636.291	11923.91
636.645	11939.28
636.999	11971.14
637.352	12006.62
637.706	11891.14
638.06	11915.32
638.413	11877.13
638.767	11885.94
639.121	11918.03
639.474	11784.25
639.828	11826.74
640.181	11859.73
640.534	11786.06
640.888	11868.54
641.241	11789.9
641.594	11815.89
641.947	11800.52
642.301	11799.39
642.654	11756
643.007	11822.22
643.36	11740.41
643.713	11799.39
644.066	11826.06
644.419	11651.83
644.771	11601.21
645.124	11550.36
645.477	11523.47
645.83	11519.85
646.182	11458.39
646.535	11357.6
646.888	11331.61
647.24	11353.53
647.593	11405.73
647.945	11347.88
648.298	11328.45
648.65	11314.21
649.002	11283.93
649.355	11367.77
649.707	11358.5
650.059	11351.95
650.411	11500.42
650.763	11644.82
651.115	11582.22
651.467	11552.17
651.819	11548.78
652.171	11536.35
652.523	11550.59
652.875	11503.81
653.227	11494.77
653.578	11592.84
653.93	11629.23
654.282	11504.26
654.633	11539.29
654.985	11557.59
655.337	11554.2
655.688	11535.45
656.039	11620.64
656.391	11509.01
656.742	11554.65
657.094	11550.36
657.445	11619.06
657.796	11572.28
658.147	11502.68
658.498	11570.92
658.849	11569.57
659.2	11583.13
659.551	11567.31
659.902	11582.22
660.253	11532.96
660.604	11634.2
660.955	11533.64
661.306	11625.16
661.656	11558.72
662.007	11601.88
662.358	11599.85
662.708	11643.69
663.059	11678.04
663.409	11508.1
663.76	11618.83
664.11	11666.97
664.461	11524.37
664.811	11607.99
665.161	11552.39
665.511	11572.96
665.862	11598.49
666.212	11645.95
666.562	11640.75
666.912	11656.57
667.262	11566.18
667.612	11572.51
667.962	11635.33
668.312	11573.41
668.662	11698.38
669.011	11675.55
669.361	11583.81
669.711	11546.74
670.06	11557.14
670.41	11546.29
670.76	11456.58
671.109	11562.56
671.459	11614.99
671.808	11524.82
672.157	11587.87
672.507	11459.52
672.856	11504.03
673.205	11509.01
673.554	11455
673.904	11433.75
674.253	11605.5
674.602	11523.92
674.951	11291.61
675.3	11284.6
675.649	11393.08
675.998	11450.02
676.346	11409.57
676.695	11469.46
677.044	11372.29
677.393	11421.78
677.741	11377.71
678.09	11404.38
678.438	11320.08
678.787	11380.87
679.135	11458.16
679.484	11322.12
679.832	11310.82
680.181	11342.46
680.529	11313.08
680.877	11243.25
681.225	11204.15
681.573	11330.48
681.922	11155.57
682.27	11131.61
682.618	11198.05
682.966	11106.98
683.314	11205.74
683.661	11059.3
684.009	11049.36
684.357	11043.25
684.705	11080.32
685.053	11059.07
685.4	11005.29
685.748	10898.17
686.095	10879.19
686.443	10855.24
686.79	10931.17
687.138	10909.7
687.485	10815.01
687.832	10831.28
688.18	10810.04
688.527	10791.74
688.874	10741.79
689.221	10719.42
689.568	10658.18
689.915	10671.06
690.262	10640.55
690.609	10603.27
690.956	10606.66
691.303	10504.06
691.65	10455.93
691.997	10515.13
692.344	10450.05
692.69	10347.91
693.037	10389.26
693.383	10364.4
693.73	10330.96
694.077	10316.95
694.423	10311.07
694.769	10228.14
695.116	10188.14
695.462	10194.92
695.808	10160.34
696.155	10141.81
696.501	10031.76
696.847	9992.66
697.193	9951.08
697.539	10069.04
697.885	10001.25
698.231	9849.84
698.577	9842.61
698.923	9868.14
699.269	9765.55
699.614	9728.26
699.96	9651.88
700.306	9717.64
700.651	9646.46
700.997	9668.6
701.342	9612.11
701.688	9587.02
702.033	9502.96
702.379	9486.91
702.724	9514.71
703.069	9445.1
703.415	9334.37
703.76	9382.06
704.105	9338.44
704.45	9339.8
704.795	9231.33
705.14	9244.21
705.485	9240.36
705.83	9179.35
706.175	9175.73
706.52	9071.56
706.865	9103.64
707.209	9079.92
707.554	9105
707.899	9032.46
708.243	8989.52
708.588	8957.43
708.932	8899.36
709.277	8910.66
709.621	8900.71
709.966	8870.66
710.31	8858.45
710.654	8772.58
710.998	8756.99
711.342	8769.19
711.687	8739.59
712.031	8740.94
712.375	8691.9
712.719	8711.34
713.063	8678.57
713.407	8725.12
713.75	8651.68
714.094	8719.47
714.438	8603.32
714.782	8599.03
715.125	8575.98
715.469	8533.72
715.812	8588.18
716.156	8521.06
716.499	8492.14
716.843	8545.02
717.186	8456.43
717.53	8487.16
717.873	8468.18
718.216	8476.32
718.559	8439.26
718.902	8352.03
719.246	8416.43
719.589	8347.96
719.932	8357.68
720.275	8363.78
720.617	8376.21
720.96	8282.42
721.303	8342.31
721.646	8351.57
721.989	8241.29
722.331	8321.74
722.674	8328.07
723.016	8298.02
723.359	8302.08
723.701	8275.19
724.044	8239.71
724.386	8222.31
724.729	8223.89
725.071	8252.82
725.413	8279.49
725.755	8247.4
726.097	8193.61
726.439	8166.95
726.782	8173.05
727.124	8249.66
727.465	8165.82
727.807	8211.01
728.149	8138.25
728.491	8131.92
728.833	8119.72
729.175	8178.47
729.516	8128.08
729.858	8147.74
730.199	8182.31
730.541	8089.89
730.882	8120.62
731.224	8120.85
731.565	8045.37
731.906	8156.33
732.248	8090.34
732.589	8069.77
732.93	8131.92
733.271	7999.27
733.612	8090.56
733.953	8088.76
734.294	8072.71
734.635	8061.19
734.976	8078.59
735.317	8074.75
735.658	8055.08
735.999	8086.5
736.339	8093.73
736.68	8147.06
737.021	8127.85
737.361	8090.11
737.702	8173.95
738.042	8102.99
738.383	8083.78
738.723	8156.1
739.063	8182.99
739.404	8203.56
739.744	8175.31
740.084	8103.67
740.424	8219.83
740.764	8155.42
741.104	8228.41
741.444	8197.91
741.784	8168.53
742.124	8187.28
742.464	8220.96
742.804	8277.45
743.143	8267.96
743.483	8295.08
743.823	8272.71
744.162	8312.71
744.502	8324
744.841	8357.22
745.181	8427.05
745.52	8415.08
745.86	8488.75
746.199	8482.64
746.538	8511.34
746.877	8582.3
747.216	8584.34
747.556	8564
747.895	8746.82
748.234	8743.65
748.573	8729.64
748.911	8747.5
749.25	8919.02
749.589	8939.36
749.928	8989.07
750.267	9113.36
750.605	9161.04
750.944	9181.61
751.283	9288.5
751.621	9401.26
751.96	9419.34
752.298	9484.88
752.636	9594.25
752.975	9567.36
753.313	9743.4
753.651	9880.8
753.989	9888.48
754.327	10031.3
754.666	10126.22
755.004	10234.46
755.342	10317.85
755.679	10505.19
756.017	10560.78
756.355	10769.14
756.693	10726.88
757.031	10932.07
757.368	11113.54
757.706	11260.2
758.044	11359.4
758.381	11517.82
758.719	11602.11
759.056	11797.81
759.394	11925.94
759.731	11965.94
