Data from hue_50_FLMS001491_23.txt Node
Date: Mon Feb 06 15:09:48 GMT 2017
User: dcchb
Spectrometer: FLMS00149
Trigger mode: 0
Integration Time (sec): 2.000000E-2
Scans to average: 10
Electric dark correction enabled: true
Nonlinearity correction enabled: false
Boxcar width: 0
XAxis mode: Wavelengths
Number of Pixels in Spectrum: 2048
>>>>>Begin Spectral Data<<<<<
341.393	-2.03
341.776	-2.03
342.16	-2.03
342.543	-38.87
342.927	-44.07
343.31	-60.34
343.693	-75.25
344.077	-58.53
344.46	-54.46
344.843	-42.03
345.226	-51.75
345.61	-20.56
345.993	-22.37
346.376	-11.75
346.759	15.82
347.142	-4.07
347.525	44.74
347.908	61.24
348.291	73.22
348.674	85.42
349.057	120.67
349.44	134.69
349.823	148.02
350.206	165.65
350.588	196.83
350.971	229.37
351.354	230.95
351.737	253.78
352.119	275.47
352.502	278.86
352.884	288.81
353.267	297.62
353.65	295.13
354.032	299.2
354.414	308.47
354.797	305.3
355.179	320.67
355.562	333.78
355.944	326.32
356.326	328.35
356.709	341.69
357.091	352.99
357.473	347.34
357.855	348.92
358.238	355.92
358.62	341.01
359.002	351.86
359.384	363.38
359.766	348.24
360.148	348.47
360.53	353.44
360.912	363.38
361.294	355.92
361.676	348.47
362.057	344.4
362.439	330.39
362.821	356.15
363.203	342.82
363.584	342.36
363.966	322.7
364.348	322.03
364.729	315.92
365.111	327
365.493	323.61
365.874	325.87
366.256	335.36
366.637	325.19
367.019	314.12
367.4	295.81
367.781	295.81
368.163	308.69
368.544	315.7
368.925	294.23
369.306	339.2
369.688	319.77
370.069	309.6
370.45	315.02
370.831	305.75
371.212	302.36
371.593	308.47
371.974	331.06
372.355	309.6
372.736	318.18
373.117	319.31
373.498	318.41
373.879	312.99
374.26	328.13
374.641	315.25
375.021	301.24
375.402	324.06
375.783	298.98
376.163	315.02
376.544	337.17
376.925	298.3
377.305	314.34
377.686	335.58
378.066	343.04
378.447	351.63
378.827	325.19
379.208	320.44
379.588	347.11
379.968	342.82
380.349	343.49
380.729	327.22
381.109	328.8
381.489	308.24
381.87	314.34
382.25	324.29
382.63	341.01
383.01	345.75
383.39	346.21
383.77	346.66
384.15	326.32
384.53	359.09
384.91	359.76
385.29	361.35
385.67	337.84
386.049	343.72
386.429	348.92
386.809	344.17
387.189	363.83
387.568	352.99
387.948	364.28
388.328	356.15
388.707	355.24
389.087	359.76
389.466	339.43
389.846	368.8
390.225	361.8
390.605	353.44
390.984	364.06
391.363	380.33
391.743	370.39
392.122	377.17
392.501	359.76
392.881	390.72
393.26	370.61
393.639	373.55
394.018	382.36
394.397	361.35
394.776	385.3
395.155	387.33
395.534	349.14
395.913	367.45
396.292	368.13
396.671	347.56
397.05	362.02
397.429	380.1
397.808	376.04
398.186	390.95
398.565	383.04
398.944	382.36
399.323	372.65
399.701	368.8
400.08	387.11
400.458	389.59
400.837	400.67
401.215	383.27
401.594	371.29
401.972	394.34
402.351	376.71
402.729	408.35
403.107	388.24
403.486	387.79
403.864	393.66
404.242	402.48
404.62	399.76
404.999	404.28
405.377	394.11
405.755	410.16
406.133	405.87
406.511	408.12
406.889	397.05
407.267	409.93
407.645	429.59
408.023	422.36
408.401	433.21
408.779	423.27
409.156	422.81
409.534	423.27
409.912	431.85
410.29	424.4
410.667	423.27
411.045	433.43
411.422	435.47
411.8	449.48
412.178	433.66
412.555	459.42
412.933	441.34
413.31	445.41
413.687	457.16
414.065	449.25
414.442	435.47
414.819	466.43
415.197	462.36
415.574	478.18
415.951	487.44
416.328	483.6
416.705	478.86
417.082	476.82
417.46	473.66
417.837	470.5
418.214	478.18
418.591	476.15
418.967	480.44
419.344	486.54
419.721	490.61
420.098	493.55
420.475	491.51
420.852	510.27
421.228	526.99
421.605	498.07
421.982	500.78
422.358	503.26
422.735	503.94
423.111	513.66
423.488	540.1
423.864	544.84
424.241	537.61
424.617	547.33
424.994	540.32
425.37	546.65
425.746	556.37
426.123	545.75
426.499	544.62
426.875	539.42
427.251	543.26
427.627	573.32
428.003	566.76
428.379	550.04
428.756	556.82
429.132	571.96
429.507	566.31
429.883	580.1
430.259	592.53
430.635	576.03
431.011	582.13
431.387	578.29
431.763	601.34
432.138	603.15
432.514	618.74
432.89	601.11
433.265	607.44
433.641	633.2
434.016	608.8
434.392	641.79
434.767	626.65
435.143	629.36
435.518	650.6
435.894	639.31
436.269	639.31
436.644	635.92
437.02	653.32
437.395	651.51
437.77	666.65
438.145	686.76
438.52	670.94
438.895	685.41
439.271	675.91
439.646	679.98
440.021	683.82
440.395	690.83
440.77	698.06
441.145	698.06
441.52	716.59
441.895	723.6
442.27	706.42
442.645	723.6
443.019	733.31
443.394	731.05
443.769	708
444.143	719.98
444.518	751.62
444.892	743.71
445.267	738.51
445.641	752.07
446.016	752.97
446.39	750.71
446.764	743.48
447.139	761.34
447.513	778.74
447.887	746.2
448.262	771.73
448.636	774.22
449.01	771.51
449.384	782.58
449.758	772.41
450.132	804.72
450.506	798.4
450.88	810.15
451.254	820.09
451.628	832.29
452.002	826.87
452.376	815.12
452.75	836.36
453.123	834.78
453.497	819.41
453.871	846.08
454.244	846.76
454.618	849.24
454.992	875.46
455.365	883.82
455.739	884.95
456.112	898.51
456.486	901.67
456.859	926.53
457.232	928.34
457.606	923.37
457.979	954.55
458.352	965.62
458.725	943.25
459.099	967.43
459.472	993.42
459.845	972.18
460.218	1008.34
460.591	984.83
460.964	1002.46
461.337	1041.55
461.71	1040.2
462.083	1072.74
462.456	1048.79
462.829	1062.12
463.201	1067.99
463.574	1096.92
463.947	1099.18
464.32	1127.2
464.692	1122.46
465.065	1143.47
465.438	1178.73
465.81	1171.04
466.183	1173.75
466.555	1198.84
466.928	1238.39
467.3	1215.56
467.672	1261.66
468.045	1294.88
468.417	1314.09
468.789	1294.43
469.161	1326.97
469.534	1359.29
469.906	1389.12
470.278	1408.1
470.65	1402.45
471.022	1434.76
471.394	1459.62
471.766	1494.88
472.138	1497.81
472.51	1561.09
472.882	1594.31
473.253	1617.13
473.625	1625.27
473.997	1702.33
474.369	1718.82
474.74	1738.03
475.112	1792.5
475.484	1813.06
475.855	1892.83
476.227	1886.05
476.598	1961.98
476.97	1991.59
477.341	2052.83
477.713	2088.53
478.084	2142.99
478.455	2218.02
478.827	2247.4
479.198	2335.31
479.569	2358.81
479.94	2474.29
480.311	2509.54
480.682	2559.71
481.053	2696.43
481.424	2758.8
481.795	2772.36
482.166	2884.44
482.537	2938.23
482.908	3058.22
483.279	3100.26
483.65	3187.94
484.021	3310.42
484.391	3394.71
484.762	3475.84
485.133	3562.62
485.503	3611.66
485.874	3760.35
486.244	3836.28
486.615	4026.33
486.985	4108.59
487.356	4182.71
487.726	4330.06
488.097	4412.99
488.467	4538.86
488.837	4652.76
489.207	4769.37
489.578	4900.44
489.948	5016.59
490.318	5103.14
490.688	5166.42
491.058	5357.83
491.428	5462.23
491.798	5632.62
492.168	5739.06
492.538	5805.27
492.908	5981.31
493.278	6144.92
493.648	6168.43
494.017	6377.91
494.387	6526.61
494.757	6606.61
495.126	6774.29
495.496	6816.32
495.866	6988.29
496.235	7094.28
496.605	7301.95
496.974	7364.78
497.344	7469.86
497.713	7655.39
498.082	7693.81
498.452	7844.09
498.821	7945.33
499.19	8016.06
499.559	8226.45
499.928	8282.49
500.298	8380.12
500.667	8546.67
501.036	8692.88
501.405	8775.36
501.774	8777.85
502.143	8961.8
502.512	9080.67
502.88	9143.49
503.249	9261.68
503.618	9403.59
503.987	9509.58
504.356	9589.35
504.724	9674.1
505.093	9834.77
505.462	9851.04
505.83	10024.6
506.199	10149.34
506.567	10246.06
506.936	10375.55
507.304	10464.81
507.672	10608.08
508.041	10683.56
508.409	10752.49
508.777	10885.36
509.145	10971.01
509.514	11101.4
509.882	11134.4
510.25	11188.86
510.618	11301.17
510.986	11434.28
511.354	11566.48
511.722	11709.75
512.09	11831.55
512.458	11887.6
512.826	11952.91
513.193	12043.75
513.561	12168.72
513.929	12229.96
514.297	12399.22
514.664	12441.71
515.032	12527.81
515.4	12655.49
515.767	12710.63
516.135	12836.95
516.502	12835.14
516.869	13067.45
517.237	13096.6
517.604	13081.69
517.972	13246.21
518.339	13330.72
518.706	13388.12
519.073	13470.15
519.44	13636.03
519.808	13741.11
520.175	13706.76
520.542	13945.62
520.909	14051.16
521.276	13988.56
521.643	14187.2
522.009	14278.04
522.376	14356.01
522.743	14485.49
523.11	14669.9
523.477	14762.55
523.843	14850.68
524.21	14974.52
524.577	15109.43
524.943	15171.35
525.31	15292.48
525.676	15458.35
526.043	15537.44
526.409	15676.88
526.776	15781.28
527.142	15878.68
527.508	15928.85
527.874	16101.27
528.241	16141.72
528.607	16208.84
528.973	16394.6
529.339	16355.05
529.705	16483.41
530.071	16677.53
530.437	16804.53
530.803	16915.26
531.169	16889.05
531.535	16929.05
531.901	17108.25
532.267	17166.1
532.632	17336.72
532.998	17388.24
533.364	17420.78
533.73	17479.77
534.095	17616.26
534.461	17669.37
534.826	17688.35
535.192	17872.98
535.557	17907.1
535.923	17973.76
536.288	17977.83
536.653	18126.76
537.019	18089.47
537.384	18183.93
537.749	18400.19
538.114	18366.07
538.479	18532.62
538.845	18545.73
539.21	18473.19
539.575	18564.26
539.94	18652.16
540.305	18770.13
540.67	18852.39
541.034	18911.37
541.399	18975.09
541.764	19004.47
542.129	19283.79
542.494	19260.06
542.858	19293.28
543.223	19295.31
543.587	19374.41
543.952	19396.33
544.316	19430
544.681	19480.17
545.045	19619.82
545.41	19678.58
545.774	19720.16
546.138	19746.37
546.503	19837.9
546.867	19823.21
547.231	20051.9
547.595	20082.64
547.959	20151.11
548.324	20137.78
548.688	20198.56
549.052	20257.32
549.416	20345.91
549.779	20387.94
550.143	20419.8
550.507	20527.14
550.871	20623.19
551.235	20640.14
551.599	20748.83
551.962	20819.34
552.326	20880.81
552.689	21024.08
553.053	20930.75
553.417	21095.49
553.78	21358.08
554.143	21238.76
554.507	21311.76
554.87	21380.23
555.234	21622.03
555.597	21515.59
555.96	21591.97
556.323	21763.04
556.686	21781.35
557.05	21973.21
557.413	21989.7
557.776	21941.12
558.139	22167.33
558.502	22333.42
558.865	22349.02
559.228	22460.2
559.59	22540.2
559.953	22575.23
560.316	22772.51
560.679	22768.67
561.041	22895.44
561.404	23026.29
561.767	23131.14
562.129	23054.08
562.492	23341.99
562.854	23252.72
563.217	23222.44
563.579	23379.27
563.941	23666.5
564.304	23727.74
564.666	23912.14
565.028	23849.09
565.39	23966.6
565.753	24111.23
566.115	24084.56
566.477	24265.8
566.839	24259.02
567.201	24379.47
567.563	24508.06
567.925	24568.17
568.287	24654.27
568.648	24770.2
569.01	24868.72
569.372	25030.53
569.734	24979.23
570.095	25099.9
570.457	25392.55
570.819	25261.71
571.18	25438.65
571.542	25579.21
571.903	25663.28
572.265	25677.52
572.626	25762.94
572.987	25850.17
573.349	25949.37
573.71	26136.04
574.071	26175.13
574.432	26307.56
574.794	26353.66
575.155	26452.41
575.516	26283.6
575.877	26553.88
576.238	26699.41
576.599	26800.2
576.96	26784.83
577.32	26846.98
577.681	26965.39
578.042	27177.36
578.403	27118.83
578.763	27256.68
579.124	27420.97
579.485	27448.77
579.845	27513.63
580.206	27626.17
580.566	27649.67
580.927	27784.81
581.287	27979.15
581.648	27957.91
582.008	28082.88
582.368	28145.47
582.728	28309.99
583.089	28331.68
583.449	28424.11
583.809	28511.34
584.169	28621.39
584.529	28660.94
584.889	28880.6
585.249	28861.84
585.609	28902.06
585.969	29105
586.329	29014.15
586.688	29307.03
587.048	29451.88
587.408	29402.16
587.768	29542.95
588.127	29711.31
588.487	29609.39
588.846	29963.05
589.206	29887.58
589.565	30018.19
589.925	30116.95
590.284	30292.08
590.643	30253.22
591.003	30441.01
591.362	30692.3
591.721	30558.07
592.08	30746.76
592.44	30909.02
592.799	30913.54
593.158	31024.72
593.517	31097.26
593.876	31249.12
594.235	31212.74
594.593	31316.24
594.952	31523.01
595.311	31379.74
595.67	31609.11
596.029	31765.04
596.387	31869.22
596.746	31982.66
597.104	32033.51
597.463	32087.07
597.822	32195.99
598.18	32233.28
598.538	32509.88
598.897	32599.37
599.255	32322.09
599.613	32939.92
599.972	32736.54
600.33	32932.24
600.688	32920.49
601.046	32892.24
601.404	33119.81
601.762	33231.44
602.12	33310.76
602.478	33402.74
602.836	33455.39
603.194	33296.53
603.552	33397.09
603.91	33493.58
604.268	33746.01
604.625	33674.82
604.983	33756.4
605.341	33741.49
605.698	34001.82
606.056	34066.9
606.413	34031.87
606.771	34091.08
607.128	34240.23
607.485	34187.35
607.843	34471.18
608.2	34485.42
608.557	34668.92
608.914	34538.07
609.272	34768.8
609.629	34868.24
609.986	35058.06
610.343	34861.46
610.7	35314.1
611.057	35188.45
611.414	35157.27
611.771	35324.95
612.127	35571.27
612.484	35362.91
612.841	35655.33
613.198	35516.81
613.554	35480.87
613.911	35845.84
614.267	35904.37
614.624	35818.95
614.98	35809.45
615.337	36125.6
615.693	35988.21
616.05	35968.55
616.406	36215.77
616.762	36159.05
617.118	36220.06
617.475	36147.75
617.831	36283.11
618.187	36467.74
618.543	36487.4
618.899	36704.35
619.255	36661.41
619.611	36669.32
619.967	36784.57
620.323	36773.27
620.678	36718.13
621.034	36844
621.39	36794.51
621.746	36844.91
622.101	37149.53
622.457	36975.75
622.812	36984.56
623.168	37114.28
623.523	37199.7
623.879	37338.23
624.234	37098.91
624.589	37321.5
624.945	37236.31
625.3	37325.35
625.655	37243.99
626.01	37476.08
626.365	37443.31
626.72	37418.23
627.075	37446.47
627.43	37300.94
627.785	37388.17
628.14	37409.41
628.495	37536.19
628.85	37476.3
629.205	37390.66
629.559	37559.46
629.914	37364.89
630.269	37565.57
630.623	37276.76
630.978	37354.5
631.332	37585.23
631.687	37349.75
632.041	37358.11
632.396	37368.73
632.75	37328.96
633.104	37443.54
633.459	37449.64
633.813	37241.28
634.167	37285.8
634.521	37324.89
634.875	37498.45
635.229	37198.57
635.583	37063.21
635.937	37242.86
636.291	37188.85
636.645	37184.56
636.999	37104.79
637.352	37116.09
637.706	37046.03
638.06	37172.81
638.413	37003.09
638.767	36885.36
639.121	37059.14
639.474	36750.45
639.828	36899.37
640.181	36868.64
640.534	36860.5
640.888	36872.25
641.241	36769.65
641.594	36721.29
641.947	36925.13
642.301	36793.16
642.654	36807.62
643.007	36664.35
643.36	36826.6
643.713	36634.74
644.066	36850.78
644.419	36494.18
644.771	36425.93
645.124	36063.23
645.477	35919.28
645.83	35782.79
646.182	35632.06
646.535	35643.58
646.888	35505.28
647.24	35375.79
647.593	35700.3
647.945	35579.4
648.298	35484.04
648.65	35406.98
649.002	35287.66
649.355	35543.92
649.707	35462.57
650.059	35451.72
650.411	35944.82
650.763	35990.92
651.115	36392.72
651.467	36226.17
651.819	36136.22
652.171	36109.56
652.523	35922.22
652.875	36042.22
653.227	35984.59
653.578	36116.11
653.93	36052.84
654.282	35992.73
654.633	35806.06
654.985	35818.72
655.337	35931.03
655.688	35960.18
656.039	36023.23
656.391	35711.6
656.742	35712.28
657.094	35824.82
657.445	35912.73
657.796	35814.65
658.147	35744.14
658.498	35709.8
658.849	35865.27
659.2	35715.45
659.551	35727.65
659.902	35827.08
660.253	35718.16
660.604	35772.62
660.955	35607.88
661.306	35656.92
661.656	35728.55
662.007	35658.72
662.358	35714.77
662.708	35719.29
663.059	35626.86
663.409	35352.29
663.76	35779.17
664.11	35688.33
664.461	35714.54
664.811	35580.08
665.161	35596.35
665.511	35442.91
665.862	35716.35
666.212	35718.38
666.562	35707.54
666.912	35515.22
667.262	35533.3
667.612	35559.97
667.962	35544.83
668.312	35675.22
668.662	35702.56
669.011	35568.56
669.361	35462.34
669.711	35439.75
670.06	35436.36
670.41	35325.4
670.76	35338.96
671.109	35519.07
671.459	35340.77
671.808	35346.87
672.157	35417.6
672.507	35215.57
672.856	35215.12
673.205	35202.69
673.554	35317.72
673.904	35253.76
674.253	35379.63
674.602	35308.45
674.951	34827.33
675.3	34693.1
675.649	35262.58
675.998	35175.12
676.346	35147.32
676.695	35399.07
677.044	35020.55
677.393	35026.2
677.741	35160.43
678.09	35131.28
678.438	35084.28
678.787	35012.41
679.135	34985.29
679.484	34765.87
679.832	34906.43
680.181	34647.68
680.529	34878.4
680.877	34742.82
681.225	34627.34
681.573	34829.59
681.922	34704.4
682.27	34482.94
682.618	34534.91
682.966	34555.02
683.314	34534.46
683.661	34463.05
684.009	34138.76
684.357	34198.42
684.705	34118.88
685.053	34328.59
685.4	34144.19
685.748	33982.38
686.095	33999.33
686.443	33893.57
686.79	33770.41
687.138	33889.5
687.485	33885.44
687.832	33813.8
688.18	33814.25
688.527	33642.05
688.874	33636.18
689.221	33566.12
689.568	33496.07
689.915	33381.95
690.262	33432.79
690.609	33303.31
690.956	33190.09
691.303	33068.06
691.65	32968.62
691.997	33028.51
692.344	32820.61
692.69	32829.87
693.037	32846.59
693.383	32488.19
693.73	32693.6
694.077	32417.9
694.423	32572.25
694.769	32383.33
695.116	32323.67
695.462	32264.46
695.808	32205.93
696.155	32157.57
696.501	31974.3
696.847	31942.21
697.193	31787.64
697.539	31890.01
697.885	31600.53
698.231	31513.52
698.577	31633.74
698.923	31507.87
699.269	31208.44
699.614	31092.74
699.96	31265.39
700.306	31094.32
700.651	31071.5
700.997	30913.76
701.342	30930.49
701.688	30839.19
702.033	30631.06
702.379	30741.56
702.724	30572.98
703.069	30761.23
703.415	30357.85
703.76	30414.79
704.105	30326.89
704.45	30176.16
704.795	30062.71
705.14	30040.11
705.485	30089.6
705.83	29889.16
706.175	29935.94
706.52	29733.46
706.865	29735.72
707.209	29707.69
707.554	29408.72
707.899	29695.26
708.243	29505.66
708.588	29409.4
708.932	29184.54
709.277	29220.47
709.621	29180.93
709.966	28965.11
710.31	29100.25
710.654	28894.61
710.998	28893.25
711.342	28919.47
711.687	28798.79
712.031	28717.89
712.375	28541.17
712.719	28623.2
713.063	28585.69
713.407	28684.9
713.75	28497.56
714.094	28448.07
714.438	28346.6
714.782	28446.26
715.125	28254.85
715.469	28267.96
715.812	28214.4
716.156	27986.38
716.499	28025.93
716.843	27997.91
717.186	27911.81
717.53	28013.05
717.873	28112.26
718.216	27884.24
718.559	27815.31
718.902	27675.66
719.246	27666.17
719.589	27589.78
719.932	27580.74
720.275	27471.59
720.617	27446.28
720.96	27293.29
721.303	27448.77
721.646	27382.1
721.989	27202.67
722.331	27395.21
722.674	27108.67
723.016	27154.54
723.359	27116.58
723.701	27062.79
724.044	26926.98
724.386	26782.57
724.729	26877.03
725.071	26804.04
725.413	26802.01
725.755	26858.05
726.097	26674.78
726.439	26600.88
726.782	26508.91
727.124	26733.31
727.465	26559.75
727.807	26563.6
728.149	26428.91
728.491	26317.95
728.833	26412.64
729.175	26302.13
729.516	26131.97
729.858	26289.25
730.199	26254.68
730.541	26318.18
730.882	26023.5
731.224	26316.37
731.565	26077.73
731.906	26047.22
732.248	26063.5
732.589	26064.4
732.93	25790.51
733.271	25812.2
733.612	25929.26
733.953	25890.39
734.294	25760.9
734.635	25787.57
734.976	25803.16
735.317	25689.72
735.658	25700.34
735.999	25555.49
736.339	25447.01
736.68	25539.44
737.021	25463.51
737.361	25369.73
737.702	25601.59
738.042	25528.82
738.383	25300.58
738.723	25466.68
739.063	25195.27
739.404	25289.5
739.744	25177.42
740.084	25036.4
740.424	25140.58
740.764	25165.89
741.104	25202.05
741.444	24998.66
741.784	24837.99
742.124	25033.69
742.464	24938.55
742.804	24865.11
743.143	24848.61
743.483	24750.99
743.823	24859.01
744.162	24872.57
744.502	24779.24
744.841	24638.45
745.181	24667.15
745.52	24640.03
745.86	24710.31
746.199	24531.56
746.538	24521.84
746.877	24638.22
747.216	24605
747.556	24464.67
747.895	24510.32
748.234	24337.67
748.573	24233.26
748.911	24256.54
749.25	24249.98
749.589	24198.46
749.928	24190.55
750.267	24127.28
750.605	24085.47
750.944	23992.14
751.283	23903.78
751.621	24022.87
751.96	23882.54
752.298	23848.41
752.636	23921.86
752.975	23757.57
753.313	23605.71
753.651	23777
753.989	23521.42
754.327	23570.23
754.666	23455.88
755.004	23510.12
755.342	23491.36
755.679	23375.88
756.017	23278.03
756.355	23323.45
756.693	23263.57
757.031	23338.6
