Data from hue_340_FLMS001491_8.txt Node
Date: Mon Feb 06 15:42:13 GMT 2017
User: dcchb
Spectrometer: FLMS00149
Trigger mode: 0
Integration Time (sec): 2.000000E-2
Scans to average: 10
Electric dark correction enabled: true
Nonlinearity correction enabled: false
Boxcar width: 0
XAxis mode: Wavelengths
Number of Pixels in Spectrum: 2048
>>>>>Begin Spectral Data<<<<<
341.393	-0.23
341.776	-0.23
342.16	-0.23
342.543	-54.01
342.927	-70.96
343.31	-53.33
343.693	-79.55
344.077	-82.26
344.46	-65.99
344.843	-49.72
345.226	-43.39
345.61	-23.28
345.993	-5.88
346.376	0.45
346.759	-13.11
347.142	28.7
347.525	37.06
347.908	71.18
348.291	71.18
348.674	90.17
349.057	117.74
349.44	150.28
349.823	133.1
350.206	159.54
350.588	177.17
350.971	225.76
351.354	238.64
351.737	231.63
352.119	250.39
352.502	262.82
352.884	279.54
353.267	265.98
353.65	286.77
354.032	299.2
354.414	319.77
354.797	289.94
355.179	310.95
355.562	326.32
355.944	317.51
356.326	327.22
356.709	326.55
357.091	351.63
357.473	328.35
357.855	338.75
358.238	348.24
358.62	329.93
359.002	333.55
359.384	354.57
359.766	354.57
360.148	330.39
360.53	333.55
360.912	333.55
361.294	337.39
361.676	336.26
362.057	349.14
362.439	330.84
362.821	332.87
363.203	314.34
363.584	333.78
363.966	311.4
364.348	323.83
364.729	315.7
365.111	319.54
365.493	313.21
365.874	315.92
366.256	349.6
366.637	321.8
367.019	319.99
367.4	314.57
367.781	315.7
368.163	314.57
368.544	320.67
368.925	311.4
369.306	332.19
369.688	305.53
370.069	292.2
370.45	307.79
370.831	295.59
371.212	307.34
371.593	303.04
371.974	307.79
372.355	281.12
372.736	309.37
373.117	285.87
373.498	323.83
373.879	319.09
374.26	320.44
374.641	310.05
375.021	300.78
375.402	344.62
375.783	309.14
376.163	329.03
376.544	331.97
376.925	320.9
377.305	322.25
377.686	340.56
378.066	329.03
378.447	337.62
378.827	329.26
379.208	320.67
379.588	331.29
379.968	338.07
380.349	329.71
380.729	323.83
381.109	338.3
381.489	321.35
381.87	344.85
382.25	321.35
382.63	324.96
383.01	345.3
383.39	326.32
383.77	340.33
384.15	334.68
384.53	352.99
384.91	331.97
385.29	326.55
385.67	348.24
386.049	355.47
386.429	342.82
386.809	349.14
387.189	364.51
387.568	358.41
387.948	355.92
388.328	349.82
388.707	344.17
389.087	370.61
389.466	345.3
389.846	376.04
390.225	356.6
390.605	351.63
390.984	374.45
391.363	360.89
391.743	363.15
392.122	382.59
392.501	375.58
392.881	370.39
393.26	360.22
393.639	369.48
394.018	371.52
394.397	369.48
394.776	359.09
395.155	400.67
395.534	367.22
395.913	389.59
396.292	382.59
396.671	388.69
397.05	367.45
397.429	361.12
397.808	369.03
398.186	379.65
398.565	385.3
398.944	379.88
399.323	402.7
399.701	396.37
400.08	417.16
400.458	398.86
400.837	413.1
401.215	386.2
401.594	392.76
401.972	392.31
402.351	424.4
402.729	403.61
403.107	406.54
403.486	411.74
403.864	421.91
404.242	408.58
404.62	416.94
404.999	415.81
405.377	412.87
405.755	420.33
406.133	395.47
406.511	420.1
406.889	437.95
407.267	404.74
407.645	433.21
408.023	440.67
408.401	434.79
408.779	451.51
409.156	454.45
409.534	453.32
409.912	444.28
410.29	449.03
410.667	465.52
411.045	469.82
411.422	475.92
411.8	480.21
412.178	486.77
412.555	469.14
412.933	468.24
413.31	518.4
413.687	492.19
414.065	497.16
414.442	520.89
414.819	508.24
415.197	527.22
415.574	494
415.951	528.12
416.328	519.53
416.705	523.83
417.082	532.42
417.46	539.65
417.837	534.45
418.214	538.52
418.591	551.17
418.967	554.79
419.344	536.94
419.721	559.53
420.098	540.55
420.475	583.49
420.852	586.88
421.228	588.46
421.605	574.67
421.982	609.93
422.358	604.96
422.735	603.37
423.111	590.72
423.488	607.89
423.864	611.51
424.241	622.13
424.617	599.53
424.994	628.01
425.37	616.48
425.746	615.58
426.123	616.48
426.499	630.49
426.875	632.75
427.251	633.88
427.627	682.02
428.003	679.76
428.379	668.01
428.756	643.82
429.132	678.4
429.507	724.73
429.883	714.56
430.259	717.04
430.635	703.71
431.011	716.82
431.387	705.52
431.763	742.13
432.138	752.3
432.514	754.78
432.89	756.14
433.265	741.68
433.641	770.6
434.016	776.02
434.392	788.23
434.767	787.1
435.143	806.08
435.518	789.58
435.894	820.09
436.269	792.97
436.644	818.06
437.02	806.76
437.395	825.97
437.77	842.01
438.145	838.85
438.52	843.82
438.895	873.65
439.271	874.33
439.646	860.99
440.021	879.75
440.395	874.55
440.77	859.86
441.145	868.9
441.52	898.06
441.895	899.64
442.27	910.94
442.645	911.39
443.019	921.56
443.394	913.42
443.769	929.47
444.143	948.9
444.518	949.35
444.892	952.52
445.267	954.1
445.641	971.5
446.016	933.99
446.39	974.21
446.764	954.1
447.139	932.18
447.513	965.4
447.887	951.61
448.262	990.26
448.636	973.08
449.01	994.32
449.384	989.13
449.758	986.87
450.132	1004.49
450.506	1000.88
450.88	984.38
451.254	1019.18
451.628	1020.54
452.002	1036.58
452.376	1055.34
452.75	1041.78
453.123	1035.23
453.497	1058.96
453.871	1082.23
454.244	1077.71
454.618	1078.84
454.992	1104.15
455.365	1085.4
455.739	1092.85
456.112	1139.41
456.486	1134.43
456.859	1144.15
457.232	1142.57
457.606	1134.89
457.979	1169.23
458.352	1170.59
458.725	1209.23
459.099	1199.97
459.472	1213.98
459.845	1213.53
460.218	1245.62
460.591	1220.98
460.964	1248.55
461.337	1251.72
461.71	1287.88
462.083	1288.1
462.456	1309.57
462.829	1313.19
463.201	1298.04
463.574	1341.21
463.947	1329
464.32	1347.99
464.692	1367.2
465.065	1374.43
465.438	1369.68
465.81	1391.83
466.183	1421.88
466.555	1432.5
466.928	1454.43
467.3	1422.56
467.672	1470.92
468.045	1459.85
468.417	1491.71
468.789	1529.45
469.161	1511.82
469.534	1538.49
469.906	1577.59
470.278	1555.67
470.65	1602.44
471.022	1610.58
471.394	1648.09
471.766	1658.94
472.138	1669.33
472.51	1667.75
472.882	1702.1
473.253	1710.69
473.625	1774.64
473.997	1761.76
474.369	1800.86
474.74	1816.68
475.112	1835.88
475.484	1864.36
475.855	1896.67
476.227	1912.49
476.598	1953.17
476.97	2018.48
477.341	1991.13
477.713	2052.38
478.084	2085.37
478.455	2070.23
478.827	2121.07
479.198	2145.71
479.569	2177.57
479.94	2222.09
480.311	2254.18
480.682	2303.67
481.053	2329.88
481.424	2332.14
481.795	2386.38
482.166	2374.4
482.537	2442.42
482.908	2466.6
483.279	2534.4
483.65	2555.41
484.021	2609.42
484.391	2662.98
484.762	2641.74
485.133	2682.87
485.503	2743.2
485.874	2780.04
486.244	2756.76
486.615	2832.69
486.985	2882.41
487.356	2928.74
487.726	2949.98
488.097	2941.39
488.467	2991.79
488.837	3045.57
489.207	3094.16
489.578	3161.5
489.948	3193.36
490.318	3201.72
490.688	3210.99
491.058	3230.2
491.428	3320.82
491.798	3307.26
492.168	3383.19
492.538	3404.66
492.908	3430.19
493.278	3460.7
493.648	3494.15
494.017	3554.48
494.387	3562.39
494.757	3624.09
495.126	3627.93
495.496	3606.23
495.866	3665.44
496.235	3667.7
496.605	3692.11
496.974	3743.18
497.344	3730.75
497.713	3822.27
498.082	3827.47
498.452	3851.42
498.821	3889.62
499.19	3871.54
499.559	3876.51
499.928	3934.59
500.298	3963.29
500.667	3987.24
501.036	3977.97
501.405	4003.51
501.774	3967.58
502.143	4062.49
502.512	4086.9
502.88	4092.1
503.249	4092.55
503.618	4129.38
503.987	4123.28
504.356	4153.79
504.724	4202.6
505.093	4180.46
505.462	4229.49
505.83	4274.46
506.199	4256.61
506.567	4309.72
506.936	4305.65
507.304	4332.09
507.672	4359.66
508.041	4320.79
508.409	4377.06
508.777	4420.9
509.145	4468.36
509.514	4475.14
509.882	4481.69
510.25	4457.96
510.618	4518.3
510.986	4531.41
511.354	4549.94
511.722	4558.3
512.09	4618.86
512.458	4615.92
512.826	4652.76
513.193	4637.17
513.561	4639.88
513.929	4655.47
514.297	4724.4
514.664	4703.15
515.032	4750.84
515.4	4754.9
515.767	4781.8
516.135	4782.25
516.502	4728.92
516.869	4805.3
517.237	4844.17
517.604	4809.59
517.972	4828.35
518.339	4882.81
518.706	4856.82
519.073	4854.79
519.44	4885.3
519.808	4961.23
520.175	4896.14
520.542	4986.31
520.909	4953.32
521.276	4979.76
521.643	5042.81
522.009	5027.44
522.376	5066.76
522.743	5094.78
523.11	5125.51
523.477	5146.98
523.843	5191.05
524.21	5231.5
524.577	5264.95
524.943	5257.49
525.31	5341.1
525.676	5327.32
526.043	5378.16
526.409	5379.29
526.776	5416.81
527.142	5426.3
527.508	5485.96
527.874	5441.89
528.241	5523.92
528.607	5508.56
528.973	5607.99
529.339	5610.47
529.705	5606.41
530.071	5652.05
530.437	5716.91
530.803	5641.66
531.169	5716.69
531.535	5731.37
531.901	5780.41
532.267	5758.94
532.632	5816.57
532.998	5816.57
533.364	5851.15
533.73	5897.92
534.095	5930.01
534.461	5931.14
534.826	5941.76
535.192	5957.81
535.557	6022.21
535.923	6018.37
536.288	6053.85
536.653	6072.38
537.019	6090.69
537.384	6075.77
537.749	6107.86
538.114	6108.77
538.479	6193.74
538.845	6222.44
539.21	6231.47
539.575	6254.07
539.94	6263.11
540.305	6359.61
540.67	6294.52
541.034	6358.02
541.399	6364.35
541.764	6414.97
542.129	6401.87
542.494	6469.66
542.858	6445.25
543.223	6468.08
543.587	6495.2
543.952	6513.73
544.316	6598.24
544.681	6597.11
545.045	6649.99
545.41	6662.88
545.774	6704
546.138	6730.9
546.503	6758.47
546.867	6733.83
547.231	6792.14
547.595	6790.78
547.959	6825.81
548.324	6876.2
548.688	6859.48
549.052	6915.75
549.416	6873.94
549.779	6939.93
550.143	6952.81
550.507	7004.79
550.871	6971.79
551.235	6980.61
551.599	7056.99
551.962	7089.98
552.326	7093.37
552.689	7141.96
553.053	7130.21
553.417	7138.12
553.78	7216.99
554.143	7183.31
554.507	7241.39
554.87	7267.38
555.234	7337.66
555.597	7264.89
555.96	7358.9
556.323	7326.59
556.686	7346.02
557.05	7440.48
557.413	7423.31
557.776	7478.9
558.139	7463.53
558.502	7459.69
558.865	7493.59
559.228	7602.96
559.59	7533.81
559.953	7530.65
560.316	7623.3
560.679	7727.48
561.041	7611.78
561.404	7642.96
561.767	7729.29
562.129	7772.9
562.492	7749.85
562.854	7803.64
563.217	7799.57
563.579	7893.8
563.941	7950.07
564.304	7895.84
564.666	7964.99
565.028	7992.11
565.39	7950.3
565.753	8032.56
566.115	8089.96
566.477	8111.43
566.839	8072.56
567.201	8134.48
567.563	8209.28
567.925	8228.26
568.287	8199.33
568.648	8196.39
569.01	8290.86
569.372	8324.75
569.734	8210.63
570.095	8441.81
570.457	8438.2
570.819	8426.45
571.18	8388.25
571.542	8592.77
571.903	8641.81
572.265	8602.94
572.626	8627.12
572.987	8656.27
573.349	8731.97
573.71	8733.78
574.071	8824.17
574.432	8893.33
574.794	8949.37
575.155	9036.6
575.516	9050.61
575.877	9122.47
576.238	9127.9
576.599	9228.68
576.96	9269.81
577.32	9356.59
577.681	9447.44
578.042	9533.08
578.403	9625.74
578.763	9745.73
579.124	9781.89
579.485	9853.53
579.845	9983.01
580.206	10036.12
580.566	10159.96
580.927	10318.15
581.287	10465.71
581.648	10500.74
582.008	10693.5
582.368	10819.38
582.728	10960.84
583.089	11077.9
583.449	11200.84
583.809	11426.82
584.169	11516.76
584.529	11745.45
584.889	12005.33
585.249	12042.4
585.609	12275.61
585.969	12561.03
586.329	12687.58
586.688	12908.81
587.048	13113.78
587.408	13326.88
587.768	13487.33
588.127	13643.48
588.487	13929.8
588.846	14315.1
589.206	14410.02
589.565	14659.73
589.925	15041.86
590.284	15208.64
590.643	15456.99
591.003	15729.76
591.362	16074.38
591.721	16285
592.08	16554.37
592.44	16873.91
592.799	17203.39
593.158	17370.16
593.517	17700.55
593.876	17990.94
594.235	18282.91
594.593	18571.49
594.952	18934.42
595.311	19170.57
595.67	19412.14
596.029	19857.78
596.387	20152.46
596.746	20499.35
597.104	20632.45
597.463	20955.61
597.822	21365.54
598.18	21494.8
598.538	21775.92
598.897	22175.91
599.255	22366.87
599.613	22864.71
599.972	23084.14
600.33	23410.23
600.688	23542.66
601.046	23914.63
601.404	24323.65
601.762	24364.11
602.12	24790.31
602.478	25037.76
602.836	25374.25
603.194	25358.2
603.552	25852.2
603.91	26054.23
604.268	26390.72
604.625	26478.85
604.983	26870.03
605.341	26971.27
605.698	27426.62
606.056	27706.16
606.413	27780.74
606.771	28121.97
607.128	28282.19
607.485	28422.53
607.843	28729.19
608.2	29048.73
608.557	29408.72
608.914	29434.71
609.272	29757.64
609.629	30105.42
609.986	30330.95
610.343	30431.06
610.7	30830.15
611.057	30971.84
611.414	31129.35
611.771	31389.46
612.127	31599.17
612.484	31637.59
612.841	32069.89
613.198	32060.63
613.554	32304.01
613.911	32595.98
614.267	32706.26
614.624	32875.52
614.98	33012.92
615.337	33382.85
615.693	33412.91
616.05	33552.79
616.406	33837.08
616.762	33718.21
617.118	34014.92
617.475	33926.34
617.831	34304.86
618.187	34414.69
618.543	34558.64
618.899	34910.49
619.255	34783.94
619.611	34951.85
619.967	35147.32
620.323	35278.17
620.678	35303.03
621.034	35467.77
621.39	35524.49
621.746	35470.93
622.101	36152.72
622.457	36005.83
622.812	36023.01
623.168	36209.9
623.523	36301.64
623.879	36538.25
624.234	36338.71
624.589	36563.56
624.945	36651.24
625.3	36652.14
625.655	36826.38
626.01	36799.48
626.365	37035.64
626.72	36889.2
627.075	37084.9
627.43	37022.08
627.785	36987.28
628.14	37226.59
628.495	37342.52
628.85	37365.57
629.205	37304.1
629.559	37559.24
629.914	37406.02
630.269	37441.05
630.623	37400.6
630.978	37488.28
631.332	37562.85
631.687	37815.73
632.041	37616.41
632.396	37832.68
632.75	37448.73
633.104	37693.02
633.459	37646.02
633.813	37634.94
634.167	37503.65
634.521	37717.65
634.875	37667.71
635.229	37765.56
635.583	37499.8
635.937	37653.25
636.291	37656.64
636.645	37683.3
636.999	37627.03
637.352	37866.57
637.706	37473.82
638.06	37836.97
638.413	37690.08
638.767	37664.32
639.121	37667.71
639.474	37451.67
639.828	37636.07
640.181	37729.86
640.534	37667.48
640.888	37589.52
641.241	37393.59
641.594	37541.39
641.947	37583.42
642.301	37457.55
642.654	37607.6
643.007	37658.22
643.36	37652.12
643.713	37601.5
644.066	37678.78
644.419	37496.19
644.771	37307.72
645.124	37001.96
645.477	36821.63
645.83	36747.51
646.182	36615.08
646.535	36462.77
646.888	36702.31
647.24	36407.63
647.593	36458.25
647.945	36432.49
648.298	36298.25
648.65	36400.17
649.002	36158.82
649.355	36488.31
649.707	36333.51
650.059	36432.04
650.411	36849.65
650.763	36937.33
651.115	37415.06
651.467	37171.45
651.819	37263.2
652.171	37239.02
652.523	37177.55
652.875	37087.39
653.227	37004.68
653.578	37201.28
653.93	37295.97
654.282	37088.06
654.633	36914.06
654.985	36983.21
655.337	37036.99
655.688	36948.41
656.039	37126.03
656.391	36770.56
656.742	36926.49
657.094	36860.05
657.445	37054.39
657.796	36901.63
658.147	36865.47
658.498	36839.48
658.849	36868.86
659.2	36870.67
659.551	36797.9
659.902	36896.66
660.253	36836.55
660.604	36778.02
660.955	36632.26
661.306	36776.89
661.656	36666.61
662.007	36742.08
662.358	36691.46
662.708	36724.23
663.059	36718.81
663.409	36474.3
663.76	36762.65
664.11	36831.12
664.461	36685.14
664.811	36747.51
665.161	36700.28
665.511	36615.76
665.862	36761.29
666.212	36662.09
666.562	36813.95
666.912	36693.72
667.262	36629.77
667.612	36527.85
667.962	36702.76
668.312	36552.03
668.662	36659.15
669.011	36592.26
669.361	36623.22
669.711	36448.53
670.06	36552.49
670.41	36497.57
670.76	36512.49
671.109	36580.73
671.459	36525.37
671.808	36437.01
672.157	36643.56
672.507	36371.02
672.856	36382.77
673.205	36475.43
673.554	36538.25
673.904	36474.52
674.253	36653.05
674.602	36363.79
674.951	36048.32
675.3	35716.35
675.649	36374.41
675.998	36193.62
676.346	36327.63
676.695	36429.78
677.044	36330.8
677.393	36267.75
677.741	36230.69
678.09	36152.04
678.438	36131.48
678.787	36225.49
679.135	36335.32
679.484	35942.78
679.832	36090.12
680.181	35905.04
680.529	35940.52
680.877	35877.7
681.225	35879.06
681.573	36193.17
681.922	35764.26
682.27	35681.55
682.618	35658.5
682.966	35657.82
683.314	35731.49
683.661	35541.21
684.009	35381.67
684.357	35382.57
684.705	35278.17
685.053	35404.27
685.4	35286.3
685.748	35078.4
686.095	35102.35
686.443	35004.28
686.79	35014.67
687.138	34924.73
687.485	35085.18
687.832	34995.46
688.18	34973.77
688.527	34642.48
688.874	34635.47
689.221	34618.52
689.568	34482.48
689.915	34626.66
690.262	34673.66
690.609	34440.22
690.956	34343.5
691.303	34287.91
691.65	34094.7
691.997	34045.43
692.344	33950.07
692.69	33851.54
693.037	33973.57
693.383	33535.16
693.73	33894.93
694.077	33655.39
694.423	33498.1
694.769	33492.23
695.116	33312.8
695.462	33272.8
695.808	33274.61
696.155	33311.21
696.501	32984.9
696.847	32963.88
697.193	32881.17
697.539	32897.21
697.885	32777.22
698.231	32524.79
698.577	32615.19
698.923	32510.33
699.269	32413.61
699.614	32259.94
699.96	32217.01
700.306	32265.59
700.651	32015.2
700.997	31839.84
701.342	31841.2
701.688	31861.99
702.033	31685.72
702.379	31703.8
702.724	31725.04
703.069	31695.44
703.415	31223.13
703.76	31421.09
704.105	31439.85
704.45	31252.51
704.795	31042.8
705.14	30932.75
705.485	30944.5
705.83	30855.23
706.175	30780.43
706.52	30774.78
706.865	30645.75
707.209	30644.39
707.554	30482.14
707.899	30597.61
708.243	30477.39
708.588	30364.85
708.932	30222.71
709.277	30278.75
709.621	30306.32
709.966	29982.71
710.31	30008.02
710.654	29831.08
710.998	29996.5
711.342	30001.47
711.687	29930.96
712.031	29633.8
712.375	29664.98
712.719	29610.75
713.063	29468.15
713.407	29603.97
713.75	29543.4
714.094	29501.15
714.438	29365.56
714.782	29307.93
715.125	29235.39
715.469	29295.95
715.812	29041.04
716.156	28838.56
716.499	28990.88
716.843	29126.01
717.186	28770.77
717.53	29037.65
717.873	28963.53
718.216	28816.87
718.559	28674.05
718.902	28609.42
719.246	28714.5
719.589	28575.07
719.932	28411.91
720.275	28473.83
720.617	28374.4
720.96	28356.99
721.303	28251.23
721.646	28376.88
721.989	28100.05
722.331	28216.43
722.674	28052.82
723.016	28257.56
723.359	28091.46
723.701	28120.16
724.044	27953.84
724.386	27829.1
724.729	27959.26
725.071	27856.89
725.413	27897.57
725.755	27783.9
726.097	27606.05
726.439	27489.9
726.782	27553.17
727.124	27638.37
727.465	27378.94
727.807	27497.13
728.149	27380.3
728.491	27346.63
728.833	27409.45
729.175	27342.56
729.516	27238.61
729.858	27171.94
730.199	27143.47
730.541	27065.5
730.882	27116.58
731.224	27185.5
731.565	26973.08
731.906	27020.76
732.248	26969.46
732.589	26812.4
732.93	26809.24
733.271	26828.45
733.612	26883.59
733.953	26859.18
734.294	26686.3
734.635	26651.95
734.976	26702.57
735.317	26468.68
735.658	26574.89
735.999	26604.05
736.339	26466.42
736.68	26449.93
737.021	26380.55
737.361	26263.72
737.702	26421.9
738.042	26394.11
738.383	26305.3
738.723	26310.95
739.063	26244.73
739.404	26215.58
739.744	26248.12
740.084	26154.79
740.424	26045.64
740.764	26010.84
741.104	26201.8
741.444	25906.66
741.784	25845.65
742.124	25887.23
742.464	25767.91
742.804	25706.89
743.143	25705.54
743.483	25807.91
743.823	25594.58
744.162	25631.87
744.502	25665.31
744.841	25605.2
745.181	25530.4
745.52	25408.82
745.86	25550.74
746.199	25394.59
746.538	25444.3
746.877	25439.78
747.216	25421.93
747.556	25354.59
747.895	25293.57
748.234	25240.69
748.573	25107.81
748.911	25195.27
749.25	25197.08
749.589	25047.25
749.928	24979.91
750.267	25131.32
750.605	24960.02
750.944	24894.26
751.283	24875.28
751.621	24994.82
751.96	24753.25
752.298	24764.55
752.636	24753.25
752.975	24643.87
753.313	24543.08
753.651	24688.16
753.989	24461.28
754.327	24426.48
754.666	24378.12
755.004	24308.51
755.342	24346.93
755.679	24405.91
756.017	24128.86
756.355	24170.21
756.693	24075.3
757.031	24159.59
757.368	23920.73
757.706	23946.04
758.044	23869.88
758.381	23898.58
758.719	23791.01
759.056	23710.79
759.394	23629.44
759.731	23581.07
760.068	23555.99
760.405	23485.26
