Data from hue_50_FLMS001491_17.txt Node
Date: Mon Feb 06 15:09:40 GMT 2017
User: dcchb
Spectrometer: FLMS00149
Trigger mode: 0
Integration Time (sec): 2.000000E-2
Scans to average: 10
Electric dark correction enabled: true
Nonlinearity correction enabled: false
Boxcar width: 0
XAxis mode: Wavelengths
Number of Pixels in Spectrum: 2048
>>>>>Begin Spectral Data<<<<<
341.393	2.87
341.776	2.87
342.16	2.87
342.543	-39.62
342.927	-67.41
343.31	-50.92
343.693	-57.92
344.077	-48.66
344.46	-69.45
344.843	-56.34
345.226	-38.26
345.61	-33.29
345.993	-15.21
346.376	12.58
346.759	-1.2
347.142	28.86
347.525	29.53
347.908	47.61
348.291	62.75
348.674	96.42
349.057	93.49
349.44	123.09
349.823	158.34
350.206	141.85
350.588	207.61
350.971	203.09
351.354	221.62
351.737	235.86
352.119	259.81
352.502	276.98
352.884	285.35
353.267	291.9
353.65	313.37
354.032	278.57
354.414	310.66
354.797	321.28
355.179	311.56
355.562	323.08
355.944	328.06
356.326	343.65
356.709	342.75
357.091	325.12
357.473	326.25
357.855	345.68
358.238	340.49
358.62	359.47
359.002	338.68
359.384	357.21
359.766	361.5
360.148	343.88
360.53	352.01
360.912	350.65
361.294	359.24
361.676	331.45
362.057	363.76
362.439	312.01
362.821	313.14
363.203	336.19
363.584	330.09
363.966	332.58
364.348	326.93
364.729	323.31
365.111	304.55
365.493	335.29
365.874	316.76
366.256	321.73
366.637	307.04
367.019	323.08
367.4	305.01
367.781	318.34
368.163	338.9
368.544	317.21
368.925	324.44
369.306	315.63
369.688	326.47
370.069	314.95
370.45	314.72
370.831	325.34
371.212	338.45
371.593	315.63
371.974	322.86
372.355	332.8
372.736	322.18
373.117	324.21
373.498	335.51
373.879	317.21
374.26	309.07
374.641	322.86
375.021	316.31
375.402	325.12
375.783	320.15
376.163	335.51
376.544	319.69
376.925	330.09
377.305	311.33
377.686	346.59
378.066	332.12
378.447	340.49
378.827	338.68
379.208	331.22
379.588	349.07
379.968	326.47
380.349	320.37
380.729	335.29
381.109	317.66
381.489	341.39
381.87	352.24
382.25	327.83
382.63	343.42
383.01	335.06
383.39	341.84
383.77	363.76
384.15	354.5
384.53	327.6
384.91	340.49
385.29	341.84
385.67	349.3
386.049	367.38
386.429	330.77
386.809	367.83
387.189	330.77
387.568	335.51
387.948	337.77
388.328	343.2
388.707	340.03
389.087	360.15
389.466	372.8
389.846	374.61
390.225	373.7
390.605	347.94
390.984	339.81
391.363	360.82
391.743	375.74
392.122	335.06
392.501	353.59
392.881	364.21
393.26	388.17
393.639	372.12
394.018	373.93
394.397	374.61
394.776	371.45
395.155	348.62
395.534	362.18
395.913	377.32
396.292	388.62
396.671	377.77
397.05	382.07
397.429	390.43
397.808	382.29
398.186	382.74
398.565	378.45
398.944	378
399.323	377.09
399.701	384.1
400.08	394.04
400.458	381.84
400.837	399.69
401.215	390.43
401.594	395.4
401.972	408.28
402.351	389.07
402.729	400.6
403.107	386.36
403.486	374.38
403.864	396.3
404.242	398.34
404.62	398.11
404.999	395.4
405.377	384.1
405.755	391.56
406.133	376.64
406.511	412.12
406.889	426.13
407.267	442.4
407.645	415.74
408.023	405.34
408.401	399.01
408.779	408.05
409.156	421.61
409.534	415.51
409.912	421.39
410.29	461.61
410.667	444.44
411.045	425.68
411.422	435.17
411.8	422.97
412.178	453.7
412.555	431.1
412.933	450.09
413.31	442.63
413.687	465.91
414.065	435.17
414.442	436.98
414.819	463.87
415.197	456.87
415.574	448.28
415.951	438.11
416.328	447.6
416.705	455.28
417.082	465.23
417.46	464.32
417.837	455.96
418.214	457.77
418.591	478.11
418.967	480.14
419.344	492.57
419.721	488.96
420.098	509.75
420.475	482.4
420.852	506.36
421.228	504.55
421.605	526.02
421.982	495.96
422.358	493.7
422.735	495.74
423.111	498.9
423.488	501.39
423.864	500.03
424.241	503.19
424.617	485.34
424.994	522.85
425.37	540.71
425.746	520.82
426.123	535.96
426.499	519.24
426.875	522.4
427.251	541.38
427.627	524.44
428.003	562.4
428.379	552.68
428.756	551.78
429.132	537.32
429.507	547.26
429.883	552.68
430.259	566.47
430.635	576.86
431.011	566.02
431.387	587.03
431.763	596.3
432.138	573.93
432.514	586.58
432.89	592
433.265	580.71
433.641	595.39
434.016	611.89
434.392	627.94
434.767	616.86
435.143	620.03
435.518	610.31
435.894	613.7
436.269	634.94
436.644	635.62
437.02	627.71
437.395	635.39
437.77	654.15
438.145	638.33
438.52	636.75
438.895	657.09
439.271	643.53
439.646	660.25
440.021	650.99
440.395	657.99
440.77	678.1
441.145	664.77
441.52	677.65
441.895	671.1
442.27	680.82
442.645	691.89
443.019	694.6
443.394	691.21
443.769	698.89
444.143	694.37
444.518	708.84
444.892	727.37
445.267	693.47
445.641	711.55
446.016	715.62
446.39	723.53
446.764	716.07
447.139	711.32
447.513	708.16
447.887	751.32
448.262	735.73
448.636	732.34
449.01	745.67
449.384	747.48
449.758	751.1
450.132	760.59
450.506	755.62
450.88	750.19
451.254	758.55
451.628	799.23
452.002	789.51
452.376	791.77
452.75	819.12
453.123	773.02
453.497	787.48
453.871	812.34
454.244	804.65
454.618	809.85
454.992	814.6
455.365	838.78
455.739	856.63
456.112	881.49
456.486	848.49
456.859	854.6
457.232	902.5
457.606	890.53
457.979	879.45
458.352	912.67
458.725	916.74
459.099	926.23
459.472	909.28
459.845	925.55
460.218	944.31
460.591	931.43
460.964	949.28
461.337	961.71
461.71	963.52
462.083	1012.11
462.456	981.37
462.829	1006.46
463.201	1016.63
463.574	1032.22
463.947	1061.14
464.32	1031.09
464.692	1066.57
465.065	1082.39
465.438	1115.38
465.81	1092.1
466.183	1154.48
466.555	1147.92
466.928	1131.88
467.3	1139.79
467.672	1218.88
468.045	1227.02
468.417	1236.28
468.789	1240.8
469.161	1249.16
469.534	1248.71
469.906	1325.32
470.278	1318.09
470.65	1322.83
471.022	1351.53
471.394	1394.47
471.766	1415.49
472.138	1436.5
472.51	1461.36
472.882	1517.4
473.253	1514.69
473.625	1549.72
473.997	1603.05
474.369	1627.91
474.74	1648.47
475.112	1664.29
475.484	1706.55
475.855	1787.68
476.227	1827.68
476.598	1866.55
476.97	1900.44
477.341	1954.45
477.713	1989.93
478.084	2037.16
478.455	2105.64
478.827	2138.4
479.198	2247.78
479.569	2267.67
479.94	2382.01
480.311	2404.61
480.682	2482.35
481.053	2579.75
481.424	2602.57
481.795	2671.05
482.166	2772.74
482.537	2821.1
482.908	2907.88
483.279	3007.76
483.65	3105.16
484.021	3205.95
484.391	3270.35
484.762	3371.37
485.133	3374.76
485.503	3518.48
485.874	3647.97
486.244	3733.16
486.615	3878.7
486.985	3920.28
487.356	4088.18
487.726	4166.15
488.097	4301.06
488.467	4370.21
488.837	4548.28
489.207	4660.15
489.578	4782.85
489.948	4878.9
490.318	5002.96
490.688	5109.4
491.058	5248.83
491.428	5359.11
491.798	5478.66
492.168	5666.22
492.538	5732.43
492.908	5830.06
493.278	6014.23
493.648	6110.73
494.017	6254
494.387	6411.74
494.757	6462.36
495.126	6622.13
495.496	6715.69
495.866	6876.36
496.235	6965.17
496.605	7162.45
496.974	7183.02
497.344	7409.45
497.713	7451.26
498.082	7537.36
498.452	7786.39
498.821	7854.19
499.19	7938.7
499.559	8134.18
499.928	8238.58
500.298	8325.59
500.667	8453.72
501.036	8524
501.405	8655.75
501.774	8732.58
502.143	8930.99
502.512	9090.31
502.88	9095.96
503.249	9198.78
503.618	9328.95
503.987	9445.78
504.356	9570.07
504.724	9647.13
505.093	9736.17
505.462	9882.38
505.83	9964.64
506.199	10069.95
506.567	10287.79
506.936	10296.61
507.304	10475.81
507.672	10597.62
508.041	10603.04
508.409	10795.8
508.777	10833.77
509.145	11031.5
509.514	10940.66
509.882	11110.82
510.25	11206.41
510.618	11295
510.986	11428.56
511.354	11548.55
511.722	11624.71
512.09	11812.27
512.458	11802.1
512.826	11982.21
513.193	12048.88
513.561	12138.59
513.929	12234.18
514.297	12353.95
514.664	12472.6
515.032	12533.39
515.4	12693.15
515.767	12786.49
516.135	12791.23
516.502	12839.14
516.869	13123.65
517.237	13143.31
517.604	13166.59
517.972	13339.47
518.339	13403.64
518.706	13470.99
519.073	13536.52
519.44	13636.86
519.808	13797.53
520.175	13787.82
520.542	14038.2
520.909	14044.98
521.276	14081.82
521.643	14269.84
522.009	14385.99
522.376	14508.25
522.743	14654.69
523.11	14677.74
523.477	14894.9
523.843	14925.64
524.21	15054
524.577	15217.38
524.943	15305.97
525.31	15361.56
525.676	15600.42
526.043	15575.11
526.409	15698.73
526.776	15935.78
527.142	15922
527.508	16048.55
527.874	16224.14
528.241	16396.56
528.607	16398.37
528.973	16501.64
529.339	16470.46
529.705	16691.02
530.071	16784.57
530.437	16891.69
530.803	17040.39
531.169	17064.79
531.535	17094.17
531.901	17136.2
532.267	17248.74
532.632	17370.77
532.998	17357.21
533.364	17542.52
533.73	17613.48
534.095	17678.56
534.461	17781.38
534.826	17853.7
535.192	18004.88
535.557	18074.71
535.923	18075.16
536.288	18170.07
536.653	18330.97
537.019	18227.47
537.384	18382.27
537.749	18615.03
538.114	18527.58
538.479	18584.07
538.845	18655.03
539.21	18646.9
539.575	18746.78
539.94	18862.03
540.305	18937.06
540.67	18839.43
541.034	18964.63
541.399	19070.84
541.764	19145.41
542.129	19255.69
542.494	19347.22
542.858	19339.08
543.223	19334.34
543.587	19592.41
543.952	19552.18
544.316	19645.06
544.681	19695.91
545.045	19762.35
545.41	19997.6
545.774	19900.88
546.138	19932.74
546.503	19965.51
546.867	19969.12
547.231	20146.97
547.595	20264.93
547.959	20255.89
548.324	20367.98
548.688	20408.21
549.052	20441.65
549.416	20472.39
549.779	20506.73
550.143	20538.37
550.507	20803
550.871	20875.76
551.235	20773.39
551.599	20957.12
551.962	20953.5
552.326	21052.94
552.689	21191.46
553.053	21069.43
553.417	21225.36
553.78	21526.6
554.143	21501.96
554.507	21545.8
554.87	21588.29
555.234	21814.27
555.597	21678.46
555.96	21780.6
556.323	21863.08
556.686	21867.6
557.05	22107.6
557.413	22160.02
557.776	22191.66
558.139	22380.58
558.502	22449.51
558.865	22442.73
559.228	22639.11
559.59	22668.94
559.953	22776.05
560.316	22985.99
560.679	22911.87
561.041	23128.36
561.404	23179.88
561.767	23201.58
562.129	23267.79
562.492	23564.73
562.854	23523.83
563.217	23597.28
563.579	23673.88
563.941	23830.26
564.304	23904.16
564.666	24067.55
565.028	24106.87
565.39	24108
565.753	24167.2
566.115	24401.32
566.477	24460.76
566.839	24534.43
567.201	24694.2
567.563	24750.47
567.925	24961.53
568.287	24934.87
568.648	24991.81
569.01	25163.56
569.372	25299.38
569.734	25284.91
570.095	25431.13
570.457	25546.38
570.819	25547.96
571.18	25652.36
571.542	25859.59
571.903	25896.88
572.265	25926.71
572.626	25915.41
572.987	26181.16
573.349	26220.48
573.71	26309.75
574.071	26349.07
574.432	26429.06
574.794	26753.12
575.155	26601.94
575.516	26649.4
575.877	26816.63
576.238	26949.73
576.599	26935.04
576.96	26965.77
577.32	27086.67
577.681	27236.73
578.042	27342.71
578.403	27336.16
578.763	27468.81
579.124	27687.79
579.485	27768.46
579.845	27725.53
580.206	27812.31
580.566	27867.22
580.927	27988.12
581.287	28147.66
581.648	28146.53
582.008	28399.18
582.368	28306.53
582.728	28488.45
583.089	28515.79
583.449	28568.22
583.809	28846.63
584.169	28828.55
584.529	28891.15
584.889	29171.82
585.249	29106.28
585.609	29042.33
585.969	29460.62
586.329	29301.08
586.688	29458.59
587.048	29570.68
587.408	29652.94
587.768	29672.14
588.127	29757.79
588.487	29779.49
588.846	30091.12
589.206	29956.88
589.565	30112.81
589.925	30327.72
590.284	30453.37
590.643	30390.09
591.003	30562.52
591.362	30620.82
591.721	30640.48
592.08	30767.71
592.44	31151.2
592.799	31096.96
593.158	31097.87
593.517	31134.93
593.876	31268.03
594.235	31208.83
594.593	31438.42
594.952	31583.28
595.311	31561.13
595.67	31722.94
596.029	32003.83
596.387	32083.38
596.746	32137.16
597.104	32131.51
597.463	32130.61
597.822	32352.98
598.18	32247.22
598.538	32403.15
598.897	32696.02
599.255	32364.73
599.613	33045.16
599.972	32750.48
600.33	32903.02
600.688	32769.01
601.046	33100.98
601.404	33228.66
601.762	33198.6
602.12	33368.54
602.478	33443.57
602.836	33457.13
603.194	33379.84
603.552	33573.28
603.91	33393.85
604.268	33707.97
604.625	33698.93
604.983	34001.75
605.341	33869.32
605.698	33984.12
606.056	34088.75
606.413	34175.98
606.771	34307.05
607.128	34359.48
607.485	34300.04
607.843	34271.57
608.2	34651.9
608.557	34753.59
608.914	34616.42
609.272	34773.7
609.629	34923.3
609.986	35022.96
610.343	34857.32
610.7	35210.08
611.057	35206.91
611.414	35170.3
611.771	35245.78
612.127	35430.64
612.484	35452.78
612.841	35401.71
613.198	35413.46
613.554	35367.81
613.911	35713.34
614.267	35699.78
614.624	35749.95
614.98	35958.53
615.337	36096.16
615.693	36003.95
616.05	36044.41
616.406	36252.08
616.762	36117.17
617.118	36230.39
617.475	36217.73
617.831	36352.87
618.187	36410.5
618.543	36357.39
618.899	36703.82
619.255	36684.61
619.611	36617.95
619.967	36836.7
620.323	36893.2
620.678	36849.81
621.034	36882.35
621.39	36830.37
621.746	36821.56
622.101	37148.78
622.457	36931.84
622.812	37045.28
623.168	37183.36
623.523	37162.57
623.879	37235.33
624.234	37070.82
624.589	37107.2
624.945	37386.07
625.3	37177.93
625.655	37330.93
626.01	37359.4
626.365	37276.01
626.72	37321.89
627.075	37307.42
627.43	37459.74
627.785	37381.32
628.14	37433.52
628.495	37403.47
628.85	37620.86
629.205	37334.31
629.559	37706.96
629.914	37355.33
630.269	37546.06
630.623	37414.76
630.978	37319.17
631.332	37487.76
631.687	37603.01
632.041	37416.12
632.396	37456.12
632.75	37344.48
633.104	37309.91
633.459	37299.06
633.813	37398.49
634.167	37290.47
634.521	37211.83
634.875	37333.86
635.229	37298.38
635.583	37073.3
635.937	37156.69
636.291	37113.53
636.645	37118.73
636.999	37020.88
637.352	37157.37
637.706	36941.78
638.06	37199.4
638.413	37013.65
638.767	37021.1
639.121	37119.18
639.474	36906.08
639.828	36978.84
640.181	36942.01
640.534	36840.77
640.888	36848.45
641.241	36760.54
641.594	36843.25
641.947	36902.24
642.301	36761.67
642.654	36830.37
643.007	36848.68
643.36	36949.47
643.713	36745.86
644.066	36894.1
644.419	36653.43
644.771	36438.75
645.124	36082.37
645.477	36090.28
645.83	35647.13
646.182	35581.59
646.535	35691.19
646.888	35795.15
647.24	35550.86
647.593	35739.55
647.945	35706.79
648.298	35435.38
648.65	35364.42
649.002	35279.91
649.355	35455.72
649.707	35436.51
650.059	35582.27
650.411	35905.43
650.763	35984.97
651.115	36356.04
651.467	36183.16
651.819	36160.79
652.171	36098.64
652.523	36069.49
652.875	36113.56
653.227	35891.64
653.578	36230.84
653.93	36046.67
654.282	35981.58
654.633	35886.9
654.985	35893
655.337	35913.79
655.688	36014.35
656.039	36063.61
656.391	35738.88
656.742	35775.71
657.094	35911.08
657.445	35990.4
657.796	35870.4
658.147	35812.1
658.498	35765.32
658.849	35894.35
659.2	35737.29
659.551	35786.79
659.902	35918.98
660.253	35863.85
660.604	35887.8
660.955	35716.73
661.306	35820.68
661.656	35772.32
662.007	35751.08
662.358	35746.11
662.708	35683.28
663.059	35699.1
663.409	35455.95
663.76	35802.38
664.11	35692.78
664.461	35784.53
664.811	35721.93
665.161	35599.9
665.511	35639.67
665.862	35735.71
666.212	35788.14
666.562	35738.42
666.912	35639.67
667.262	35437.64
667.612	35661.36
667.962	35626.34
668.312	35527.58
668.662	35717.41
669.011	35535.72
669.361	35509.05
669.711	35360.58
670.06	35600.58
670.41	35397.19
670.76	35355.61
671.109	35526.45
671.459	35471.54
671.808	35313.58
672.157	35511.54
672.507	35140.47
672.856	35355.84
673.205	35343.18
673.554	35387.02
673.904	35381.6
674.253	35364.88
674.602	35327.36
674.951	34745.23
675.3	34629.08
675.649	35199
675.998	35256.63
676.346	35261.15
676.695	35287.59
677.044	34995.39
677.393	35160.59
677.741	35177.76
678.09	35110.42
678.438	35012.12
678.787	35134.6
679.135	35201.26
679.484	34852.57
679.832	34925.34
680.181	34700.03
680.529	34911.1
680.877	34713.14
681.225	34666.14
681.573	34943.87
681.922	34514.5
682.27	34610.77
682.618	34675.85
682.966	34528.96
683.314	34667.27
683.661	34507.5
684.009	34334.85
684.357	34224.34
684.705	34262.76
685.053	34254.85
685.4	34213.04
685.748	34001.75
686.095	34037.9
686.443	33884.24
686.79	33891.24
687.138	33866.38
687.485	33819.38
687.832	33688.31
688.18	33757.23
688.527	33621.64
688.874	33579.84
689.221	33585.04
689.568	33422.33
689.915	33349.56
690.262	33351.14
690.609	33299.62
690.956	33126.06
691.303	33072.05
691.65	33013.75
691.997	33107.08
692.344	32876.81
692.69	32890.14
693.037	32774.43
693.383	32655.34
693.73	32692.63
694.077	32543.71
694.423	32552.75
694.769	32414.44
695.116	32362.47
695.462	32344.16
695.808	32204.73
696.155	32301
696.501	32000.67
696.847	32057.62
697.193	31710.51
697.539	31800.22
697.885	31644.3
698.231	31616.27
698.577	31521.36
698.923	31448.14
699.269	31303.97
699.614	31200.69
699.96	31189.39
700.306	31313
700.651	31143.74
700.997	30981.49
701.342	30816.97
701.688	30877.76
702.033	30705.79
702.379	30847.48
702.724	30615.4
703.069	30726.81
703.415	30367.72
703.76	30279.13
704.105	30445.91
704.45	30250.43
704.795	30071.46
705.14	30062.87
705.485	30050.21
705.83	29854.06
706.175	30023.32
706.52	29838.92
706.865	29811.35
707.209	29707.17
707.554	29536.33
707.899	29559.6
708.243	29567.29
708.588	29481.41
708.932	29362.32
709.277	29359.16
709.621	29311.02
709.966	29062.67
710.31	29148.99
710.654	28987.64
710.998	28977.25
711.342	29080.52
711.687	28965.95
712.031	28747.65
712.375	28663.13
712.719	28713.75
713.063	28687.76
713.407	28735.22
713.75	28527.09
714.094	28507.65
714.438	28470.59
714.782	28448.9
715.125	28203.93
715.469	28258.85
715.812	28171.39
716.156	27927.78
716.499	28042.13
716.843	28106.31
717.186	27986.31
717.53	28169.81
717.873	28017.95
718.216	27856.37
718.559	27760.78
718.902	27582.03
719.246	27752.19
719.589	27636.94
719.932	27491.64
720.275	27421.36
720.617	27422.49
720.96	27432.43
721.303	27435.82
721.646	27441.92
721.989	27222.72
722.331	27281.7
722.674	27302.04
723.016	27295.48
723.359	27236.95
723.701	27199.89
724.044	27123.74
724.386	26940.01
724.729	27093.45
725.071	26867.47
725.413	26936.62
725.755	26831.77
726.097	26819.79
726.439	26594.48
726.782	26654.6
727.124	26839.68
727.465	26640.81
727.807	26594.71
728.149	26449.4
728.491	26522.4
728.833	26506.58
729.175	26354.72
729.516	26319.46
729.858	26341.16
730.199	26369.86
730.541	26307.26
730.882	26245.79
731.224	26196.98
731.565	26087.61
731.906	26146.36
732.248	26101.39
732.589	25974.16
732.93	25888.06
733.271	25977.33
733.612	25981.17
733.953	25946.14
734.294	25786.6
734.635	25723.77
734.976	25822.08
735.317	25542.31
735.658	25629.09
735.999	25622.98
736.339	25509.99
736.68	25696.88
737.021	25545.7
737.361	25389.32
737.702	25574.85
738.042	25613.04
738.383	25329.66
738.723	25415.31
739.063	25281.75
739.404	25444.91
739.744	25349.77
740.084	25160.62
740.424	25288.76
740.764	25103
741.104	25328.08
741.444	25163.11
741.784	25016.45
742.124	25065.49
742.464	25036.11
742.804	24993.62
743.143	24867.07
743.483	24989.55
743.823	24826.85
744.162	24845.15
744.502	24905.26
744.841	24748.88
745.181	24837.92
745.52	24630.02
745.86	24658.49
746.199	24633.63
746.538	24654.87
746.877	24552.28
747.216	24647.64
747.556	24452.85
747.895	24550.7
748.234	24427.99
748.573	24327.43
748.911	24249.91
749.25	24370.36
749.589	24197.03
749.928	24187.09
750.267	24189.12
750.605	24169.01
750.944	24030.26
751.283	23953.88
751.621	23969.47
751.96	23860.09
752.298	23990.71
752.636	23858.96
752.975	23726.99
753.313	23738.74
753.651	23704.39
753.989	23658.74
754.327	23653.77
754.666	23470.72
755.004	23609.03
755.342	23563.15
755.679	23451.74
756.017	23287.45
756.355	23357.51
756.693	23343.5
757.031	23277.96
757.368	23143.95
