Data from hue_330_FLMS001491_49.txt Node
Date: Mon Feb 06 15:45:27 GMT 2017
User: dcchb
Spectrometer: FLMS00149
Trigger mode: 0
Integration Time (sec): 2.000000E-2
Scans to average: 10
Electric dark correction enabled: true
Nonlinearity correction enabled: false
Boxcar width: 0
XAxis mode: Wavelengths
Number of Pixels in Spectrum: 2048
>>>>>Begin Spectral Data<<<<<
341.393	-13.71
341.776	-13.71
342.16	-13.71
342.543	-51.91
342.927	-68.18
343.31	-62.98
343.693	-70.89
344.077	-67.05
344.46	-71.11
344.843	-66.82
345.226	-39.02
345.61	-31.79
345.993	-0.83
346.376	-4.22
346.759	19.96
347.142	23.12
347.525	61.09
347.908	72.84
348.291	63.12
348.674	76.68
349.057	97.92
349.44	133.85
349.823	143.57
350.206	169.11
350.588	181.08
350.971	206.62
351.354	205.49
351.737	233.74
352.119	263.34
352.502	272.15
352.884	264.24
353.267	280.06
353.65	268.76
354.032	298.59
354.414	291.36
354.797	316.67
355.179	301.98
355.562	309.89
355.944	306.96
356.326	323.9
356.709	325.49
357.091	333.17
357.473	340.4
357.855	325.03
358.238	315.77
358.62	304.7
359.002	340.85
359.384	330.91
359.766	331.81
360.148	339.95
360.53	330.46
360.912	347.63
361.294	318.25
361.676	316.22
362.057	317.35
362.439	328.42
362.821	313.51
363.203	328.42
363.584	311.93
363.966	314.86
364.348	314.64
364.729	316.9
365.111	311.47
365.493	303.11
365.874	306.96
366.256	309.44
366.637	305.15
367.019	297.24
367.4	283.23
367.781	325.03
368.163	313.96
368.544	314.86
368.925	303.11
369.306	302.66
369.688	305.37
370.069	314.19
370.45	305.83
370.831	299.27
371.212	304.47
371.593	306.05
371.974	317.35
372.355	302.66
372.736	293.85
373.117	322.55
373.498	311.02
373.879	320.97
374.26	323.9
374.641	304.7
375.021	303.34
375.402	306.5
375.783	319.38
376.163	329.78
376.544	332.04
376.925	312.15
377.305	309.67
377.686	331.59
378.066	313.06
378.447	326.84
378.827	318.03
379.208	325.49
379.588	322.77
379.968	338.59
380.349	319.84
380.729	345.15
381.109	327.97
381.489	344.02
381.87	343.56
382.25	353.73
382.63	317.58
383.01	338.37
383.39	321.64
383.77	320.06
384.15	353.96
384.53	331.81
384.91	351.7
385.29	321.19
385.67	348.54
386.049	333.85
386.429	333.4
386.809	375.88
387.189	359.16
387.568	348.54
387.948	355.99
388.328	353.51
388.707	343.11
389.087	345.37
389.466	382.89
389.846	355.32
390.225	360.74
390.605	349.67
390.984	342.66
391.363	362.55
391.743	363.68
392.122	372.94
392.501	364.81
392.881	356.67
393.26	365.94
393.639	359.38
394.018	374.98
394.397	356.67
394.776	401.64
395.155	365.26
395.534	369.1
395.913	384.69
396.292	360.97
396.671	385.6
397.05	391.25
397.429	383.79
397.808	390.34
398.186	375.43
398.565	396.22
398.944	379.27
399.323	386.28
399.701	392.6
400.08	399.38
400.458	398.93
400.837	381.76
401.215	407.29
401.594	372.94
401.972	399.38
402.351	386.5
402.729	408.2
403.107	386.95
403.486	393.73
403.864	418.14
404.242	414.52
404.62	417.69
404.999	417.69
405.377	433.51
405.755	402.32
406.133	435.31
406.511	440.06
406.889	428.99
407.267	430.79
407.645	431.92
408.023	445.48
408.401	421.75
408.779	446.39
409.156	454.97
409.534	452.94
409.912	427.18
410.29	456.78
410.667	487.52
411.045	479.83
411.422	471.47
411.8	492.94
412.178	497.91
412.555	479.83
412.933	508.76
413.31	519.15
413.687	516.89
414.065	495.65
414.442	506.5
414.819	541.98
415.197	538.14
415.574	548.98
415.951	528.19
416.328	526.61
416.705	552.15
417.082	558.93
417.46	553.05
417.837	557.12
418.214	570
418.591	586.5
418.967	577.23
419.344	563.67
419.721	582.65
420.098	587.85
420.475	597.34
420.852	616.55
421.228	607.29
421.605	629.88
421.982	596.89
422.358	638.47
422.735	646.61
423.111	649.55
423.488	655.65
423.864	652.93
424.241	662.65
424.617	672.14
424.994	673.73
425.37	677.34
425.746	679.37
426.123	668.75
426.499	690.22
426.875	677.79
427.251	704.23
427.627	694.52
428.003	718.24
428.379	713.27
428.756	734.51
429.132	748.3
429.507	749.66
429.883	740.16
430.259	757.56
430.635	757.79
431.011	768.64
431.387	781.07
431.763	784
432.138	808.86
432.514	806.15
432.89	828.07
433.265	816.09
433.641	844.79
434.016	864.91
434.392	853.61
434.767	866.49
435.143	870.56
435.518	883.21
435.894	899.93
436.269	874.62
436.644	910.56
437.02	880.95
437.395	918.01
437.77	931.57
438.145	926.6
438.52	940.61
438.895	952.14
439.271	940.38
439.646	975.64
440.021	967.5
440.395	972.47
440.77	979.48
441.145	971.34
441.52	979.71
441.895	1007.95
442.27	1017.44
442.645	964.79
443.019	1000.04
443.394	997.56
443.769	1036.88
444.143	1014.06
444.518	1026.71
444.892	1001.63
445.267	1026.26
445.641	1007.28
446.016	1031.46
446.39	1053.83
446.764	1055.18
447.139	1067.61
447.513	1065.81
447.887	1070.32
448.262	1090.89
448.636	1074.62
449.01	1042.3
449.384	1094.28
449.758	1076.43
450.132	1099.02
450.506	1086.37
450.88	1094.05
451.254	1087.05
451.628	1116.2
452.002	1126.37
452.376	1145.13
452.75	1146.26
453.123	1135.63
453.497	1165.46
453.871	1155.97
454.244	1154.16
454.618	1174.95
454.992	1180.83
455.365	1201.62
455.739	1205.91
456.112	1220.38
456.486	1200.49
456.859	1230.77
457.232	1247.72
457.606	1261.96
457.979	1245.01
458.352	1273.71
458.725	1287.72
459.099	1294.73
459.472	1306.7
459.845	1292.01
460.218	1313.03
460.591	1336.53
460.964	1333.82
461.337	1373.14
461.71	1361.62
462.083	1417.43
462.456	1369.3
462.829	1377.44
463.201	1400.49
463.574	1415.4
463.947	1410.65
464.32	1428.28
464.692	1467.15
465.065	1480.94
465.438	1459.92
465.81	1521.61
466.183	1511.9
466.555	1530.43
466.928	1522.97
467.3	1516.64
467.672	1564.1
468.045	1581.95
468.417	1541.72
468.789	1558.22
469.161	1607.71
469.534	1615.17
469.906	1651.1
470.278	1656.3
470.65	1675.51
471.022	1706.92
471.394	1688.61
471.766	1720.03
472.138	1745.56
472.51	1788.5
472.882	1813.36
473.253	1808.84
473.625	1818.1
473.997	1875.28
474.369	1871.21
474.74	1876.41
475.112	1929.29
475.484	1921.38
475.855	1945.78
476.227	1978.78
476.598	2002.73
476.97	2014.71
477.341	2056.29
477.713	2070.52
478.084	2102.61
478.455	2126.12
478.827	2158.21
479.198	2197.53
479.569	2223.74
479.94	2272.1
480.311	2294.7
480.682	2302.61
481.053	2354.36
481.424	2393
481.795	2411.31
482.166	2436.39
482.537	2451.31
482.908	2488.37
483.279	2525.65
483.65	2510.06
484.021	2588.48
484.391	2592.54
484.762	2635.26
485.133	2623.73
485.503	2691.98
485.874	2737.4
486.244	2723.61
486.615	2783.27
486.985	2850.39
487.356	2802.48
487.726	2852.65
488.097	2911.41
488.467	2938.52
488.837	2961.35
489.207	2977.85
489.578	2997.96
489.948	3054.91
490.318	3091.06
490.688	3079.09
491.058	3125.86
491.428	3162.47
491.798	3224.62
492.168	3239.31
492.538	3293.32
492.908	3322.24
493.278	3312.3
493.648	3331.28
494.017	3385.97
494.387	3391.39
494.757	3381.45
495.126	3415.35
495.496	3456.25
495.866	3481.56
496.235	3517.94
496.605	3520.2
496.974	3564.27
497.344	3577.6
497.713	3584.61
498.082	3613.31
498.452	3638.84
498.821	3665.06
499.19	3636.36
499.559	3676.13
499.928	3666.19
500.298	3693.76
500.667	3731.05
501.036	3724.94
501.405	3794.77
501.774	3790.48
502.143	3793.64
502.512	3811.72
502.88	3838.39
503.249	3834.32
503.618	3875.22
503.987	3900.98
504.356	3914.32
504.724	3873.42
505.093	3956.35
505.462	3985.28
505.83	3971.49
506.199	3948.89
506.567	4008.1
506.936	4013.75
507.304	4085.16
507.672	4055.11
508.041	4031.6
508.409	4101.88
508.777	4126.97
509.145	4120.41
509.514	4093.97
509.882	4158.15
510.25	4191.37
510.618	4138.72
510.986	4160.64
511.354	4227.08
511.722	4237.7
512.09	4263.01
512.458	4236.57
512.826	4301.2
513.193	4254.42
513.561	4240.19
513.929	4279.96
514.297	4344.36
514.664	4308.66
515.032	4354.31
515.4	4319.96
515.767	4380.75
516.135	4372.84
516.502	4399.73
516.869	4433.17
517.237	4424.81
517.604	4430.24
517.972	4488.31
518.339	4472.95
518.706	4458.48
519.073	4475.89
519.44	4481.53
519.808	4548.43
520.175	4545.04
520.542	4568.76
520.909	4573.51
521.276	4564.7
521.643	4613.51
522.009	4624.81
522.376	4614.86
522.743	4654.41
523.11	4678.82
523.477	4721.08
523.843	4753.84
524.21	4805.14
524.577	4783.22
524.943	4813.73
525.31	4790.68
525.676	4848.76
526.043	4856.67
526.409	4910.22
526.776	4946.83
527.142	4955.42
527.508	4967.4
527.874	4970.56
528.241	4988.19
528.607	5010.33
528.973	5091.01
529.339	5040.39
529.705	5112.93
530.071	5100.05
530.437	5155.87
530.803	5157.45
531.169	5201.74
531.535	5202.42
531.901	5263.44
532.267	5293.94
532.632	5292.59
532.998	5283.1
533.364	5316.77
533.73	5339.37
534.095	5411.68
534.461	5424.11
534.826	5426.14
535.192	5447.16
535.557	5483.77
535.923	5441.74
536.288	5463.43
536.653	5540.94
537.019	5543.43
537.384	5551.56
537.749	5574.39
538.114	5581.62
538.479	5617.1
538.845	5646.48
539.21	5619.13
539.575	5657.55
539.94	5668.62
540.305	5722.63
540.67	5740.94
541.034	5775.29
541.399	5840.82
541.764	5826.81
542.129	5834.49
542.494	5818.22
542.858	5862.74
543.223	5915.4
543.587	5935.96
543.952	5877.88
544.316	5972.57
544.681	5996.75
545.045	6015.96
545.41	6083.75
545.774	6060.7
546.138	6074.94
546.503	6077.42
546.867	6119.23
547.231	6157.42
547.595	6164.88
547.959	6185.9
548.324	6183.64
548.688	6196.97
549.052	6282.17
549.416	6236.74
549.779	6322.84
550.143	6348.6
550.507	6360.36
550.871	6374.59
551.235	6364.88
551.599	6378.66
551.962	6401.71
552.326	6473.12
552.689	6491.2
553.053	6461.82
553.417	6499.11
553.78	6541.82
554.143	6550.41
554.507	6588.6
554.87	6507.02
555.234	6634.92
555.597	6620.46
555.96	6667.92
556.323	6695.26
556.686	6625.21
557.05	6717.86
557.413	6753.79
557.776	6732.1
558.139	6782.04
558.502	6796.28
558.865	6796.28
559.228	6805.54
559.59	6827.01
559.953	6890.51
560.316	6935.48
560.679	6895.03
561.041	6953.79
561.404	7056.61
561.767	7022.03
562.129	7035.14
562.492	7067.23
562.854	7041.02
563.217	7130.5
563.579	7134.8
563.941	7102.48
564.304	7181.8
564.666	7238.75
565.028	7236.49
565.39	7181.35
565.753	7249.6
566.115	7280.56
566.477	7306.77
566.839	7268.81
567.201	7336.6
567.563	7343.83
567.925	7362.59
568.287	7411.85
568.648	7482.36
569.01	7428.35
569.372	7498.86
569.734	7504.73
570.095	7574.79
570.457	7661.34
570.819	7601
571.18	7677.83
571.542	7723.26
571.903	7707.21
572.265	7746.76
572.626	7872.63
572.987	7854.78
573.349	7956.7
573.71	7924.16
574.071	7927.55
574.432	8051.84
574.794	8135.9
575.155	8146.07
575.516	8165.96
575.877	8260.19
576.238	8347.87
576.599	8378.61
576.96	8400.75
577.32	8524.59
577.681	8560.3
578.042	8695.21
578.403	8719.39
578.763	8846.62
579.124	8913.51
579.485	8990.34
579.845	9167.97
580.206	9244.12
580.566	9345.81
580.927	9428.52
581.287	9507.17
581.648	9667.84
582.008	9871.22
582.368	9969.07
582.728	10128.17
583.089	10242.97
583.449	10419.23
583.809	10495.84
584.169	10722.05
584.529	10811.99
584.889	11110.06
585.249	11245.65
585.609	11389.38
585.969	11654
586.329	11783.04
586.688	12070.26
587.048	12196.59
587.408	12478.39
587.768	12670.7
588.127	12886.51
588.487	13105.26
588.846	13403.56
589.206	13517.68
589.565	13789.54
589.925	14190.43
590.284	14355.63
590.643	14579.12
591.003	14852.11
591.362	15143.4
591.721	15370.97
592.08	15603.5
592.44	15949.71
592.799	16168.01
593.158	16466.53
593.517	16739.52
593.876	17122.33
594.235	17310.58
594.593	17549.44
594.952	17885.25
595.311	18089.54
595.67	18485.01
596.029	18879.57
596.387	19116.63
596.746	19517.3
597.104	19652.89
597.463	19935.59
597.822	20305.75
598.18	20466.2
598.538	20786.19
598.897	21132.85
599.255	21201.1
599.613	21723.57
599.972	22020.28
600.33	22262.76
600.688	22402.19
601.046	22832.01
601.404	23236.07
601.762	23316.52
602.12	23754.47
602.478	23927.35
602.836	24309.71
603.194	24492.53
603.552	24798.29
603.91	24957.38
604.268	25329.12
604.625	25389.91
604.983	25638.94
605.341	25795.32
605.698	26250.23
606.056	26567.06
606.413	26709.2
606.771	27052.24
607.128	27277.32
607.485	27464.89
607.843	27646.8
608.2	27986.91
608.557	28360
608.914	28408.14
609.272	28543.05
609.629	28811.29
609.986	29204.05
610.343	29173.09
610.7	29667.09
611.057	29770.81
611.414	29840.42
611.771	30201.99
612.127	30435.65
612.484	30624.12
612.841	30797.23
613.198	30909.54
613.554	31121.06
613.911	31369.64
614.267	31561.95
614.624	31705.45
614.98	31856.86
615.337	32158.1
615.693	32111.32
616.05	32222.73
616.406	32686.22
616.762	32603.96
617.118	32835.82
617.475	32859.32
617.831	33192.64
618.187	33330.95
618.543	33424.73
618.899	33706.53
619.255	33716.7
619.611	33864.94
619.967	34048.21
620.323	34164.82
620.678	34098.84
621.034	34147.42
621.39	34349
621.746	34428.09
622.101	34887.29
622.457	34747.86
622.812	34874.86
623.168	35007.74
623.523	35128.41
623.879	35276.43
624.234	35084.8
624.589	35409.08
624.945	35501.51
625.3	35626.48
625.655	35626.7
626.01	35632.58
626.365	35797.77
626.72	35740.37
627.075	35838.68
627.43	35869.18
627.785	35962.74
628.14	36065.56
628.495	36214.26
628.85	36027.15
629.205	36038.45
629.559	36270.76
629.914	36176.52
630.269	36256.74
630.623	36258.1
630.978	36200.7
631.332	36492.9
631.687	36624.64
632.041	36370.19
632.396	36433.24
632.75	36294.48
633.104	36618.77
633.459	36451.09
633.813	36468.94
634.167	36459.9
634.521	36518.88
634.875	36605.89
635.229	36606.79
635.583	36415.16
635.937	36453.58
636.291	36451.09
636.645	36505.33
636.999	36432.78
637.352	36643.85
637.706	36375.61
638.06	36652.44
638.413	36476.17
638.767	36372
639.121	36492.22
639.474	36374.03
639.828	36412.45
640.181	36379.91
640.534	36571.76
640.888	36352.34
641.241	36279.34
641.594	36358.66
641.947	36398.21
642.301	36407.02
642.654	36388.04
643.007	36454.48
643.36	36448.83
643.713	36420.58
644.066	36487.25
644.419	36318.66
644.771	36087.03
645.124	35752.8
645.477	35730.88
645.83	35605.24
646.182	35446.6
646.535	35462.42
646.888	35415.18
647.24	35200.28
647.593	35485.69
647.945	35453.6
648.298	35233.04
648.65	35192.14
649.002	35014.29
649.355	35324.79
649.707	35172.93
650.059	35352.81
650.411	35727.72
650.763	35765.91
651.115	36155.96
651.467	35997.09
651.819	36026.69
652.171	35998.9
652.523	36104.66
652.875	35978.11
653.227	35858.56
653.578	36010.65
653.93	36011.78
654.282	35780.15
654.633	35735.18
654.985	35935.62
655.337	35928.17
655.688	35808.62
656.039	35896.08
656.391	35773.14
656.742	35732.69
657.094	35823.08
657.445	35900.14
657.796	35806.81
658.147	35787.6
658.498	35695.18
658.849	35743.09
659.2	35626.93
659.551	35687.49
659.902	35835.96
660.253	35706.93
660.604	35703.54
660.955	35475.75
661.306	35588.51
661.656	35675.52
662.007	35577.44
662.358	35672.35
662.708	35534.05
663.059	35753.25
663.409	35372.25
663.76	35637.1
664.11	35648.62
664.461	35726.81
664.811	35653.82
665.161	35642.3
665.511	35531.57
665.862	35568.85
666.212	35747.38
666.562	35608.85
666.912	35575.63
667.262	35528.4
667.612	35505.58
667.962	35665.8
668.312	35510.1
668.662	35678
669.011	35496.31
669.361	35423.55
669.711	35555.07
670.06	35520.04
670.41	35454.73
670.76	35356.66
671.109	35519.81
671.459	35456.54
671.808	35388.97
672.157	35491.11
672.507	35242.76
672.856	35316.88
673.205	35373.38
673.554	35370.21
673.904	35384.9
674.253	35456.54
674.602	35393.26
674.951	34872.83
675.3	34701.98
675.649	35287.28
675.998	35227.17
676.346	35200.5
676.695	35195.3
677.044	35007.51
677.393	35206.15
677.741	35186.04
678.09	35080.96
678.438	35057
678.787	35014.29
679.135	35134.29
679.484	34971.35
679.832	35074.4
680.181	34756.9
680.529	34891.81
680.877	34775.65
681.225	34697.24
681.573	34912.6
681.922	34744.69
682.27	34563
682.618	34665.6
682.966	34587.18
683.314	34696.11
683.661	34489.79
684.009	34380.86
684.357	34259.96
684.705	34325.27
685.053	34281.66
685.4	34145.61
685.748	33947.65
686.095	33963.7
686.443	34018.39
686.79	33895.9
687.138	34061.1
687.485	33942
687.832	33839.86
688.18	33862.91
688.527	33633.31
688.874	33713.76
689.221	33654.55
689.568	33593.76
689.915	33466.99
690.262	33497.04
690.609	33303.6
690.956	33352.87
691.303	33265.86
691.65	33077.62
691.997	33135.24
692.344	32889.38
692.69	32958.3
693.037	32902.03
693.383	32723.73
693.73	32868.81
694.077	32594.47
694.423	32609.38
694.769	32419.56
695.116	32457.3
695.462	32370.97
695.808	32244.65
696.155	32274.7
696.501	31928.5
696.847	32145.89
697.193	31885.33
697.539	31975.05
697.885	31586.58
698.231	31678.56
698.577	31612.35
698.923	31592.46
699.269	31490.54
699.614	31310.43
699.96	31287.61
700.306	31201.74
700.651	31222.53
700.997	31150.44
701.342	31044
701.688	30984.57
702.033	30794.06
702.379	30723.56
702.724	30782.54
703.069	30858.47
703.415	30520.62
703.76	30443.34
704.105	30497.12
704.45	30349.1
704.795	30288.54
705.14	30212.38
705.485	30118.6
705.83	29918.83
706.175	30039.51
706.52	30000.86
706.865	29775.78
707.209	29655.56
707.554	29624.15
707.899	29797.48
708.243	29599.29
708.588	29528.79
708.932	29396.13
709.277	29407.66
709.621	29401.78
709.966	29246.53
710.31	29301.67
710.654	29023.94
710.998	29112.3
711.342	28980.1
711.687	29017.61
712.031	28835.47
712.375	28716.15
712.719	28828.01
713.063	28743.95
713.407	28800.44
713.75	28682.71
714.094	28547.57
714.438	28497.85
714.782	28607.68
715.125	28467.57
715.469	28359.78
715.812	28270.51
716.156	28140.57
716.499	28129.73
716.843	28181.25
717.186	27869.85
717.53	28226
717.873	28145.77
718.216	28050.63
718.559	27873.91
718.902	27719.57
719.246	27679.57
719.589	27696.07
719.932	27507.37
720.275	27622.85
720.617	27599.34
720.96	27585.79
721.303	27436.64
721.646	27541.95
721.989	27338.11
722.331	27461.27
722.674	27359.13
723.016	27390.99
723.359	27242.07
723.701	27246.36
724.044	27179.24
724.386	26954.39
724.729	27016.99
725.071	27148.06
725.413	27022.18
725.755	26943.32
726.097	26861.96
726.439	26718.24
726.782	26652.25
727.124	26787.16
727.465	26627.62
727.807	26792.59
728.149	26591.24
728.491	26580.16
728.833	26573.61
729.175	26396.44
729.516	26384.24
729.858	26347.85
730.199	26465.82
730.541	26267.63
730.882	26303.79
731.224	26339.72
731.565	26169.33
731.906	26144.92
732.248	26186.95
732.589	26029.89
732.93	25964.81
733.271	25928.2
733.612	26061.08
733.953	25997.13
734.294	25885.72
734.635	25821.31
734.976	25930.24
735.317	25738.15
735.658	25662.67
735.999	25708.55
736.339	25584.93
736.68	25718.94
737.021	25600.75
737.361	25504.48
737.702	25587.65
738.042	25570.7
738.383	25529.34
738.723	25509.23
739.063	25376.58
739.404	25413.64
739.744	25390.36
740.084	25261.33
740.424	25264.04
740.764	25185.4
741.104	25198.28
741.444	25036.7
741.784	25059.98
742.124	25172.74
742.464	25108.34
742.804	24971.17
743.143	24982.24
743.483	24990.15
743.823	24941.11
744.162	24841.9
744.502	24923.26
744.841	24724.62
745.181	24817.05
745.52	24603.27
745.86	24709.25
746.199	24765.52
746.538	24475.36
746.877	24667.22
747.216	24679.87
747.556	24483.72
747.895	24450.73
748.234	24343.84
748.573	24380.45
748.911	24360.79
749.25	24393.1
749.589	24174.35
749.928	24175.25
750.267	24186.55
750.605	24083.51
750.944	24118.31
751.283	24040.57
751.621	24070.4
751.96	23864.98
752.298	23912.89
752.636	23959.89
752.975	23817.52
753.313	23610.07
753.651	23780.46
753.989	23598.32
754.327	23622.73
754.666	23556.51
755.004	23533.92
755.342	23539.11
755.679	23500.92
756.017	23356.74
756.355	23432
756.693	23281.49
757.031	23207.82
757.368	23104.1
757.706	23119.69
758.044	23155.39
758.381	23133.25
758.719	22925.34
759.056	23067.26
759.394	22882.18
759.731	22664.79
760.068	22735.29
760.405	22610.78
