Data from hue_270_FLMS001491_00091.txt Node
Date: Tue Feb 07 15:57:56 GMT 2017
User: dcchb
Spectrometer: FLMS00149
Trigger mode: 0
Integration Time (sec): 2.000000E-2
Scans to average: 10
Electric dark correction enabled: true
Nonlinearity correction enabled: false
Boxcar width: 0
XAxis mode: Wavelengths
Number of Pixels in Spectrum: 2048
>>>>>Begin Spectral Data<<<<<
341.393	-27.17
341.776	-27.17
342.16	-27.17
342.543	-43.45
342.927	-68.3
343.31	-86.38
343.693	-65.82
344.077	-55.87
344.46	-51.81
344.843	-45.93
345.226	-34.63
345.61	-43.67
345.993	-8.87
346.376	-9.32
346.759	23.45
347.142	33.84
347.525	35.65
347.908	37.91
348.291	65.48
348.674	91.47
349.057	114.52
349.44	119.94
349.823	138.92
350.206	157.45
350.588	183.22
350.971	210.11
351.354	222.99
351.737	243.55
352.119	238.36
352.502	251.46
352.884	249.2
353.267	268.86
353.65	274.29
354.032	295.53
354.414	281.52
354.797	288.75
355.179	317.9
355.562	325.13
355.944	318.35
356.326	344.34
356.709	319.48
357.091	339.14
357.473	334.17
357.855	324.68
358.238	335.3
358.62	331.69
359.002	347.05
359.384	310.22
359.766	320.84
360.148	329.65
360.53	326.94
360.912	308.64
361.294	332.36
361.676	312.93
362.057	308.41
362.439	330.1
362.821	309.09
363.203	319.48
363.584	312.03
363.966	321.97
364.348	322.42
364.729	306.15
365.111	325.13
365.493	325.81
365.874	290.33
366.256	333.27
366.637	290.33
367.019	309.77
367.4	302.53
367.781	301.63
368.163	308.64
368.544	291.69
368.925	314.06
369.306	316.77
369.688	304.57
370.069	300.5
370.45	311.12
370.831	311.35
371.212	304.34
371.593	316.55
371.974	302.76
372.355	304.34
372.736	321.07
373.117	298.69
373.498	315.87
373.879	312.93
374.26	291.01
374.641	302.31
375.021	317.45
375.402	310.9
375.783	303.66
376.163	338.01
376.544	310.22
376.925	328.07
377.305	315.64
377.686	309.54
378.066	316.09
378.447	327.17
378.827	318.81
379.208	336.21
379.588	318.35
379.968	313.61
380.349	347.5
380.729	338.47
381.109	341.18
381.489	336.66
381.87	321.07
382.25	331.69
382.63	330.78
383.01	328.52
383.39	367.84
383.77	342.08
384.15	314.51
384.53	351.35
384.91	336.43
385.29	333.49
385.67	340.95
386.049	350.44
386.429	345.47
386.809	362.19
387.189	364.91
387.568	354.06
387.948	359.93
388.328	357.22
388.707	360.61
389.087	362.19
389.466	350.67
389.846	359.71
390.225	373.04
390.605	364.23
390.984	374.62
391.363	378.01
391.743	371.01
392.122	365.13
392.501	385.02
392.881	373.04
393.26	397.45
393.639	381.4
394.018	396.32
394.397	399.93
394.776	384.34
395.155	394.51
395.534	388.18
395.913	391.35
396.292	381.85
396.671	375.98
397.05	405.13
397.429	372.36
397.808	379.37
398.186	386.37
398.565	405.81
398.944	404
399.323	405.81
399.701	406.71
400.08	399.03
400.458	412.59
400.837	434.51
401.215	408.29
401.594	421.4
401.972	420.72
402.351	438.12
402.729	422.76
403.107	430.89
403.486	436.99
403.864	436.54
404.242	453.04
404.62	452.36
404.999	430.21
405.377	445.81
405.755	454.62
406.133	457.11
406.511	462.08
406.889	469.08
407.267	469.31
407.645	483.09
408.023	498.91
408.401	475.86
408.779	491.23
409.156	508.18
409.534	515.86
409.912	501.85
410.29	491
410.667	531.91
411.045	523.77
411.422	530.33
411.8	521.29
412.178	526.26
412.555	535.97
412.933	552.7
413.31	572.13
413.687	576.65
414.065	564.9
414.442	581.4
414.819	584.79
415.197	600.61
415.574	632.7
415.951	618.01
416.328	621.85
416.705	612.13
417.082	625.46
417.46	638.34
417.837	640.15
418.214	646.03
418.591	647.61
418.967	658.68
419.344	674.05
419.721	676.54
420.098	660.49
420.475	670.43
420.852	706.14
421.228	700.26
421.605	726.48
421.982	714.5
422.358	738.91
422.735	759.92
423.111	752.01
423.488	754.27
423.864	773.93
424.241	788.4
424.617	812.58
424.994	815.06
425.37	813.26
425.746	825.91
426.123	828.4
426.499	846.7
426.875	849.41
427.251	860.49
427.627	858.68
428.003	876.3
428.379	919.69
428.756	912.46
429.132	918.11
429.507	932.8
429.883	938.68
430.259	949.3
430.635	962.4
431.011	974.83
431.387	989.3
431.763	1012.8
432.138	1002.85
432.514	1018.45
432.89	1024.55
433.265	1062.51
433.641	1073.81
434.016	1085.34
434.392	1078.11
434.767	1118.11
435.143	1132.12
435.518	1168.73
435.894	1148.61
436.269	1201.49
436.644	1218.89
437.02	1210.31
437.395	1231.78
437.77	1250.53
438.145	1259.12
438.52	1267.25
438.895	1276.97
439.271	1300.7
439.646	1328.95
440.021	1343.86
440.395	1359
440.77	1350.19
441.145	1352.68
441.52	1402.39
441.895	1413.01
442.27	1418.89
442.645	1419.79
443.019	1452.56
443.394	1458.66
443.769	1444.65
444.143	1440.58
444.518	1500.24
444.892	1448.04
445.267	1514.25
445.641	1508.6
446.016	1519
446.39	1519.45
446.764	1535.5
447.139	1546.34
447.513	1557.87
447.887	1540.92
448.262	1568.72
448.636	1585.89
449.01	1608.94
449.384	1577.98
449.758	1608.04
450.132	1645.55
450.506	1649.39
450.88	1645.78
451.254	1643.97
451.628	1664.98
452.002	1696.62
452.376	1719.9
452.75	1714.25
453.123	1754.7
453.497	1764.42
453.871	1741.14
454.244	1801.48
454.618	1820.23
454.992	1820.69
455.365	1803.51
455.739	1882.83
456.112	1864.3
456.486	1906.11
456.859	1896.84
457.232	1937.29
457.606	1924.19
457.979	1937.52
458.352	1989.04
458.725	1999.89
459.099	2028.59
459.472	2008.25
459.845	2050.74
460.218	2078.76
460.591	2102.94
460.964	2091.19
461.337	2143.84
461.71	2156.05
462.083	2173.67
462.456	2153.79
462.829	2200.79
463.201	2211.41
463.574	2213.44
463.947	2262.26
464.32	2290.73
464.692	2321.24
465.065	2328.47
465.438	2356.72
465.81	2353.78
466.183	2404.85
466.555	2454.34
466.928	2460.67
467.3	2427.22
467.672	2476.49
468.045	2518.07
468.417	2526.43
468.789	2568.69
469.161	2578.63
469.534	2587.45
469.906	2635.58
470.278	2658.63
470.65	2711.28
471.022	2767.33
471.394	2764.39
471.766	2813.88
472.138	2820.66
472.51	2862.02
472.882	2898.62
473.253	2955.12
473.625	2941.34
473.997	3004.61
474.369	3001.9
474.74	3072.86
475.112	3111.5
475.484	3149.92
475.855	3174.1
476.227	3202.12
476.598	3282.8
476.97	3307.43
477.341	3370.7
477.713	3391.04
478.084	3419.06
478.455	3460.19
478.827	3529.34
479.198	3584.71
479.569	3579.96
479.94	3656.8
480.311	3663.58
480.682	3828.54
481.053	3798.04
481.424	3858.15
481.795	3866.73
482.166	3943.57
482.537	3978.37
482.908	4069.44
483.279	4058.37
483.65	4097.69
484.021	4172.49
484.391	4277.12
484.762	4301.75
485.133	4320.28
485.503	4343.78
485.874	4396.44
486.244	4435.99
486.615	4482.99
486.985	4555.76
487.356	4594.85
487.726	4690.89
488.097	4718.92
488.467	4747.62
488.837	4805.69
489.207	4855.64
489.578	4932.92
489.948	4969.98
490.318	5024.44
490.688	5006.82
491.058	5073.93
491.428	5150.54
491.798	5198.45
492.168	5263.53
492.538	5235.51
492.908	5294.49
493.278	5386.02
493.648	5345.57
494.017	5393.93
494.387	5455.17
494.757	5472.79
495.126	5525.9
495.496	5510.53
495.866	5600.7
496.235	5655.84
496.605	5630.53
496.974	5649.51
497.344	5739.68
497.713	5764.31
498.082	5770.87
498.452	5793.01
498.821	5842.28
499.19	5868.26
499.559	5858.32
499.928	5966.34
500.298	5924.99
500.667	5981.26
501.036	5939.45
501.405	5966.34
501.774	6028.94
502.143	6030.07
502.512	6068.94
502.88	6052.89
503.249	6089.73
503.618	6128.82
503.987	6162.04
504.356	6140.57
504.724	6190.74
505.093	6182.83
505.462	6219.67
505.83	6283.17
506.199	6279.78
506.567	6324.3
506.936	6321.36
507.304	6383.73
507.672	6414.46
508.041	6412.66
508.409	6429.83
508.777	6439.1
509.145	6503.5
509.514	6506.21
509.882	6481.81
510.25	6552.77
510.618	6505.99
510.986	6602.26
511.354	6539.43
511.722	6616.49
512.09	6717.28
512.458	6618.75
512.826	6673.67
513.193	6671.86
513.561	6657.85
513.929	6726.77
514.297	6734
514.664	6786.43
515.032	6795.92
515.4	6783.04
515.767	6807.22
516.135	6792.53
516.502	6788.01
516.869	6931.06
517.237	6931.74
517.604	6818.3
517.972	6960.89
518.339	6891.97
518.706	6936.03
519.073	6966.31
519.44	6938.74
519.808	6926.09
520.175	6949.14
520.542	7023.26
520.909	7082.47
521.276	7007.89
521.643	7093.77
522.009	7068.91
522.376	7149.81
522.743	7161.11
523.11	7198.4
523.477	7166.08
523.843	7227.32
524.21	7284.95
524.577	7335.34
524.943	7292.86
525.31	7342.12
525.676	7398.62
526.043	7364.27
526.409	7304.16
526.776	7457.6
527.142	7437.04
527.508	7468.9
527.874	7433.42
528.241	7497.6
528.607	7469.13
528.973	7530.14
529.339	7545.96
529.705	7633.19
530.071	7695.56
530.437	7693.3
530.803	7659.4
531.169	7696.24
531.535	7682.91
531.901	7647.88
532.267	7710.7
532.632	7789.34
532.998	7768.33
533.364	7763.13
533.73	7736.69
534.095	7772.39
534.461	7845.16
534.826	7805.16
535.192	7844.26
535.557	7868.44
535.923	7838.61
536.288	7840.19
536.653	7807.42
537.019	7874.09
537.384	7842.45
537.749	7849.23
538.114	7893.97
538.479	7860.53
538.845	7956.34
539.21	7890.58
539.575	7909.79
539.94	7920.87
540.305	7946.85
540.67	7979.62
541.034	7923.13
541.399	7987.08
541.764	7966.51
542.129	8002.9
542.494	7991.37
542.858	7979.62
543.223	7990.69
543.587	7976
543.952	8093.74
544.316	8096.45
544.681	8019.62
545.045	8105.72
545.41	8077.47
545.774	8073.63
546.138	8067.53
546.503	8056.68
546.867	8047.64
547.231	8154.53
547.595	8063.91
547.959	8126.06
548.324	8161.31
548.688	8153.63
549.052	8147.07
549.416	8181.88
549.779	8118.15
550.143	8131.93
550.507	8195.66
550.871	8144.36
551.235	8190.91
551.599	8189.11
551.962	8249.44
552.326	8245.15
552.689	8239.5
553.053	8182.55
553.417	8154.76
553.78	8294.64
554.143	8193.4
554.507	8203.57
554.87	8252.16
555.234	8287.86
555.597	8290.8
555.96	8323.11
556.323	8268.2
556.686	8281.99
557.05	8335.77
557.413	8346.62
557.776	8372.83
558.139	8465.94
558.502	8433.39
558.865	8446.73
559.228	8497.57
559.59	8515.2
559.953	8478.14
560.316	8580.96
560.679	8554.07
561.041	8591.81
561.404	8680.39
561.767	8644.69
562.129	8676.78
562.492	8753.16
562.854	8676.33
563.217	8704.35
563.579	8745.02
563.941	8740.5
564.304	8766.49
564.666	8828.86
565.028	8795.64
565.39	8878.13
565.753	8908.18
566.115	8914.51
566.477	8958.8
566.839	8939.6
567.201	9034.28
567.563	9068.18
567.925	9098.24
568.287	9098.24
568.648	9134.17
569.01	9151.12
569.372	9215.52
569.734	9223.88
570.095	9231.34
570.457	9295.52
570.819	9273.82
571.18	9352.47
571.542	9338
571.903	9396.76
572.265	9438.57
572.626	9444.89
572.987	9497.09
573.349	9511.11
573.71	9614.38
574.071	9543.2
574.432	9622.52
574.794	9607.6
575.155	9636.75
575.516	9670.2
575.877	9697.77
576.238	9716.07
576.599	9788.16
576.96	9745.22
577.32	9791.1
577.681	9867.03
578.042	9904.54
578.403	9849.18
578.763	9925.78
579.124	9970.75
579.485	9903.41
579.845	9987.93
580.206	10005.33
580.566	10031.54
580.927	10076.06
581.287	10101.6
581.648	10097.76
582.008	10151.09
582.368	10189.28
582.728	10166
583.089	10251.88
583.449	10283.74
583.809	10328.49
584.169	10335.72
584.529	10331.88
584.889	10471.98
585.249	10405.55
585.609	10420.23
585.969	10540.46
586.329	10490.29
586.688	10541.59
587.048	10559.44
587.408	10449.39
587.768	10601.92
588.127	10558.08
588.487	10574.35
588.846	10673.11
589.206	10616.16
589.565	10657.06
589.925	10694.35
590.284	10711.53
590.643	10770.73
591.003	10775.71
591.362	10865.65
591.721	10851.86
592.08	10881.24
592.44	10894.35
592.799	10900.22
593.158	10892.54
593.517	10966.21
593.876	10952.65
594.235	11001.01
594.593	11005.08
594.952	11006.21
595.311	10992.42
595.67	11048.47
596.029	11103.38
596.387	11159.2
596.746	11174.11
597.104	11156.03
597.463	11136.83
597.822	11134.57
598.18	11178.41
598.538	11171.4
598.897	11216.82
599.255	11136.37
599.613	11234.68
599.972	11159.65
600.33	11232.42
600.688	11278.29
601.046	11260.66
601.404	11372.3
601.762	11355.13
602.12	11362.81
602.478	11314
602.836	11337.72
603.194	11323.04
603.552	11281
603.91	11335.69
604.268	11466.76
604.625	11307.67
604.983	11425.86
605.341	11313.32
605.698	11511.28
606.056	11493.2
606.413	11381.57
606.771	11607.77
607.128	11484.84
607.485	11490.26
607.843	11509.92
608.2	11542.01
608.557	11559.19
608.914	11482.81
609.272	11608.9
609.629	11578.85
609.986	11652.07
610.343	11575.68
610.7	11701.1
611.057	11638.51
611.414	11640.32
611.771	11565.52
612.127	11654.78
612.484	11677.83
612.841	11729.13
613.198	11664.5
613.554	11707.43
613.911	11787.2
614.267	11713.99
614.624	11716.47
614.98	11828.56
615.337	11849.35
615.693	11789.69
616.05	11862.91
616.406	11875.56
616.762	11869.01
617.118	11916.01
617.475	11832.63
617.831	11948.33
618.187	11908.56
618.543	11842.57
618.899	11952.62
619.255	11936.8
619.611	11873.53
619.967	11958.05
620.323	12014.54
620.678	11974.32
621.034	11933.42
621.39	11904.94
621.746	11887.77
622.101	12027.88
622.457	11981.55
622.812	11964.15
623.168	12031.49
623.523	12034.43
623.879	12005.05
624.234	11918.73
624.589	11910.36
624.945	12017.48
625.3	12042.56
625.655	11988.1
626.01	12054.09
626.365	12061.1
626.72	11971.83
627.075	11973.64
627.43	11906.3
627.785	11908.78
628.14	11901.55
628.495	11943.13
628.85	11944.71
629.205	11883.7
629.559	11947.88
629.914	11876.69
630.269	11866.07
630.623	11839.63
630.978	11853.19
631.332	11876.69
631.687	11916.24
632.041	11866.98
632.396	11894.55
632.75	11761.22
633.104	11806.19
633.459	11764.15
633.813	11784.94
634.167	11712.18
634.521	11751.05
634.875	11774.1
635.229	11698.84
635.583	11656.36
635.937	11708.79
636.291	11676.7
636.645	11679.41
636.999	11569.13
637.352	11598.06
637.706	11609.36
638.06	11582.46
638.413	11650.03
638.767	11540.88
639.121	11633.76
639.474	11543.37
639.828	11595.8
640.181	11588.11
640.534	11600.99
640.888	11523.93
641.241	11470.15
641.594	11525.74
641.947	11515.12
642.301	11506.53
642.654	11594.21
643.007	11527.55
643.36	11438.96
643.713	11478.29
644.066	11567.1
644.419	11427.44
644.771	11379.08
645.124	11282.36
645.477	11263.38
645.83	11222.02
646.182	11167.11
646.535	10982.48
646.888	11124.85
647.24	11023.83
647.593	11147.45
647.945	11115.58
648.298	11046.66
648.65	11041.91
649.002	11031.07
649.355	11099.09
649.707	11027.68
650.059	11090.95
650.411	11207.11
650.763	11202.13
651.115	11358.06
651.467	11338.63
651.819	11304.28
652.171	11291.17
652.523	11263.6
652.875	11225.86
653.227	11260.66
653.578	11357.16
653.93	11365.07
654.282	11236.03
654.633	11251.17
654.985	11252.98
655.337	11243.04
655.688	11287.56
656.039	11267.67
656.391	11227.44
656.742	11209.59
657.094	11229.93
657.445	11204.39
657.796	11255.01
658.147	11199.2
658.498	11205.98
658.849	11252.53
659.2	11247.56
659.551	11240.33
659.902	11268.8
660.253	11282.81
660.604	11232.87
660.955	11206.65
661.306	11243.49
661.656	11145.87
662.007	11230.16
662.358	11277.61
662.708	11252.53
663.059	11271.74
663.409	11201.68
663.76	11298.86
664.11	11283.04
664.461	11298.86
664.811	11294.79
665.161	11278.74
665.511	11224.28
665.862	11337.5
666.212	11300.66
666.562	11357.61
666.912	11257.95
667.262	11199.2
667.612	11221.8
667.962	11244.85
668.312	11181.8
668.662	11283.49
669.011	11252.98
669.361	11257.27
669.711	11222.7
670.06	11174.56
670.41	11175.69
670.76	11168.01
671.109	11283.71
671.459	11259.53
671.808	11135.02
672.157	11204.17
672.507	11099.31
672.856	11165.07
673.205	11173.89
673.554	11201.68
673.904	11159.2
674.253	11172.53
674.602	11188.8
674.951	10891.18
675.3	10920.11
675.649	11149.03
675.998	11119.88
676.346	11159.2
676.695	11093.89
677.044	11082.14
677.393	11081.91
677.741	11104.51
678.09	10978.86
678.438	10967.79
678.787	10991.97
679.135	11067.9
679.484	10909.04
679.832	10956.04
680.181	10905.65
680.529	11019.99
680.877	10928.02
681.225	10935.93
681.573	10974.57
681.922	10904.97
682.27	10790.85
682.618	10829.04
682.966	10835.14
683.314	10852.99
683.661	10795.59
684.009	10771.19
684.357	10696.16
684.705	10714.46
685.053	10717.4
685.4	10714.46
685.748	10636.27
686.095	10658.87
686.443	10591.3
686.79	10600.79
687.138	10573.22
687.485	10511.98
687.832	10523.06
688.18	10574.35
688.527	10449.39
688.874	10444.87
689.221	10428.82
689.568	10418.2
689.915	10313.34
690.262	10334.59
690.609	10320.35
690.956	10233.12
691.303	10246.45
691.65	10173.91
691.997	10221.14
692.344	10064.09
692.69	10058.44
693.037	10106.57
693.383	10025.44
693.73	10050.07
694.077	9957.42
694.423	9996.74
694.769	9920.81
695.116	9941.6
695.462	9854.15
695.808	9825.45
696.155	9891.43
696.501	9793.58
696.847	9752
697.193	9675.17
697.539	9672.46
697.885	9634.72
698.231	9595.85
698.577	9589.52
698.923	9629.97
699.269	9592.91
699.614	9475.63
699.96	9438.11
700.306	9463.88
700.651	9337.33
700.997	9429.53
701.342	9356.76
701.688	9338.91
702.033	9302.98
702.379	9294.16
702.724	9272.02
703.069	9213.03
703.415	9158.57
703.76	9116.09
704.105	9184.33
704.45	9123.09
704.795	9040.84
705.14	9035.64
705.485	9008.75
705.83	8973.49
706.175	8988.86
706.52	8941.86
706.865	8934.17
707.209	8856.21
707.554	8836.1
707.899	8883.1
708.243	8815.98
708.588	8816.43
708.932	8718.36
709.277	8783.67
709.621	8751.35
709.966	8719.49
710.31	8696.66
710.654	8611.69
710.998	8616.21
711.342	8644.69
711.687	8542.32
712.031	8549.1
712.375	8534.63
712.719	8518.59
713.063	8510.91
713.407	8558.36
713.75	8474.07
714.094	8450.34
714.438	8462.09
714.782	8485.37
715.125	8438.59
715.469	8435.43
715.812	8422.77
716.156	8357.92
716.499	8344.36
716.843	8348.88
717.186	8347.75
717.53	8368.31
717.873	8322.21
718.216	8256.9
718.559	8230.46
718.902	8162.89
719.246	8267.07
719.589	8237.24
719.932	8192.5
720.275	8256.68
720.617	8170.35
720.96	8224.59
721.303	8149.56
721.646	8114.98
721.989	8104.14
722.331	8182.78
722.674	8103.69
723.016	8173.29
723.359	8161.76
723.701	8089
724.044	8061.43
724.386	8008.09
724.729	8097.58
725.071	8077.92
725.413	8137.13
725.755	8049.45
726.097	8051.71
726.439	7986.85
726.782	7998.15
727.124	8044.03
727.465	8022.11
727.807	8001.99
728.149	8002.9
728.491	7952.73
728.833	7965.38
729.175	7940.3
729.516	7947.53
729.858	7959.73
730.199	7940.98
730.541	7928.77
730.882	7955.21
731.224	7958.38
731.565	7900.53
731.906	7936.46
732.248	7945.95
732.589	7952.5
732.93	7863.92
733.271	7879.74
733.612	7959.06
733.953	7914.99
734.294	7894.65
734.635	7824.82
734.976	7914.76
735.317	7874.76
735.658	7903.46
735.999	7934.88
736.339	7902.11
736.68	7885.61
737.021	7922.22
737.361	7824.14
737.702	7936.68
738.042	7900.53
738.383	7869.12
738.723	7868.44
739.063	7856.23
739.404	7995.89
739.744	7934.42
740.084	7947.31
740.424	7894.65
740.764	7969.23
741.104	8054.2
741.444	7984.82
741.784	8014.65
742.124	8059.39
742.464	8022.56
742.804	7964.48
743.143	8015.55
743.483	8050.58
743.823	8042.44
744.162	8043.8
744.502	8084.25
744.841	8128.77
745.181	8177.36
745.52	8186.85
745.86	8184.81
746.199	8260.52
746.538	8258.71
746.877	8307.3
747.216	8294.87
747.556	8414.86
747.895	8407.41
748.234	8375.77
748.573	8463.22
748.911	8512.04
749.25	8551.81
749.589	8585.25
749.928	8703.22
750.267	8735.08
750.605	8829.54
750.944	8862.54
751.283	8886.72
751.621	9003.32
751.96	9100.95
752.298	9041.51
752.636	9137.56
752.975	9296.42
753.313	9267.5
753.651	9427.94
753.989	9441.96
754.327	9605.57
754.666	9613.7
755.004	9791.1
755.342	9901.83
755.679	9953.13
756.017	10120.36
756.355	10225.44
756.693	10359.67
757.031	10476.5
757.368	10583.62
757.706	10729.38
758.044	10788.13
758.381	10992.42
758.719	11057.96
759.056	11257.73
759.394	11338.18
759.731	11514.44
760.068	11624.95
760.405	11798.28
760.743	11943.13
761.08	12089.34
761.417	12214.76
761.754	12379.73
762.091	12502.21
762.428	12628.09
762.765	12822.43
763.102	13030.56
