Data from hue_140_FLMS001491_00057.txt Node
Date: Tue Feb 07 16:56:07 GMT 2017
User: dcchb
Spectrometer: FLMS00149
Trigger mode: 0
Integration Time (sec): 2.000000E-2
Scans to average: 10
Electric dark correction enabled: true
Nonlinearity correction enabled: false
Boxcar width: 0
XAxis mode: Wavelengths
Number of Pixels in Spectrum: 2048
>>>>>Begin Spectral Data<<<<<
341.393	-10.28
341.776	-10.28
342.16	-10.28
342.543	-56.83
342.927	-80.56
343.31	-73.78
343.693	-58.64
344.077	-68.13
344.46	-61.35
344.843	-59.09
345.226	-43.28
345.61	-32.2
345.993	-4.41
346.376	-5.99
346.759	-0.11
347.142	46.44
347.525	26.1
347.908	52.54
348.291	77.17
348.674	82.6
349.057	122.14
349.44	130.05
349.823	140
350.206	161.46
350.588	192.42
350.971	230.16
351.354	227.68
351.737	229.26
352.119	237.85
352.502	260.67
352.884	257.06
353.267	264.06
353.65	288.47
354.032	320.78
354.414	308.35
354.797	294.57
355.179	333.66
355.562	330.27
355.944	345.87
356.326	323.49
356.709	328.69
357.091	357.17
357.473	344.96
357.855	340.44
358.238	365.3
358.62	353.55
359.002	329.6
359.384	350.61
359.766	357.84
360.148	336.6
360.53	350.39
360.912	361.69
361.294	306.77
361.676	338.64
362.057	338.86
362.439	328.24
362.821	331.86
363.203	347
363.584	335.7
363.966	314.46
364.348	336.6
364.729	322.14
365.111	313.55
365.493	311.52
365.874	311.74
366.256	305.19
366.637	317.39
367.019	326.88
367.4	334.57
367.781	305.87
368.163	296.38
368.544	328.47
368.925	311.29
369.306	341.57
369.688	306.09
370.069	302.93
370.45	319.43
370.831	315.36
371.212	311.07
371.593	317.84
371.974	313.55
372.355	319.88
372.736	345.41
373.117	323.27
373.498	325.53
373.879	325.75
374.26	316.49
374.641	317.17
375.021	327.34
375.402	327.56
375.783	322.82
376.163	325.75
376.544	342.93
376.925	332.53
377.305	338.64
377.686	352.19
378.066	344.74
378.447	326.21
378.827	322.36
379.208	365.98
379.588	317.39
379.968	355.13
380.349	346.77
380.729	342.93
381.109	363.49
381.489	330.27
381.87	328.92
382.25	355.13
382.63	339.09
383.01	366.88
383.39	351.97
383.77	329.82
384.15	354.23
384.53	346.09
384.91	358.07
385.29	368.24
385.67	357.84
386.049	352.87
386.429	353.55
386.809	376.37
387.189	372.53
387.568	359.43
387.948	347.45
388.328	352.87
388.707	368.69
389.087	381.8
389.466	356.04
389.846	382.25
390.225	389.26
390.605	375.92
390.984	375.47
391.363	383.83
391.743	370.72
392.122	376.37
392.501	397.39
392.881	399.2
393.26	385.87
393.639	395.13
394.018	391.52
394.397	398.07
394.776	402.14
395.155	372.08
395.534	390.84
395.913	379.76
396.292	391.97
396.671	389.03
397.05	396.71
397.429	407.33
397.808	399.2
398.186	385.19
398.565	397.62
398.944	400.1
399.323	405.98
399.701	416.83
400.08	421.57
400.458	404.17
400.837	404.62
401.215	404.62
401.594	415.47
401.972	412.76
402.351	410.95
402.729	441.23
403.107	415.24
403.486	432.19
403.864	455.69
404.242	414.34
404.62	424.51
404.999	443.94
405.377	454.11
405.755	443.49
406.133	420.21
406.511	431.51
406.889	432.87
407.267	434.45
407.645	444.85
408.023	458.63
408.401	458.18
408.779	474.22
409.156	457.5
409.534	443.72
409.912	487.78
410.29	471.96
410.667	469.71
411.045	470.61
411.422	498.4
411.8	475.58
412.178	487.78
412.555	475.58
412.933	503.6
413.31	521.68
413.687	515.35
414.065	513.55
414.442	500.66
414.819	514.9
415.197	502.47
415.574	516.48
415.951	516.48
416.328	516.26
416.705	532.75
417.082	507.22
417.46	507.9
417.837	531.17
418.214	537.5
418.591	537.95
418.967	526.88
419.344	552.41
419.721	540.44
420.098	566.88
420.475	551.51
420.852	542.25
421.228	551.51
421.605	556.03
421.982	586.31
422.358	585.86
422.735	564.84
423.111	563.71
423.488	575.69
423.864	589.48
424.241	593.77
424.617	605.97
424.994	588.12
425.37	598.29
425.746	589.25
426.123	610.94
426.499	620.21
426.875	633.09
427.251	623.15
427.627	622.92
428.003	627.67
428.379	631.28
428.756	644.16
429.132	646.42
429.507	649.59
429.883	650.49
430.259	665.18
430.635	692.07
431.011	671.06
431.387	676.25
431.763	677.38
432.138	691.85
432.514	698.17
432.89	721
433.265	698.4
433.641	727.78
434.016	730.49
434.392	725.29
434.767	757.38
435.143	734.56
435.518	756.7
435.894	745.86
436.269	756.7
436.644	758.51
437.02	775.23
437.395	786.31
437.77	778.62
438.145	794.67
438.52	797.61
438.895	806.42
439.271	816.14
439.646	798.51
440.021	835.57
440.395	835.35
440.77	826.98
441.145	804.39
441.52	853.65
441.895	863.14
442.27	857.04
442.645	855.01
443.019	863.59
443.394	871.95
443.769	878.51
444.143	888
444.518	906.3
444.892	895.91
445.267	875.57
445.641	914.67
446.016	901.11
446.39	890.94
446.764	921.22
447.139	912.41
447.513	932.74
447.887	902.24
448.262	919.18
448.636	949.47
449.01	940.65
449.384	965.51
449.758	960.77
450.132	973.65
450.506	973.87
450.88	977.26
451.254	987.21
451.628	1003.93
452.002	998.5
452.376	1037.37
452.75	1026.98
453.123	1019.07
453.497	1039.41
453.871	1054.77
454.244	1075.56
454.618	1109.69
454.992	1060.65
455.365	1089.35
455.739	1120.76
456.112	1124.6
456.486	1144.94
456.859	1147.65
457.232	1158.95
457.606	1170.48
457.979	1179.29
458.352	1223.13
458.725	1231.49
459.099	1223.81
459.472	1252.51
459.845	1248.67
460.218	1244.83
460.591	1283.7
460.964	1302.23
461.337	1309.68
461.71	1313.3
462.083	1339.96
462.456	1389.91
462.829	1396.91
463.201	1366.4
463.574	1408.66
463.947	1432.17
464.32	1457.93
464.692	1477.14
465.065	1495.89
465.438	1490.7
465.81	1544.25
466.183	1551.71
466.555	1566.17
466.928	1586.96
467.3	1599.84
467.672	1647.08
468.045	1679.16
468.417	1686.17
468.789	1690.92
469.161	1731.82
469.534	1777.47
469.906	1817.24
470.278	1853.85
470.65	1843.91
471.022	1895.66
471.394	1933.85
471.766	1961.87
472.138	2021.3
472.51	2053.62
472.882	2064.01
473.253	2081.87
473.625	2161.64
473.997	2201.86
474.369	2231.69
474.74	2305.14
475.112	2311.69
475.484	2377.68
475.855	2489.54
476.227	2479.6
476.598	2530.67
476.97	2592.14
477.341	2686.82
477.713	2737.22
478.084	2780.83
478.455	2920.26
478.827	2917.55
479.198	3043.87
479.569	3103.31
479.94	3213.14
480.311	3270.99
480.682	3345.11
481.053	3466.24
481.424	3569.28
481.795	3655.16
482.166	3735.61
482.537	3819
482.908	3913
483.279	4006.34
483.65	4105.77
484.021	4284.75
484.391	4314.35
484.762	4429.6
485.133	4483.61
485.503	4644.74
485.874	4768.35
486.244	4913.2
486.615	5023.94
486.985	5114.1
487.356	5281.33
487.726	5417.37
488.097	5603.58
488.467	5639.51
488.837	5786.63
489.207	5924.93
489.578	6057.35
489.948	6186.17
490.318	6337.57
490.688	6411.47
491.058	6590.45
491.428	6727.62
491.798	6858.46
492.168	7074.5
492.538	7100.27
492.908	7290.54
493.278	7384.33
493.648	7500.03
494.017	7728.05
494.387	7851.88
494.757	7966.01
495.126	8125.1
495.496	8223.4
495.866	8367.58
496.235	8488.03
496.605	8638.76
496.974	8748.81
497.344	8870.39
497.713	8995.36
498.082	9058.41
498.452	9198.06
498.821	9298.63
499.19	9373.2
499.559	9552.4
499.928	9650.03
500.298	9728.22
500.667	9812.96
501.036	9910.36
501.405	10062.45
501.774	10101.32
502.143	10173.4
502.512	10291.14
502.88	10452.27
503.249	10392.83
503.618	10612.26
503.987	10673.96
504.356	10718.02
504.724	10872.14
505.093	10920.28
505.462	10977
505.83	11038.47
506.199	11126.6
506.567	11369.31
506.936	11216.99
507.304	11428.74
507.672	11438.46
508.041	11525.91
508.409	11663.76
508.777	11797.54
509.145	11805.9
509.514	11806.13
509.882	11933.81
510.25	11904.43
510.618	12013.36
510.986	12077.31
511.354	12122.51
511.722	12218.32
512.09	12345.78
512.458	12358.43
512.826	12502.84
513.193	12459.9
513.561	12524.53
513.929	12614.02
514.297	12639.1
514.664	12773.11
515.032	12735.6
515.4	12853.79
515.767	12819.66
516.135	12837.06
516.502	12882.94
516.869	13004.29
517.237	13030.5
517.604	13035.25
517.972	12997.06
518.339	13191.18
518.706	13133.1
519.073	13189.6
519.44	13235.25
519.808	13355.92
520.175	13330.38
520.542	13412.19
520.909	13496.03
521.276	13374.45
521.643	13586.42
522.009	13545.07
522.376	13630.26
522.743	13560.89
523.11	13654.9
523.477	13761.11
523.843	13775.12
524.21	13875.23
524.577	13962.91
524.943	13985.51
525.31	13990.71
525.676	13973.08
526.043	14056.69
526.409	14093.08
526.776	14128.33
527.142	14117.26
527.508	14136.01
527.874	14208.1
528.241	14273.86
528.607	14234.09
528.973	14208.1
529.339	14132.85
529.705	14285.61
530.071	14335.78
530.437	14330.58
530.803	14396.8
531.169	14376.23
531.535	14326.74
531.901	14311.6
532.267	14416.23
532.632	14331.71
532.998	14384.59
533.364	14409.45
533.73	14290.58
534.095	14426.63
534.461	14293.75
534.826	14484.93
535.192	14380.75
535.557	14437.7
535.923	14259.4
536.288	14286.52
536.653	14326.97
537.019	14242.45
537.384	14274.09
537.749	14290.81
538.114	14279.74
538.479	14169.46
538.845	14194.09
539.21	14097.14
539.575	14159.51
539.94	14056.01
540.305	14129.68
540.67	14079.29
541.034	14021.21
541.399	13991.61
541.764	13964.04
542.129	14005.62
542.494	14002.46
542.858	14026.41
543.223	13936.7
543.587	13922.23
543.952	13888.56
544.316	13868.45
544.681	13867.32
545.045	13816.47
545.41	13877.49
545.774	13804.04
546.138	13623.94
546.503	13673.2
546.867	13632.3
547.231	13670.26
547.595	13640.88
547.959	13628.46
548.324	13536.93
548.688	13491.96
549.052	13520.66
549.416	13510.94
549.779	13371.96
550.143	13475.69
550.507	13503.49
550.871	13442.02
551.235	13278.63
551.599	13430.95
551.962	13308.24
552.326	13344.85
552.689	13339.2
553.053	13251.06
553.417	13295.13
553.78	13270.72
554.143	13345.3
554.507	13244.96
554.87	13197.05
555.234	13309.82
555.597	13163.38
555.96	13220.78
556.323	13252.19
556.686	13146.66
557.05	13156.6
557.413	13176.49
557.776	13016.95
558.139	13173.33
558.502	13180.11
558.865	13127
559.228	13170.39
559.59	13257.39
559.953	13181.24
560.316	13262.82
560.679	13296.03
561.041	13226.66
561.404	13188.01
561.767	13268.24
562.129	13212.19
562.492	13225.53
562.854	13221.46
563.217	13120.9
563.579	13197.73
563.941	13255.58
564.304	13242.48
564.666	13329.93
565.028	13294.23
565.39	13219.88
565.753	13336.71
566.115	13302.36
566.477	13406.31
566.839	13407.9
567.201	13421
567.563	13425.3
567.925	13497.16
568.287	13419.2
568.648	13442.25
569.01	13490.61
569.372	13515.01
569.734	13411.06
570.095	13530.6
570.457	13560.43
570.819	13553.88
571.18	13553.65
571.542	13607.66
571.903	13599.08
572.265	13717.27
572.626	13722.46
572.987	13695.35
573.349	13674.78
573.71	13650.83
574.071	13663.48
574.432	13725.18
574.794	13717.49
575.155	13759.98
575.516	13695.57
575.877	13770.37
576.238	13877.71
576.599	13739.19
576.96	13741.9
577.32	13755.23
577.681	13829.81
578.042	13862.57
578.403	13774.44
578.763	13714.1
579.124	13781.9
579.485	13877.04
579.845	13886.3
580.206	13788.23
580.566	13817.6
580.927	13877.26
581.287	13805.85
581.648	13735.12
582.008	13851.73
582.368	13886.53
582.728	13792.52
583.089	13792.07
583.449	13784.38
583.809	13793.65
584.169	13775.34
584.529	13819.18
584.889	13834.78
585.249	13682.92
585.609	13726.53
585.969	13748
586.329	13702.13
586.688	13754.33
587.048	13715.23
587.408	13661.67
587.768	13645.86
588.127	13711.39
588.487	13648.79
588.846	13832.52
589.206	13669.36
589.565	13580.09
589.925	13693.09
590.284	13665.97
590.643	13689.7
591.003	13703.71
591.362	13654.9
591.721	13642.47
592.08	13583.03
592.44	13690.6
592.799	13638.62
593.158	13622.13
593.517	13493.09
593.876	13639.53
594.235	13622.13
594.593	13593.2
594.952	13545.75
595.311	13505.07
595.67	13674.33
596.029	13618.06
596.387	13683.6
596.746	13626.87
597.104	13570.38
597.463	13617.38
597.822	13668.68
598.18	13567.44
598.538	13604.5
598.897	13626.2
599.255	13547.55
599.613	13701.67
599.972	13580.32
600.33	13635.91
600.688	13571.06
601.046	13605.86
601.404	13589.81
601.762	13588.91
602.12	13603.37
602.478	13643.82
602.836	13613.99
603.194	13561.34
603.552	13534.9
603.91	13493.54
604.268	13475.01
604.625	13582.13
604.983	13620.77
605.341	13467.1
605.698	13717.04
606.056	13630.26
606.413	13575.58
606.771	13554.11
607.128	13770.15
607.485	13561.79
607.843	13620.77
608.2	13652.86
608.557	13729.92
608.914	13628.46
609.272	13658.51
609.629	13759.07
609.986	13763.59
610.343	13702.58
610.7	13842.23
611.057	13745.29
611.414	13717.72
611.771	13812.86
612.127	13917.94
612.484	13817.38
612.841	13879.75
613.198	13854.44
613.554	13759.53
613.911	13875.91
614.267	13898.96
614.624	13819.18
614.98	13867.09
615.337	13938.05
615.693	13931.27
616.05	13897.83
616.406	13965.85
616.762	13871.39
617.118	13967.43
617.475	13903.7
617.831	13935.57
618.187	14022.57
618.543	13943.7
618.899	13960.2
619.255	13963.81
619.611	13964.49
619.967	14103.7
620.323	14079.52
620.678	14052.17
621.034	13930.82
621.39	13959.52
621.746	13974.66
622.101	14005.85
622.457	14011.04
622.812	13965.62
623.168	14074.09
623.523	14119.52
623.879	14114.09
624.234	14028.44
624.589	14064.15
624.945	14077.48
625.3	14036.58
625.655	14037.71
626.01	14094.66
626.365	14043.81
626.72	14002.23
627.075	14082
627.43	14086.52
627.785	13972.4
628.14	14081.1
628.495	14020.08
628.85	14066.86
629.205	13970.59
629.559	14103.92
629.914	14009.69
630.269	13954.1
630.623	13942.35
630.978	13844.72
631.332	13998.84
631.687	13986.41
632.041	13938.28
632.396	13870.26
632.75	13855.57
633.104	13929.69
633.459	13802.91
633.813	13856.92
634.167	13749.81
634.521	13798.39
634.875	13804.5
635.229	13805.17
635.583	13715.01
635.937	13737.15
636.291	13647.21
636.645	13681.11
636.999	13657.38
637.352	13744.16
637.706	13568.34
638.06	13643.37
638.413	13619.87
638.767	13610.6
639.121	13680.66
639.474	13521.34
639.828	13556.37
640.181	13497.84
640.534	13561.56
640.888	13539.19
641.241	13481.79
641.594	13516.14
641.947	13553.2
642.301	13537.38
642.654	13522.47
643.007	13548.01
643.36	13437.27
643.713	13404.96
644.066	13478.4
644.419	13404.51
644.771	13312.08
645.124	13234.34
645.477	13160.22
645.83	13090.39
646.182	13051.52
646.535	13000.22
646.888	13021.92
647.24	13003.61
647.593	12996.38
647.945	13002.93
648.298	12923.16
648.65	12854.46
649.002	12816.27
649.355	12914.35
649.707	13052.88
650.059	13008.58
650.411	13189.82
650.763	13159.77
651.115	13377.61
651.467	13249.48
651.819	13224.62
652.171	13294.9
652.523	13328.8
652.875	13240.89
653.227	13168.81
653.578	13337.39
653.93	13305.75
654.282	13289.26
654.633	13250.61
654.985	13160.44
655.337	13248.35
655.688	13222.82
656.039	13237.73
656.391	13105.76
656.742	13226.43
657.094	13215.36
657.445	13282.48
657.796	13204.06
658.147	13248.8
658.498	13171.07
658.849	13197.73
659.2	13231.86
659.551	13158.41
659.902	13300.55
660.253	13243.38
660.604	13282.02
660.955	13218.3
661.306	13220.56
661.656	13178.75
662.007	13193.21
662.358	13166.77
662.708	13213.55
663.059	13256.49
663.409	13168.81
663.76	13284.28
664.11	13283.15
664.461	13239.99
664.811	13225.75
665.161	13231.86
665.511	13282.25
665.862	13294.23
666.212	13253.32
666.562	13295.13
666.912	13182.82
667.262	13201.12
667.612	13231.63
667.962	13312.08
668.312	13283.61
668.662	13318.63
669.011	13318.86
669.361	13227.56
669.711	13200.44
670.06	13301.91
670.41	13213.78
670.76	13168.13
671.109	13163.38
671.459	13222.59
671.808	13149.6
672.157	13168.81
672.507	13092.88
672.856	13150.73
673.205	13099.2
673.554	13208.58
673.904	13099.2
674.253	13161.12
674.602	13152.99
674.951	12907.57
675.3	12923.84
675.649	13075.93
675.998	13063.95
676.346	13121.8
676.695	13076.38
677.044	12983.27
677.393	13030.05
677.741	13060.79
678.09	13059.88
678.438	12952.31
678.787	13063.95
679.135	13019.66
679.484	12902.37
679.832	12877.97
680.181	12868.48
680.529	12809.49
680.877	12819.66
681.225	12851.3
681.573	12881.13
681.922	12786.67
682.27	12780.79
682.618	12694.02
682.966	12716.61
683.314	12737.63
683.661	12716.61
684.009	12589.61
684.357	12534.02
684.705	12620.12
685.053	12565.21
685.4	12556.84
685.748	12517.52
686.095	12507.81
686.443	12495.6
686.79	12395.27
687.138	12459.67
687.485	12447.47
687.832	12358.43
688.18	12332.67
688.527	12261.49
688.874	12236.63
689.221	12249.51
689.568	12197.31
689.915	12189.62
690.262	12095.61
690.609	12096.52
690.956	12061.94
691.303	12113.69
691.65	11955.5
691.997	11885.22
692.344	11887.03
692.69	11875.51
693.037	11788.05
693.383	11802.29
693.73	11744.44
694.077	11691.78
694.423	11698.56
694.769	11712.57
695.116	11571.56
695.462	11609.53
695.808	11542.41
696.155	11625.8
696.501	11460.83
696.847	11487.72
697.193	11446.59
697.539	11441.17
697.885	11271.46
698.231	11324.56
698.577	11224.45
698.923	11264
699.269	11144.68
699.614	11079.14
699.96	11076.66
700.306	11024
700.651	11041.18
700.997	10993.5
701.342	10940.39
701.688	10904.69
702.033	10910.79
702.379	10888.19
702.724	10794.41
703.069	10873.95
703.415	10721.86
703.76	10732.94
704.105	10725.25
704.45	10702.66
704.795	10662.21
705.14	10602.09
705.485	10531.59
705.83	10488.88
706.175	10504.92
706.52	10525.26
706.865	10454.98
707.209	10396.45
707.554	10405.94
707.899	10397.13
708.243	10364.59
708.588	10314.87
708.932	10316.23
709.277	10234.42
709.621	10257.47
709.966	10105.84
710.31	10190.58
710.654	10079.62
710.998	10108.77
711.342	10067.64
711.687	10035.1
712.031	9987.87
712.375	9900.19
712.719	9972.51
713.063	9936.8
713.407	9936.8
713.75	9903.13
714.094	9880.53
714.438	9900.42
714.782	9857.03
715.125	9814.54
715.469	9836.24
715.812	9779.52
716.156	9822.91
716.499	9731.38
716.843	9770.25
717.186	9712.4
717.53	9741.55
717.873	9767.54
718.216	9778.61
718.559	9718.05
718.902	9597.15
719.246	9641.67
719.589	9558.51
719.932	9534.1
720.275	9597.37
720.617	9541.11
720.96	9506.3
721.303	9579.75
721.646	9570.71
721.989	9494.33
722.331	9518.05
722.674	9500.43
723.016	9476.47
723.359	9479.41
723.701	9517.83
724.044	9325.52
724.386	9432.86
724.729	9440.09
725.071	9446.42
725.413	9400.54
725.755	9461.33
726.097	9346.76
726.439	9272.19
726.782	9312.86
727.124	9349.92
727.465	9360.09
727.807	9338.62
728.149	9356.03
728.491	9388.57
728.833	9364.84
729.175	9342.47
729.516	9343.37
729.858	9346.99
730.199	9273.77
730.541	9274.67
730.882	9205.97
731.224	9295.01
731.565	9266.31
731.906	9335.01
732.248	9318.74
732.589	9251.17
732.93	9296.82
733.271	9255.46
733.612	9152.64
733.953	9265.86
734.294	9176.59
734.635	9233.32
734.976	9261.11
735.317	9209.81
735.658	9215.01
735.999	9243.26
736.339	9282.58
736.68	9297.04
737.021	9306.08
737.361	9219.08
737.702	9265.86
738.042	9302.92
738.383	9303.37
738.723	9357.16
739.063	9280.55
739.404	9330.72
739.744	9260.21
740.084	9290.49
740.424	9274.22
740.764	9350.38
741.104	9354.44
741.444	9358.74
741.784	9352.86
742.124	9411.62
742.464	9348.34
742.804	9372.3
743.143	9366.87
743.483	9407.1
743.823	9382.92
744.162	9394.44
744.502	9476.02
744.841	9462.24
745.181	9504.95
745.52	9514.89
745.86	9538.62
746.199	9574.1
746.538	9644.38
746.877	9651.16
747.216	9743.81
747.556	9724.15
747.895	9792.4
748.234	9807.54
748.573	9892.06
748.911	9961.43
749.25	9996.01
749.589	10015.44
749.928	10104.71
750.267	10126.4
750.605	10305.83
750.944	10210.47
751.283	10278.94
751.621	10455.88
751.96	10461.08
752.298	10552.38
752.636	10602.09
752.975	10751.92
753.313	10751.02
753.651	10887.96
753.989	10942.42
754.327	11006.38
754.666	11170.67
755.004	11285.92
755.342	11413.37
755.679	11591.67
756.017	11647.49
756.355	11799.58
756.693	11780.14
757.031	12039.57
757.368	12151.21
757.706	12311.88
758.044	12444.31
758.381	12638.88
758.719	12753
