Data from hue_200_FLMS001491_00019.txt Node
Date: Tue Feb 07 16:42:54 GMT 2017
User: dcchb
Spectrometer: FLMS00149
Trigger mode: 0
Integration Time (sec): 2.000000E-2
Scans to average: 10
Electric dark correction enabled: true
Nonlinearity correction enabled: false
Boxcar width: 0
XAxis mode: Wavelengths
Number of Pixels in Spectrum: 2048
>>>>>Begin Spectral Data<<<<<
341.393	-7.68
341.776	-7.68
342.16	-7.68
342.543	-61.92
342.927	-60.34
343.31	-69.6
343.693	-72.77
344.077	-74.35
344.46	-46.78
344.843	-58.98
345.226	-46.78
345.61	-24.18
345.993	-25.54
346.376	-4.97
346.759	27.8
347.142	14.69
347.525	37.97
347.908	71.64
348.291	82.48
348.674	82.03
349.057	107.34
349.44	135.36
349.823	164.74
350.206	172.2
350.588	192.54
350.971	194.57
351.354	237.51
351.737	227.79
352.119	255.59
352.502	265.08
352.884	277.05
353.267	306.43
353.65	286.32
354.032	286.77
354.414	305.75
354.797	319.54
355.179	320.67
355.562	317.05
355.944	324.29
356.326	319.31
356.709	338.3
357.091	326.77
357.473	344.62
357.855	335.13
358.238	356.37
358.62	349.82
359.002	338.52
359.384	341.46
359.766	343.49
360.148	341.91
360.53	350.95
360.912	323.83
361.294	328.35
361.676	331.29
362.057	331.06
362.439	333.1
362.821	317.28
363.203	333.1
363.584	324.29
363.966	307.56
364.348	327.22
364.729	320.67
365.111	332.87
365.493	329.48
365.874	315.25
366.256	319.31
366.637	318.64
367.019	317.28
367.4	304.62
367.781	305.75
368.163	330.16
368.544	324.51
368.925	316.6
369.306	334.45
369.688	331.06
370.069	301.46
370.45	290.39
370.831	309.14
371.212	324.29
371.593	310.5
371.974	324.51
372.355	314.12
372.736	329.26
373.117	314.34
373.498	334.23
373.879	313.44
374.26	312.53
374.641	325.64
375.021	326.55
375.402	334.91
375.783	316.38
376.163	310.05
376.544	329.93
376.925	326.55
377.305	328.8
377.686	335.81
378.066	329.93
378.447	334
378.827	332.19
379.208	329.93
379.588	321.35
379.968	324.06
380.349	333.32
380.729	350.73
381.109	349.82
381.489	323.16
381.87	348.47
382.25	343.27
382.63	335.13
383.01	337.39
383.39	350.95
383.77	350.73
384.15	339.88
384.53	342.14
384.91	355.92
385.29	359.76
385.67	350.73
386.049	372.65
386.429	338.07
386.809	366.09
387.189	326.55
387.568	351.4
387.948	367.22
388.328	364.96
388.707	356.15
389.087	355.92
389.466	365.87
389.846	359.31
390.225	375.36
390.605	378.75
390.984	393.66
391.363	356.6
391.743	383.04
392.122	370.61
392.501	374.68
392.881	366.09
393.26	385.53
393.639	350.95
394.018	387.56
394.397	397.5
394.776	379.88
395.155	391.18
395.534	376.71
395.913	392.31
396.292	392.76
396.671	392.53
397.05	410.84
397.429	406.54
397.808	403.83
398.186	398.41
398.565	407.45
398.944	393.66
399.323	427.79
399.701	396.83
400.08	421.68
400.458	429.59
400.837	435.47
401.215	420.33
401.594	435.92
401.972	426.2
402.351	430.27
402.729	416.71
403.107	425.53
403.486	438.18
403.864	438.18
404.242	444.28
404.62	442.93
404.999	446.32
405.377	474.34
405.755	440.21
406.133	463.04
406.511	473.66
406.889	485.18
407.267	476.37
407.645	487.9
408.023	504.85
408.401	498.74
408.779	496.48
409.156	507.56
409.534	521.79
409.912	526.31
410.29	543.71
410.667	546.65
411.045	559.99
411.422	551.85
411.8	547.78
412.178	548.69
412.555	576.71
412.933	581.68
413.31	595.01
413.687	609.25
414.065	614.45
414.442	618.06
414.819	649.02
415.197	647.21
415.574	635.01
415.951	670.72
416.328	666.65
416.705	692.41
417.082	674.11
417.46	682.69
417.837	726.08
418.214	735.12
418.591	722.47
418.967	752.3
419.344	733.09
419.721	771.73
420.098	752.97
420.475	783.93
420.852	777.15
421.228	804.72
421.605	814.89
421.982	834.1
422.358	836.14
422.735	843.59
423.111	891.05
423.488	877.72
423.864	909.35
424.241	940.31
424.617	953.42
424.994	943.48
425.37	972.63
425.746	967.66
426.123	983.93
426.499	1006.75
426.875	1051.05
427.251	1028.45
427.627	1048.56
428.003	1064.6
428.379	1064.38
428.756	1063.93
429.132	1081.78
429.507	1129.01
429.883	1144.83
430.259	1171.27
430.635	1143.02
431.011	1145.73
431.387	1193.41
431.763	1209.23
432.138	1240.19
432.514	1248.1
432.89	1295.79
433.265	1302.11
433.641	1313.86
434.016	1334.2
434.392	1353.64
434.767	1394.77
435.143	1414.2
435.518	1418.72
435.894	1457.59
436.269	1470.47
436.644	1543.46
437.02	1512.5
437.395	1557.7
437.77	1600.64
438.145	1603.8
438.52	1630.47
438.895	1657.13
439.271	1676.57
439.646	1700.52
440.021	1765.38
440.395	1752.95
440.77	1742.1
441.145	1801.99
441.52	1844.7
441.895	1869.33
442.27	1863.68
442.645	1878.59
443.019	1940.51
443.394	1945.49
443.769	1956.78
444.143	1987.07
444.518	2004.92
444.892	2025.03
445.267	2052.83
445.641	2048.53
446.016	2079.49
446.39	2095.99
446.764	2100.51
447.139	2091.47
447.513	2114.52
447.887	2185.93
448.262	2162.2
448.636	2187.74
449.01	2201.3
449.384	2245.59
449.758	2237.91
450.132	2289.21
450.506	2244.01
450.88	2319.71
451.254	2318.13
451.628	2378.02
452.002	2360.39
452.376	2409.2
452.75	2417.11
453.123	2439.94
453.497	2466.38
453.871	2481.74
454.244	2561.74
454.618	2539.14
454.992	2594.96
455.365	2582.98
455.739	2675.41
456.112	2680.38
456.486	2674.28
456.859	2728.29
457.232	2744.11
457.606	2763.77
457.979	2815.07
458.352	2841.96
458.725	2912.47
459.099	2912.24
459.472	2938.45
459.845	3003.31
460.218	2968.28
460.591	3071.11
460.964	3038.56
461.337	3092.12
461.71	3178.22
462.083	3177.09
462.456	3248.28
462.829	3229.52
463.201	3274.49
463.574	3308.16
463.947	3364.43
464.32	3394.94
464.692	3441.49
465.065	3457.76
465.438	3510.64
465.81	3578.44
466.183	3592.9
466.555	3704.76
466.928	3696.85
467.3	3708.15
467.672	3752.67
468.045	3812.1
468.417	3822.05
468.789	3882.38
469.161	3983.4
469.534	4012.78
469.906	4053.45
470.278	4046.45
470.65	4160.34
471.022	4205.99
471.394	4306.78
471.766	4304.07
472.138	4331.64
472.51	4420.67
472.882	4503.61
473.253	4549.48
473.625	4620.67
473.997	4668.13
474.369	4714.68
474.74	4797.61
475.112	4863.37
475.484	4932.98
475.855	5044.16
476.227	5017.04
476.598	5177.04
476.97	5235.34
477.341	5289.58
477.713	5389.46
478.084	5391.04
478.455	5559.18
478.827	5582.23
479.198	5767.98
479.569	5789.9
479.94	5882.56
480.311	5895.66
480.682	5981.99
481.053	6176.56
481.424	6276.67
481.795	6294.52
482.166	6292.94
482.537	6474.86
482.908	6629.88
483.279	6626.49
483.65	6781.52
484.021	6889.76
484.391	6952.81
484.762	7007.05
485.133	7007.5
485.503	7111.45
485.874	7221.28
486.244	7307.38
486.615	7432.12
486.985	7541.04
487.356	7605.45
487.726	7674.83
488.097	7819.91
488.467	7859.23
488.837	7981.49
489.207	8097.87
489.578	8192.1
489.948	8257.86
490.318	8323.4
490.688	8324.3
491.058	8492.66
491.428	8561.81
491.798	8597.74
492.168	8784.63
492.538	8767
492.908	8895.81
493.278	8999.54
493.648	8975.81
494.017	9069.82
494.387	9132.87
494.757	9229.14
495.126	9260.77
495.496	9331.28
495.866	9310.26
496.235	9349.13
496.605	9453.76
496.974	9526.08
497.344	9526.76
497.713	9642.23
498.082	9672.06
498.452	9754.55
498.821	9702.8
499.19	9750.25
499.559	9854.66
499.928	9896.01
500.298	9875.67
500.667	9984.14
501.036	9954.54
501.405	9984.82
501.774	9998.61
502.143	10169.45
502.512	10113.41
502.88	10217.58
503.249	10152.95
503.618	10263.91
503.987	10225.72
504.356	10269.11
504.724	10295.55
505.093	10338.71
505.462	10341.2
505.83	10334.87
506.199	10427.52
506.567	10541.87
506.936	10432.04
507.304	10643.56
507.672	10514.53
508.041	10598.14
508.409	10621.19
508.777	10700.28
509.145	10787.06
509.514	10741.86
509.882	10766.5
510.25	10807.4
510.618	10825.93
510.986	10813.73
511.354	10859.38
511.722	10867.28
512.09	11015.98
512.458	10901.63
512.826	10976.66
513.193	10896.21
513.561	10957.45
513.929	11048.52
514.297	11070.9
514.664	11146.6
515.032	11135.3
515.4	11222.98
515.767	11180.72
516.135	11177.56
516.502	11112.48
516.869	11258.24
517.237	11248.29
517.604	11166.94
517.972	11191.57
518.339	11296.65
518.706	11205.81
519.073	11174.4
519.44	11216.2
519.808	11289.19
520.175	11179.37
520.542	11381.85
520.909	11386.14
521.276	11290.32
521.643	11340.27
522.009	11346.82
522.376	11471.79
522.743	11410.32
523.11	11488.74
523.477	11380.94
523.843	11432.02
524.21	11479.92
524.577	11549.07
524.943	11543.2
525.31	11539.13
525.676	11605.57
526.043	11609.19
526.409	11610.32
526.776	11660.03
527.142	11587.72
527.508	11616.19
527.874	11704.55
528.241	11643.31
528.607	11621.39
528.973	11634.04
529.339	11554.95
529.705	11651.9
530.071	11655.51
530.437	11645.8
530.803	11654.16
531.169	11615.29
531.535	11486.93
531.901	11562.41
532.267	11555.85
532.632	11492.81
532.998	11444.44
533.364	11485.12
533.73	11498.23
534.095	11495.52
534.461	11434.28
534.826	11495.74
535.192	11450.55
535.557	11415.52
535.923	11369.64
536.288	11315.63
536.653	11298.69
537.019	11226.15
537.384	11210.55
537.749	11192.93
538.114	11123.32
538.479	11076.54
538.845	11091.01
539.21	11034.96
539.575	11006.72
539.94	10907.06
540.305	10935.76
540.67	10881.75
541.034	10810.34
541.399	10834.07
541.764	10826.61
542.129	10767.4
542.494	10760.85
542.858	10697.12
543.223	10631.13
543.587	10590.46
543.952	10512.49
544.316	10518.59
544.681	10442.66
545.045	10429.56
545.41	10413.29
545.774	10378.71
546.138	10354.08
546.503	10259.62
546.867	10296.68
547.231	10264.14
547.595	10266.85
547.959	10174.42
548.324	10110.47
548.688	10089.68
549.052	10070.92
549.416	10014.88
549.779	9958.83
550.143	9907.31
550.507	9910.02
550.871	9907.08
551.235	9850.59
551.599	9843.58
551.962	9776.47
552.326	9757.26
552.689	9746.86
553.053	9669.8
553.417	9617.6
553.78	9645.85
554.143	9624.83
554.507	9655.11
554.87	9523.82
555.234	9585.06
555.597	9511.39
555.96	9511.16
556.323	9479.3
556.686	9404.27
557.05	9398.4
557.413	9355.69
557.776	9352.97
558.139	9378.96
558.502	9345.97
558.865	9355.23
559.228	9341.22
559.59	9323.82
559.953	9335.12
560.316	9310.04
560.679	9205.41
561.041	9242.47
561.404	9244.28
561.767	9245.86
562.129	9200.66
562.492	9294.44
562.854	9243.37
563.217	9231.62
563.579	9218.06
563.941	9147.1
564.304	9236.14
564.666	9210.83
565.028	9258.06
565.39	9159.53
565.753	9180.32
566.115	9152.08
566.477	9188.46
566.839	9241.56
567.201	9194.79
567.563	9218.06
567.925	9216.03
568.287	9161.57
568.648	9168.35
569.01	9204.5
569.372	9296.48
569.734	9162.7
570.095	9184.39
570.457	9236.14
570.819	9237.27
571.18	9192.53
571.542	9256.93
571.903	9180.1
572.265	9262.81
572.626	9202.7
572.987	9300.55
573.349	9286.08
573.71	9199.76
574.071	9273.43
574.432	9238.85
574.794	9296.48
575.155	9280.21
575.516	9273.88
575.877	9271.17
576.238	9225.97
576.599	9272.75
576.96	9330.38
577.32	9218.74
577.681	9316.37
578.042	9313.2
578.403	9238.63
578.763	9241.11
579.124	9277.27
579.485	9342.35
579.845	9228.23
580.206	9283.82
580.566	9328.34
580.927	9246.31
581.287	9319.08
581.648	9253.09
582.008	9260.1
582.368	9248.57
582.728	9262.81
583.089	9237.5
583.449	9269.36
583.809	9177.39
584.169	9232.98
584.529	9265.75
584.889	9318.85
585.249	9197.72
585.609	9132.42
585.969	9251.51
586.329	9178.29
586.688	9174.9
587.048	9133.32
587.408	9184.84
587.768	9145.52
588.127	9137.84
588.487	9182.36
588.846	9238.85
589.206	9111.85
589.565	9150.95
589.925	9175.8
590.284	9130.38
590.643	9112.53
591.003	9122.25
591.362	9129.03
591.721	9117.27
592.08	9072.98
592.44	9067.11
592.799	9126.31
593.158	9077.05
593.517	9026.88
593.876	9105.98
594.235	9081.12
594.593	9080.21
594.952	9073.21
595.311	9014.9
595.67	9050.84
596.029	9066.2
596.387	9117.5
596.746	9071.85
597.104	8994.57
597.463	9032.98
597.822	9047.45
598.18	8962.25
598.538	8961.35
598.897	9052.42
599.255	8945.53
599.613	9002.7
599.972	9012.87
600.33	9086.99
600.688	9002.93
601.046	9034.11
601.404	9008.35
601.762	9007.45
602.12	9041.34
602.478	9050.38
602.836	9085.86
603.194	8952.08
603.552	8992.98
603.91	8933.55
604.268	8998.41
604.625	8914.57
604.983	9059.65
605.341	8939.2
605.698	8990.72
606.056	8988.24
606.413	8979.65
606.771	9009.25
607.128	8922.93
607.485	8995.92
607.843	8939.88
608.2	8981.68
608.557	9008.12
608.914	9045.41
609.272	9105.07
609.629	9031.4
609.986	9138.52
610.343	9025.53
610.7	9023.94
611.057	9067.33
611.414	9030.05
611.771	9056.71
612.127	9021.23
612.484	9115.24
612.841	9150.72
613.198	9094.22
613.554	9087.22
613.911	9112.75
614.267	9115.69
614.624	9105.98
614.98	9102.59
615.337	9117.73
615.693	9108.46
616.05	9091.51
616.406	9162.47
616.762	9128.8
617.118	9102.81
617.475	9174.9
617.831	9190.94
618.187	9218.06
618.543	9166.76
618.899	9203.37
619.255	9185.97
619.611	9198.4
619.967	9260.1
620.323	9263.94
620.678	9163.37
621.034	9145.07
621.39	9152.53
621.746	9110.95
622.101	9189.81
622.457	9182.13
622.812	9133.77
623.168	9222.36
623.523	9182.58
623.879	9242.24
624.234	9188.23
624.589	9154.79
624.945	9182.81
625.3	9188.91
625.655	9150.95
626.01	9176.93
626.365	9137.61
626.72	9166.31
627.075	9141.23
627.43	9160.66
627.785	9084.96
628.14	9199.31
628.495	9159.08
628.85	9154.11
629.205	9188.01
629.559	9164.28
629.914	9167.89
630.269	9139.19
630.623	9131.51
630.978	9072.53
631.332	9106.43
631.687	9104.17
632.041	9061.46
632.396	9032.53
632.75	9019.88
633.104	8999.09
633.459	9024.85
633.813	9004.73
634.167	9015.36
634.521	9004.28
634.875	8961.8
635.229	8955.02
635.583	8910.27
635.937	8887
636.291	8905.08
636.645	8872.31
636.999	8849.71
637.352	8863.95
637.706	8807.9
638.06	8893.1
638.413	8878.86
638.767	8872.31
639.121	8843.61
639.474	8763.16
639.828	8737.85
640.181	8861.69
640.534	8858.52
640.888	8818.53
641.241	8771.07
641.594	8776.72
641.947	8800.45
642.301	8767.68
642.654	8710.96
643.007	8769.94
643.36	8721.35
643.713	8709.38
644.066	8755.93
644.419	8646.78
644.771	8622.6
645.124	8591.64
645.477	8517.74
645.83	8494.47
646.182	8436.16
646.535	8450.4
646.888	8405.65
647.24	8361.14
647.593	8453.56
647.945	8438.87
648.298	8412.21
648.65	8416.05
649.002	8323.4
649.355	8417.63
649.707	8387.8
650.059	8506.89
650.411	8544.86
650.763	8538.98
651.115	8608.14
651.467	8673.67
651.819	8643.61
652.171	8583.96
652.523	8627.34
652.875	8662.37
653.227	8551.19
653.578	8650.17
653.93	8643.16
654.282	8568.14
654.633	8609.04
654.985	8618.76
655.337	8635.48
655.688	8618.08
656.039	8637.29
656.391	8605.65
656.742	8539.44
657.094	8557.29
657.445	8623.5
657.796	8623.28
658.147	8622.15
658.498	8631.19
658.849	8595.71
659.2	8599.32
659.551	8585.08
659.902	8642.03
660.253	8689.49
660.604	8661.47
660.955	8608.59
661.306	8653.78
661.656	8692.65
662.007	8694.46
662.358	8732.2
662.708	8698.3
663.059	8696.49
663.409	8657.17
663.76	8663.05
664.11	8740.34
664.461	8672.09
664.811	8707.34
665.161	8680.45
665.511	8704.86
665.862	8697.17
666.212	8693.78
666.562	8727.68
666.912	8670.51
667.262	8753.44
667.612	8695.36
667.962	8765.87
668.312	8667.12
668.662	8696.04
669.011	8710.05
669.361	8744.4
669.711	8731.75
670.06	8716.16
670.41	8636.16
670.76	8631.64
671.109	8670.73
671.459	8716.38
671.808	8662.15
672.157	8676.61
672.507	8591.19
672.856	8656.5
673.205	8598.19
673.554	8629.83
673.904	8558.87
674.253	8703.95
674.602	8660.34
674.951	8456.5
675.3	8483.39
675.649	8590.28
675.998	8511.19
676.346	8608.14
676.695	8623.5
677.044	8539.21
677.393	8571.3
677.741	8584.18
678.09	8497.86
678.438	8528.14
678.787	8483.39
679.135	8503.73
679.484	8402.04
679.832	8449.72
680.181	8426.22
680.529	8411.08
680.877	8392.1
681.225	8395.26
681.573	8475.48
681.922	8353.45
682.27	8380.34
682.618	8341.93
682.966	8311.87
683.314	8366.56
683.661	8302.38
684.009	8266.22
684.357	8265.09
684.705	8235.49
685.053	8226.68
685.4	8286.11
685.748	8127.7
686.095	8122.72
686.443	8122.5
686.79	8098.09
687.138	8171.76
687.485	8144.87
687.832	8081.6
688.18	8160.46
688.527	8075.27
688.874	8016.96
689.221	7980.36
689.568	7931.54
689.915	7961.6
690.262	7933.35
690.609	7891.09
690.956	7836.63
691.303	7856.97
691.65	7809.29
691.997	7786.01
692.344	7749.17
692.69	7753.92
693.037	7716.41
693.383	7654.94
693.73	7674.6
694.077	7622.62
694.423	7570.87
694.769	7615.17
695.116	7572.23
695.462	7544.21
695.808	7502.85
696.155	7509.18
696.501	7439.58
696.847	7421.73
697.193	7393.03
697.539	7357.55
697.885	7368.62
698.231	7298.79
698.577	7279.36
698.923	7295.4
699.269	7263.31
699.614	7180.15
699.96	7118.91
700.306	7217.89
700.651	7156.65
700.997	7069.64
701.342	7113.49
701.688	7120.72
702.033	7079.81
702.379	7055.63
702.724	6945.35
703.069	6935.18
703.415	6931.8
703.76	6860.38
704.105	6854.96
704.45	6887.95
704.795	6847.96
705.14	6741.52
705.485	6803.44
705.83	6749.2
706.175	6793.27
706.52	6789.2
706.865	6757.79
707.209	6677.34
707.554	6693.16
707.899	6693.16
708.243	6631.92
708.588	6610.67
708.932	6588.98
709.277	6553.05
709.621	6559.83
709.966	6540.17
710.31	6595.31
710.654	6523.9
710.998	6490.45
711.342	6467.4
711.687	6498.81
712.031	6475.54
712.375	6393.05
712.719	6403.67
713.063	6412.26
713.407	6420.62
713.75	6426.5
714.094	6378.59
714.438	6383.79
714.782	6393.05
715.125	6317.12
715.469	6336.33
715.812	6307.18
716.156	6274.64
716.499	6238.93
716.843	6266.95
717.186	6243
717.53	6215.2
717.873	6276.9
718.216	6228.99
718.559	6221.53
718.902	6186.73
719.246	6177.92
719.589	6141.53
719.932	6155.77
720.275	6121.42
720.617	6144.7
720.96	6104.02
721.303	6138.14
721.646	6096.11
721.989	6125.04
722.331	6115.32
722.674	6123.91
723.016	6159.61
723.359	6113.51
723.701	6083.68
724.044	6123.68
724.386	6060.63
724.729	6148.31
725.071	6111.03
725.413	6105.38
725.755	6085.49
726.097	6068.77
726.439	6033.29
726.782	6012.27
727.124	6069.67
727.465	6036
727.807	6015.44
728.149	6075.09
728.491	6061.31
728.833	6104.47
729.175	6027.86
729.516	6078.03
729.858	6025.6
730.199	6042.33
730.541	5996.68
730.882	6012.27
731.224	6047.07
731.565	5980.86
731.906	6022.21
732.248	5978.37
732.589	6005.49
732.93	6023.57
733.271	5974.76
733.612	6008.88
733.953	6014.31
734.294	6010.46
734.635	5999.16
734.976	6001.42
735.317	6018.15
735.658	5975.66
735.999	6024.47
736.339	6043.91
736.68	6090.24
737.021	6069.67
737.361	6090.24
737.702	6028.54
738.042	6049.33
738.383	6050.91
738.723	6023.34
739.063	6008.2
739.404	6103.12
739.744	6072.83
740.084	6105.15
740.424	6092.27
740.764	6052.04
741.104	6147.63
741.444	6121.42
741.784	6158.71
742.124	6130.46
742.464	6196.9
742.804	6182.21
743.143	6198.03
743.483	6235.54
743.823	6247.29
744.162	6291.81
744.502	6339.95
744.841	6323
745.181	6379.95
745.52	6426.27
745.86	6447.06
746.199	6473.5
746.538	6480.06
746.877	6536.78
747.216	6578.36
747.556	6601.86
747.895	6716.43
748.234	6727.73
748.573	6726.83
748.911	6826.49
749.25	6847.5
749.589	6955.98
749.928	6979.03
750.267	7081.62
750.605	7140.15
750.944	7154.61
751.283	7290.88
751.621	7378.79
751.96	7466.24
752.298	7502.63
752.636	7623.53
752.975	7736.52
753.313	7743.98
753.651	7862.62
753.989	7955.72
754.327	8161.14
754.666	8208.82
755.004	8320.23
755.342	8472.09
755.679	8613.56
756.017	8696.72
756.355	8768.13
756.693	8942.36
757.031	9066.2
757.368	9242.24
757.706	9372.63
758.044	9571.73
758.381	9638.16
758.719	9806.97
759.056	10004.03
759.394	10171.03
759.731	10257.36
760.068	10387.07
760.405	10486.28
760.743	10689.66
761.08	10935.53
761.417	11050.33
761.754	11234.28
762.091	11369.87
762.428	11639.92
762.765	11802.4
763.102	11942.74
763.438	12083.07
763.775	12254.37
764.112	12462.95
764.449	12633.79
764.785	12809.83
765.122	12886.21
765.458	13012.99
765.795	13230.16
766.131	13494.56
