Data from hue_310_FLMS001491_82.txt Node
Date: Mon Feb 06 15:50:19 GMT 2017
User: dcchb
Spectrometer: FLMS00149
Trigger mode: 0
Integration Time (sec): 2.000000E-2
Scans to average: 10
Electric dark correction enabled: true
Nonlinearity correction enabled: false
Boxcar width: 0
XAxis mode: Wavelengths
Number of Pixels in Spectrum: 2048
>>>>>Begin Spectral Data<<<<<
341.393	-8.88
341.776	-8.88
342.16	-8.88
342.543	-53.18
342.927	-75.55
343.31	-45.27
343.693	-59.5
344.077	-56.34
344.46	-47.75
344.843	-52.27
345.226	-53.18
345.61	-34.19
345.993	-16.57
346.376	-17.02
346.759	10.78
347.142	25.92
347.525	32.24
347.908	68.4
348.291	82.64
348.674	77.22
349.057	84.9
349.44	109.53
349.823	148.85
350.206	141.62
350.588	193.37
350.971	213.94
351.354	228.4
351.737	261.17
352.119	261.39
352.502	255.29
352.884	272.92
353.267	272.24
353.65	299.36
354.032	298.9
354.414	316.98
354.797	323.76
355.179	327.15
355.562	325.12
355.944	326.93
356.326	340.26
356.709	323.99
357.091	322.63
357.473	334.84
357.855	347.04
358.238	325.8
358.62	356.08
359.002	324.89
359.384	328.28
359.766	335.51
360.148	335.97
360.53	351.33
360.912	339.81
361.294	349.07
361.676	326.93
362.057	315.4
362.439	331.67
362.821	335.97
363.203	328.73
363.584	318.57
363.966	324.67
364.348	333.71
364.729	335.51
365.111	321.28
365.493	336.64
365.874	296.19
366.256	306.59
366.637	326.02
367.019	306.14
367.4	319.24
367.781	304.55
368.163	312.24
368.544	315.85
368.925	317.44
369.306	329.41
369.688	322.41
370.069	324.21
370.45	321.05
370.831	306.81
371.212	300.71
371.593	313.59
371.974	289.87
372.355	319.69
372.736	317.89
373.117	323.54
373.498	339.36
373.879	327.6
374.26	310.66
374.641	337.1
375.021	330.32
375.402	322.41
375.783	318.79
376.163	334.38
376.544	325.34
376.925	301.39
377.305	318.57
377.686	324.67
378.066	317.66
378.447	339.13
378.827	344.78
379.208	351.56
379.588	337.77
379.968	323.08
380.349	320.82
380.729	316.53
381.109	346.13
381.489	347.94
381.87	327.15
382.25	331.22
382.63	340.26
383.01	348.17
383.39	358.56
383.77	356.76
384.15	356.08
384.53	356.76
384.91	357.43
385.29	364.21
385.67	356.3
386.049	366.02
386.429	353.59
386.809	349.3
387.189	352.46
387.568	335.97
387.948	353.59
388.328	367.15
388.707	369.86
389.087	379.81
389.466	361.73
389.846	370.77
390.225	383.2
390.605	366.7
390.984	375.74
391.363	360.6
391.743	382.74
392.122	373.25
392.501	383.2
392.881	377.09
393.26	393.14
393.639	386.13
394.018	382.07
394.397	382.07
394.776	384.1
395.155	371.9
395.534	383.42
395.913	397.43
396.292	379.58
396.671	401.27
397.05	393.82
397.429	401.5
397.808	406.47
398.186	391.56
398.565	399.01
398.944	403.31
399.323	402.86
399.701	410.09
400.08	424.33
400.458	409.86
400.837	411.9
401.215	432.91
401.594	425.91
401.972	424.78
402.351	435.4
402.729	429.75
403.107	432.46
403.486	431.1
403.864	439.47
404.242	434.72
404.62	441.27
404.999	432.46
405.377	438.11
405.755	444.66
406.133	442.86
406.511	464.78
406.889	480.82
407.267	490.09
407.645	476.53
408.023	477.66
408.401	495.28
408.779	481.27
409.156	498.22
409.534	515.4
409.912	517.88
410.29	507.49
410.667	535.51
411.045	499.8
411.422	519.92
411.8	543.19
412.178	557.2
412.555	557.88
412.933	530.54
413.31	576.19
413.687	559.91
414.065	592
414.442	594.49
414.819	604.43
415.197	587.71
415.574	610.53
415.951	622.06
416.328	626.13
416.705	648.95
417.082	653.02
417.46	623.19
417.837	666.58
418.214	688.95
418.591	670.19
418.967	685.56
419.344	691.66
419.721	711.78
420.098	704.32
420.475	748.16
420.852	720.14
421.228	723.75
421.605	756.29
421.982	775.95
422.358	749.51
422.735	770.08
423.111	772.34
423.488	784.09
423.864	772.79
424.241	806.91
424.617	793.81
424.994	785.67
425.37	804.43
425.746	824.31
426.123	842.17
426.499	826.12
426.875	890.08
427.251	862.96
427.627	896.4
428.003	882.84
428.379	892.56
428.756	909.06
429.132	905.67
429.507	915.84
429.883	923.97
430.259	957.64
430.635	965.1
431.011	963.07
431.387	975.95
431.763	993.35
432.138	1008.04
432.514	1011.43
432.89	1026.34
433.265	1051.65
433.641	1067.92
434.016	1053.46
434.392	1075.83
434.767	1075.83
435.143	1084.19
435.518	1097.53
435.894	1144.76
436.269	1127.81
436.644	1158.77
437.02	1169.84
437.395	1167.36
437.77	1170.07
438.145	1167.58
438.52	1195.6
438.895	1199.22
439.271	1208.49
439.646	1225.21
440.021	1245.09
440.395	1259.11
440.77	1232.44
441.145	1265.21
441.52	1280.8
441.895	1291.42
442.27	1267.01
442.645	1273.57
443.019	1302.49
443.394	1309.05
443.769	1303.17
444.143	1286.22
444.518	1326
444.892	1318.31
445.267	1332.32
445.641	1334.58
446.016	1347.01
446.39	1338.88
446.764	1356.28
447.139	1348.59
447.513	1372.55
447.887	1388.37
448.262	1375.26
448.636	1387.69
449.01	1362.83
449.384	1371.64
449.758	1408.48
450.132	1415.94
450.506	1417.07
450.88	1445.99
451.254	1409.61
451.628	1450.96
452.002	1448.03
452.376	1462.26
452.75	1481.92
453.123	1468.37
453.497	1485.31
453.871	1471.76
454.244	1507.69
454.618	1521.7
454.992	1547.69
455.365	1509.49
455.739	1540.68
456.112	1544.97
456.486	1574.35
456.859	1584.07
457.232	1604.41
457.606	1582.94
457.979	1601.92
458.352	1624.29
458.725	1661.35
459.099	1673.33
459.472	1659.32
459.845	1669.26
460.218	1696.61
460.591	1710.62
460.964	1698.87
461.337	1731.64
461.71	1760.11
462.083	1758.53
462.456	1783.61
462.829	1757.62
463.201	1779.09
463.574	1808.92
463.947	1808.02
464.32	1865.87
464.692	1831.29
465.065	1886.21
465.438	1852.54
465.81	1889.37
466.183	1923.95
466.555	1951.29
466.928	1951.06
467.3	1938.18
467.672	1965.08
468.045	2013.44
468.417	2018.41
468.789	1997.62
469.161	2048.69
469.534	2047.79
469.906	2094.79
470.278	2105.86
470.65	2109.03
471.022	2144.96
471.394	2171.17
471.766	2184.96
472.138	2201
472.51	2227.44
472.882	2262.02
473.253	2254.11
473.625	2292.75
473.997	2332.07
474.369	2343.82
474.74	2345.18
475.112	2379.53
475.484	2435.12
475.855	2474.44
476.227	2472.86
476.598	2473.99
476.97	2534.78
477.341	2535.23
477.713	2588.56
478.084	2593.53
478.455	2694.55
478.827	2665.17
479.198	2704.72
479.569	2671.05
479.94	2733.19
480.311	2800.53
480.682	2836.92
481.053	2900.64
481.424	2906.07
481.795	2934.54
482.166	2978.61
482.537	3000.98
482.908	3045.05
483.279	3039.62
483.65	3052.28
484.021	3118.72
484.391	3162.78
484.762	3201.43
485.133	3191.26
485.503	3242.56
485.874	3278.49
486.244	3294.53
486.615	3382.89
486.985	3398.26
487.356	3406.17
487.726	3478.03
488.097	3496.33
488.467	3502.44
488.837	3561.19
489.207	3601.19
489.578	3589.44
489.948	3625.37
490.318	3675.31
490.688	3677.35
491.058	3730
491.428	3787.17
491.798	3828.98
492.168	3872.14
492.538	3878.7
492.908	3900.62
493.278	3916.66
493.648	3968.64
494.017	3953.27
494.387	4008.41
494.757	4040.5
495.126	4069.65
495.496	4069.2
495.866	4092.03
496.235	4091.8
496.605	4144.23
496.974	4170.44
497.344	4232.36
497.713	4216.77
498.082	4193.04
498.452	4242.3
498.821	4271.91
499.19	4279.59
499.559	4321.17
499.928	4290.89
500.298	4346.48
500.667	4379.48
501.036	4355.97
501.405	4408.4
501.774	4391
502.143	4453.15
502.512	4459.7
502.88	4466.93
503.249	4495.63
503.618	4542.63
503.987	4533.37
504.356	4588.06
504.724	4567.27
505.093	4609.07
505.462	4576.76
505.83	4649.3
506.199	4632.8
506.567	4656.76
506.936	4647.72
507.304	4728.39
507.672	4751.89
508.041	4781.5
508.409	4798.67
508.777	4828.95
509.145	4822.18
509.514	4831.67
509.882	4869.41
510.25	4852.01
510.618	4898.78
510.986	4898.11
511.354	4948.27
511.722	4958.9
512.09	4950.99
512.458	4949.86
512.826	4990.08
513.193	5011.32
513.561	4985.34
513.929	5030.76
514.297	5055.62
514.664	5041.83
515.032	5154.14
515.4	5089.06
515.767	5082.73
516.135	5106.91
516.502	5105.78
516.869	5147.36
517.237	5184.65
517.604	5163.86
517.972	5168.61
518.339	5193.24
518.706	5257.19
519.073	5261.26
519.44	5304.42
519.808	5262.39
520.175	5277.3
520.542	5324.99
520.909	5336.51
521.276	5353.91
521.643	5380.13
522.009	5384.42
522.376	5407.47
522.743	5414.7
523.11	5493.8
523.477	5536.73
523.843	5544.64
524.21	5564.08
524.577	5593.68
524.943	5571.08
525.31	5655.6
525.676	5681.14
526.043	5663.28
526.409	5693.11
526.776	5748.93
527.142	5773.56
527.508	5830.96
527.874	5839.78
528.241	5917.51
528.607	5903.5
528.973	5979.21
529.339	5934.69
529.705	6012.2
530.071	5972.43
530.437	6043.61
530.803	6028.7
531.169	6103.5
531.535	6091.29
531.901	6128.13
532.267	6168.35
532.632	6206.55
532.998	6193.21
533.364	6260.56
533.73	6248.8
534.095	6306.88
534.461	6297.39
534.826	6370.16
535.192	6395.47
535.557	6387.33
535.923	6430.72
536.288	6432.75
536.653	6483.37
537.019	6437.73
537.384	6479.08
537.749	6519.53
538.114	6529.25
538.479	6631.85
538.845	6651.05
539.21	6592.07
539.575	6706.65
539.94	6644.5
540.305	6734.22
540.67	6691.96
541.034	6711.84
541.399	6781.45
541.764	6789.36
542.129	6896.02
542.494	6913.65
542.858	6844.95
543.223	6934.66
543.587	6980.31
543.952	6943.7
544.316	6933.98
544.681	6975.11
545.045	7078.61
545.41	7052.85
545.774	7177.82
546.138	7160.87
546.503	7072.51
546.867	7100.99
547.231	7281.77
547.595	7275.67
547.959	7265.28
548.324	7351.6
548.688	7333.07
549.052	7360.87
549.416	7370.58
549.779	7354.76
550.143	7368.78
550.507	7432.05
550.871	7446.29
551.235	7447.87
551.599	7573.52
551.962	7536.45
552.326	7519.73
552.689	7593.4
553.053	7560.86
553.417	7596.34
553.78	7678.37
554.143	7632.5
554.507	7694.19
554.87	7706.62
555.234	7820.29
555.597	7766.5
555.96	7814.41
556.323	7854.64
556.686	7826.84
557.05	7875.43
557.413	7906.39
557.776	7896.44
558.139	7954.07
558.502	7954.75
558.865	7938.7
559.228	7961.98
559.59	8008.08
559.953	8062.09
560.316	8090.79
560.679	8107.96
561.041	8154.97
561.404	8161.07
561.767	8201.97
562.129	8205.82
562.492	8304.34
562.854	8222.09
563.217	8277.23
563.579	8353.38
563.941	8360.39
564.304	8375.08
564.666	8448.97
565.028	8440.16
565.39	8434.06
565.753	8443.32
566.115	8507.05
566.477	8529.65
566.839	8495.53
567.201	8586.37
567.563	8611.91
567.925	8612.36
568.287	8713.6
568.648	8664.33
569.01	8759.93
569.372	8828.62
569.734	8832.47
570.095	8819.58
570.457	8904.33
570.819	8865.23
571.18	8935.51
571.542	8974.61
571.903	9034.95
572.265	9100.26
572.626	9164.89
572.987	9229.07
573.349	9198.78
573.71	9281.04
574.071	9344.99
574.432	9428.38
574.794	9506.12
575.155	9497.08
575.516	9527.59
575.877	9648.04
576.238	9678.32
576.599	9724.19
576.96	9869.5
577.32	9891.65
577.681	9980.91
578.042	10094.81
578.403	10203.05
578.763	10302.48
579.124	10320.56
579.485	10512.2
579.845	10680.78
580.206	10711.06
580.566	10832.86
580.927	10956.03
581.287	11090.49
581.648	11274.44
582.008	11441.89
582.368	11487.31
582.728	11692.05
583.089	11788.09
583.449	12014.08
583.809	12210
584.169	12344.24
584.529	12553.5
584.889	12845.47
585.249	12996.88
585.609	13117.1
585.969	13421.95
586.329	13510.76
586.688	13734.26
587.048	13986.45
587.408	14258.31
587.768	14553.45
588.127	14741.01
588.487	14964.06
588.846	15273.43
589.206	15540.76
589.565	15839.29
589.925	16106.4
590.284	16274.53
590.643	16670.45
591.003	16999.48
591.362	17284.9
591.721	17549.98
592.08	17785.68
592.44	18151.77
592.799	18440.35
593.158	18723.73
593.517	18975.48
593.876	19392.41
594.235	19517.38
594.593	20006.63
594.952	20275.78
595.311	20477.36
595.67	20854.07
596.029	21315.98
596.387	21608.85
596.746	21968.84
597.104	22105.56
597.463	22445.89
597.822	22950.96
598.18	23044.3
598.538	23405.19
598.897	23754.56
599.255	23905.74
599.613	24543.24
599.972	24616.68
600.33	25032.72
600.688	25304.35
601.046	25598.35
601.404	25912.92
601.762	26244.66
602.12	26596.97
602.478	26919
602.836	27149.5
603.194	27330.96
603.552	27789.71
603.91	27831.06
604.268	28194.44
604.625	28410.48
604.983	28826.97
605.341	28912.84
605.698	29353.06
606.056	29571.36
606.413	29869.88
606.771	30057.22
607.128	30446.81
607.485	30627.6
607.843	30801.38
608.2	31198.21
608.557	31497.63
608.914	31625.54
609.272	31937.62
609.629	32178.97
609.986	32457.38
610.343	32590.03
610.7	32904.15
611.057	33195.21
611.414	33322.9
611.771	33488.99
612.127	33770.79
612.484	33943.9
612.841	34194.74
613.198	34205.58
613.554	34482.19
613.911	34689.86
614.267	34852.35
614.624	35140.93
614.98	35325.33
615.337	35578.65
615.693	35752.21
616.05	35786.56
616.406	36243.27
616.762	36132.76
617.118	36437.62
617.475	36293.66
617.831	36658.85
618.187	36827.89
618.543	36922.8
618.899	37247.76
619.255	37352.62
619.611	37405.73
619.967	37748.09
620.323	37777.24
620.678	37665.83
621.034	37852.72
621.39	37972.04
621.746	38012.04
622.101	38583.55
622.457	38414.29
622.812	38463.78
623.168	38673.49
623.523	38715.3
623.879	38958.91
624.234	38743.77
624.589	38983.99
624.945	39064.21
625.3	39239.12
625.655	39274.6
626.01	39363.41
626.365	39499.68
626.72	39413.36
627.075	39590.53
627.43	39682.95
627.785	39572.45
628.14	39893.57
628.495	39824.87
628.85	39965.43
629.205	39767.7
629.559	40058.76
629.914	39850.86
630.269	40200.45
630.623	40105.99
630.978	40101.25
631.332	40268.48
631.687	40407.91
632.041	40245.65
632.396	40363.16
632.75	40305.08
633.104	40228.25
633.459	40188.48
633.813	40287.91
634.167	40243.39
634.521	40260.79
634.875	40412.88
635.229	40328.36
635.583	40205.65
635.937	40207.69
636.291	40384.63
636.645	40317.97
636.999	40369.94
637.352	40524.51
637.706	40244.75
638.06	40430.05
638.413	40333.33
638.767	40335.37
639.121	40386.66
639.474	40000.46
639.828	40138.08
640.181	40234.35
640.534	40374.91
640.888	40109.61
641.241	40030.06
641.594	40240
641.947	40383.95
642.301	40219.66
642.654	40375.36
643.007	40302.82
643.36	40147.35
643.713	40182.15
644.066	40369.04
644.419	40174.24
644.771	39916.85
645.124	39501.26
645.477	39423.3
645.83	39170.65
646.182	39176.07
646.535	39062.41
646.888	39075.29
647.24	38907.83
647.593	39052.46
647.945	39044.1
648.298	38830.09
648.65	38784.67
649.002	38734.05
649.355	39021.73
649.707	38900.38
650.059	39034.84
650.411	39428.05
650.763	39502.17
651.115	39981.03
651.467	39797.3
651.819	39565.44
652.171	39564.99
652.523	39684.54
652.875	39665.55
653.227	39525.67
653.578	39804.76
653.93	39610.64
654.282	39478.21
654.633	39345.56
654.985	39604.76
655.337	39463.07
655.688	39494.71
656.039	39635.27
656.391	39310.08
656.742	39480.7
657.094	39363.19
657.445	39440.02
657.796	39481.83
658.147	39351.44
658.498	39402.74
658.849	39508.04
659.2	39398.89
659.551	39367.71
659.902	39499.46
660.253	39482.28
660.604	39409.97
660.955	39362.74
661.306	39323.87
661.656	39348.5
662.007	39399.35
662.358	39361.38
662.708	39252
663.059	39273.02
663.409	39013.37
663.76	39280.7
664.11	39432.56
664.461	39308.95
664.811	39330.19
665.161	39299.69
665.511	39195.73
665.862	39282.74
666.212	39410.87
666.562	39332.91
666.912	39320.7
667.262	39362.96
667.612	39204.55
667.962	39268.5
668.312	39257.2
668.662	39344.43
669.011	39245.45
669.361	39230.76
669.711	39178.79
670.06	39104.66
670.41	38954.84
670.76	39041.61
671.109	39089.3
671.459	39049.75
671.808	38975.4
672.157	39104.21
672.507	38868.06
672.856	38785.12
673.205	38900.15
673.554	39006.14
673.904	38884.1
674.253	39141.95
674.602	38985.8
674.951	38430.78
675.3	38143.79
675.649	38738.8
675.998	38900.38
676.346	38786.25
676.695	38944.22
677.044	38733.37
677.393	38799.81
677.741	38727.05
678.09	38733.83
678.438	38584.68
678.787	38641.4
679.135	38603.89
679.484	38445.47
679.832	38542.42
680.181	38240.51
680.529	38467.84
680.877	38378.13
681.225	38322.54
681.573	38621.51
681.922	38199.38
682.27	38031.7
682.618	38201.64
682.966	38102.88
683.314	38097.46
683.661	38089.1
684.009	37975.88
684.357	37883.23
684.705	37674.87
685.053	37917.35
685.4	37805.04
685.748	37689.11
686.095	37516.01
686.443	37455.22
686.79	37521.2
687.138	37534.54
687.485	37588.77
687.832	37440.98
688.18	37333.64
688.527	37319.17
688.874	37125.28
689.221	37163.92
689.568	37030.37
689.915	37062.91
690.262	36917.6
690.609	36827.44
690.956	36742.47
691.303	36735.46
691.65	36492.3
691.997	36620.21
692.344	36244.85
692.69	36403.04
693.037	36310.61
693.383	36090.28
693.73	36207.56
694.077	35944.07
694.423	35986.33
694.769	35794.47
695.116	35830.4
695.462	35672.66
695.808	35702.04
696.155	35650.97
696.501	35443.97
696.847	35368.49
697.193	35152.23
697.539	35243.07
697.885	35011.66
698.231	34988.16
698.577	35010.31
698.923	34904.1
699.269	34643.09
699.614	34585.69
699.96	34593.37
700.306	34519.25
700.651	34444
700.997	34280.38
701.342	34296.88
701.688	34251.01
702.033	34079.71
702.379	34235.19
702.724	34078.13
703.069	34025.93
703.415	33747.29
703.76	33807.18
704.105	33690.12
704.45	33644.47
704.795	33463
705.14	33431.37
705.485	33307.08
705.83	33167.19
706.175	33268.43
706.52	33027.99
706.865	33030.93
707.209	32916.13
707.554	32872.29
707.899	32968.78
708.243	32608.79
708.588	32663.93
708.932	32460.77
709.277	32501.45
709.621	32528.11
709.966	32201.12
710.31	32426.2
710.654	32013.78
710.998	32151.4
711.342	32059.65
711.687	32086.09
712.031	31935.36
712.375	31726.1
712.719	31802.03
713.063	31734.24
713.407	31792.99
713.75	31605.88
714.094	31708.02
714.438	31430.97
714.782	31515.48
715.125	31409.27
715.469	31486.56
715.812	31164.53
716.156	31179
716.499	31085.89
716.843	31196.4
717.186	30890.87
717.53	31159.34
717.873	31001.15
718.216	30974.26
718.559	30919.57
718.902	30602.29
719.246	30788.05
719.589	30640.71
719.932	30544.89
720.275	30362.97
720.617	30496.53
720.96	30328.85
721.303	30447.72
721.646	30389.41
721.989	30216.76
722.331	30360.94
722.674	30294.05
723.016	30181.51
723.359	30071.46
723.701	30143.77
724.044	29907.39
724.386	29805.7
724.729	29874.4
725.071	29801.63
725.413	29954.62
725.755	29821.07
726.097	29583.33
726.439	29483.45
726.782	29595.31
727.124	29614.74
727.465	29399.16
727.807	29381.3
728.149	29256.79
728.491	29285.26
728.833	29324.81
729.175	29193.96
729.516	29068.32
729.858	29149.67
730.199	29135.66
730.541	28990.58
730.882	28968.21
731.224	29029.67
731.565	28888.21
731.906	28846.4
732.248	28976.57
732.589	28842.79
732.93	28640.53
733.271	28798.49
733.612	28797.59
733.953	28800.08
734.294	28660.42
734.635	28538.84
734.976	28684.37
735.317	28495.9
735.658	28485.73
735.999	28383.14
736.339	28434.66
736.68	28360.54
737.021	28282.8
737.361	28288.45
737.702	28359.18
738.042	28243.03
738.383	28189.47
738.723	28301.11
739.063	28048.01
739.404	28141.11
739.744	27993.77
740.084	27975.24
740.424	27985.18
740.764	27827.67
741.104	27955.58
741.444	27817.73
741.784	27755.58
742.124	27808.46
742.464	27671.29
742.804	27766.66
743.143	27562.14
743.483	27668.35
743.823	27464.07
744.162	27504.06
744.502	27413.67
744.841	27390.85
745.181	27470.17
745.52	27279.89
745.86	27411.86
746.199	27204.64
746.538	27297.74
746.877	27154.7
747.216	27232.43
747.556	27071.08
747.895	27163.28
748.234	26984.08
748.573	26996.28
748.911	26984.08
749.25	27000.35
749.589	26759.45
749.928	26877.19
750.267	26910.86
750.605	26657.53
750.944	26561.94
751.283	26460.7
751.621	26720.13
751.96	26506.35
752.298	26407.6
752.636	26409.4
752.975	26257.09
753.313	26151.11
753.651	26215.74
753.989	26150.65
754.327	26084.44
754.666	26044.89
755.004	25912.47
755.342	26033.37
755.679	25926.48
756.017	25743.89
756.355	25879.02
756.693	25698.46
757.031	25670.44
757.368	25575.3
757.706	25627.96
758.044	25496.66
758.381	25465.02
758.719	25425.02
759.056	25420.73
759.394	25326.04
