Data from hue_32_FLMS001491_00078.txt Node
Date: Tue Feb 07 17:23:54 GMT 2017
User: dcchb
Spectrometer: FLMS00149
Trigger mode: 0
Integration Time (sec): 2.000000E-2
Scans to average: 10
Electric dark correction enabled: true
Nonlinearity correction enabled: false
Boxcar width: 0
XAxis mode: Wavelengths
Number of Pixels in Spectrum: 2048
>>>>>Begin Spectral Data<<<<<
341.393	-26.06
341.776	-26.06
342.16	-26.06
342.543	-57.7
342.927	-73.97
343.31	-62.67
343.693	-76.9
344.077	-68.32
344.46	-61.76
344.843	-40.07
345.226	-36
345.61	-45.04
345.993	-15.44
346.376	-1.65
346.759	19.14
347.142	8.52
347.525	45.13
347.908	39.48
348.291	71.57
348.674	105.46
349.057	118.57
349.44	127.16
349.823	158.34
350.206	166.48
350.588	194.73
350.971	230.66
351.354	220.49
351.737	211
352.119	237.66
352.502	298.23
352.884	282.63
353.267	278.34
353.65	307.27
354.032	318.34
354.414	294.16
354.797	311.11
355.179	331.45
355.562	348.17
355.944	324.89
356.326	316.98
356.709	327.15
357.091	338.45
357.473	339.58
357.855	346.36
358.238	355.4
358.62	339.13
359.002	356.53
359.384	342.29
359.766	332.58
360.148	359.92
360.53	337.1
360.912	326.47
361.294	344.78
361.676	344.1
362.057	360.37
362.439	331.45
362.821	305.23
363.203	333.03
363.584	330.54
363.966	327.6
364.348	309.53
364.729	333.71
365.111	306.81
365.493	300.71
365.874	341.39
366.256	295.51
366.637	305.46
367.019	313.82
367.4	308.17
367.781	305.68
368.163	295.51
368.544	319.47
368.925	328.06
369.306	328.51
369.688	313.14
370.069	304.55
370.45	318.34
370.831	305.46
371.212	311.56
371.593	335.74
371.974	318.79
372.355	311.79
372.736	316.53
373.117	318.79
373.498	326.93
373.879	327.6
374.26	313.82
374.641	324.67
375.021	319.92
375.402	312.92
375.783	330.54
376.163	326.25
376.544	342.52
376.925	305.68
377.305	319.47
377.686	331.45
378.066	335.51
378.447	309.3
378.827	310.88
379.208	324.21
379.588	335.74
379.968	318.57
380.349	356.08
380.729	337.1
381.109	324.44
381.489	335.97
381.87	327.6
382.25	332.58
382.63	332.8
383.01	342.75
383.39	338.23
383.77	353.59
384.15	329.19
384.53	347.72
384.91	365.57
385.29	331.9
385.67	359.92
386.049	341.16
386.429	345.91
386.809	343.42
387.189	358.79
387.568	361.28
387.948	350.2
388.328	335.51
388.707	354.27
389.087	370.77
389.466	363.99
389.846	347.04
390.225	365.34
390.605	352.24
390.984	370.32
391.363	342.52
391.743	370.09
392.122	374.83
392.501	365.34
392.881	377.09
393.26	368.28
393.639	365.34
394.018	357.21
394.397	385.23
394.776	381.61
395.155	370.54
395.534	379.35
395.913	383.87
396.292	383.87
396.671	374.61
397.05	377.32
397.429	410.77
397.808	390.65
398.186	408.28
398.565	374.38
398.944	383.42
399.323	379.13
399.701	387.72
400.08	404.89
400.458	399.69
400.837	395.85
401.215	387.72
401.594	405.34
401.972	398.34
402.351	392.91
402.729	388.17
403.107	417.32
403.486	423.87
403.864	410.09
404.242	421.84
404.62	398.11
404.999	413.48
405.377	413.48
405.755	424.78
406.133	426.13
406.511	428.84
406.889	418.45
407.267	428.17
407.645	445.57
408.023	443.31
408.401	423.42
408.779	444.66
409.156	435.4
409.534	421.84
409.912	450.99
410.29	439.24
410.667	469.07
411.045	450.76
411.422	456.64
411.8	476.3
412.178	459.13
412.555	472.01
412.933	479.24
413.31	482.63
413.687	470.88
414.065	491.89
414.442	479.69
414.819	489.63
415.197	477.43
415.574	491.67
415.951	479.69
416.328	499.13
416.705	479.46
417.082	500.03
417.46	508.39
417.837	501.16
418.214	493.25
418.591	500.71
418.967	508.84
419.344	541.84
419.721	504.32
420.098	515.85
420.475	517.43
420.852	506.36
421.228	525.57
421.605	528.5
421.982	532.8
422.358	545.68
422.735	556.3
423.111	544.1
423.488	540.71
423.864	543.19
424.241	572.8
424.617	562.4
424.994	555.62
425.37	566.92
425.746	558.11
426.123	558.78
426.499	545.23
426.875	569.18
427.251	596.3
427.627	570.31
428.003	604.89
428.379	589.29
428.756	611.66
429.132	596.98
429.507	579.8
429.883	598.33
430.259	628.16
430.635	621.38
431.011	635.39
431.387	628.39
431.763	655.05
432.138	641.04
432.514	635.84
432.89	651.89
433.265	674.26
433.641	661.38
434.016	672
434.392	663.64
434.767	687.59
435.143	689.63
435.518	690.76
435.894	692.79
436.269	689.85
436.644	684.66
437.02	721.27
437.395	704.54
437.77	702.51
438.145	728.95
438.52	727.82
438.895	718.33
439.271	731.44
439.646	741.15
440.021	766.91
440.395	747.48
440.77	737.54
441.145	739.12
441.52	775.05
441.895	766.01
442.27	769.17
442.645	788.16
443.019	768.95
443.394	776.18
443.769	790.19
444.143	773.24
444.518	799.91
444.892	795.39
445.267	812.34
445.641	787.71
446.016	804.88
446.39	808.72
446.764	826.12
447.139	819.12
447.513	817.99
447.887	823.41
448.262	838.33
448.636	822.51
449.01	853.47
449.384	861.83
449.758	870.19
450.132	866.57
450.506	861.38
450.88	878.78
451.254	848.27
451.628	897.98
452.002	889.4
452.376	892.11
452.75	917.87
453.123	905.22
453.497	894.37
453.871	937.08
454.244	950.64
454.618	925.33
454.992	952.9
455.365	940.02
455.739	973.92
456.112	983.63
456.486	1002.84
456.859	1026.12
457.232	1027.25
457.606	1004.87
457.979	1029.96
458.352	1027.02
458.725	1066.34
459.099	1067.25
459.472	1059.79
459.845	1079.45
460.218	1093.69
460.591	1121.03
460.964	1088.94
461.337	1139.56
461.71	1136.4
462.083	1194.93
462.456	1151.54
462.829	1180.46
463.201	1203.29
463.574	1187.69
463.947	1225.21
464.32	1222.72
464.692	1253
465.065	1245.55
465.438	1258.65
465.81	1288.48
466.183	1308.82
466.555	1324.64
466.928	1358.31
467.3	1324.19
467.672	1332.78
468.045	1367.8
468.417	1410.97
468.789	1389.27
469.161	1411.64
469.534	1451.19
469.906	1460.91
470.278	1521.25
470.65	1528.02
471.022	1531.64
471.394	1542.49
471.766	1588.81
472.138	1580.23
472.51	1632.2
472.882	1655.93
473.253	1717.17
473.625	1700.68
473.997	1777.51
474.369	1760.56
474.74	1788.58
475.112	1851.63
475.484	1857.28
475.855	1908.35
476.227	1955.81
476.598	1998.75
476.97	2024.96
477.341	2089.14
477.713	2106.31
478.084	2146.31
478.455	2238.06
478.827	2280.32
479.198	2313.54
479.569	2368
479.94	2457.72
480.311	2452.75
480.682	2517.38
481.053	2605.06
481.424	2646.41
481.795	2698.16
482.166	2758.05
482.537	2805.05
482.908	2863.13
483.279	2948.33
483.65	2993.97
484.021	3129.56
484.391	3133.41
484.762	3205.04
485.133	3247.53
485.503	3362.33
485.874	3432.38
486.244	3499.5
486.615	3585.37
486.985	3647.52
487.356	3701.3
487.726	3767.51
488.097	3903.56
488.467	3924.57
488.837	4037.34
489.207	4127.96
489.578	4176.99
489.948	4274.39
490.318	4392.58
490.688	4425.8
491.058	4513.93
491.428	4613.37
491.798	4671.67
492.168	4807.94
492.538	4845
492.908	4905.79
493.278	5038.67
493.648	5070.53
494.017	5159.79
494.387	5248.15
494.757	5263.52
495.126	5378.55
495.496	5472.78
495.866	5524.53
496.235	5685.66
496.605	5674.13
496.974	5760
497.344	5835.26
497.713	5843.39
498.082	5897.18
498.452	6034.57
498.821	6140.78
499.19	6126.55
499.559	6186.89
499.928	6277.5
500.298	6347.33
500.667	6466.65
501.036	6456.93
501.405	6554.79
501.774	6566.31
502.143	6642.24
502.512	6694.44
502.88	6783.71
503.249	6787.32
503.618	6857.38
503.987	6877.04
504.356	6963.36
504.724	7012.17
505.093	7064.38
505.462	7074.77
505.83	7185.73
506.199	7221.43
506.567	7352.73
506.936	7282.22
507.304	7398.6
507.672	7479.73
508.041	7518.38
508.409	7579.84
508.777	7692.61
509.145	7753.17
509.514	7727.41
509.882	7764.25
510.25	7839.5
510.618	7907.29
510.986	7906.39
511.354	7998.59
511.722	8022.77
512.09	8138.92
512.458	8096.44
512.826	8194.97
513.193	8237
513.561	8255.98
513.929	8321.29
514.297	8415.98
514.664	8423.44
515.032	8400.16
515.4	8546.37
515.767	8548.63
516.135	8643.32
516.502	8554.51
516.869	8692.81
517.237	8782.98
517.604	8727.84
517.972	8837.21
518.339	8872.24
518.706	8908.85
519.073	8974.16
519.44	8974.83
519.808	9099.35
520.175	9075.4
520.542	9185.22
520.909	9249.63
521.276	9249.63
521.643	9408.72
522.009	9372.34
522.376	9377.54
522.743	9395.84
523.11	9497.08
523.477	9618.66
523.843	9623.86
524.21	9712.89
524.577	9830.41
524.943	9842.16
525.31	9783.85
525.676	9901.14
526.043	10005.09
526.409	10002.38
526.776	10144.75
527.142	10156.72
527.508	10277.4
527.874	10230.17
528.241	10347.91
528.607	10339.54
528.973	10394.23
529.339	10452.08
529.705	10566.88
530.071	10637.39
530.437	10633.1
530.803	10709.25
531.169	10761.91
531.535	10788.35
531.901	10785.63
532.267	10842.58
532.632	10923.48
532.998	11001.9
533.364	11018.17
533.73	11083.48
534.095	11182.91
534.461	11212.29
534.826	11293.42
535.192	11252.97
535.557	11379.97
535.923	11352.63
536.288	11500.42
536.653	11421.1
537.019	11470.59
537.384	11480.31
537.749	11568.66
538.114	11673.52
538.479	11641.21
538.845	11730.92
539.21	11798.49
539.575	11782.22
539.94	11924.81
540.305	11894.76
540.67	11908.99
541.034	11927.75
541.399	12058.82
541.764	12074.87
542.129	12066.96
542.494	12108.54
542.858	12226.05
543.223	12197.35
543.587	12360.96
543.952	12315.31
544.316	12422.65
544.681	12407.51
545.045	12512.82
545.41	12526.61
545.774	12578.13
546.138	12584.23
546.503	12681.4
546.867	12712.59
547.231	12785.58
547.595	12837.33
547.959	12873.94
548.324	12819.71
548.688	12935.18
549.052	12991.23
549.416	12983.77
549.779	13012.69
550.143	13063.31
550.507	13230.99
550.871	13128.17
551.235	13254.72
551.599	13355.06
551.962	13380.37
552.326	13373.14
552.689	13516.64
553.053	13448.39
553.417	13431.67
553.78	13675.5
554.143	13583.98
554.507	13646.58
554.87	13696.29
555.234	13852.67
555.597	13725.44
555.96	13755.27
556.323	13841.37
556.686	13908.72
557.05	14048.83
557.413	14050.86
557.776	14062.38
558.139	14126.11
558.502	14159.33
558.865	14278.88
559.228	14251.31
559.59	14390.51
559.953	14425.54
560.316	14418.31
560.679	14487.23
561.041	14572.65
561.404	14631.41
561.767	14769.26
562.129	14675.93
562.492	14834.79
562.854	14846.32
563.217	14826.21
563.579	14860.56
563.941	14975.35
564.304	14957.05
564.666	15073.43
565.028	15090.15
565.39	15127.67
565.753	15187.55
566.115	15197.5
566.477	15282.01
566.839	15385.97
567.201	15469.58
567.563	15543.02
567.925	15564.72
568.287	15542.57
568.648	15618.73
569.01	15724.71
569.372	15861.66
569.734	15858.27
570.095	15903.24
570.457	15995.22
570.819	15961.54
571.18	16093.52
571.542	16216.68
571.903	16211.93
572.265	16263.91
572.626	16383.91
572.987	16341.87
573.349	16449.67
573.71	16648.08
574.071	16661.64
574.432	16789.54
574.794	16895.53
575.155	16945.25
575.516	16933.72
575.877	17152.92
576.238	17203.54
576.599	17241.51
576.96	17366.03
577.32	17595.62
577.681	17641.27
578.042	17772.34
578.403	17870.19
578.763	18071.77
579.124	18165.55
579.485	18245.55
579.845	18532.55
580.206	18515.37
580.566	18728.25
580.927	18826.1
581.287	19082.14
581.648	19188.58
582.008	19471.06
582.368	19627.66
582.728	19747.21
583.089	19876.02
583.449	20156.91
583.809	20305.84
584.169	20539.05
584.529	20692.04
584.889	21022.2
585.249	21141.52
585.609	21297.45
585.969	21644.33
586.329	21785.12
586.688	22005.68
587.048	22217.42
587.408	22525.44
587.768	22770.86
588.127	22881.36
588.487	23026.44
588.846	23503.49
589.206	23622.13
589.565	23978.96
589.925	24236.81
590.284	24465.05
590.643	24772.39
591.003	25105.03
591.362	25406.04
591.721	25564.23
592.08	25857.55
592.44	26127.38
592.799	26478.56
593.158	26641.26
593.517	26877.87
593.876	27202.38
594.235	27454.35
594.593	27556.94
594.952	28057.72
595.311	28207.78
595.67	28471.27
596.029	28913.29
596.387	29189.22
596.746	29490
597.104	29589.43
597.463	29796.66
597.822	30212.92
598.18	30292.69
598.538	30564.1
598.897	30941.71
599.255	30981.04
599.613	31648.14
599.972	31745.31
600.33	31955.93
600.688	32083.83
601.046	32445.4
601.404	32712.29
601.762	32938.72
602.12	33161.32
602.478	33529.44
602.836	33677.24
603.194	33713.17
603.552	34073.38
603.91	34066.6
604.268	34479.02
604.625	34606.7
604.983	34937.99
605.341	34908.16
605.698	35310.64
606.056	35576.62
606.413	35676.51
606.771	35947.46
607.128	36040.79
607.485	36139.09
607.843	36333.21
608.2	36684.39
608.557	36870.15
608.914	36968.67
609.272	37133.42
609.629	37334.54
609.986	37697.24
610.343	37713.51
610.7	38023.11
611.057	38170.9
611.414	38201.41
611.771	38460.39
612.127	38621.29
612.484	38791.45
612.841	39062.63
613.198	38935.85
613.554	39063.31
613.911	39477.54
614.267	39412
614.624	39655.16
614.98	39747.81
615.337	39964.08
615.693	40178.31
616.05	40145.09
616.406	40441.8
616.762	40451.97
617.118	40413.33
617.475	40595.47
617.831	40949.59
618.187	40803.38
618.543	41030.26
618.899	41314.78
619.255	41406.3
619.611	41216.47
619.967	41592.51
620.323	41787.76
620.678	41697.36
621.034	41660.08
621.39	41653.07
621.746	41676.35
622.101	42194.98
622.457	41937.81
622.812	42164.92
623.168	42225.26
623.523	42209.44
623.879	42364.24
624.234	42316.78
624.589	42361.3
624.945	42490.11
625.3	42657.56
625.655	42637.23
626.01	42738.01
626.365	42770.56
626.72	42871.8
627.075	42830.22
627.43	42833.83
627.785	42761.29
628.14	43051.68
628.495	43002.87
628.85	42952.92
629.205	42770.56
629.559	43233.59
629.914	43032.47
630.269	43120.83
630.623	42971.68
630.978	42986.6
631.332	43147.04
631.687	43231.56
632.041	43029.76
632.396	43241.05
632.75	43216.87
633.104	43193.6
633.459	42957.9
633.813	43067.72
634.167	43076.99
634.521	43025.92
634.875	43064.33
635.229	43079.25
635.583	42952.02
635.937	42933.26
636.291	42910.21
636.645	43054.39
636.999	42929.65
637.352	43181.62
637.706	42973.04
638.06	43053.49
638.413	42904.56
638.767	42908.63
639.121	43073.37
639.474	42860.5
639.828	42872.02
640.181	42827.5
640.534	43125.58
640.888	42784.34
641.241	42774.85
641.594	42755.19
641.947	42858.24
642.301	42695.76
642.654	42792.02
643.007	42937.33
643.36	42777.11
643.713	42656.66
644.066	42855.98
644.419	42839.93
644.771	42306.84
645.124	42012.38
645.477	41955.66
645.83	41658.72
646.182	41553.41
646.535	41627.31
646.888	41502.34
647.24	41429.8
647.593	41602.68
647.945	41430.03
648.298	41305.06
648.65	41270.03
649.002	41219.64
649.355	41314.1
649.707	41361.1
650.059	41347.77
650.411	42106.39
650.763	41990.01
651.115	42269.33
651.467	42104.13
651.819	42195.2
652.171	42041.99
652.523	42109.78
652.875	42040.86
653.227	41906.17
653.578	42147.3
653.93	42048.09
654.282	41884.93
654.633	41787.53
654.985	41913.4
655.337	41988.88
655.688	41945.27
656.039	42083.12
656.391	41738.72
656.742	41811.71
657.094	41896
657.445	42054.42
657.796	41883.12
658.147	41827.76
658.498	41766.97
658.849	41899.62
659.2	41799.28
659.551	41735.1
659.902	41737.36
660.253	41699.17
660.604	41809
660.955	41741.66
661.306	41641.55
661.656	41689.91
662.007	41698.95
662.358	41685.39
662.708	41778.04
663.059	41578.72
663.409	41297.15
663.76	41653.07
664.11	41738.04
664.461	41793.18
664.811	41750.92
665.161	41702.79
665.511	41635.67
665.862	41591.38
666.212	41658.72
666.562	41682.9
666.912	41556.58
667.262	41534.2
667.612	41452.17
667.962	41620.53
668.312	41564.03
668.662	41754.31
669.011	41641.32
669.361	41549.12
669.711	41542.34
670.06	41537.14
670.41	41284.04
670.76	41420.08
671.109	41540.76
671.459	41443.36
671.808	41384.15
672.157	41438.84
672.507	41161.33
672.856	41233.87
673.205	41302.8
673.554	41325.62
673.904	41164.5
674.253	41428.9
674.602	41355.45
674.951	40745.52
675.3	40533.55
675.649	41244.49
675.998	41053.54
676.346	41215.57
676.695	41283.59
677.044	40931.06
677.393	41168.34
677.741	41281.1
678.09	41027.1
678.438	41013.99
678.787	41137.6
679.135	41107.55
679.484	40802.47
679.832	40977.83
680.181	40726.32
680.529	40814.68
680.877	40697.84
681.225	40688.58
681.573	40940.77
681.922	40654.45
682.27	40525.19
682.618	40574.91
682.966	40418.53
683.314	40485.19
683.661	40373.11
684.009	40190.29
684.357	40323.84
684.705	40160.91
685.053	40105.54
685.4	40109.61
685.748	39913.46
686.095	39905.32
686.443	39782.39
686.79	39732.9
687.138	39783.06
687.485	39610.64
687.832	39591.66
688.18	39642.95
688.527	39522.05
688.874	39349.86
689.221	39321.16
689.568	39212.68
689.915	39106.7
690.262	39206.13
690.609	39003.42
690.956	38798.01
691.303	38898.34
691.65	38775.18
691.997	38707.84
692.344	38342.42
692.69	38394.4
693.037	38374.29
693.383	38211.81
693.73	38457.45
694.077	38179.94
694.423	38084.8
694.769	38045.93
695.116	37873.06
695.462	37904.92
695.808	37771.37
696.155	37878.48
696.501	37425.61
696.847	37470.81
697.193	37287.54
697.539	37433.3
697.885	37092.29
698.231	36993.98
698.577	37078.95
698.923	36815.46
699.269	36687.1
699.614	36636.25
699.96	36557.84
700.306	36621.79
700.651	36325.53
700.997	36451.63
701.342	36217.73
701.688	36180.9
702.033	36078.75
702.379	36135.93
702.724	35930.96
703.069	36052.54
703.415	35702.49
703.76	35600.12
704.105	35605.32
704.45	35535.94
704.795	35315.61
705.14	35352.45
705.485	35296.18
705.83	35083.75
706.175	35051.44
706.52	35076.97
706.865	35012.12
707.209	34888.05
707.554	34874.27
707.899	34763.31
708.243	34591.11
708.588	34556.53
708.932	34348.63
709.277	34442.64
709.621	34429.53
709.966	34181.4
710.31	34324.22
710.654	34018.24
710.998	34091.01
711.342	33954.97
711.687	33977.34
712.031	33820.06
712.375	33737.8
712.719	33770.34
713.063	33610.8
713.407	33767.86
713.75	33513.4
714.094	33453.29
714.438	33274.08
714.782	33389.33
715.125	33140.75
715.469	33267.76
715.812	33014.43
716.156	32865.28
716.499	32863.7
716.843	32922.91
717.186	32819.18
717.53	32915.9
717.873	32783.47
718.216	32886.07
718.559	32607.66
718.902	32433.2
719.246	32555.01
719.589	32373.32
719.932	32388.68
720.275	32363.15
720.617	32352.3
720.96	32220.1
721.303	32215.13
721.646	32131.97
721.989	32054.23
722.331	32124.73
722.674	32083.15
723.016	32019.65
723.359	31857.17
723.701	31914.12
724.044	31705.54
724.386	31545.77
724.729	31841.58
725.071	31564.75
725.413	31573.34
725.755	31582.15
726.097	31338.99
726.439	31194.36
726.782	31213.57
727.124	31419.67
727.465	31181.93
727.807	31246.11
728.149	31049.06
728.491	31068.72
728.833	31128.6
729.175	30993.01
729.516	30790.76
729.858	30965.22
730.199	30941.71
730.541	30817.65
730.882	30838.67
731.224	30911.43
731.565	30663.76
731.906	30658.33
732.248	30762.51
732.589	30611.1
732.93	30521.39
733.271	30392.12
733.612	30522.97
733.953	30475.96
734.294	30320.49
734.635	30245.91
734.976	30380.15
735.317	30233.48
735.658	30146.71
735.999	30231
736.339	30040.95
736.68	30099.7
737.021	30082.08
737.361	29862.2
737.702	30111.23
738.042	30098.57
738.383	29869.2
738.723	30000.72
739.063	29777.68
739.404	29890.89
739.744	29785.81
740.084	29694.97
740.424	29701.97
740.764	29739.26
741.104	29730
741.444	29448.19
741.784	29470.34
742.124	29581.3
742.464	29317.8
742.804	29424.24
743.143	29276.45
743.483	29373.39
743.823	29233.74
744.162	29167.3
744.502	29257.47
744.841	28945.16
745.181	29150.35
745.52	29034.19
745.86	29078.49
746.199	29135.43
746.538	29020.41
746.877	29038.04
747.216	28948.32
747.556	28974.31
747.895	28859.51
748.234	28709.46
748.573	28649.57
748.911	28636.01
749.25	28561.21
749.589	28527.77
749.928	28593.98
750.267	28544.49
750.605	28457.94
750.944	28454.1
751.283	28332.29
751.621	28371.61
751.96	28207.55
752.298	28270.37
752.636	28229.7
752.975	28219.53
753.313	28037.38
753.651	28123.26
753.989	27924.17
754.327	27876.71
754.666	27835.36
755.004	27920.78
755.342	27852.08
755.679	27736.15
756.017	27659.77
756.355	27640.33
756.693	27419.55
757.031	27570.73
757.368	27360.34
757.706	27395.59
