Data from hue_180_FLMS001491_00098.txt Node
Date: Tue Feb 07 16:47:45 GMT 2017
User: dcchb
Spectrometer: FLMS00149
Trigger mode: 0
Integration Time (sec): 2.000000E-2
Scans to average: 10
Electric dark correction enabled: true
Nonlinearity correction enabled: false
Boxcar width: 0
XAxis mode: Wavelengths
Number of Pixels in Spectrum: 2048
>>>>>Begin Spectral Data<<<<<
341.393	-9.52
341.776	-9.52
342.16	-9.52
342.543	-66.92
342.927	-59.24
343.31	-61.04
343.693	-46.81
344.077	-61.04
344.46	-55.85
344.843	-57.88
345.226	-64.89
345.61	-21.04
345.993	-5.68
346.376	-7.71
346.759	-4.55
347.142	36.35
347.525	19.63
347.908	53.53
348.291	69.57
348.674	99.63
349.057	107.77
349.44	114.09
349.823	135.56
350.206	155
350.588	191.61
350.971	212.85
351.354	206.75
351.737	232.51
352.119	239.29
352.502	237.25
352.884	293.98
353.267	271.38
353.65	288.1
354.032	296.01
354.414	279.96
354.797	281.77
355.179	302.11
355.562	302.34
355.944	320.64
356.326	347.31
356.709	340.98
357.091	321.77
357.473	333.07
357.855	334.2
358.238	341.43
358.62	329.23
359.002	339.17
359.384	325.84
359.766	325.61
360.148	328.78
360.53	312.05
360.912	330.13
361.294	317.7
361.676	330.36
362.057	345.5
362.439	336.01
362.821	320.87
363.203	325.84
363.584	326.52
363.966	309.34
364.348	304.14
364.729	311.38
365.111	312.05
365.493	313.41
365.874	320.19
366.256	292.85
366.637	320.19
367.019	309.34
367.4	305.95
367.781	298.49
368.163	273.41
368.544	314.99
368.925	318.83
369.306	307.76
369.688	298.04
370.069	311.6
370.45	299.17
370.831	310.25
371.212	305.95
371.593	302.11
371.974	312.73
372.355	322
372.736	310.47
373.117	303.47
373.498	317.7
373.879	312.51
374.26	317.93
374.641	301.66
375.021	297.37
375.402	300.53
375.783	297.37
376.163	316.8
376.544	314.31
376.925	306.4
377.305	338.04
377.686	328.1
378.066	325.16
378.447	311.38
378.827	325.84
379.208	322.22
379.588	303.01
379.968	326.06
380.349	315.22
380.729	320.64
381.109	313.86
381.489	319.29
381.87	326.52
382.25	328.32
382.63	322.22
383.01	358.15
383.39	334.65
383.77	322.9
384.15	333.3
384.53	316.35
384.91	342.79
385.29	344.37
385.67	325.84
386.049	326.52
386.429	347.76
386.809	360.64
387.189	365.61
387.568	350.92
387.948	354.54
388.328	348.21
388.707	340.53
389.087	334.43
389.466	357.93
389.846	367.87
390.225	352.5
390.605	365.16
390.984	359.06
391.363	358.38
391.743	336.69
392.122	359.51
392.501	360.64
392.881	369.45
393.26	367.42
393.639	354.54
394.018	346.18
394.397	392.73
394.776	366.29
395.155	370.13
395.534	390.7
395.913	368.78
396.292	376.23
396.671	373.07
397.05	391.37
397.429	372.62
397.808	383.46
398.186	388.89
398.565	376.01
398.944	404.03
399.323	382.56
399.701	406.29
400.08	398.61
400.458	413.97
400.837	418.04
401.215	398.38
401.594	410.13
401.972	407.42
402.351	413.29
402.729	407.19
403.107	413.07
403.486	415.33
403.864	405.16
404.242	426.85
404.62	437.7
404.999	427.53
405.377	437.93
405.755	443.8
406.133	438.83
406.511	446.74
406.889	442.67
407.267	438.6
407.645	441.99
408.023	447.87
408.401	451.03
408.779	460.75
409.156	453.75
409.534	475.67
409.912	491.48
410.29	494.65
410.667	505.27
411.045	511.82
411.422	498.72
411.8	519.96
412.178	524.03
412.555	509.11
412.933	537.58
413.31	540.75
413.687	568.77
414.065	567.87
414.442	551.37
414.819	571.48
415.197	574.65
415.574	585.04
415.951	595.89
416.328	603.12
416.705	580.07
417.082	601.76
417.46	606.51
417.837	632.5
418.214	624.14
418.591	623.01
418.967	632.95
419.344	657.13
419.721	668.43
420.098	676.79
420.475	676.11
420.852	672.5
421.228	696.9
421.605	692.83
421.982	691.03
422.358	709.56
422.735	736.9
423.111	723.12
423.488	739.84
423.864	749.1
424.241	751.59
424.617	783.23
424.994	782.32
425.37	785.94
425.746	797.92
426.123	802.66
426.499	847.63
426.875	832.27
427.251	837.46
427.627	848.31
428.003	875.65
428.379	886.28
428.756	877.24
429.132	904.81
429.507	915.43
429.883	905.71
430.259	911.59
430.635	919.27
431.011	937.12
431.387	959.49
431.763	1001.53
432.138	984.35
432.514	985.26
432.89	993.84
433.265	993.17
433.641	1036.33
434.016	1066.38
434.392	1062.09
434.767	1100.28
435.143	1087.85
435.518	1129.43
435.894	1140.96
436.269	1139.38
436.644	1157.91
437.02	1169.21
437.395	1190.67
437.77	1209.21
438.145	1232.48
438.52	1241.97
438.895	1253.95
439.271	1277.45
439.646	1315.19
440.021	1335.53
440.395	1339.37
440.77	1302.08
441.145	1360.39
441.52	1391.8
441.895	1390.67
442.27	1432.48
442.645	1393.61
443.019	1438.35
443.394	1450.56
443.769	1463.44
444.143	1444.45
444.518	1454.85
444.892	1499.14
445.267	1510.67
445.641	1516.09
446.016	1512.02
446.39	1528.52
446.764	1570.78
447.139	1585.47
447.513	1564.9
447.887	1563.77
448.262	1594.28
448.636	1603.09
449.01	1616.2
449.384	1653.26
449.758	1665.46
450.132	1662.75
450.506	1690.55
450.88	1685.35
451.254	1685.13
451.628	1724.67
452.002	1743.88
452.376	1780.04
452.75	1774.61
453.123	1808.29
453.497	1784.56
453.871	1831.11
454.244	1879.92
454.618	1872.69
454.992	1921.28
455.365	1918.79
455.739	1985.68
456.112	1968.06
456.486	1973.03
456.859	1992.91
457.232	2046.47
457.606	2055.28
457.979	2063.65
458.352	2104.78
458.725	2100.03
459.099	2145
459.472	2203.08
459.845	2179.12
460.218	2252.79
460.591	2275.17
460.964	2269.06
461.337	2338.22
461.71	2372.34
462.083	2363.3
462.456	2404.2
462.829	2374.15
463.201	2471.55
463.574	2501.6
463.947	2499.79
464.32	2562.84
464.692	2559.45
465.065	2598.77
465.438	2667.25
465.81	2696.85
466.183	2682.16
466.555	2784.98
466.928	2795.83
467.3	2808.03
467.672	2853.46
468.045	2953.57
468.417	2955.6
468.789	3008.48
469.161	3013.23
469.534	3099.55
469.906	3113.11
470.278	3171.19
470.65	3229.27
471.022	3282.6
471.394	3356.49
471.766	3342.48
472.138	3398.3
472.51	3450.28
472.882	3558.3
473.253	3598.07
473.625	3655.47
473.997	3731.4
474.369	3744.28
474.74	3803.04
475.112	3903.6
475.484	3968.91
475.855	3994.22
476.227	4124.61
476.598	4222.01
476.97	4262.01
477.341	4355.11
477.713	4423.13
478.084	4486.41
478.455	4592.62
478.827	4679.17
479.198	4770.02
479.569	4789
479.94	4953.74
480.311	4986.51
480.682	5142.21
481.053	5243
481.424	5351.7
481.795	5436.21
482.166	5537
482.537	5612.25
482.908	5680.95
483.279	5815.41
483.65	5949.19
484.021	6047.72
484.391	6163.43
484.762	6171.11
485.133	6271.22
485.503	6359.13
485.874	6488.84
486.244	6565.45
486.615	6745.78
486.985	6752.11
487.356	6961.37
487.726	7067.58
488.097	7191.87
488.467	7241.82
488.837	7355.94
489.207	7519.77
489.578	7632.31
489.948	7631.64
490.318	7818.3
490.688	7815.59
491.058	7954.79
491.428	8061.23
491.798	8164.05
492.168	8338.51
492.538	8387.55
492.908	8517.71
493.278	8578.05
493.648	8623.93
494.017	8722.91
494.387	8730.14
494.757	8887.2
495.126	8964.93
495.496	8999.51
495.866	9028.43
496.235	9124.25
496.605	9212.61
496.974	9295.55
497.344	9345.94
497.713	9475.43
498.082	9464.58
498.452	9571.47
498.821	9564.69
499.19	9677.46
499.559	9760.39
499.928	9744.8
500.298	9869.09
500.667	9963.55
501.036	9898.24
501.405	10001.97
501.774	10011.46
502.143	10086.03
502.512	10163.09
502.88	10224.56
503.249	10178.46
503.618	10212.58
503.987	10285.13
504.356	10285.13
504.724	10396.76
505.093	10359.93
505.462	10392.69
505.83	10516.53
506.199	10502.75
506.567	10613.93
506.936	10663.87
507.304	10757.2
507.672	10718.79
508.041	10717.2
508.409	10803.3
508.777	10786.35
509.145	10911.55
509.514	10918.55
509.882	10935.28
510.25	10967.14
510.618	11043.07
510.986	11008.72
511.354	11059.34
511.722	11118.55
512.09	11064.99
512.458	11113.35
512.826	11161.49
513.193	11193.12
513.561	11217.3
513.929	11239.9
514.297	11299.56
514.664	11343.18
515.032	11355.15
515.4	11347.47
515.767	11472.21
516.135	11295.04
516.502	11375.94
516.869	11410.52
517.237	11417.07
517.604	11429.28
517.972	11459.78
518.339	11438.77
518.706	11483.29
519.073	11469.27
519.44	11523.28
519.808	11627.69
520.175	11546.11
520.542	11638.31
520.909	11667.46
521.276	11615.71
521.643	11681.47
522.009	11671.3
522.376	11685.31
522.743	11778.42
523.11	11784.07
523.477	11882.6
523.843	11844.41
524.21	11822.49
524.577	11931.41
524.943	11901.81
525.31	11875.82
525.676	11876.72
526.043	11915.59
526.409	11864.52
526.776	11941.13
527.142	11963.05
527.508	11961.24
527.874	11946.55
528.241	11976.15
528.607	11902.26
528.973	12017.73
529.339	11984.29
529.705	11968.24
530.071	12049.6
530.437	11988.81
530.803	11968.24
531.169	11934.35
531.535	11911.3
531.901	11858.19
532.267	11827.91
532.632	11889.83
532.998	11830.17
533.364	11807.57
533.73	11864.52
534.095	11879.66
534.461	11816.16
534.826	11810.06
535.192	11753.79
535.557	11760.11
535.923	11689.61
536.288	11617.29
536.653	11645.54
537.019	11597.63
537.384	11631.76
537.749	11546.33
538.114	11504.98
538.479	11476.73
538.845	11460.46
539.21	11350.63
539.575	11354.02
539.94	11288.49
540.305	11324.19
540.67	11218.43
541.034	11148.61
541.399	11227.25
541.764	11186.12
542.129	11079.68
542.494	11118.78
542.858	11025.9
543.223	11012.79
543.587	11015.28
543.952	10907.93
544.316	10914.49
544.681	10873.13
545.045	10909.29
545.41	10830.42
545.774	10831.55
546.138	10764.43
546.503	10676.75
546.867	10603.08
547.231	10643.53
547.595	10598.34
547.959	10626.36
548.324	10517.89
548.688	10475.18
549.052	10487.15
549.416	10374.61
549.779	10408.96
550.143	10300.49
550.507	10334.16
550.871	10231.79
551.235	10220.72
551.599	10251
551.962	10236.09
552.326	10158.12
552.689	10140.04
553.053	10034.06
553.417	10015.53
553.78	10152.47
554.143	10001.74
554.507	9998.35
554.87	10013.04
555.234	9985.02
555.597	9838.58
555.96	9872.48
556.323	9849.2
556.686	9834.06
557.05	9822.54
557.413	9818.02
557.776	9776.21
558.139	9779.6
558.502	9714.74
558.865	9770.11
559.228	9792.93
559.59	9738.47
559.953	9705.71
560.316	9696.21
560.679	9759.49
561.041	9666.61
561.404	9670.45
561.767	9721.07
562.129	9714.74
562.492	9742.99
562.854	9655.09
563.217	9670.68
563.579	9580.51
563.941	9660.73
564.304	9641.07
564.666	9680.62
565.028	9637.46
565.39	9661.19
565.753	9653.05
566.115	9696.44
566.477	9670
566.839	9647.4
567.201	9700.28
567.563	9657.8
567.925	9735.53
568.287	9689.66
568.648	9717.46
569.01	9696.21
569.372	9750.68
569.734	9640.85
570.095	9683.11
570.457	9744.12
570.819	9685.59
571.18	9714.29
571.542	9740.05
571.903	9686.27
572.265	9757.68
572.626	9747.74
572.987	9696.67
573.349	9683.11
573.71	9708.64
574.071	9752.26
574.432	9782.99
574.794	9802.43
575.155	9794.29
575.516	9734.41
575.877	9781.86
576.238	9744.12
576.599	9701.41
576.96	9795.42
577.32	9771.92
577.681	9746.38
578.042	9733.95
578.403	9737.34
578.763	9805.82
579.124	9707.29
579.485	9792.71
579.845	9829.09
580.206	9743.44
580.566	9734.86
580.927	9787.74
581.287	9762.88
581.648	9681.3
582.008	9736.21
582.368	9760.17
582.728	9690.34
583.089	9673.84
583.449	9679.04
583.809	9666.84
584.169	9702.32
584.529	9663.9
584.889	9734.41
585.249	9614.41
585.609	9705.71
585.969	9668.42
586.329	9595.43
586.688	9620.28
587.048	9646.72
587.408	9588.65
587.768	9574.64
588.127	9575.77
588.487	9539.16
588.846	9652.37
589.206	9482.66
589.565	9561.08
589.925	9484.92
590.284	9534.18
590.643	9526.95
591.003	9508.87
591.362	9512.72
591.721	9513.85
592.08	9458.25
592.44	9540.29
592.799	9504.58
593.158	9486.5
593.517	9493.73
593.876	9467.29
594.235	9389.56
594.593	9436.56
594.952	9399.95
595.311	9412.61
595.67	9437.01
596.029	9458.25
596.387	9376.22
596.746	9437.01
597.104	9412.15
597.463	9350.46
597.822	9408.31
598.18	9371.02
598.538	9313.4
598.897	9407.63
599.255	9333.74
599.613	9477.24
599.972	9387.3
600.33	9442.44
600.688	9350.91
601.046	9388.88
601.404	9346.17
601.762	9362.21
602.12	9405.6
602.478	9389.78
602.836	9357.92
603.194	9335.77
603.552	9400.85
603.91	9321.76
604.268	9377.58
604.625	9302.33
604.983	9318.14
605.341	9305.94
605.698	9310.69
606.056	9305.94
606.413	9372.83
606.771	9325.6
607.128	9400.63
607.485	9306.62
607.843	9305.49
608.2	9400.63
608.557	9384.36
608.914	9333.29
609.272	9358.37
609.629	9407.63
609.986	9377.35
610.343	9350.01
610.7	9401.08
611.057	9281.31
611.414	9404.24
611.771	9393.17
612.127	9441.31
612.484	9351.14
612.841	9451.47
613.198	9423.68
613.554	9415.54
613.911	9469.1
614.267	9423.45
614.624	9405.83
614.98	9486.05
615.337	9501.87
615.693	9477.01
616.05	9440.63
616.406	9534.64
616.762	9498.71
617.118	9514.07
617.475	9454.86
617.831	9485.6
618.187	9491.93
618.543	9441.76
618.899	9515.88
619.255	9474.07
619.611	9538.03
619.967	9499.83
620.323	9622.09
620.678	9465.94
621.034	9456.45
621.39	9479.72
621.746	9437.92
622.101	9607.63
622.457	9520.4
622.812	9580.51
623.168	9535.77
623.523	9580.96
623.879	9540.74
624.234	9520.4
624.589	9557.23
624.945	9534.86
625.3	9644.24
625.655	9552.26
626.01	9508.87
626.365	9520.17
626.72	9521.08
627.075	9397.46
627.43	9455.54
627.785	9473.85
628.14	9550.68
628.495	9559.27
628.85	9581.64
629.205	9441.98
629.559	9534.18
629.914	9481.98
630.269	9463.68
630.623	9478.37
630.978	9418.03
631.332	9489.89
631.687	9507.97
632.041	9455.99
632.396	9413.74
632.75	9420.29
633.104	9407.18
633.459	9372.83
633.813	9393.85
634.167	9386.17
634.521	9368.76
634.875	9306.62
635.229	9337.13
635.583	9278.15
635.937	9276.11
636.291	9289.9
636.645	9260.52
636.999	9225.72
637.352	9280.86
637.706	9179.62
638.06	9240.86
638.413	9197.24
638.767	9166.06
639.121	9183.01
639.474	9120.41
639.828	9239.95
640.181	9161.09
640.534	9136.91
640.888	9094.42
641.241	9100.52
641.594	9121.77
641.947	9155.66
642.301	9149.11
642.654	9150.47
643.007	9159.28
643.36	9106.85
643.713	9060.75
644.066	9139.84
644.419	9038.38
644.771	9048.1
645.124	8940.75
645.477	8901.88
645.83	8817.59
646.182	8876.57
646.535	8830.47
646.888	8854.43
647.24	8758.61
647.593	8818.5
647.945	8760.65
648.298	8752.96
648.65	8742.79
649.002	8758.61
649.355	8876.35
649.707	8805.84
650.059	8785.5
650.411	8908.89
650.763	8974.2
651.115	9001.09
651.467	8992.96
651.819	8995.44
652.171	8998.38
652.523	8901.88
652.875	8940.08
653.227	8974.65
653.578	8999.51
653.93	8990.47
654.282	8957.48
654.633	8887.65
654.985	8916.35
655.337	8948.21
655.688	8975.78
656.039	9016.01
656.391	8870.92
656.742	8989.34
657.094	8976.01
657.445	8974.43
657.796	8975.78
658.147	8962
658.498	9048.1
658.849	9036.12
659.2	9041.99
659.551	8973.75
659.902	9007.19
660.253	8944.6
660.604	8966.29
660.955	8964.03
661.306	9096.23
661.656	9013.75
662.007	9024.82
662.358	9036.8
662.708	9065.95
663.059	9040.86
663.409	8976.01
663.76	9082.44
664.11	9066.4
664.461	9012.62
664.811	9000.64
665.161	9060.98
665.511	9055.1
665.862	8992.28
666.212	9058.72
666.562	9023.69
666.912	9034.76
667.262	9072.95
667.612	9034.76
667.962	9079.73
668.312	9046.29
668.662	9091.94
669.011	9025.05
669.361	9002.67
669.711	9053.97
670.06	9100.98
670.41	9040.86
670.76	9006.51
671.109	9015.1
671.459	9016.01
671.808	8945.05
672.157	9015.78
672.507	8977.81
672.856	8951.6
673.205	8973.3
673.554	9011.94
673.904	8978.72
674.253	9001.99
674.602	8946.63
674.951	8832.06
675.3	8785.96
675.649	8901.21
675.998	8910.47
676.346	8874.09
676.695	8879.29
677.044	8878.16
677.393	8862.11
677.741	8881.09
678.09	8814.88
678.438	8798.84
678.787	8859.4
679.135	8817.82
679.484	8798.38
679.832	8849.23
680.181	8760.65
680.529	8816.24
680.877	8741.89
681.225	8758.84
681.573	8762.23
681.922	8683.36
682.27	8678.39
682.618	8724.94
682.966	8635.22
683.314	8694.21
683.661	8625.06
684.009	8661.44
684.357	8588.45
684.705	8561.78
685.053	8565.85
685.4	8507.77
685.748	8521.78
686.095	8478.39
686.443	8485.62
686.79	8408.11
687.138	8495.12
687.485	8425.29
687.832	8436.13
688.18	8458.73
688.527	8375.12
688.874	8360.43
689.221	8303.71
689.568	8279.75
689.915	8191.85
690.262	8313.2
690.609	8233.65
690.956	8259.64
691.303	8207.67
691.65	8212.19
691.997	8160.21
692.344	8088.8
692.69	8089.48
693.037	8057.84
693.383	8015.81
693.73	8025.3
694.077	7949.14
694.423	7975.58
694.769	7961.34
695.116	7910.95
695.462	7879.99
695.808	7839.54
696.155	7820.33
696.501	7783.95
696.847	7827.11
697.193	7709.15
697.539	7733.1
697.885	7665.31
698.231	7661.24
698.577	7654.01
698.923	7618.53
699.269	7605.42
699.614	7547.8
699.96	7484.07
700.306	7463.96
700.651	7356.39
700.997	7405.2
701.342	7427.57
701.688	7363.17
702.033	7331.3
702.379	7391.64
702.724	7266
703.069	7331.98
703.415	7251.98
703.76	7220.8
704.105	7261.48
704.45	7244.3
704.795	7123.4
705.14	7121.82
705.485	7065.55
705.83	7056.96
706.175	7123.4
706.52	7072.1
706.865	7064.42
707.209	6966.12
707.554	6991.2
707.899	6986
708.243	6936.96
708.588	6886.34
708.932	6876.4
709.277	6805.67
709.621	6865.1
709.966	6772
710.31	6867.14
710.654	6732.68
710.998	6779.45
711.342	6764.09
711.687	6727.03
712.031	6721.6
712.375	6697.42
712.719	6673.24
713.063	6707.37
713.407	6684.54
713.75	6673.47
714.094	6605.67
714.438	6631.89
714.782	6652.9
715.125	6614.49
715.469	6605.67
715.812	6565.9
716.156	6516.41
716.499	6506.69
716.843	6567.26
717.186	6503.3
717.53	6514.15
717.873	6505.56
718.216	6478.45
718.559	6438.45
718.902	6442.29
719.246	6433.93
719.589	6454.49
719.932	6376.98
720.275	6442.74
720.617	6418.11
720.96	6413.14
721.303	6416.3
721.646	6414.72
721.989	6412.68
722.331	6448.84
722.674	6376.98
723.016	6361.84
723.359	6426.24
723.701	6371.33
724.044	6331.56
724.386	6327.04
724.729	6360.03
725.071	6387.37
725.413	6356.64
725.755	6365.91
726.097	6284.78
726.439	6302.63
726.782	6281.61
727.124	6274.84
727.465	6261.28
727.807	6299.24
728.149	6281.16
728.491	6287.26
728.833	6279.81
729.175	6239.58
729.516	6260.15
729.858	6261.5
730.199	6263.54
730.541	6301.05
730.882	6258.79
731.224	6265.34
731.565	6275.96
731.906	6259.02
732.248	6242.97
732.589	6242.75
732.93	6228.73
733.271	6278.22
733.612	6252.46
733.953	6271.67
734.294	6287.49
734.635	6263.31
734.976	6258.11
735.317	6270.09
735.658	6287.26
735.999	6279.81
736.339	6226.7
736.68	6270.09
737.021	6301.27
737.361	6267.15
737.702	6354.15
738.042	6318.68
738.383	6267.83
738.723	6328.39
739.063	6312.35
739.404	6369.3
739.744	6357.09
740.084	6347.6
740.424	6325.23
740.764	6346.02
741.104	6338.56
741.444	6399.35
741.784	6382.85
742.124	6424.66
742.464	6475.73
742.804	6451.55
743.143	6433.7
743.483	6483.42
743.823	6473.47
744.162	6524.09
744.502	6543.3
744.841	6536.98
745.181	6587.82
745.52	6612.91
745.86	6696.52
746.199	6678.21
746.538	6719.34
746.877	6767.03
747.216	6806.35
747.556	6841.83
747.895	6887.7
748.234	6891.77
748.573	6980.58
748.911	7025.32
749.25	7080.69
749.589	7156.62
749.928	7201.59
750.267	7221.48
750.605	7305.99
750.944	7395.03
751.283	7448.14
751.621	7578.53
751.96	7626.66
752.298	7697.62
752.636	7749.82
752.975	7875.47
753.313	7910.72
753.651	8060.32
753.989	8155.46
754.327	8217.61
754.666	8336.25
755.004	8482.46
755.342	8529.01
755.679	8704.83
756.017	8811.49
756.355	8898.95
756.693	9023.01
757.031	9143.46
757.368	9268.88
757.706	9422.77
758.044	9431.81
758.381	9685.59
758.719	9792.93
759.056	9979.82
759.394	10114.73
759.731	10180.95
760.068	10337.78
760.405	10486.25
760.743	10652.12
761.08	10853.02
761.417	10979.34
761.754	11128.27
762.091	11268.15
762.428	11484.64
762.765	11594.7
763.102	11801.02
763.438	11946.78
763.775	11983.16
764.112	12244.17
764.449	12396.26
764.785	12502.92
765.122	12671.05
765.458	12854.32
765.795	12966.86
766.131	13158.95
766.467	13277.14
