Data from hue_140_FLMS001491_00030.txt Node
Date: Tue Feb 07 16:55:40 GMT 2017
User: dcchb
Spectrometer: FLMS00149
Trigger mode: 0
Integration Time (sec): 2.000000E-2
Scans to average: 10
Electric dark correction enabled: true
Nonlinearity correction enabled: false
Boxcar width: 0
XAxis mode: Wavelengths
Number of Pixels in Spectrum: 2048
>>>>>Begin Spectral Data<<<<<
341.393	-4.21
341.776	-4.21
342.16	-4.21
342.543	-48.95
342.927	-54.83
343.31	-60.7
343.693	-83.98
344.077	-53.7
344.46	-68.61
344.843	-44.89
345.226	-45.11
345.61	-42.17
345.993	-23.64
346.376	-2.4
346.759	22.68
347.142	22.23
347.525	48.45
347.908	43.7
348.291	60.87
348.674	121.21
349.057	106.07
349.44	141.1
349.823	152.62
350.206	163.7
350.588	189.23
350.971	191.72
351.354	225.62
351.737	239.85
352.119	261.09
352.502	267.87
352.884	270.59
353.267	265.61
353.65	270.36
354.032	295.44
354.414	290.7
354.797	314.43
355.179	317.59
355.562	306.29
355.944	310.81
356.326	331.6
356.709	326.18
357.091	313.75
357.473	340.87
357.855	318.04
358.238	330.25
358.62	319.85
359.002	333.86
359.384	358.27
359.766	330.47
360.148	353.07
360.53	341.09
360.912	332.96
361.294	333.64
361.676	323.24
362.057	308.1
362.439	339.06
362.821	318.04
363.203	330.25
363.584	321.43
363.966	318.04
364.348	311.04
364.729	326.4
365.111	297.93
365.493	319.4
365.874	317.59
366.256	306.97
366.637	299.51
367.019	313.07
367.4	323.24
367.781	316.01
368.163	324.37
368.544	321.66
368.925	315.56
369.306	316.23
369.688	321.88
370.069	319.4
370.45	289.79
370.831	344.93
371.212	309
371.593	307.42
371.974	330.92
372.355	329.12
372.736	327.08
373.117	302
373.498	303.13
373.879	316.23
374.26	337.03
374.641	285.73
375.021	315.1
375.402	312.84
375.783	313.75
376.163	326.63
376.544	336.8
376.925	311.71
377.305	309.23
377.686	317.82
378.066	314.88
378.447	312.62
378.827	321.66
379.208	329.12
379.588	327.76
379.968	337.7
380.349	302
380.729	346.52
381.109	336.12
381.489	327.31
381.87	341.09
382.25	335.9
382.63	330.7
383.01	339.28
383.39	331.6
383.77	334.31
384.15	304.71
384.53	335.67
384.91	344.48
385.29	356.91
385.67	338.38
386.049	359.4
386.429	356.69
386.809	352.84
387.189	348.78
387.568	352.84
387.948	374.09
388.328	334.31
388.707	337.25
389.087	346.52
389.466	352.84
389.846	341.32
390.225	365.72
390.605	353.3
390.984	350.13
391.363	385.16
391.743	350.58
392.122	364.82
392.501	380.87
392.881	372.5
393.26	369.11
393.639	380.87
394.018	385.16
394.397	381.09
394.776	370.47
395.155	369.79
395.534	391.71
395.913	394.42
396.292	367.53
396.671	400.07
397.05	390.36
397.429	395.55
397.808	386.97
398.186	393.29
398.565	408.89
398.944	414.99
399.323	375.44
399.701	397.81
400.08	403.24
400.458	389
400.837	415.67
401.215	390.36
401.594	387.65
401.972	386.52
402.351	405.5
402.729	419.28
403.107	394.2
403.486	427.64
403.864	419.28
404.242	423.58
404.62	434.88
404.999	426.51
405.377	424.03
405.755	420.86
406.133	427.64
406.511	449.56
406.889	431.03
407.267	438.04
407.645	432.39
408.023	427.42
408.401	436.68
408.779	432.62
409.156	456.8
409.534	459.06
409.912	476.46
410.29	457.25
410.667	466.29
411.045	451.15
411.422	471.94
411.8	471.94
412.178	471.48
412.555	464.71
412.933	477.81
413.31	484.14
413.687	486.4
414.065	477.36
414.442	484.82
414.819	474.87
415.197	510.58
415.574	488.66
415.951	491.37
416.328	497.25
416.705	500.41
417.082	505.16
417.46	505.83
417.837	516.46
418.214	530.24
418.591	519.39
418.967	530.24
419.344	526.62
419.721	509.68
420.098	512.84
420.475	506.29
420.852	532.05
421.228	527.98
421.605	543.8
421.982	533.86
422.358	540.64
422.735	561.65
423.111	538.6
423.488	569.34
423.864	557.58
424.241	565.72
424.617	588.77
424.994	576.34
425.37	595.55
425.746	547.87
426.123	580.18
426.499	588.77
426.875	600.75
427.251	596.91
427.627	589
428.003	612.72
428.379	614.53
428.756	611.14
429.132	615.44
429.507	620.86
429.883	626.06
430.259	633.74
430.635	623.8
431.011	632.61
431.387	667.41
431.763	658.37
432.138	662.67
432.514	658.6
432.89	684.81
433.265	678.71
433.641	687.07
434.016	719.84
434.392	706.73
434.767	690.69
435.143	711.48
435.518	714.19
435.894	700.86
436.269	710.35
436.644	721.87
437.02	747.64
437.395	735.43
437.77	734.08
438.145	753.96
438.52	770.01
438.895	781.76
439.271	783.57
439.646	790.35
440.021	791.7
440.395	812.94
440.77	774.08
441.145	794.41
441.52	814.75
441.895	790.12
442.27	819.72
442.645	814.53
443.019	822.66
443.394	807.97
443.769	819.27
444.143	806.17
444.518	847.29
444.892	859.72
445.267	828.31
445.641	846.39
446.016	864.69
446.39	862.89
446.764	855.88
447.139	888.87
447.513	879.84
447.887	906.73
448.262	871.47
448.636	909.44
449.01	903.11
449.384	904.47
449.758	918.48
450.132	913.73
450.506	915.77
450.88	931.81
451.254	953.28
451.628	931.59
452.002	971.13
452.376	952.6
452.75	970.91
453.123	963
453.497	1008.87
453.871	994.86
454.244	1019.27
454.618	1010.91
454.992	1027.85
455.365	1030.34
455.739	1066.5
456.112	1028.98
456.486	1066.05
456.859	1064.24
457.232	1073.05
457.606	1065.37
457.979	1124.12
458.352	1121.19
458.725	1153.05
459.099	1144.69
459.472	1198.47
459.845	1191.01
460.218	1215.87
460.591	1189.88
460.964	1207.74
461.337	1231.69
461.71	1252.26
462.083	1253.84
462.456	1278.02
462.829	1301.97
463.201	1313.04
463.574	1313.27
463.947	1346.49
464.32	1362.08
464.692	1386.71
465.065	1396.21
465.438	1407.28
465.81	1438.01
466.183	1445.24
466.555	1485.92
466.928	1501.51
467.3	1490.44
467.672	1556.2
468.045	1565.24
468.417	1583.55
468.789	1598.23
469.161	1624.9
469.534	1666.03
469.906	1702.64
470.278	1720.72
470.65	1728.63
471.022	1780.83
471.394	1840.49
471.766	1871.22
472.138	1882.75
472.51	1932.46
472.882	1940.15
473.253	1986.47
473.625	2001.39
473.997	2041.39
474.369	2103.76
474.74	2117.54
475.112	2239.8
475.484	2235.96
475.855	2279.57
476.227	2348.95
476.598	2389.17
476.97	2453.35
477.341	2464.65
477.713	2577.87
478.084	2609.28
478.455	2701.03
478.827	2754.59
479.198	2847.02
479.569	2885.43
479.94	3055.15
480.311	3072.32
480.682	3174.46
481.053	3277.51
481.424	3376.04
481.795	3404.52
482.166	3505.08
482.537	3604.74
482.908	3689.03
483.279	3780.78
483.65	3880.89
484.021	3998.4
484.391	4125.85
484.762	4208.34
485.133	4250.14
485.503	4445.62
485.874	4523.58
486.244	4606.07
486.615	4744.82
486.985	4860.07
487.356	5024.13
487.726	5049.9
488.097	5256.9
488.467	5339.38
488.837	5455.99
489.207	5628.86
489.578	5750.44
489.948	5847.61
490.318	5981.62
490.688	6093.48
491.058	6294.38
491.428	6405.34
491.798	6505.68
492.168	6685.78
492.538	6846.68
492.908	6905.44
493.278	7112.67
493.648	7160.8
494.017	7347.46
494.387	7428.36
494.757	7578.64
495.126	7752.42
495.496	7876.94
495.866	7881.01
496.235	8161.68
496.605	8200.32
496.974	8318.28
497.344	8388.56
497.713	8589.01
498.082	8657.26
498.452	8855.22
498.821	8921.88
499.19	9011.15
499.559	9177.02
499.928	9293.4
500.298	9324.13
500.667	9484.36
501.036	9494.3
501.405	9669.21
501.774	9739.04
502.143	9856.1
502.512	9895.19
502.88	10055.64
503.249	10083.89
503.618	10226.48
503.987	10221.28
504.356	10275.75
504.724	10382.86
505.093	10478.23
505.462	10561.16
505.83	10661.95
506.199	10797.54
506.567	10884.54
506.936	10915.73
507.304	11091.32
507.672	11039.34
508.041	11207.02
508.409	11234.37
508.777	11343.06
509.145	11501.03
509.514	11372.67
509.882	11552.1
510.25	11586.9
510.618	11617.86
510.986	11722.49
511.354	11748.02
511.722	11863.28
512.09	11972.88
512.458	11987.79
512.826	12062.59
513.193	12084.06
513.561	12134.23
513.929	12189.82
514.297	12310.95
514.664	12344.39
515.032	12348.91
515.4	12393.88
515.767	12522.92
516.135	12508.91
516.502	12398.63
516.869	12625.29
517.237	12541
517.604	12542.58
517.972	12682.46
518.339	12716.13
518.706	12740.31
519.073	12740.54
519.44	12752.07
519.808	12890.14
520.175	12838.62
520.542	13032.74
520.909	12966.07
521.276	13027.54
521.643	13079.51
522.009	13041.78
522.376	13129.23
522.743	13220.53
523.11	13225.05
523.477	13328.77
523.843	13346.63
524.21	13502.55
524.577	13444.48
524.943	13483.8
525.31	13488.09
525.676	13581.42
526.043	13605.83
526.409	13658.26
526.776	13731.48
527.142	13651.93
527.508	13658.26
527.874	13818.25
528.241	13790.91
528.607	13701.42
528.973	13834.75
529.339	13768.76
529.705	13866.16
530.071	13861.19
530.437	13873.17
530.803	13925.59
531.169	13877.46
531.535	13841.3
531.901	13858.7
532.267	13773.28
532.632	13850.12
532.998	13896.44
533.364	13936.44
533.73	13842.43
534.095	13959.94
534.461	13830.91
534.826	13855.09
535.192	13914.3
535.557	13903
535.923	13818.03
536.288	13797.01
536.653	13822.77
537.019	13717.92
537.384	13743
537.749	13736.45
538.114	13671.82
538.479	13698.71
538.845	13678.14
539.21	13621.42
539.575	13589.11
539.94	13584.36
540.305	13632.04
540.67	13592.72
541.034	13481.54
541.399	13551.37
541.764	13548.2
542.129	13531.71
542.494	13501.88
542.858	13490.8
543.223	13485.83
543.587	13422.78
543.952	13441.99
544.316	13318.83
544.681	13246.52
545.045	13311.15
545.41	13386.63
545.774	13224.14
546.138	13126.52
546.503	13201.55
546.867	13075.45
547.231	13118.61
547.595	13113.64
547.959	13046.3
548.324	13021.89
548.688	13028.44
549.052	12973.98
549.416	12978.05
549.779	12936.02
550.143	12914.55
550.507	12999.74
550.871	12942.57
551.235	12893.08
551.599	12866.19
551.962	12862.12
552.326	12785.96
552.689	12773.99
553.053	12790.03
553.417	12785.29
553.78	12808.11
554.143	12694.67
554.507	12702.8
554.87	12722.91
555.234	12753.42
555.597	12635.01
555.96	12656.25
556.323	12647.89
556.686	12602.01
557.05	12632.97
557.413	12697.6
557.776	12636.81
558.139	12695.57
558.502	12658.28
558.865	12608.79
559.228	12581.22
559.59	12702.35
559.953	12641.56
560.316	12760.88
560.679	12618.96
561.041	12736.25
561.404	12659.86
561.767	12724.04
562.129	12573.77
562.492	12738.05
562.854	12580.32
563.217	12640.66
563.579	12624.84
563.941	12748.9
564.304	12721.33
564.666	12721.56
565.028	12792.29
565.39	12753.65
565.753	12836.36
566.115	12812.18
566.477	12830.03
566.839	12811.95
567.201	12838.17
567.563	12793.19
567.925	12842.01
568.287	12924.72
568.648	12891.72
569.01	12960.87
569.372	13000.19
569.734	12909.8
570.095	12989.8
570.457	13029.35
570.819	13027.09
571.18	12990.48
571.542	13038.16
571.903	13023.02
572.265	13084.71
572.626	13118.38
572.987	13102.11
573.349	13074.32
573.71	13082.23
574.071	13101.66
574.432	13171.26
574.794	13146.41
575.155	13228.44
575.516	13063.47
575.877	13146.63
576.238	13153.86
576.599	13091.27
576.96	13171.72
577.32	13182.56
577.681	13111.15
578.042	13343.91
578.403	13194.09
578.763	13279.96
579.124	13182.79
579.485	13239.28
579.845	13269.34
580.206	13232.51
580.566	13175.11
580.927	13203.35
581.287	13210.13
581.648	13194.31
582.008	13244.93
582.368	13192.73
582.728	13242.22
583.089	13169.23
583.449	13196.35
583.809	13169.23
584.169	13235.89
584.529	13058.95
584.889	13261.88
585.249	13109.12
585.609	13094.43
585.969	13214.65
586.329	13039.52
586.688	13143.02
587.048	13183.69
587.408	13001.78
587.768	13094.66
588.127	13021.21
588.487	13060.98
588.846	13201.55
589.206	12951.38
589.565	13012.85
589.925	13093.98
590.284	13067.09
590.643	13030.25
591.003	13079.29
591.362	13078.61
591.721	13093.3
592.08	13127.2
592.44	13067.31
592.799	13045.62
593.158	12917.03
593.517	13065.28
593.876	13046.3
594.235	12925.85
594.593	13022.34
594.952	13002
595.311	12969.91
595.67	13007.65
596.029	12992.96
596.387	13021.21
596.746	13024.6
597.104	12972.63
597.463	12904.83
597.822	12935.79
598.18	12890.59
598.538	12845.62
598.897	12964.94
599.255	12836.58
599.613	13096.01
599.972	12911.38
600.33	12953.87
600.688	12883.14
601.046	13011.27
601.404	12979.86
601.762	12941.44
602.12	12939.63
602.478	13046.97
602.836	13034.77
603.194	12933.3
603.552	12992.51
603.91	12923.59
604.268	12950.93
604.625	12914.32
604.983	13004.49
605.341	12944.15
605.698	13018.27
606.056	13043.58
606.413	12973.3
606.771	13051.27
607.128	13033.19
607.485	12890.59
607.843	12959.52
608.2	13001.1
608.557	13003.13
608.914	13043.36
609.272	13056.69
609.629	13095.33
609.986	13135.78
610.343	13025.96
610.7	13135.78
611.057	13145.5
611.414	13117.25
611.771	13173.52
612.127	13132.85
612.484	13185.73
612.841	13224.6
613.198	13158.16
613.554	13177.59
613.911	13201.32
614.267	13195.44
614.624	13138.27
614.98	13202.9
615.337	13277.48
615.693	13258.95
616.05	13252.17
616.406	13291.03
616.762	13307.08
617.118	13306.85
617.475	13270.7
617.831	13326.97
618.187	13382.78
618.543	13328.77
618.899	13399.28
619.255	13330.81
619.611	13285.84
619.967	13391.37
620.323	13399.28
620.678	13373.29
621.034	13336.23
621.39	13236.35
621.746	13332.39
622.101	13411.03
622.457	13325.38
622.812	13447.64
623.168	13425.95
623.523	13421.2
623.879	13537.81
624.234	13423.91
624.589	13433.63
624.945	13429.34
625.3	13470.01
625.655	13373.29
626.01	13399.51
626.365	13402.44
626.72	13380.98
627.075	13415.78
627.43	13443.8
627.785	13299.4
628.14	13386.17
628.495	13426.85
628.85	13379.17
629.205	13331.94
629.559	13382.11
629.914	13274.09
630.269	13296.46
630.623	13286.06
630.978	13198.83
631.332	13237.25
631.687	13350.02
632.041	13267.31
632.396	13257.36
632.75	13173.52
633.104	13197.48
633.459	13164.71
633.813	13157.7
634.167	13190.92
634.521	13137.82
634.875	13221.88
635.229	13175.11
635.583	13105.5
635.937	13133.52
636.291	13095.56
636.645	13092.4
636.999	13045.17
637.352	13119.74
637.706	12970.82
638.06	12918.84
638.413	13030.93
638.767	12980.76
639.121	12922.23
639.474	12884.49
639.828	12927.88
640.181	12899.86
640.534	12919.29
640.888	12900.76
641.241	12848.56
641.594	12819.18
641.947	12914.32
642.301	12833.87
642.654	12850.82
643.007	12875.68
643.36	12892.63
643.713	12763.36
644.066	12877.49
644.419	12775.34
644.771	12753.87
645.124	12554.1
645.477	12574.67
645.83	12517.5
646.182	12397.27
646.535	12395.69
646.888	12349.36
647.24	12383.94
647.593	12367.67
647.945	12371.06
648.298	12361.34
648.65	12313.89
649.002	12233.21
649.355	12413.54
649.707	12335.58
650.059	12445.18
650.411	12519.08
650.763	12505.74
651.115	12660.99
651.467	12600.66
651.819	12645.18
652.171	12610.6
652.523	12570.6
652.875	12562.24
653.227	12517.27
653.578	12593.2
653.93	12607.21
654.282	12596.82
654.633	12538.51
654.985	12522.47
655.337	12594.56
655.688	12622.13
656.039	12615.35
656.391	12504.61
656.742	12572.41
657.094	12601.11
657.445	12595.91
657.796	12678.62
658.147	12610.15
658.498	12615.57
658.849	12645.85
659.2	12596.59
659.551	12577.61
659.902	12592.97
660.253	12587.55
660.604	12635.46
660.955	12476.82
661.306	12541.68
661.656	12650.37
662.007	12605.4
662.358	12578.74
662.708	12656.25
663.059	12586.42
663.409	12620.77
663.76	12680.66
664.11	12726.08
664.461	12603.14
664.811	12665.74
665.161	12668.68
665.511	12688.11
665.862	12601.34
666.212	12655.35
666.562	12728.56
666.912	12604.05
667.262	12635.68
667.612	12666.87
667.962	12702.58
668.312	12621.22
668.662	12681.79
669.011	12555.91
669.361	12637.04
669.711	12604.73
670.06	12610.83
670.41	12630.26
670.76	12634.78
671.109	12670.94
671.459	12605.85
671.808	12566.99
672.157	12573.31
672.507	12533.09
672.856	12501
673.205	12520.43
673.554	12536.93
673.904	12454.22
674.253	12578.06
674.602	12505.07
674.951	12396.82
675.3	12217.39
675.649	12416.48
675.998	12451.73
676.346	12446.76
676.695	12448.8
677.044	12363.6
677.393	12448.8
677.741	12446.09
678.09	12453.54
678.438	12357.5
678.787	12387.1
679.135	12302.59
679.484	12248.35
679.832	12351.4
680.181	12287.67
680.529	12285.41
680.877	12208.58
681.225	12179.43
681.573	12240.89
681.922	12169.03
682.27	12130.61
682.618	12164.74
682.966	12184.17
683.314	12212.64
683.661	12101.24
684.009	12009.49
684.357	11924.52
684.705	11953.67
685.053	12043.38
685.4	12025.08
685.748	11919.77
686.095	11914.8
686.443	11885.2
686.79	11778.76
687.138	11878.87
687.485	11912.09
687.832	11746.67
688.18	11814.46
688.527	11681.13
688.874	11746.44
689.221	11644.75
689.568	11628.03
689.915	11588.93
690.262	11562.49
690.609	11604.07
690.956	11604.53
691.303	11402.95
691.65	11455.83
691.997	11460.35
692.344	11360.92
692.69	11358.88
693.037	11285.89
693.383	11231.43
693.73	11247.02
694.077	11231.65
694.423	11131.54
694.769	11215.38
695.116	11135.39
695.462	11078.21
695.808	10914.83
696.155	11009.51
696.501	10907.14
696.847	10945.11
697.193	10847.03
697.539	10833.92
697.885	10766.36
698.231	10727.03
698.577	10742.63
698.923	10732.91
699.269	10658.34
699.614	10581.95
699.96	10553.48
700.306	10563.2
700.651	10492.46
700.997	10487.27
701.342	10394.61
701.688	10424.22
702.033	10413.37
702.379	10389.87
702.724	10415.63
703.069	10405.23
703.415	10199.59
703.76	10169.99
704.105	10122.08
704.45	10179.25
704.795	10150.1
705.14	10091.57
705.485	10071.01
705.83	10032.59
706.175	10054.06
706.52	10001.63
706.865	9910.78
707.209	9857.23
707.554	9887.28
707.899	9812.48
708.243	9837.57
708.588	9798.47
708.932	9700.62
709.277	9740.39
709.621	9710.34
709.966	9698.59
710.31	9690.23
710.654	9563.22
710.998	9678.02
711.342	9619.94
711.687	9572.49
712.031	9516.67
712.375	9506.73
712.719	9559.38
713.063	9507.86
713.407	9480.97
713.75	9432.61
714.094	9398.48
714.438	9358.26
714.782	9441.42
715.125	9386.05
715.469	9398.03
715.812	9322.55
716.156	9317.13
716.499	9316.68
716.843	9314.19
717.186	9289.33
717.53	9292.27
717.873	9296.11
718.216	9289.11
718.559	9214.98
718.902	9165.72
719.246	9133.63
719.589	9159.17
719.932	9130.01
720.275	9159.17
720.617	9138.15
720.96	9075.1
721.303	9079.85
721.646	9126.17
721.989	9077.59
722.331	9096.12
722.674	9079.85
723.016	9037.14
723.359	9068.77
723.701	8984.03
724.044	8985.61
724.386	8938.38
724.729	9004.82
725.071	8995.1
725.413	8953.07
725.755	8967.31
726.097	8975.67
726.439	8872.85
726.782	8902
727.124	8942.45
727.465	8868.55
727.807	8876.46
728.149	8871.49
728.491	8891.38
728.833	8922.56
729.175	8889.12
729.516	8888.21
729.858	8910.13
730.199	8908.1
730.541	8864.26
730.882	8849.8
731.224	8839.63
731.565	8831.04
731.906	8806.86
732.248	8802.11
732.589	8816.58
732.93	8820.42
733.271	8779.06
733.612	8797.14
733.953	8816.35
734.294	8799.18
734.635	8768.44
734.976	8837.59
735.317	8771.61
735.658	8748.33
735.999	8838.95
736.339	8783.13
736.68	8887.08
737.021	8821.55
737.361	8740.87
737.702	8851.83
738.042	8817.93
738.383	8833.98
738.723	8860.19
739.063	8805.05
739.404	8881.21
739.744	8783.58
740.084	8820.64
740.424	8917.36
740.764	8887.53
741.104	8891.6
741.444	8868.55
741.784	8929.34
742.124	8879.63
742.464	8920.08
742.804	8972.96
743.143	8943.8
743.483	8952.17
743.823	8948.32
744.162	8966.18
744.502	9083.46
744.841	9034.2
745.181	9101.31
745.52	9115.78
745.86	9223.8
746.199	9210.01
746.538	9211.37
746.877	9250.24
747.216	9324.81
747.556	9323.91
747.895	9404.13
748.234	9416.79
748.573	9358.48
748.911	9528.42
749.25	9586.95
749.589	9600.51
749.928	9740.85
750.267	9781.75
750.605	9851.58
750.944	9872.37
751.283	9959.37
751.621	10048.86
751.96	10036.66
752.298	10190.55
752.636	10311.23
752.975	10367.04
753.313	10485.01
753.651	10603.42
753.989	10636.87
754.327	10762.51
754.666	10779.46
755.004	10972
755.342	11162.96
755.679	11205.89
756.017	11224.87
756.355	11454.7
756.693	11538.54
757.031	11743.28
757.368	11733.56
757.706	11907.57
758.044	12030.73
758.381	12275.92
758.719	12382.13
759.056	12513.88
