Data from hue_26_FLMS001491_00033.txt Node
Date: Tue Feb 07 17:13:54 GMT 2017
User: dcchb
Spectrometer: FLMS00149
Trigger mode: 0
Integration Time (sec): 2.000000E-2
Scans to average: 10
Electric dark correction enabled: true
Nonlinearity correction enabled: false
Boxcar width: 0
XAxis mode: Wavelengths
Number of Pixels in Spectrum: 2048
>>>>>Begin Spectral Data<<<<<
341.393	-1.89
341.776	-1.89
342.16	-1.89
342.543	-59.74
342.927	-67.43
343.31	-64.72
343.693	-87.99
344.077	-66.52
344.46	-42.57
344.843	-41.89
345.226	-58.84
345.61	-37.37
345.993	1.5
346.376	-3.25
346.759	6.24
347.142	36.98
347.525	25.68
347.908	39.01
348.291	79.01
348.674	103.87
349.057	110.87
349.44	133.02
349.823	145.9
350.206	165.11
350.588	215.28
350.971	210.98
351.354	242.62
351.737	231.77
352.119	253.69
352.502	263.86
352.884	286.01
353.267	301.83
353.65	274.71
354.032	293.47
354.414	305.44
354.797	344.76
355.179	334.14
355.562	321.94
355.944	321.26
356.326	332.34
356.709	335.27
357.091	320.36
357.473	360.13
357.855	354.03
358.238	348.83
358.62	328.49
359.002	354.26
359.384	342.51
359.766	329.62
360.148	335.5
360.53	342.73
360.912	331.66
361.294	343.41
361.676	332.79
362.057	335.73
362.439	341.38
362.821	343.86
363.203	322.62
363.584	330.3
363.966	321.94
364.348	349.74
364.729	313.13
365.111	327.36
365.493	311.32
365.874	307.48
366.256	321.49
366.637	330.75
367.019	328.49
367.4	315.16
367.781	327.59
368.163	326.46
368.544	328.72
368.925	318.78
369.306	332.34
369.688	324.2
370.069	331.21
370.45	323.07
370.831	311.09
371.212	305.22
371.593	311.77
371.974	332.34
372.355	308.83
372.736	329.4
373.117	339.79
373.498	305.44
373.879	314.03
374.26	325.1
374.641	340.25
375.021	323.52
375.402	328.72
375.783	319.45
376.163	312.68
376.544	326.91
376.925	331.66
377.305	327.82
377.686	345.67
378.066	345.67
378.447	312
378.827	340.02
379.208	332.56
379.588	341.83
379.968	351.09
380.349	323.97
380.729	332.11
381.109	350.64
381.489	317.87
381.87	348.61
382.25	338.89
382.63	347.7
383.01	370.53
383.39	347.93
383.77	332.11
384.15	365.56
384.53	351.09
384.91	365.56
385.29	357.42
385.67	343.64
386.049	360.36
386.429	351.54
386.809	366.01
387.189	341.38
387.568	388.61
387.948	345.67
388.328	368.95
388.707	349.28
389.087	363.07
389.466	384.09
389.846	351.32
390.225	380.7
390.605	364.65
390.984	357.87
391.363	390.19
391.743	390.87
392.122	373.01
392.501	382.28
392.881	382.73
393.26	373.24
393.639	394.93
394.018	378.89
394.397	377.53
394.776	366.91
395.155	403.29
395.534	403.97
395.913	367.36
396.292	383.18
396.671	406.68
397.05	389.51
397.429	387.48
397.808	395.61
398.186	401.94
398.565	407.14
398.944	411.66
399.323	383.41
399.701	405.78
400.08	406.23
400.458	420.92
400.837	400.58
401.215	409.85
401.594	391.54
401.972	412.56
402.351	430.41
402.729	423.18
403.107	417.53
403.486	412.11
403.864	418.21
404.242	439.68
404.62	435.38
404.999	422.5
405.377	415.27
405.755	441.26
406.133	434.03
406.511	429.51
406.889	432.22
407.267	439.45
407.645	445.55
408.023	444.65
408.401	449.17
408.779	432.9
409.156	449.39
409.534	471.32
409.912	470.86
410.29	443.07
410.667	462.95
411.045	474.93
411.422	473.12
411.8	460.69
412.178	471.32
412.555	457.76
412.933	482.39
413.31	497.76
413.687	456.4
414.065	498.89
414.442	480.58
414.819	495.5
415.197	502.5
415.574	506.57
415.951	514.48
416.328	526.23
416.705	490.98
417.082	476.74
417.46	487.81
417.837	522.39
418.214	510.18
418.591	519.68
418.967	523.07
419.344	530.97
419.721	519.9
420.098	532.33
420.475	545.89
420.852	530.97
421.228	544.99
421.605	532.1
421.982	548.6
422.358	562.84
422.735	539.11
423.111	542.05
423.488	555.38
423.864	561.93
424.241	577.98
424.617	554.25
424.994	574.14
425.37	579.11
425.746	563.52
426.123	586.34
426.499	571.2
426.875	580.46
427.251	604.87
427.627	596.96
428.003	604.42
428.379	612.1
428.756	604.19
429.132	617.98
429.507	616.4
429.883	611.2
430.259	609.62
430.635	627.92
431.011	613.01
431.387	631.09
431.763	660.01
432.138	663.63
432.514	653.68
432.89	668.6
433.265	674.25
433.641	662.27
434.016	669.95
434.392	679.22
434.767	693.91
435.143	679.9
435.518	705.89
435.894	702.27
436.269	722.16
436.644	714.47
437.02	708.6
437.395	719.44
437.77	724.64
438.145	732.33
438.52	739.1
438.895	746.34
439.271	724.87
439.646	751.76
440.021	758.31
440.395	762.38
440.77	761.48
441.145	784.08
441.52	787.47
441.895	774.13
442.27	758.77
442.645	783.17
443.019	804.41
443.394	777.75
443.769	809.39
444.143	787.92
444.518	840.35
444.892	801.7
445.267	826.11
445.641	804.87
446.016	812.78
446.39	831.76
446.764	840.8
447.139	837.86
447.513	829.5
447.887	840.57
448.262	841.7
448.636	850.06
449.01	858.42
449.384	868.14
449.758	869.72
450.132	897.97
450.506	883.06
450.88	909.04
451.254	878.08
451.628	888.93
452.002	933.22
452.376	906.78
452.75	924.41
453.123	922.83
453.497	944.3
453.871	936.61
454.244	937.97
454.618	987.69
454.992	972.77
455.365	996.73
455.739	987.91
456.112	1025.65
456.486	1006.67
456.859	1010.74
457.232	1052.32
457.606	1062.26
457.979	1055.03
458.352	1055.03
458.725	1069.27
459.099	1063.84
459.472	1094.12
459.845	1096.38
460.218	1122.82
460.591	1130.51
460.964	1118.3
461.337	1135.25
461.71	1157.4
462.083	1173.67
462.456	1201.01
462.829	1185.42
463.201	1194.91
463.574	1210.28
463.947	1207.34
464.32	1221.58
464.692	1261.8
465.065	1269.71
465.438	1268.58
465.81	1288.47
466.183	1274.01
466.555	1317.85
466.928	1322.59
467.3	1355.13
467.672	1338.86
468.045	1378.41
468.417	1386.77
468.789	1436.49
469.161	1436.04
469.534	1450.95
469.906	1436.94
470.278	1469.93
470.65	1521.01
471.022	1556.48
471.394	1582.25
471.766	1566.2
472.138	1581.12
472.51	1625.64
472.882	1667.67
473.253	1678.52
473.625	1715.58
473.997	1751.73
474.369	1761.45
474.74	1749.47
475.112	1794.9
475.484	1819.75
475.855	1860.88
476.227	1844.16
476.598	1942.01
476.97	1946.53
477.341	1971.61
477.713	2006.19
478.084	2065.85
478.455	2105.17
478.827	2130.48
479.198	2171.38
479.569	2190.37
479.94	2248.9
480.311	2280.76
480.682	2356.46
481.053	2426.74
481.424	2452.05
481.795	2482.56
482.166	2505.61
482.537	2586.74
482.908	2643.01
483.279	2645.04
483.65	2705.83
484.021	2776.11
484.391	2788.99
484.762	2854.76
485.133	2856.56
485.503	2940.4
485.874	2998.25
486.244	3028.54
486.615	3102.43
486.985	3194.86
487.356	3219.49
487.726	3257
488.097	3349.88
488.467	3354.4
488.837	3456.32
489.207	3464.46
489.578	3560.5
489.948	3602.53
490.318	3631.23
490.688	3632.81
491.058	3720.04
491.428	3787.61
491.798	3826.93
492.168	3936.76
492.538	3932.69
492.908	3994.16
493.278	4022.41
493.648	4067.6
494.017	4142.86
494.387	4182.63
494.757	4233.25
495.126	4294.04
495.496	4329.97
495.866	4366.81
496.235	4397.99
496.605	4431.21
496.974	4501.49
497.344	4552.79
497.713	4553.02
498.082	4564.54
498.452	4660.58
498.821	4677.76
499.19	4706.23
499.559	4743.29
499.928	4791.43
500.298	4853.8
500.667	4828.26
501.036	4829.62
501.405	4920.69
501.774	4912.55
502.143	4953.46
502.512	4994.81
502.88	5054.92
503.249	5052.21
503.618	5059.22
503.987	5127.24
504.356	5194.35
504.724	5211.53
505.093	5189.84
505.462	5235.26
505.83	5265.99
506.199	5293.11
506.567	5360
506.936	5372.88
507.304	5447.68
507.672	5470.51
508.041	5495.59
508.409	5505.53
508.777	5551.41
509.145	5582.82
509.514	5562.25
509.882	5603.16
510.25	5605.19
510.618	5663.5
510.986	5652.2
511.354	5749.14
511.722	5783.49
512.09	5794.57
512.458	5828.24
512.826	5876.37
513.193	5907.78
513.561	5887.9
513.929	5918.18
514.297	5995.46
514.664	5950.04
515.032	6015.8
515.4	6025.97
515.767	6018.97
516.135	6101.68
516.502	6058.51
516.869	6202.24
517.237	6169.24
517.604	6163.14
517.972	6209.7
518.339	6204.72
518.706	6270.03
519.073	6274.78
519.44	6273.87
519.808	6361.1
520.175	6361.78
520.542	6386.64
520.909	6420.76
521.276	6486.3
521.643	6523.59
522.009	6557.71
522.376	6577.82
522.743	6563.13
523.11	6661.89
523.477	6720.42
523.843	6766.07
524.21	6759.06
524.577	6850.81
524.943	6877.7
525.31	6873.63
525.676	6927.87
526.043	6943.24
526.409	6951.82
526.776	7019.17
527.142	7032.95
527.508	7093.97
527.874	7206.28
528.241	7137.58
528.607	7213.96
528.973	7291.93
529.339	7250.57
529.705	7363.34
530.071	7334.86
530.437	7397.46
530.803	7427.29
531.169	7481.07
531.535	7448.98
531.901	7481.75
532.267	7580.73
532.632	7579.6
532.998	7599.26
533.364	7701.63
533.73	7704.35
534.095	7789.09
534.461	7757.45
534.826	7841.97
535.192	7827.73
535.557	7906.37
535.923	7864.57
536.288	7910.89
536.653	7992.7
537.019	7912.7
537.384	8003.77
537.749	8052.36
538.114	8071.12
538.479	8114.05
538.845	8138.23
539.21	8145.01
539.575	8209.42
539.94	8201.96
540.305	8287.83
540.67	8270.43
541.034	8296.19
541.399	8387.27
541.764	8372.12
542.129	8467.94
542.494	8436.08
542.858	8461.84
543.223	8491.67
543.587	8567.6
543.952	8516.3
544.316	8560.59
544.681	8565.11
545.045	8696.41
545.41	8752.91
545.774	8752.23
546.138	8707.26
546.503	8731.44
546.867	8787.03
547.231	8839.23
547.595	8878.78
547.959	8982.73
548.324	8904.99
548.688	8942.5
549.052	9029.51
549.416	9049.17
549.779	9038.32
550.143	9046.46
550.507	9097.98
550.871	9142.95
551.235	9176.4
551.599	9259.33
551.962	9270.86
552.326	9274.93
552.689	9302.5
553.053	9336.84
553.417	9346.34
553.78	9406.22
554.143	9432.44
554.507	9443.51
554.87	9482.6
555.234	9547.23
555.597	9528.7
555.96	9539.1
556.323	9566.9
556.686	9590.62
557.05	9614.35
557.413	9633.11
557.776	9767.34
558.139	9706.1
558.502	9804.4
558.865	9875.59
559.228	9928.02
559.59	9984.74
559.953	9909.71
560.316	9987.9
560.679	10007.11
561.041	10020.89
561.404	10091.85
561.767	10158.52
562.129	10135.47
562.492	10225.64
562.854	10199.87
563.217	10209.36
563.579	10243.04
563.941	10357.16
564.304	10362.35
564.666	10351.73
565.028	10486.19
565.39	10432.41
565.753	10496.36
566.115	10507.21
566.477	10637.38
566.839	10642.12
567.201	10707.88
567.563	10709.69
567.925	10763.25
568.287	10817.03
568.648	10831.49
569.01	10890.48
569.372	10894.54
569.734	10830.82
570.095	11094.54
570.457	11098.38
570.819	11128.44
571.18	11156.01
571.542	11230.13
571.903	11205.04
572.265	11262.22
572.626	11311.03
572.987	11443
573.349	11370.92
573.71	11542.66
574.071	11568.2
574.432	11554.64
574.794	11644.58
575.155	11671.47
575.516	11712.6
575.877	11877.12
576.238	11862.43
576.599	11974.97
576.96	12026.49
577.32	12101.07
577.681	12181.52
578.042	12317.11
578.403	12422.19
578.763	12449.53
579.124	12523.88
579.485	12689.07
579.845	12787.15
580.206	12926.13
580.566	13053.58
580.927	13197.99
581.287	13313.24
581.648	13395.04
582.008	13585.55
582.368	13649.95
582.728	13910.28
583.089	13994.35
583.449	14117.74
583.809	14244.74
584.169	14508.23
584.529	14652.86
584.889	14967.43
585.249	14985.74
585.609	15208.1
585.969	15515.89
586.329	15655.32
586.688	15882.89
587.048	16208.98
587.408	16295.31
587.768	16596.99
588.127	16743.88
588.487	16912.69
588.846	17269.97
589.206	17460.93
589.565	17714.48
589.925	18168.25
590.284	18234.92
590.643	18468.58
591.003	18899.53
591.362	19194.89
591.721	19414.09
592.08	19603.02
592.44	19960.07
592.799	20215.43
593.158	20576.78
593.517	20879.59
593.876	21244.78
594.235	21398
594.593	21662.17
594.952	21977.87
595.311	22220.8
595.67	22604.52
596.029	23142.13
596.387	23453.76
596.746	23590.71
597.104	23810.14
597.463	24127.19
597.822	24447.41
598.18	24706.84
598.538	24991.57
598.897	25430.21
599.255	25479.92
599.613	26139.34
599.972	26188.38
600.33	26634.7
600.688	26762.15
601.046	27091.86
601.404	27551.51
601.762	27655.91
602.12	28217.93
602.478	28306.74
602.836	28637.81
603.194	28816.11
603.552	29156.66
603.91	29186.04
604.268	29658.34
604.625	29774.95
604.983	30222.85
605.341	30307.37
605.698	30842.27
606.056	31041.36
606.413	31184.41
606.771	31681.57
607.128	31821.68
607.485	32011.95
607.843	32317.94
608.2	32553.18
608.557	32818.49
608.914	32909.33
609.272	33378.7
609.629	33478.58
609.986	33748.41
610.343	33872.02
610.7	34247.38
611.057	34332.8
611.414	34593.13
611.771	34776.85
612.127	35121.48
612.484	35201.25
612.841	35573.22
613.198	35571.86
613.554	35694.57
613.911	36111.51
614.267	36190.83
614.624	36372.29
614.98	36599.86
615.337	36797.59
615.693	37008.21
616.05	37137.7
616.406	37502.88
616.762	37498.82
617.118	37514.18
617.475	37679.15
617.831	37944.45
618.187	38118.01
618.543	38294.5
618.899	38573.36
619.255	38559.13
619.611	38663.08
619.967	38760.48
620.323	39120.92
620.678	38970.64
621.034	39078.44
621.39	39262.84
621.746	39282.95
622.101	39708.02
622.457	39516.39
622.812	39835.93
623.168	39862.6
623.523	39974.01
623.879	40298.52
624.234	40244.05
624.589	40269.82
624.945	40369.48
625.3	40505.06
625.655	40515.01
626.01	40590.49
626.365	40671.16
626.72	40725.85
627.075	40739.18
627.43	40822.12
627.785	40710.71
628.14	41011.27
628.495	41135.33
628.85	41082
629.205	40957.03
629.559	41325.83
629.914	41173.07
630.269	41153.64
630.623	41209.45
630.978	41255.33
631.332	41397.47
631.687	41469.79
632.041	41404.48
632.396	41510.01
632.75	41211.94
633.104	41522.21
633.459	41327.87
633.813	41522.44
634.167	41517.24
634.521	41479.73
634.875	41545.49
635.229	41418.94
635.583	41350.47
635.937	41564.47
636.291	41396.79
636.645	41482.44
636.999	41370.58
637.352	41516.34
637.706	41290.35
638.06	41471.82
638.413	41439.96
638.767	41369.22
639.121	41438.15
639.474	41309.56
639.828	41484.47
640.181	41478.6
640.534	41403.8
640.888	41282.67
641.241	41240.86
641.594	41235.89
641.947	41469.11
642.301	41239.96
642.654	41399.96
643.007	41304.82
643.36	41361.09
643.713	41309.56
644.066	41492.16
644.419	41116.57
644.771	40946.18
645.124	40443.82
645.477	40670.48
645.83	40310.27
646.182	40237.05
646.535	40113.89
646.888	40262.59
647.24	39910.05
647.593	40347.78
647.945	40159.54
648.298	39977.85
648.65	40030.73
649.002	39895.36
649.355	40065.08
649.707	40028.92
650.059	40164.28
650.411	40730.6
650.763	40576.25
651.115	41094.43
651.467	41016.24
651.819	40954.54
652.171	40951.15
652.523	40802.46
652.875	40922.46
653.227	40648.79
653.578	41068.67
653.93	40895.79
654.282	40636.36
654.633	40597.04
654.985	40725.4
655.337	40809.01
655.688	40679.52
656.039	40930.82
656.391	40475.01
656.742	40564.95
657.094	40703.03
657.445	40757.71
657.796	40717.49
658.147	40614.21
658.498	40525.4
658.849	40738.73
659.2	40658.28
659.551	40512.75
659.902	40538.96
660.253	40560.66
660.604	40554.78
660.955	40403.82
661.306	40547.1
661.656	40515.01
662.007	40523.37
662.358	40515.23
662.708	40635.68
663.059	40599.98
663.409	40141.46
663.76	40508
664.11	40471.17
664.461	40480.43
664.811	40705.74
665.161	40428.91
665.511	40403.6
665.862	40468.68
666.212	40444.05
666.562	40513.2
666.912	40467.33
667.262	40435.91
667.612	40437.72
667.962	40531.28
668.312	40401.56
668.662	40580.54
669.011	40438.17
669.361	40527.21
669.711	40337.61
670.06	40289.7
670.41	40317.05
670.76	40194.34
671.109	40414.67
671.459	40352.53
671.808	40289.48
672.157	40288.12
672.507	40040.22
672.856	40112.98
673.205	40185.53
673.554	40245.41
673.904	40194.79
674.253	40318.63
674.602	40202.7
674.951	39709.15
675.3	39542.83
675.649	40175.36
675.998	40091.06
676.346	40152.53
676.695	40247.44
677.044	39973.55
677.393	40023.5
677.741	40161.35
678.09	39943.72
678.438	39712.77
678.787	39906.44
679.135	39802.94
679.484	39613.11
679.832	39809.94
680.181	39613.79
680.529	39602.72
680.877	39506.67
681.225	39446.56
681.573	39744.41
681.922	39327.47
682.27	39331.99
682.618	39369.05
682.966	39239.79
683.314	39328.82
683.661	39287.02
684.009	39175.38
684.357	39108.27
684.705	39042.5
685.053	39020.58
685.4	39017.42
685.748	38876.18
686.095	38896.29
686.443	38852.23
686.79	38592.57
687.138	38781.95
687.485	38678.45
687.832	38565.91
688.18	38568.84
688.527	38364.1
688.874	38314.39
689.221	38257.67
689.568	38119.82
689.915	38188.06
690.262	38047.5
690.609	37955.98
690.956	37841.18
691.303	37925.02
691.65	37673.73
691.997	37667.17
692.344	37461.08
692.69	37290.01
693.037	37477.8
693.383	37166.4
693.73	37119.84
694.077	37026.96
694.423	37120.52
694.769	36903.8
695.116	36802.34
695.462	36811.15
695.808	36714.2
696.155	36853.41
696.501	36439.86
696.847	36432.63
697.193	36350.37
697.539	36489.13
697.885	36016.6
698.231	36012.75
698.577	36165.07
698.923	35976.37
699.269	35849.59
699.614	35643.72
699.96	35574.35
700.306	35639.2
700.651	35612.54
700.997	35400.57
701.342	35344.75
701.688	35338.87
702.033	35158.09
702.379	35193.57
702.724	35050.75
703.069	35107.47
703.415	34763.07
703.76	34787.25
704.105	34795.16
704.45	34615.5
704.795	34512
705.14	34361.05
705.485	34363.98
705.83	34210.99
706.175	34128.28
706.52	34108.85
706.865	33930.32
707.209	33977.1
707.554	33914.73
707.899	33829.31
708.243	33886.48
708.588	33767.39
708.932	33384.12
709.277	33385.03
709.621	33560.39
709.966	33226.84
710.31	33256.22
710.654	33092.83
710.998	33165.82
711.342	33237.46
711.687	33021.42
712.031	32881.99
712.375	32908.88
712.719	32919.95
713.063	32759.51
713.407	32897.58
713.75	32615.1
714.094	32665.5
714.438	32480.87
714.782	32492.85
715.125	32361.32
715.469	32417.37
715.812	32227.99
716.156	32164.95
716.499	32182.57
716.843	32284.04
717.186	31895.57
717.53	32191.16
717.873	32140.54
718.216	31997.49
718.559	31836.82
718.902	31698.29
719.246	31709.82
719.589	31674.56
719.932	31515.92
720.275	31426.21
720.617	31428.24
720.96	31545.3
721.303	31437.51
721.646	31443.61
721.989	31236.61
722.331	31268.47
722.674	31231.18
723.016	31205.65
723.359	31151.19
723.701	31108.93
724.044	30917.75
724.386	30798.65
724.729	30963.17
725.071	30969.04
725.413	30936.28
725.755	30831.42
726.097	30692.89
726.439	30495.61
726.782	30614.48
727.124	30665.78
727.465	30541.71
727.807	30473.46
728.149	30377.42
728.491	30357.54
728.833	30264.88
729.175	30171.33
729.516	30207.93
729.858	30209.29
730.199	30072.34
730.541	30044.55
730.882	30104.21
731.224	30187.82
731.565	29965.68
731.906	29950.77
732.248	29966.36
732.589	29816.31
732.93	29654.5
733.271	29743.54
733.612	29803.88
733.953	29852.69
734.294	29513.26
734.635	29573.37
734.976	29761.84
735.317	29513.72
735.658	29469.42
735.999	29499.03
736.339	29370.22
736.68	29462.19
737.021	29346.94
737.361	29276.43
737.702	29354.17
738.042	29189.88
738.383	29159.6
738.723	29198.02
739.063	29138.36
739.404	29172.71
739.744	28998.47
740.084	29011.36
740.424	29006.84
740.764	28917.12
741.104	28956.22
741.444	28766.39
741.784	28859.95
742.124	28800.97
742.464	28840.74
742.804	28654.08
743.143	28581.31
743.483	28566.62
743.823	28507.41
744.162	28479.17
744.502	28470.81
744.841	28418.83
745.181	28565.49
745.52	28366.85
745.86	28352.84
746.199	28304.48
746.538	28322.33
746.877	28353.97
747.216	28255.67
747.556	28216.12
747.895	28202.11
748.234	28045.28
748.573	28173.19
748.911	28086.86
749.25	27988.56
749.589	27895
749.928	27970.48
750.267	27879.63
750.605	27820.2
750.944	27779.75
751.283	27633.31
751.621	27796.25
751.96	27579.76
752.298	27614.1
752.636	27614.1
752.975	27566.2
753.313	27384.51
753.651	27477.84
753.989	27284.4
754.327	27330.04
754.666	27062.25
755.004	27248.92
755.342	27293.66
755.679	27129.37
756.017	27041.46
756.355	27111.52
756.693	26847.8
757.031	26932.31
757.368	26693.22
757.706	26808.25
758.044	26733.9
758.381	26701.59
758.719	26586.33
759.056	26658.65
759.394	26500.24
759.731	26417.98
