Data from hue_50_FLMS001491_50.txt Node
Date: Mon Feb 06 15:10:12 GMT 2017
User: dcchb
Spectrometer: FLMS00149
Trigger mode: 0
Integration Time (sec): 2.000000E-2
Scans to average: 10
Electric dark correction enabled: true
Nonlinearity correction enabled: false
Boxcar width: 0
XAxis mode: Wavelengths
Number of Pixels in Spectrum: 2048
>>>>>Begin Spectral Data<<<<<
341.393	-1.16
341.776	-1.16
342.16	-1.16
342.543	-62.17
342.927	-52.46
343.31	-75.96
343.693	-65.11
344.077	-65.11
344.46	-65.34
344.843	-47.26
345.226	-57.43
345.61	-27.6
345.993	-17.65
346.376	-14.27
346.759	15.79
347.142	45.17
347.525	37.94
347.908	66.64
348.291	79.07
348.674	89.91
349.057	101.21
349.44	107.31
349.823	152.06
350.206	175.11
350.588	185.5
350.971	221.21
351.354	235.9
351.737	232.73
352.119	267.54
352.502	265.95
352.884	272.96
353.267	268.89
353.65	309.34
354.032	284.71
354.414	318.16
354.797	315.44
355.179	322.9
355.562	326.06
355.944	319.51
356.326	337.59
356.709	349.12
357.091	349.12
357.473	324.48
357.855	349.79
358.238	346.63
358.62	351.6
359.002	353.63
359.384	344.14
359.766	347.53
360.148	341.66
360.53	326.74
360.912	349.79
361.294	339.62
361.676	333.75
362.057	340.98
362.439	333.75
362.821	336.46
363.203	312.28
363.584	314.09
363.966	324.48
364.348	307.99
364.729	329.45
365.111	326.52
365.493	324.93
365.874	309.79
366.256	320.42
366.637	325.39
367.019	334.65
367.4	335.33
367.781	314.54
368.163	299.85
368.544	322.68
368.925	340.75
369.306	311.6
369.688	319.06
370.069	312.28
370.45	317.25
370.831	329.23
371.212	322.9
371.593	311.83
371.974	315.44
372.355	304.14
372.736	319.51
373.117	331.49
373.498	313.18
373.879	319.96
374.26	324.03
374.641	322.68
375.021	330.58
375.402	319.29
375.783	350.47
376.163	326.52
376.544	328.78
376.925	347.76
377.305	334.65
377.686	328.78
378.066	337.36
378.447	346.4
378.827	338.49
379.208	331.26
379.588	324.93
379.968	334.65
380.349	329.91
380.729	339.85
381.109	354.09
381.489	351.6
381.87	332.84
382.25	346.4
382.63	344.37
383.01	323.35
383.39	329.91
383.77	332.17
384.15	339.85
384.53	335.56
384.91	349.57
385.29	360.87
385.67	361.77
386.049	342.79
386.429	354.99
386.809	355.44
387.189	340.3
387.568	373.3
387.948	327.19
388.328	348.44
388.707	353.63
389.087	369.45
389.466	367.19
389.846	372.62
390.225	357.48
390.605	344.6
390.984	348.21
391.363	357.25
391.743	362.45
392.122	360.41
392.501	369.23
392.881	362
393.26	351.6
393.639	370.58
394.018	361.77
394.397	373.52
394.776	371.26
395.155	379.85
395.534	384.14
395.913	365.16
396.292	392.73
396.671	370.81
397.05	384.59
397.429	366.52
397.808	354.76
398.186	372.17
398.565	360.64
398.944	378.94
399.323	381.66
399.701	390.02
400.08	364.71
400.458	378.94
400.837	373.3
401.215	379.85
401.594	387.31
401.972	395.67
402.351	420.3
402.729	390.02
403.107	386.4
403.486	401.54
403.864	381.88
404.242	387.31
404.62	399.96
404.999	415.78
405.377	414.65
405.755	398.83
406.133	403.12
406.511	407.19
406.889	415.1
407.267	394.09
407.645	412.84
408.023	423.69
408.401	404.48
408.779	414.65
409.156	415.55
409.534	425.72
409.912	430.69
410.29	431.15
410.667	451.94
411.045	439.06
411.422	427.53
411.8	426.63
412.178	420.53
412.555	432.73
412.933	431.15
413.31	458.49
413.687	481.77
414.065	446.97
414.442	472.05
414.819	447.87
415.197	467.98
415.574	450.36
415.951	456.46
416.328	471.6
416.705	472.5
417.082	471.6
417.46	463.46
417.837	470.69
418.214	470.02
418.591	482.67
418.967	484.25
419.344	472.28
419.721	497.81
420.098	489.68
420.475	496
420.852	486.29
421.228	488.32
421.605	496
421.982	504.82
422.358	492.39
422.735	491.94
423.111	510.01
423.488	498.04
423.864	518.15
424.241	524.93
424.617	518.15
424.994	517.25
425.37	516.12
425.746	536.23
426.123	513.63
426.499	539.17
426.875	541.43
427.251	533.97
427.627	560.63
428.003	532.84
428.379	541.65
428.756	575.32
429.132	560.41
429.507	543.91
429.883	551.14
430.259	567.41
430.635	569.67
431.011	580.97
431.387	592.95
431.763	575.32
432.138	587.75
432.514	595.89
432.89	560.41
433.265	569.67
433.641	585.72
434.016	613.97
434.392	587.75
434.767	589.56
435.143	615.1
435.518	646.06
435.894	625.94
436.269	626.62
436.644	636.57
437.02	639.5
437.395	647.41
437.77	655.1
438.145	653.51
438.52	645.83
438.895	684.47
439.271	669.56
439.646	674.76
440.021	686.51
440.395	653.29
440.77	673.4
441.145	684.93
441.52	699.84
441.895	686.96
442.27	691.03
442.645	686.28
443.019	693.29
443.394	678.37
443.769	720.18
444.143	710.01
444.518	708.2
444.892	726.96
445.267	716.11
445.641	730.12
446.016	734.19
446.39	732.83
446.764	742.1
447.139	745.04
447.513	747.97
447.887	738.26
448.262	739.84
448.636	743.68
449.01	773.51
449.384	747.52
449.758	750.01
450.132	794.3
450.506	768.77
450.88	785.71
451.254	780.29
451.628	790.69
452.002	785.71
452.376	786.17
452.75	783.45
453.123	833.17
453.497	831.14
453.871	820.74
454.244	829.55
454.618	875.2
454.992	851.02
455.365	822.77
455.739	861.42
456.112	886.73
456.486	857.8
456.859	895.32
457.232	883.34
457.606	877.46
457.979	899.16
458.352	926.28
458.725	954.3
459.099	923.56
459.472	926.73
459.845	973.05
460.218	983.67
460.591	988.19
460.964	961.98
461.337	997.69
461.71	1000.17
462.083	1027.29
462.456	1009.89
462.829	1034.07
463.201	1032.94
463.574	1049.21
463.947	1071.13
464.32	1082.66
464.692	1105.03
465.065	1102.99
465.438	1129.43
465.81	1150.22
466.183	1150.22
466.555	1162.2
466.928	1165.36
467.3	1182.09
467.672	1227.74
468.045	1229.32
468.417	1248.07
468.789	1239.49
469.161	1261.86
469.534	1308.19
469.906	1318.81
470.278	1349.99
470.65	1366.49
471.022	1418.92
471.394	1441.29
471.766	1447.39
472.138	1483.55
472.51	1507.5
472.882	1484.23
473.253	1558.35
473.625	1586.37
473.997	1644.45
474.369	1644.67
474.74	1687.61
475.112	1700.27
475.484	1747.72
475.855	1802.18
476.227	1823.2
476.598	1899.81
476.97	1962.18
477.341	1987.04
477.713	2036.3
478.084	2078.11
478.455	2151.1
478.827	2204.43
479.198	2231.78
479.569	2296.18
479.94	2366.69
480.311	2428.61
480.682	2542.28
481.053	2618.66
481.424	2666.12
481.795	2731.2
482.166	2832.44
482.537	2882.38
482.908	2998.54
483.279	3010.97
483.65	3140.91
484.021	3261.35
484.391	3338.42
484.762	3405.98
485.133	3471.74
485.503	3573.66
485.874	3695.02
486.244	3760.32
486.615	3893.88
486.985	3990.15
487.356	4067.89
487.726	4226.08
488.097	4373.42
488.467	4406.64
488.837	4545.84
489.207	4706.29
489.578	4763.69
489.948	4939.73
490.318	5052.72
490.688	5096.79
491.058	5249.55
491.428	5425.14
491.798	5485.25
492.168	5713.27
492.538	5742.65
492.908	5864.68
493.278	6050.43
493.648	6120.94
494.017	6247.94
494.387	6376.3
494.757	6491.1
495.126	6650.87
495.496	6727.48
495.866	6915.72
496.235	6995.27
496.605	7157.3
496.974	7218.31
497.344	7330.85
497.713	7499.66
498.082	7594.8
498.452	7786.89
498.821	7902.36
499.19	7930.16
499.559	8125.63
499.928	8219.87
500.298	8325.85
500.667	8405.17
501.036	8523.14
501.405	8712.29
501.774	8715
502.143	8872.73
502.512	8945.5
502.88	9049.45
503.249	9193.4
503.618	9249.67
503.987	9404.02
504.356	9511.36
504.724	9629.32
505.093	9701.86
505.462	9762.43
505.83	9921.07
506.199	10117.9
506.567	10182.08
506.936	10214.17
507.304	10439.25
507.672	10534.84
508.041	10482.86
508.409	10668.62
508.777	10829.97
509.145	10929.18
509.514	10929.63
509.882	11022.96
510.25	11182.95
510.618	11302.95
510.986	11393.34
511.354	11541.36
511.722	11633.79
512.09	11734.35
512.458	11751.98
512.826	11910.39
513.193	11947.91
513.561	12067
513.929	12200.33
514.297	12321.46
514.664	12378.86
515.032	12472.86
515.4	12614.56
515.767	12670.83
516.135	12772.97
516.502	12749.92
516.869	13043.02
517.237	13075.33
517.604	13013.87
517.972	13329.11
518.339	13347.87
518.706	13454.31
519.073	13434.19
519.44	13591.7
519.808	13711.02
520.175	13750.12
520.542	13941.53
520.909	14050.45
521.276	14007.74
521.643	14158.92
522.009	14331.35
522.376	14423.55
522.743	14494.73
523.11	14612.69
523.477	14838
523.843	14836.42
524.21	15088.61
524.577	15131.33
524.943	15209.97
525.31	15269.85
525.676	15390.98
526.043	15527.93
526.409	15674.81
526.776	15830.97
527.142	15857.18
527.508	16038.42
527.874	16025.09
528.241	16158.42
528.607	16170.17
528.973	16327
529.339	16371.74
529.705	16640.21
530.071	16734.9
530.437	16748.23
530.803	16957.04
531.169	17027.32
531.535	17040.2
531.901	17063.25
532.267	17182.57
532.632	17261.21
532.998	17345.05
533.364	17428.89
533.73	17419.17
534.095	17708.43
534.461	17663.46
534.826	17872.95
535.192	17858.49
535.557	18001.31
535.923	17966.05
536.288	18010.35
536.653	18234.07
537.019	18218.02
537.384	18268.64
537.749	18331.02
538.114	18413.05
538.479	18491.46
538.845	18587.73
539.21	18607.17
539.575	18778.46
539.94	18638.35
540.305	18846.93
540.67	18770.78
541.034	18980.26
541.399	19050.54
541.764	19123.54
542.129	19122.86
542.494	19159.92
542.858	19237.21
543.223	19263.87
543.587	19487.37
543.952	19484.88
544.316	19506.58
544.681	19638.1
545.045	19717.42
545.41	19753.12
545.774	19803.29
546.138	19829.05
546.503	19911.54
546.867	19919.67
547.231	20062.27
547.595	20047.58
547.959	20228.82
548.324	20116.96
548.688	20241.93
549.052	20324.86
549.416	20362.37
549.779	20445.08
550.143	20447.34
550.507	20662.71
550.871	20654.34
551.235	20631.97
551.599	20923.72
551.962	20953.32
552.326	21007.55
552.689	21037.61
553.053	21102.69
553.417	21104.95
553.78	21480.99
554.143	21323.03
554.507	21426.3
554.87	21442.12
555.234	21712.17
555.597	21563.47
555.96	21779.06
556.323	21784.94
556.686	21823.8
557.05	22013.86
557.413	22068.32
557.776	22171.14
558.139	22200.74
558.502	22296.33
558.865	22358.48
559.228	22538.59
559.59	22621.3
559.953	22628.08
560.316	22814.97
560.679	22836.21
561.041	23038.46
561.404	23077.33
561.767	23239.81
562.129	23179.02
562.492	23347.83
562.854	23404.33
563.217	23401.62
563.579	23489.52
563.941	23665.34
564.304	23741.49
564.666	23811.1
565.028	23979.45
565.39	23976.97
565.753	24151.2
566.115	24315.26
566.477	24271.42
566.839	24407.47
567.201	24524.52
567.563	24620.12
567.925	24698.08
568.287	24787.57
568.648	24882.03
569.01	25009.26
569.372	25110.27
569.734	25182.36
570.095	25244.28
570.457	25322.7
570.819	25539.41
571.18	25432.98
571.542	25624.16
571.903	25691.95
572.265	25849.91
572.626	25885.39
572.987	25962.45
573.349	26090.81
573.71	26184.14
574.071	26272.05
574.432	26197.7
574.794	26532.38
575.155	26646.28
575.516	26571.93
575.877	26807.63
576.238	26693.28
576.599	26882.43
576.96	26957
577.32	27040.39
577.681	27076.32
578.042	27270.44
578.403	27265.02
578.763	27288.07
579.124	27485.35
579.485	27575.97
579.845	27775.96
580.206	27722.63
580.566	27746.81
580.927	28030.42
581.287	28022.51
581.648	28056.86
582.008	28336.63
582.368	28325.55
582.728	28343.63
583.089	28484.87
583.449	28425.21
583.809	28676.05
584.169	28755.15
584.529	28702.72
584.889	29018.87
585.249	28937.74
585.609	28924.63
585.969	29291.4
586.329	29199.43
586.688	29354.68
587.048	29466.77
587.408	29460.67
587.768	29539.53
588.127	29672.64
588.487	29738.17
588.846	29932.07
589.206	29920.99
589.565	29885.97
589.925	30136.58
590.284	30126.64
590.643	30357.14
591.003	30572.95
591.362	30627.87
591.721	30664.93
592.08	30741.54
592.44	30965.71
592.799	31016.56
593.158	31039.38
593.517	31121.64
593.876	31142.43
594.235	31270.34
594.593	31255.2
594.952	31443.44
595.311	31538.8
595.67	31559.14
596.029	31740.61
596.387	31809.98
596.746	32022.63
597.104	31849.53
597.463	32058.56
597.822	32219.24
598.18	32078
598.538	32111.67
598.897	32362.06
599.255	32210.88
599.613	32751.43
599.972	32609.51
600.33	32868.71
600.688	32646.57
601.046	32816.06
601.404	33104.86
601.762	32996.62
602.12	33203.84
602.478	33336.5
602.836	33333.11
603.194	33216.05
603.552	33430.96
603.91	33350.51
604.268	33482.26
604.625	33510.5
604.983	33709.59
605.341	33644.96
605.698	33797.73
606.056	33973.32
606.413	33949.36
606.771	34059.42
607.128	34091.05
607.485	34134.67
607.843	34155.01
608.2	34275.23
608.557	34461.66
608.914	34408.33
609.272	34641.32
609.629	34699.17
609.986	34761.32
610.343	34673.41
610.7	35058.03
611.057	34868.43
611.414	34994.53
611.771	35081.99
612.127	35238.59
612.484	35225.94
612.841	35382.54
613.198	35335.77
613.554	35393.39
613.911	35604.91
614.267	35553.39
614.624	35537.34
614.98	35648.3
615.337	35967.61
615.693	35871.57
616.05	35796.54
616.406	36139.59
616.762	35985.92
617.118	35953.15
617.475	36091.68
617.831	36068.85
618.187	36222.07
618.543	36177.33
618.899	36577.32
619.255	36428.39
619.611	36336.42
619.967	36485.57
620.323	36636.97
620.678	36517.2
621.034	36572.34
621.39	36601.5
621.746	36565.56
622.101	36944.54
622.457	36693.7
622.812	36820.47
623.168	36899.79
623.523	36876.29
623.879	36951.09
624.234	36818.44
624.589	37146.34
624.945	37095.49
625.3	37131.42
625.655	37025.44
626.01	37206.45
626.365	37267.24
626.72	37114.7
627.075	37119.9
627.43	37187.02
627.785	37099.34
628.14	37255.04
628.495	37254.36
628.85	37342.94
629.205	37120.35
629.559	37429.27
629.914	37247.81
630.269	37195.15
630.623	37173.46
630.978	37078.54
631.332	37271.53
631.687	37429.72
632.041	37118.32
632.396	37290.74
632.75	37058.43
633.104	37071.09
633.459	36959
633.813	37111.31
634.167	37075.16
634.521	37058.43
634.875	37109.05
635.229	37056.17
635.583	36939.79
635.937	36847.14
636.291	36888.27
636.645	36889.17
636.999	36890.98
637.352	37085.32
637.706	36863.18
638.06	36997.87
638.413	36727.82
638.767	36773.24
639.121	36862.51
639.474	36628.84
639.828	36799.23
640.181	36706.8
640.534	36770.08
640.888	36670.19
641.241	36602.63
641.594	36574.6
641.947	36610.76
642.301	36560.59
642.654	36587.71
643.007	36519.92
643.36	36508.84
643.713	36490.31
644.066	36721.72
644.419	36397.43
644.771	36270.43
645.124	35833.38
645.477	35752.25
645.83	35513.61
646.182	35474.52
646.535	35341.19
646.888	35467.97
647.24	35225.49
647.593	35456.21
647.945	35307.97
648.298	35163.79
648.65	35123.12
649.002	35082.89
649.355	35298.48
649.707	35224.36
650.059	35244.02
650.411	35588.87
650.763	35647.62
651.115	36096.65
651.467	35917.22
651.819	35961.96
652.171	35897.78
652.523	35831.35
652.875	35986.82
653.227	35653.27
653.578	35949.76
653.93	35871.8
654.282	35769.88
654.633	35687.39
654.985	35728.98
655.337	35704.34
655.688	35758.35
656.039	35935.3
656.391	35573.5
656.742	35673.84
657.094	35621.86
657.445	35822.08
657.796	35712.03
658.147	35591.8
658.498	35592.26
658.849	35614.85
659.2	35534.4
659.551	35534.4
659.902	35636.77
660.253	35585.25
660.604	35637.68
660.955	35348.42
661.306	35629.09
661.656	35511.81
662.007	35385.93
662.358	35360.85
662.708	35464.12
663.059	35429.77
663.409	35244.47
663.76	35539.83
664.11	35293.96
664.461	35384.13
664.811	35461.64
665.161	35461.41
665.511	35296.67
665.862	35449.89
666.212	35432.71
666.562	35449.66
666.912	35389.55
667.262	35367.86
667.612	35357.23
667.962	35359.49
668.312	35384.8
668.662	35405.37
669.011	35428.42
669.361	35400.62
669.711	35370.12
670.06	35242.89
670.41	35114.98
670.76	35221.87
671.109	35318.82
671.459	35157.01
671.808	35058.03
672.157	35282.89
672.507	35157.24
672.856	34964.02
673.205	35128.54
673.554	35147.75
673.904	34912.5
674.253	35114.53
674.602	35105.04
674.951	34680.64
675.3	34470.93
675.649	34999.73
675.998	34886.74
676.346	34958.6
676.695	35117.69
677.044	34699.4
677.393	34831.37
677.741	34920.64
678.09	35005.83
678.438	34733.75
678.787	34810.13
679.135	34761.77
679.484	34655.33
679.832	34753.41
680.181	34466.86
680.529	34764.48
680.877	34560.87
681.225	34460.76
681.573	34804.25
681.922	34369.46
682.27	34342.12
682.618	34304.38
682.966	34156.14
683.314	34388.45
683.661	34193.65
684.009	34008.34
684.357	34046.76
684.705	33882.02
685.053	34074.1
685.4	33938.29
685.748	33815.81
686.095	33955.01
686.443	33669.59
686.79	33621.01
687.138	33755.92
687.485	33614.91
687.832	33523.61
688.18	33634.79
688.527	33472.76
688.874	33336.5
689.221	33406.78
689.568	33195.94
689.915	33161.13
690.262	33149.16
690.609	33010.86
690.956	32937.41
691.303	33079.55
691.65	32704.42
691.997	32854.02
692.344	32648.6
692.69	32512.56
693.037	32637.98
693.383	32331.78
693.73	32376.07
694.077	32173.14
694.423	32183.31
694.769	32110.77
695.116	32041.39
695.462	32005.46
695.808	31921.17
696.155	31896.08
696.501	31731.34
696.847	31855.41
697.193	31485.25
697.539	31675.3
697.885	31454.29
698.231	31294.97
698.577	31250
698.923	31290.22
699.269	31061.98
699.614	30961.42
699.96	30961.87
700.306	30972.26
700.651	30771.82
700.997	30688.2
701.342	30566.17
701.688	30586.74
702.033	30620.64
702.379	30603.69
702.724	30389.68
703.069	30363.47
703.415	29916.93
703.76	30075.57
704.105	30147.88
704.45	30133.87
704.795	29830.83
705.14	29797.38
705.485	29808.45
705.83	29676.25
706.175	29742.24
706.52	29675.35
706.865	29446.43
707.209	29424.73
707.554	29469.93
707.899	29351.97
708.243	29331.18
708.588	29330.73
708.932	28998.08
709.277	29063.61
709.621	29053.67
709.966	28804.86
710.31	28950.85
710.654	28681.03
710.998	28727.8
711.342	28746.11
711.687	28602.84
712.031	28540.92
712.375	28435.38
712.719	28452.56
713.063	28338.44
713.407	28433.35
713.75	28372.33
714.094	28284.43
714.438	28222.05
714.782	28142.06
715.125	28065.67
715.469	28067.71
715.812	28016.18
716.156	27854.38
716.499	27803.31
716.843	27831.33
717.186	27616.65
717.53	27800.37
717.873	27797.21
718.216	27638.57
718.559	27582.52
718.902	27425.01
719.246	27472.92
719.589	27452.36
719.932	27292.36
720.275	27327.61
720.617	27343.66
720.96	27134.63
721.303	27165.36
721.646	27211.46
721.989	26845.37
722.331	27114.29
722.674	26977.57
723.016	27069.09
723.359	26867.51
723.701	26894.63
724.044	26766.05
724.386	26671.59
724.729	26878.14
725.071	26743.68
725.413	26650.12
725.755	26606.73
726.097	26702.77
726.439	26398.83
726.782	26396.57
727.124	26658.48
727.465	26406.96
727.807	26389.33
728.149	26270.92
728.491	26262.56
728.833	26208.77
729.175	26228.43
729.516	26120.19
729.858	26201.09
730.199	26133.52
730.541	25969.23
730.882	26044.26
731.224	26204.03
731.565	25935.56
731.906	25842
732.248	25932.4
732.589	25820.31
732.93	25633.65
733.271	25766.98
733.612	25845.62
733.953	25743.7
734.294	25626.19
734.635	25648.34
734.976	25665.51
735.317	25530.37
735.658	25453.77
735.999	25518.85
736.339	25397.27
736.68	25515.01
737.021	25344.16
737.361	25238.86
737.702	25350.04
738.042	25247.9
738.383	25262.81
738.723	25259.19
739.063	25104.85
739.404	25207.44
739.744	25129.48
740.084	25003.38
740.424	25145.75
740.764	24910.73
741.104	25050.39
741.444	24876.15
741.784	24827.79
742.124	24946.21
742.464	24931.07
742.804	24750.73
743.143	24665.09
743.483	24784.4
743.823	24563.85
744.162	24622.6
744.502	24609.04
744.841	24536.28
745.181	24577.63
745.52	24547.35
745.86	24445.2
746.199	24469.61
746.538	24487.01
746.877	24484.75
747.216	24351.2
747.556	24178.77
747.895	24320.69
748.234	24168.6
748.573	24145.1
748.911	24073.92
749.25	24117.3
749.589	23972.22
749.928	24124.54
750.267	24043.63
750.605	23947.14
750.944	23916.18
751.283	23800.93
751.621	23898.78
751.96	23713.47
752.298	23721.16
752.636	23749.4
752.975	23566.81
753.313	23585.34
753.651	23580.59
753.989	23536.08
754.327	23466.47
754.666	23402.52
755.004	23456.76
755.342	23313.48
755.679	23299.47
756.017	23257.67
756.355	23256.99
756.693	23130.66
757.031	23151.91
