Data from hue_60_FLMS001491_72.txt Node
Date: Mon Feb 06 15:17:53 GMT 2017
User: dcchb
Spectrometer: FLMS00149
Trigger mode: 0
Integration Time (sec): 2.000000E-2
Scans to average: 10
Electric dark correction enabled: true
Nonlinearity correction enabled: false
Boxcar width: 0
XAxis mode: Wavelengths
Number of Pixels in Spectrum: 2048
>>>>>Begin Spectral Data<<<<<
341.393	-14.14
341.776	-14.14
342.16	-14.14
342.543	-54.81
342.927	-89.62
343.31	-73.57
343.693	-65.66
344.077	-79.45
344.46	-70.63
344.843	-60.01
345.226	-38.77
345.61	-38.77
345.993	-4.19
346.376	-22.05
346.759	34
347.142	18.18
347.525	24.73
347.908	64.5
348.291	98.85
348.674	105.86
349.057	106.99
349.44	137.04
349.823	166.87
350.206	160.77
350.588	217.72
350.971	222.69
351.354	242.35
351.737	252.3
352.119	260.66
352.502	274.89
352.884	280.32
353.267	278.06
353.65	285.97
354.032	299.3
354.414	308.34
354.797	348.34
355.179	309.02
355.562	349.02
355.944	354.44
356.326	353.99
356.709	347.66
357.091	359.86
357.473	360.99
357.855	337.72
358.238	341.11
358.62	340.2
359.002	353.54
359.384	350.82
359.766	354.89
360.148	372.97
360.53	374.1
360.912	328.9
361.294	350.6
361.676	337.27
362.057	343.14
362.439	354.67
362.821	322.58
363.203	343.82
363.584	321.9
363.966	350.15
364.348	318.73
364.729	328.23
365.111	335.68
365.493	334.78
365.874	319.64
366.256	302.24
366.637	319.19
367.019	329.36
367.4	349.24
367.781	316.93
368.163	337.27
368.544	325.74
368.925	313.31
369.306	323.25
369.688	299.75
370.069	321.45
370.45	315.12
370.831	328
371.212	338.17
371.593	320.99
371.974	339.07
372.355	334.33
372.736	317.38
373.117	322.12
373.498	326.64
373.879	331.39
374.26	323.48
374.641	318.51
375.021	325.97
375.402	321.45
375.783	326.19
376.163	331.62
376.544	343.14
376.925	325.74
377.305	325.29
377.686	307.66
378.066	349.47
378.447	329.81
378.827	325.74
379.208	336.36
379.588	323.93
379.968	354.21
380.349	329.58
380.729	343.59
381.109	361.9
381.489	356.25
381.87	335.23
382.25	346.08
382.63	336.59
383.01	351.5
383.39	352.41
383.77	357.6
384.15	341.56
384.53	339.98
384.91	345.63
385.29	352.41
385.67	348.79
386.049	370.26
386.429	365.29
386.809	347.89
387.189	346.98
387.568	349.24
387.948	346.98
388.328	356.93
388.707	352.41
389.087	372.07
389.466	369.58
389.846	378.17
390.225	344.95
390.605	364.16
390.984	377.49
391.363	382.69
391.743	380.88
392.122	358.96
392.501	369.58
392.881	369.35
393.26	380.65
393.639	381.78
394.018	394.21
394.397	368
394.776	391.05
395.155	381.78
395.534	385.63
395.913	372.52
396.292	402.12
396.671	375
397.05	377.72
397.429	380.2
397.808	394.89
398.186	372.29
398.565	376.81
398.944	405.29
399.323	386.08
399.701	406.42
400.08	379.98
400.458	389.47
400.837	394.89
401.215	394.66
401.594	410.26
401.972	411.61
402.351	409.81
402.729	417.94
403.107	403.25
403.486	432.63
403.864	413.87
404.242	420.2
404.62	422.01
404.999	397.38
405.377	438.96
405.755	419.52
406.133	424.27
406.511	421.56
406.889	440.31
407.267	424.72
407.645	450.26
408.023	418.17
408.401	411.61
408.779	445.28
409.156	442.57
409.534	415
409.912	460.88
410.29	437.83
410.667	453.87
411.045	455
411.422	465.17
411.8	447.09
412.178	464.49
412.555	495.45
412.933	456.58
413.31	479.18
413.687	480.09
414.065	479.63
414.442	482.8
414.819	495.91
415.197	474.89
415.574	474.44
415.951	496.81
416.328	488.9
416.705	498.39
417.082	491.61
417.46	494.32
417.837	477.83
418.214	485.96
418.591	506.3
418.967	498.84
419.344	507.43
419.721	512.63
420.098	514.66
420.475	530.03
420.852	534.1
421.228	530.93
421.605	539.29
421.982	538.16
422.358	539.97
422.735	530.48
423.111	541.78
423.488	545.62
423.864	531.16
424.241	551.27
424.617	559.86
424.994	554.43
425.37	571.84
425.746	571.16
426.123	562.34
426.499	556.02
426.875	576.81
427.251	594.89
427.627	597.6
428.003	591.95
428.379	608.67
428.756	583.81
429.132	607.54
429.507	606.86
429.883	613.87
430.259	599.18
430.635	610.03
431.011	588.11
431.387	605.96
431.763	636.92
432.138	631.49
432.514	622.23
432.89	637.37
433.265	649.12
433.641	643.25
434.016	648.9
434.392	687.09
434.767	682.34
435.143	663.58
435.518	664.71
435.894	688.22
436.269	678.95
436.644	685.73
437.02	687.09
437.395	702.45
437.77	714.43
438.145	712.4
438.52	706.07
438.895	715.33
439.271	714.43
439.646	703.13
440.021	733.64
440.395	719.4
440.77	751.49
441.145	734.32
441.52	756.46
441.895	752.17
442.27	735.45
442.645	754.2
443.019	759.85
443.394	758.5
443.769	796.01
444.143	757.37
444.518	759.17
444.892	782
445.267	782.45
445.641	804.37
446.016	817.25
446.39	794.43
446.764	811.6
447.139	817.93
447.513	833.07
447.887	829
448.262	817.25
448.636	834.2
449.01	831.49
449.384	862.9
449.758	821.55
450.132	867.42
450.506	835.78
450.88	879.85
451.254	868.1
451.628	877.59
452.002	868.32
452.376	866.52
452.75	896.8
453.123	889.79
453.497	902.22
453.871	922.79
454.244	902
454.618	911.26
454.992	939.06
455.365	942.9
455.739	952.84
456.112	1010.24
456.486	974.54
456.859	965.95
457.232	996.23
457.606	986.51
457.979	986.97
458.352	1023.35
458.725	1043.46
459.099	1047.98
459.472	1046.4
459.845	1059.51
460.218	1090.69
460.591	1066.74
460.964	1089.34
461.337	1118.71
461.71	1144.25
462.083	1166.62
462.456	1162.33
462.829	1153.29
463.201	1160.97
463.574	1168.43
463.947	1227.41
464.32	1234.87
464.692	1229.67
465.065	1259.95
465.438	1268.54
465.81	1295.43
466.183	1322.1
466.555	1331.36
466.928	1374.75
467.3	1304.25
467.672	1368.88
468.045	1440.06
468.417	1412.94
468.789	1436.22
469.161	1471.92
469.534	1473.73
469.906	1506.5
470.278	1535.65
470.65	1540.4
471.022	1592.15
471.394	1603.22
471.766	1632.6
472.138	1667.17
472.51	1715.31
472.882	1778.58
473.253	1796.44
473.625	1793.5
473.997	1887.96
474.369	1878.02
474.74	1924.34
475.112	1966.15
475.484	1975.64
475.855	2060.38
476.227	2140.16
476.598	2151
476.97	2218.57
477.341	2298.8
477.713	2346.25
478.084	2381.96
478.455	2458.11
478.827	2547.38
479.198	2605.68
479.569	2641.84
479.94	2754.15
480.311	2806.13
480.682	2918.21
481.053	3002.73
481.424	3033.01
481.795	3155.5
482.166	3265.78
482.537	3309.84
482.908	3457.18
483.279	3543.28
483.65	3643.17
484.021	3745.31
484.391	3842.03
484.762	3902.6
485.133	4044.51
485.503	4149.82
485.874	4312.08
486.244	4378.74
486.615	4498.06
486.985	4678.17
487.356	4777.6
487.726	4928.33
488.097	5077.48
488.467	5182.79
488.837	5346.85
489.207	5491.25
489.578	5683.79
489.948	5741.64
490.318	5931.02
490.688	5999.04
491.058	6171.69
491.428	6352.25
491.798	6516.99
492.168	6700.04
492.538	6867.94
492.908	7006.69
493.278	7168.95
493.648	7300.47
494.017	7463.18
494.387	7652.78
494.757	7780.23
495.126	7914.24
495.496	8055.93
495.866	8224.74
496.235	8358.75
496.605	8565.75
496.974	8659.08
497.344	8931.39
497.713	9075.57
498.082	9183.59
498.452	9419.29
498.821	9509
499.19	9641.43
499.559	9811.14
499.928	9947.18
500.298	10055.2
500.667	10327.28
501.036	10427.4
501.405	10597.33
501.774	10660.84
502.143	10894.95
502.512	10957.55
502.88	11169.07
503.249	11282.74
503.618	11365.45
503.987	11610.19
504.356	11650.41
504.724	11827.81
505.093	11937.19
505.462	12163.17
505.83	12298.76
506.199	12436.83
506.567	12668.24
506.936	12726.32
507.304	12915.24
507.672	13085.63
508.041	13138.74
508.409	13245.85
508.777	13466.64
509.145	13676.58
509.514	13730.81
509.882	13947.08
510.25	13959.05
510.618	14162.21
510.986	14219.84
511.354	14454.63
511.722	14632.48
512.09	14780.5
512.458	14790.67
512.826	15072.92
513.193	15141.85
513.561	15253.94
513.929	15412.8
514.297	15573.93
514.664	15739.35
515.032	15785.67
515.4	15937.76
515.767	16148.83
516.135	16216.62
516.502	16151.54
516.869	16579.32
517.237	16754.69
517.604	16693.22
517.972	16899.77
518.339	17067.9
518.706	17131.85
519.073	17254.79
519.44	17367.78
519.808	17521.45
520.175	17609.58
520.542	17928.67
520.909	18019.51
521.276	18080.98
521.643	18329.33
522.009	18448.65
522.376	18574.75
522.743	18662.88
523.11	18902.88
523.477	19108.07
523.843	19195.3
524.21	19423.32
524.577	19622.86
524.943	19789.86
525.31	19804.32
525.676	20065.56
526.043	20226.69
526.409	20274.59
526.776	20573.12
527.142	20565.89
527.508	20720.01
527.874	20905.54
528.241	21133.78
528.607	21147.79
528.973	21332.65
529.339	21336.71
529.705	21539.87
530.071	21708
530.437	21787.55
530.803	22049.46
531.169	22211.72
531.535	22147.99
531.901	22322
532.267	22282.9
532.632	22526.29
532.998	22526.96
533.364	22734.19
533.73	22841.08
534.095	23044.46
534.461	23138.47
534.826	23184.35
535.192	23406.04
535.557	23415.53
535.923	23446.71
536.288	23552.93
536.653	23678.12
537.019	23715.86
537.384	23782.75
537.749	24067.26
538.114	23948.85
538.479	24003.54
538.845	24243.53
539.21	24186.58
539.575	24287.37
539.94	24415.95
540.305	24579.79
540.67	24485.56
541.034	24654.82
541.399	24766.45
541.764	24846
542.129	25040.57
542.494	25010.51
542.858	25169.15
543.223	25300.9
543.587	25323.95
543.952	25320.56
544.316	25398.53
544.681	25436.49
545.045	25542.93
545.41	25612.98
545.774	25666.99
546.138	25734.11
546.503	25890.94
546.867	25797.61
547.231	26035.8
547.595	26137.49
547.959	26266.53
548.324	26144.27
548.688	26439.18
549.052	26506.97
549.416	26446.18
549.779	26508.33
550.143	26547.65
550.507	26764.37
550.871	26911.71
551.235	26956.45
551.599	27130.23
551.962	27215.88
552.326	27198.25
552.689	27432.37
553.053	27307.18
553.417	27486.38
553.78	27895.18
554.143	27718.92
554.507	27780.84
554.87	27864
555.234	28213.14
555.597	27958.69
555.96	28166.59
556.323	28332.69
556.686	28330.65
557.05	28639.57
557.413	28598.89
557.776	28794.14
558.139	28925.67
558.502	28922.5
558.865	28975.16
559.228	29297.86
559.59	29299.22
559.953	29415.14
560.316	29705.76
560.679	29724.06
561.041	29873.44
561.404	30014.68
561.767	30241.79
562.129	30143.26
562.492	30544.83
562.854	30381.45
563.217	30416.47
563.579	30718.39
563.941	30756.8
564.304	30939.4
564.666	31120.41
565.028	31273.4
565.39	31340.07
565.753	31371.48
566.115	31535.77
566.477	31807.4
566.839	31795.42
567.201	32101.85
567.563	31968.07
567.925	32268.63
568.287	32343.66
568.648	32380.04
569.01	32593.82
569.372	32725.57
569.734	32735.96
570.095	32840.59
570.457	32907.03
570.819	33227.02
571.18	33131.43
571.542	33368.94
571.903	33348.83
572.265	33488.26
572.626	33579.33
572.987	33787.46
573.349	33769.15
573.71	33954.46
574.071	33961.69
574.432	34201.91
574.794	34368.69
575.155	34295.69
575.516	34119.88
575.877	34427.89
576.238	34475.35
576.599	34648.68
576.96	34654.55
577.32	34746.08
577.681	34887.32
578.042	34785.4
578.403	34950.59
578.763	35039.18
579.124	35013.87
579.485	35133.41
579.845	35271.49
580.206	35258.83
580.566	35242.11
580.927	35345.16
581.287	35334.76
581.648	35226.97
582.008	35422.9
582.368	35418.38
582.728	35493.85
583.089	35659.95
583.449	35579.28
583.809	35662.66
584.169	35653.4
584.529	35476
584.889	35778.59
585.249	35653.17
585.609	35521.65
585.969	35867.63
586.329	35732.04
586.688	35812.26
587.048	35779.5
587.408	35691.82
587.768	35820.85
588.127	35823.11
588.487	35741.98
588.846	35883.68
589.206	35733.17
589.565	35866.27
589.925	35963.67
590.284	35805.49
590.643	35920.06
591.003	36137
591.362	36000.73
591.721	36057.91
592.08	36041.64
592.44	35951.24
592.799	36190.33
593.158	36081.41
593.517	36071.69
593.876	36249.77
594.235	36090.9
594.593	36050.9
594.952	36216.77
595.311	36035.54
595.67	36338.35
596.029	36467.84
596.387	36527.73
596.746	36477.11
597.104	36290.44
597.463	36351.46
597.822	36539.03
598.18	36374.96
598.538	36475.75
598.897	36639.14
599.255	36344.68
599.613	37050.2
599.972	36757.32
600.33	36800.49
600.688	36617.67
601.046	36915.96
601.404	36930.65
601.762	36833.48
602.12	37246.8
602.478	37004.1
602.836	37141.95
603.194	36895.4
603.552	37077.32
603.91	36995.28
604.268	37152.34
604.625	37032.57
604.983	37163.87
605.341	37150.99
605.698	37266.69
606.056	37348.04
606.413	37370.19
606.771	37426.91
607.128	37425.78
607.485	37362.05
607.843	37557.98
608.2	37671.88
608.557	37748.48
608.914	37746.23
609.272	37895.37
609.629	37948.48
609.986	38185.99
610.343	37991.87
610.7	38184.86
611.057	38129.72
611.414	38208.59
611.771	38313.22
612.127	38291.07
612.484	38450.84
612.841	38527.22
613.198	38454.45
613.554	38518.63
613.911	38651.29
614.267	38656.48
614.624	38596.15
614.98	38722.92
615.337	38991.84
615.693	38839.53
616.05	38781
616.406	39092.63
616.762	38912.97
617.118	39073.42
617.475	39041.33
617.831	39162.68
618.187	39158.84
618.543	39352.51
618.899	39582.33
619.255	39284.04
619.611	39177.6
619.967	39591.6
620.323	39631.83
620.678	39493.75
621.034	39364.04
621.39	39545.05
621.746	39459.85
622.101	39933.74
622.457	39476.58
622.812	39637.02
623.168	39830.24
623.523	39804.25
623.879	39914.53
624.234	39766.51
624.589	39859.84
624.945	39819.39
625.3	39898.26
625.655	39918.6
626.01	39953.62
626.365	40023.45
626.72	39948.43
627.075	39892.61
627.43	39959.5
627.785	39896.9
628.14	39976
628.495	40108.42
628.85	40061.42
629.205	40020.52
629.559	40235.65
629.914	39991.82
630.269	40012.15
630.623	39914.3
630.978	39860.52
631.332	40237.91
631.687	40139.83
632.041	39947.75
632.396	40012.83
632.75	39991.36
633.104	39981.42
633.459	39748.88
633.813	39810.35
634.167	39948.65
634.521	39803.12
634.875	39768.77
635.229	39889.67
635.583	39429.34
635.937	39721.99
636.291	39576.91
636.645	39690.13
636.999	39463.47
637.352	39679.51
637.706	39427.54
638.06	39684.48
638.413	39509.79
638.767	39465.28
639.121	39430.02
639.474	39296.47
639.828	39345.73
640.181	39482.22
640.534	39451.26
640.888	39345.51
641.241	39255.79
641.594	39232.51
641.947	39265.96
642.301	39208.79
642.654	39270.25
643.007	39308.9
643.36	39113.87
643.713	39272.74
644.066	39335.34
644.419	38912.3
644.771	38826.87
645.124	38501.01
645.477	38381.24
645.83	38161.13
646.182	38036.16
646.535	37918.2
646.888	37966.78
647.24	37701.03
647.593	37935.37
647.945	37781.25
648.298	37696.28
648.65	37671.42
649.002	37664.87
649.355	37651.31
649.707	37695.15
650.059	37894.02
650.411	38287
650.763	38299.88
651.115	38634.79
651.467	38537.84
651.819	38516.6
652.171	38367.68
652.523	38427.56
652.875	38289.94
653.227	38318.87
653.578	38453.55
653.93	38516.6
654.282	38272.09
654.633	38336.94
654.985	38313.67
655.337	38279.54
655.688	38230.51
656.039	38316.83
656.391	37984.86
656.742	38063.28
657.094	38077.29
657.445	38288.36
657.796	38076.61
658.147	38089.04
658.498	37939.21
658.849	38111.41
659.2	38015.6
659.551	37902.38
659.902	38039.55
660.253	38021.92
660.604	38035.71
660.955	37840.69
661.306	38008.59
661.656	37842.72
662.007	37947.12
662.358	37924.3
662.708	37886.33
663.059	37768.15
663.409	37734.7
663.76	37944.64
664.11	37909.38
664.461	37830.74
664.811	37894.02
665.161	37846.34
665.511	37746
665.862	37864.19
666.212	37933.11
666.562	37903.96
666.912	37801.14
667.262	37748.71
667.612	37759.78
667.962	37703.74
668.312	37799.56
668.662	37855.15
669.011	37755.94
669.361	37726.34
669.711	37645.66
670.06	37627.58
670.41	37671.42
670.76	37592.56
671.109	37737.86
671.459	37708.26
671.808	37589.17
672.157	37727.47
672.507	37475.05
672.856	37498.77
673.205	37503.29
673.554	37727.24
673.904	37533.35
674.253	37616.28
674.602	37516.4
674.951	37055.62
675.3	36818.79
675.649	37398.44
675.998	37495.61
676.346	37404.54
676.695	37403.41
677.044	37230.98
677.393	37332.45
677.741	37475.5
678.09	37284.99
678.438	37200.48
678.787	37371.09
679.135	37269.18
679.484	37059.46
679.832	37132
680.181	36851.33
680.529	37151.89
680.877	36920.94
681.225	36871.22
681.573	37080.25
681.922	36792.58
682.27	36696.99
682.618	36717.1
682.966	36565.01
683.314	36522.3
683.661	36638.68
684.009	36486.6
684.357	36294.06
684.705	36226.49
685.053	36342.65
685.4	36215.19
685.748	36113.05
686.095	35946.5
686.443	35937.46
686.79	35857.46
687.138	36027.4
687.485	35941.98
687.832	35753.74
688.18	35838.7
688.527	35648.2
688.874	35630.57
689.221	35589.22
689.568	35458.38
689.915	35460.41
690.262	35438.72
690.609	35421.54
690.956	35264.71
691.303	35237.59
691.65	35023.36
691.997	34994.66
692.344	34915.56
692.69	34849.35
693.037	34827.66
693.383	34587.44
693.73	34668.57
694.077	34496.82
694.423	34458.85
694.769	34379.53
695.116	34311.74
695.462	34248.69
695.808	34255.47
696.155	34181.12
696.501	34014.57
696.847	33991.3
697.193	33628.37
697.539	33871.3
697.885	33551.53
698.231	33581.59
698.577	33438.09
698.923	33364.87
699.269	33254.14
699.614	32979.12
699.96	33159.45
700.306	33140.24
700.651	32895.51
700.997	32749.29
701.342	32785
701.688	32702.29
702.033	32575.06
702.379	32655.96
702.724	32570.09
703.069	32617.77
703.415	32200.83
703.76	32291
704.105	32277.44
704.45	32098.24
704.795	31852.59
705.14	31839.49
705.485	31815.08
705.83	31699.6
706.175	31731.69
706.52	31524.02
706.865	31499.84
707.209	31449.67
707.554	31366.51
707.899	31412.83
708.243	31290.35
708.588	31298.26
708.932	31029.11
709.277	31082.67
709.621	30991.37
709.966	30821.44
710.31	30884.71
710.654	30564.27
710.998	30740.76
711.342	30646.52
711.687	30699.63
712.031	30628.67
712.375	30418.96
712.719	30474.55
713.063	30351.84
713.407	30353.65
713.75	30341.9
714.094	30258.96
714.438	30136.48
714.782	30185.29
715.125	29973.1
715.469	30100.1
715.812	29853.33
716.156	29702.59
716.499	29721.13
716.843	29862.36
717.186	29576.5
717.53	29631.86
717.873	29639.32
718.216	29550.28
718.559	29411.75
718.902	29162.5
719.246	29292.89
719.589	29284.53
719.932	29084.53
720.275	29103.29
720.617	29155.49
720.96	29066
721.303	29050.63
721.646	29089.96
721.989	28681.83
722.331	28980.58
722.674	28793.92
723.016	28774.48
723.359	28764.54
723.701	28675.96
724.044	28488.39
724.386	28420.37
724.729	28664.43
725.071	28531.33
725.413	28491.1
725.755	28484.1
726.097	28404.1
726.439	28151.45
726.782	28311.22
727.124	28254.72
727.465	28038.68
727.807	28146.7
728.149	28143.54
728.491	28133.37
728.833	28189.19
729.175	27895.64
729.516	27925.01
729.858	27881.63
730.199	28002.3
730.541	27890.21
730.882	27832.81
731.224	27808.86
731.565	27769.09
731.906	27559.15
732.248	27737.22
732.589	27556.66
732.93	27431.69
733.271	27505.59
733.612	27343.11
733.953	27437.12
734.294	27324.58
734.635	27184.92
734.976	27321.87
735.317	27153.96
735.658	27089.33
735.999	27155.54
736.339	27005.26
736.68	27106.28
737.021	27082.55
737.361	26958.94
737.702	26962.33
738.042	26963.23
738.383	26922.55
738.723	26960.52
739.063	26684.82
739.404	26848.21
739.744	26691.83
740.084	26630.13
740.424	26710.13
740.764	26637.59
741.104	26650.7
741.444	26537.03
741.784	26436.47
742.124	26468.33
742.464	26485.5
742.804	26399.86
743.143	26344.72
743.483	26368.9
743.823	26144.27
744.162	26133.65
744.502	26197.83
744.841	26087.1
745.181	26248.45
745.52	25972.52
745.86	26101.11
746.199	25973.88
746.538	26020.43
746.877	26063.59
747.216	25962.81
747.556	25804.84
747.895	25958.29
748.234	25790.38
748.573	25691.63
748.911	25669.71
749.25	25687.79
749.589	25521.69
749.928	25621.8
750.267	25562.59
750.605	25388.36
750.944	25474.46
751.283	25333.22
751.621	25380.9
751.96	25206.67
752.298	25211.19
752.636	25168.93
752.975	25101.81
753.313	24988.59
753.651	25061.13
753.989	24879.22
754.327	24857.07
754.666	24778.2
755.004	24868.37
755.342	24800.58
755.679	24639.45
756.017	24606.46
756.355	24628.15
756.693	24388.38
757.031	24443.07
757.368	24424.99
