Data from hue_130_FLMS001491_00084.txt Node
Date: Tue Feb 07 16:58:12 GMT 2017
User: dcchb
Spectrometer: FLMS00149
Trigger mode: 0
Integration Time (sec): 2.000000E-2
Scans to average: 10
Electric dark correction enabled: true
Nonlinearity correction enabled: false
Boxcar width: 0
XAxis mode: Wavelengths
Number of Pixels in Spectrum: 2048
>>>>>Begin Spectral Data<<<<<
341.393	-16.88
341.776	-16.88
342.16	-16.88
342.543	-75.41
342.927	-52.36
343.31	-60.72
343.693	-75.41
344.077	-70.44
344.46	-66.14
344.843	-49.87
345.226	-46.26
345.61	-29.76
345.993	-23.43
346.376	-4
346.759	10.69
347.142	11.82
347.525	31.71
347.908	70.8
348.291	74.64
348.674	102.89
349.057	123.46
349.44	115.77
349.823	153.06
350.206	173.4
350.588	198.26
350.971	192.83
351.354	227.41
351.737	220.63
352.119	246.84
352.502	251.36
352.884	270.35
353.267	276.9
353.65	299.95
354.032	298.14
354.414	303.57
354.797	326.16
355.179	333.85
355.562	308.76
355.944	327.75
356.326	320.97
356.709	331.81
357.091	340.17
357.473	316.67
357.855	322.32
358.238	344.02
358.62	361.42
359.002	347.41
359.384	337.69
359.766	349.67
360.148	336.56
360.53	352.83
360.912	325.94
361.294	324.13
361.676	344.24
362.057	312.15
362.439	321.64
362.821	336.33
363.203	330.46
363.584	335.88
363.966	329.33
364.348	347.41
364.729	328.42
365.111	318.71
365.493	342.43
365.874	317.58
366.256	304.7
366.637	325.71
367.019	311.47
367.4	320.74
367.781	340.85
368.163	306.05
368.544	311.47
368.925	338.82
369.306	317.12
369.688	302.21
370.069	315.09
370.45	316.67
370.831	321.64
371.212	308.99
371.593	316.67
371.974	325.71
372.355	338.37
372.736	328.88
373.117	311.25
373.498	314.86
373.879	317.8
374.26	311.02
374.641	302.44
375.021	328.65
375.402	334.3
375.783	329.33
376.163	314.86
376.544	315.54
376.925	323.9
377.305	331.59
377.686	314.86
378.066	336.11
378.447	334.75
378.827	329.1
379.208	333.62
379.588	327.97
379.968	351.25
380.349	334.07
380.729	321.42
381.109	331.81
381.489	323.23
381.87	315.54
382.25	333.85
382.63	358.25
383.01	348.31
383.39	347.63
383.77	334.3
384.15	348.76
384.53	344.69
384.91	348.31
385.29	354.86
385.67	345.37
386.049	342.43
386.429	335.43
386.809	359.84
387.189	337.01
387.568	356.9
387.948	373.85
388.328	359.38
388.707	373.39
389.087	371.81
389.466	366.16
389.846	356.67
390.225	366.61
390.605	366.84
390.984	373.17
391.363	375.88
391.743	368.65
392.122	374.75
392.501	377.01
392.881	384.02
393.26	385.6
393.639	380.4
394.018	400.29
394.397	356.22
394.776	374.3
395.155	374.3
395.534	396.44
395.913	389.89
396.292	374.3
396.671	402.09
397.05	401.19
397.429	409.33
397.808	400.06
398.186	389.66
398.565	400.29
398.944	374.52
399.323	396.22
399.701	403.9
400.08	388.76
400.458	396.67
400.837	398.03
401.215	418.59
401.594	380.63
401.972	409.78
402.351	416.78
402.729	404.13
403.107	397.12
403.486	420.17
403.864	409.1
404.242	430.12
404.62	443
404.999	406.16
405.377	413.17
405.755	415.2
406.133	429.66
406.511	424.24
406.889	443.45
407.267	426.05
407.645	464.47
408.023	437.12
408.401	453.62
408.779	440.29
409.156	447.52
409.534	458.82
409.912	470.34
410.29	459.27
410.667	458.36
411.045	472.83
411.422	485.93
411.8	463.56
412.178	476.89
412.555	492.26
412.933	484.8
413.31	477.57
413.687	479.38
414.065	492.04
414.442	472.83
414.819	539.04
415.197	497.46
415.574	520.73
415.951	527.51
416.328	501.75
416.705	518.02
417.082	511.02
417.46	532.94
417.837	507.4
418.214	530.9
418.591	535.2
418.967	545.59
419.344	534.07
419.721	529.32
420.098	540.4
420.475	529.32
420.852	556.89
421.228	551.92
421.605	555.76
421.982	555.76
422.358	550.11
422.735	533.62
423.111	555.99
423.488	560.51
423.864	564.58
424.241	597.34
424.617	579.72
424.994	596.67
425.37	589.21
425.746	574.97
426.123	591.02
426.499	587.63
426.875	598.02
427.251	603.22
427.627	609.32
428.003	627.4
428.379	636.21
428.756	639.38
429.132	603.9
429.507	628.98
429.883	647.51
430.259	642.54
430.635	634.63
431.011	641.41
431.387	669.66
431.763	675.76
432.138	674.63
432.514	672.82
432.89	683.22
433.265	703.78
433.641	712.37
434.016	708.98
434.392	717.11
434.767	718.02
435.143	744.91
435.518	731.8
435.894	741.75
436.269	763.89
436.644	772.48
437.02	776.77
437.395	752.14
437.77	744.91
438.145	771.12
438.52	775.42
438.895	766.38
439.271	785.36
439.646	796.43
440.021	800.95
440.395	807.06
440.77	830.78
441.145	794.4
441.52	804.34
441.895	824.23
442.27	833.95
442.645	830.56
443.019	834.62
443.394	845.47
443.769	865.81
444.143	836.43
444.518	850.22
444.892	867.39
445.267	899.26
445.641	888.18
446.016	886.83
446.39	911.46
446.764	897.9
447.139	895.64
447.513	899.71
447.887	912.36
448.262	942.64
448.636	930.22
449.01	913.94
449.384	946.26
449.758	923.44
450.132	974.73
450.506	967.05
450.88	959.59
451.254	984.45
451.628	971.12
452.002	1000.72
452.376	1004.79
452.75	985.58
453.123	986.94
453.497	1012.93
453.871	1027.84
454.244	1040.04
454.618	1038.24
454.992	1067.39
455.365	1087.27
455.739	1097.44
456.112	1087.5
456.486	1112.36
456.859	1083.21
457.232	1132.47
457.606	1127.72
457.979	1158.46
458.352	1179.93
458.725	1185.12
459.099	1178.8
459.472	1182.19
459.845	1217.67
460.218	1247.95
460.591	1223.99
460.964	1249.3
461.337	1293.82
461.71	1302.18
462.083	1285.23
462.456	1317.78
462.829	1307.61
463.201	1362.97
463.574	1356.19
463.947	1384.89
464.32	1431.67
464.692	1438.45
465.065	1447.04
465.438	1461.5
465.81	1482.52
466.183	1513.48
466.555	1529.97
466.928	1557.09
467.3	1504.21
467.672	1595.51
468.045	1646.13
468.417	1614.94
468.789	1659.91
469.161	1682.29
469.534	1685.22
469.906	1772.68
470.278	1790.53
470.65	1812.9
471.022	1802.51
471.394	1882.96
471.766	1897.87
472.138	1925.44
472.51	1970.64
472.882	2022.62
473.253	2068.49
473.625	2090.41
473.997	2129.51
474.369	2160.01
474.74	2203.18
475.112	2280.24
475.484	2329.27
475.855	2412.21
476.227	2400.91
476.598	2484.98
476.97	2521.81
477.341	2613.79
477.713	2661.47
478.084	2722.03
478.455	2830.96
478.827	2855.36
479.198	2974.91
479.569	3033.89
479.94	3136.71
480.311	3211.29
480.682	3328.8
481.053	3414.22
481.424	3483.59
481.795	3539.86
482.166	3665.74
482.537	3789.58
482.908	3836.13
483.279	3945.96
483.65	4026.86
484.021	4198.6
484.391	4226.85
484.762	4362.22
485.133	4458.03
485.503	4562.21
485.874	4732.38
486.244	4767.4
486.615	4932.14
486.985	5052.59
487.356	5138.69
487.726	5303.43
488.097	5474.5
488.467	5531.22
488.837	5734.38
489.207	5830.88
489.578	5983.87
489.948	6121.94
490.318	6279.91
490.688	6310.41
491.058	6529.84
491.428	6663.4
491.798	6826.11
492.168	6922.37
492.538	7055.48
492.908	7241.91
493.278	7380.22
493.648	7482.81
494.017	7639.64
494.387	7702.69
494.757	7893.87
495.126	8004.15
495.496	8101.33
495.866	8239.63
496.235	8342.22
496.605	8533.86
496.974	8631.03
497.344	8767.98
497.713	8876.45
498.082	9011.59
498.452	9115.54
498.821	9168.42
499.19	9324.35
499.559	9391.69
499.928	9616.99
500.298	9743.77
500.667	9737.89
501.036	9758.46
501.405	9885.91
501.774	9995.51
502.143	10131.33
502.512	10238.22
502.88	10330.42
503.249	10404.54
503.618	10553.92
503.987	10572.9
504.356	10735.16
504.724	10730.18
505.093	10851.76
505.462	10989.61
505.83	10991.42
506.199	11093.56
506.567	11220.11
506.936	11220.11
507.304	11328.13
507.672	11451.52
508.041	11472.54
508.409	11574.91
508.777	11690.61
509.145	11766.54
509.514	11778.52
509.882	11813.55
510.25	11918.4
510.618	12014.44
510.986	12017.83
511.354	12172.63
511.722	12169.92
512.09	12276.13
512.458	12264.38
512.826	12360.42
513.193	12401.1
513.561	12394.77
513.929	12479.29
514.297	12560.64
514.664	12686.74
515.032	12669.57
515.4	12806.06
515.767	12804.71
516.135	12850.58
516.502	12799.73
516.869	12958.83
517.237	12998.82
517.604	12947.75
517.972	13092.61
518.339	13195.2
518.706	13044.7
519.073	13104.36
519.44	13174.19
519.808	13233.17
520.175	13199.95
520.542	13360.62
520.909	13437.23
521.276	13308.87
521.643	13363.11
522.009	13409.89
522.376	13545.48
522.743	13529.21
523.11	13625.48
523.477	13715.87
523.843	13760.16
524.21	13852.59
524.577	13918.35
524.943	13857.79
525.31	13925.13
525.676	13992.7
526.043	14091.45
526.409	13900.04
526.776	14067.27
527.142	14126.25
527.508	14082.64
527.874	14111.79
528.241	14096.2
528.607	14181.17
528.973	14228.17
529.339	14029.53
529.705	14262.52
530.071	14273.82
530.437	14237.66
530.803	14315.4
531.169	14343.65
531.535	14238.79
531.901	14168.29
532.267	14332.12
532.632	14362.18
532.998	14234.72
533.364	14240.83
533.73	14238.11
534.095	14247.38
534.461	14239.92
534.826	14274.05
535.192	14294.38
535.557	14319.69
535.923	14267.04
536.288	14295.06
536.653	14199.92
537.019	14204.67
537.384	14191.11
537.749	14147.5
538.114	14159.7
538.479	14020.27
538.845	14098.68
539.21	13986.82
539.575	14044.67
539.94	13949.76
540.305	14058.23
540.67	13881.29
541.034	13901.17
541.399	13947.73
541.764	13834.06
542.129	13846.03
542.494	13880.84
542.858	13788.41
543.223	13780.5
543.587	13816.43
543.952	13692.14
544.316	13726.94
544.681	13643.55
545.045	13736.21
545.41	13620.5
545.774	13678.81
546.138	13633.84
546.503	13570.79
546.867	13590.67
547.231	13548.87
547.595	13491.24
547.959	13524.46
548.324	13461.41
548.688	13471.58
549.052	13405.14
549.416	13374.86
549.779	13291.25
550.143	13261.64
550.507	13307.29
550.871	13312.26
551.235	13163.57
551.599	13229.78
551.962	13109.78
552.326	13147.52
552.689	13271.36
553.053	13036.79
553.417	13073.4
553.78	13199.72
554.143	13091.93
554.507	13085.38
554.87	13057.81
555.234	13164.47
555.597	12966.06
555.96	13084.25
556.323	13035.43
556.686	12939.62
557.05	13055.55
557.413	12976.23
557.776	13034.3
558.139	13006.51
558.502	12979.39
558.865	12972.61
559.228	13041.99
559.59	12979.84
559.953	13050.57
560.316	13086.96
560.679	13057.81
561.041	13000.18
561.404	13113.4
561.767	13114.53
562.129	13034.76
562.492	13134.41
562.854	13037.92
563.217	13031.37
563.579	13084.47
563.941	13056.22
564.304	13115.43
564.666	13133.96
565.028	13120.4
565.39	13092.16
565.753	13174.19
566.115	13173.28
566.477	13187.07
566.839	13171.93
567.201	13268.2
567.563	13145.49
567.925	13308.87
568.287	13286.27
568.648	13273.62
569.01	13331.92
569.372	13385.71
569.734	13245.6
570.095	13299.38
570.457	13360.85
570.819	13371.7
571.18	13328.31
571.542	13394.29
571.903	13430
572.265	13454.18
572.626	13476.1
572.987	13493.5
573.349	13423.22
573.71	13484.91
574.071	13461.86
574.432	13488.98
574.794	13562.2
575.155	13520.17
575.516	13461.86
575.877	13551.35
576.238	13448.76
576.599	13551.13
576.96	13485.82
577.32	13527.85
577.681	13552.71
578.042	13612.37
578.403	13568.98
578.763	13618.24
579.124	13524.23
579.485	13611.46
579.845	13610.11
580.206	13599.94
580.566	13564.01
580.927	13597.68
581.287	13610.33
581.648	13557.45
582.008	13626.38
582.368	13505.03
582.728	13533.27
583.089	13527.85
583.449	13640.84
583.809	13513.84
584.169	13628.19
584.529	13474.29
584.889	13595.19
585.249	13508.42
585.609	13485.59
585.969	13570.34
586.329	13577.11
586.688	13554.06
587.048	13532.82
587.408	13533.73
587.768	13481.3
588.127	13413.73
588.487	13428.87
588.846	13485.14
589.206	13425.71
589.565	13475.65
589.925	13505.03
590.284	13395.42
590.643	13425.03
591.003	13441.98
591.362	13474.29
591.721	13426.61
592.08	13410.79
592.44	13338.7
592.799	13440.17
593.158	13418.47
593.517	13329.44
593.876	13357.46
594.235	13424.35
594.593	13398.81
594.952	13292.38
595.311	13305.48
595.67	13317.23
596.029	13415.99
596.387	13332.6
596.746	13407.85
597.104	13303.9
597.463	13221.19
597.822	13305.48
598.18	13327.18
598.538	13310
598.897	13363.56
599.255	13279.5
599.613	13421.86
599.972	13324.01
600.33	13322.66
600.688	13304.58
601.046	13277.91
601.404	13323.79
601.762	13305.03
602.12	13366.05
602.478	13401.07
602.836	13374.18
603.194	13289.21
603.552	13359.04
603.91	13233.85
604.268	13298.25
604.625	13333.73
604.983	13281.53
605.341	13312.49
605.698	13330.57
606.056	13342.32
606.413	13309.78
606.771	13355.43
607.128	13324.69
607.485	13281.76
607.843	13262.32
608.2	13329.66
608.557	13392.49
608.914	13349.32
609.272	13406.5
609.629	13340.74
609.986	13413.5
610.343	13337.12
610.7	13476.78
611.057	13469.55
611.414	13396.33
611.771	13489.21
612.127	13516.1
612.484	13460.06
612.841	13527.17
613.198	13410.11
613.554	13510.68
613.911	13551.58
614.267	13575.31
614.624	13531.47
614.98	13508.87
615.337	13548.19
615.693	13592.48
616.05	13549.54
616.406	13680.16
616.762	13591.8
617.118	13573.5
617.475	13596.78
617.831	13722.2
618.187	13658.24
618.543	13672.93
618.899	13686.49
619.255	13707.28
619.611	13698.47
619.967	13797.67
620.323	13761.06
620.678	13727.62
621.034	13745.47
621.39	13735.3
621.746	13670.67
622.101	13782.53
622.457	13680.16
622.812	13738.69
623.168	13700.05
623.523	13751.12
623.879	13862.3
624.234	13701.41
624.589	13719.26
624.945	13719.48
625.3	13773.49
625.655	13661.86
626.01	13666.38
626.365	13772.14
626.72	13736.21
627.075	13751.35
627.43	13748.64
627.785	13707.73
628.14	13712.25
628.495	13700.28
628.85	13706.15
629.205	13632.71
629.559	13723.1
629.914	13628.64
630.269	13614.63
630.623	13585.02
630.978	13524.91
631.332	13644.46
631.687	13622.99
632.041	13563.1
632.396	13580.5
632.75	13583.44
633.104	13665.02
633.459	13496.21
633.813	13574.63
634.167	13481.75
634.521	13589.54
634.875	13510.22
635.229	13462.32
635.583	13343.45
635.937	13451.69
636.291	13379.15
636.645	13427.29
636.999	13377.8
637.352	13322.43
637.706	13308.42
638.06	13369.66
638.413	13348.65
638.767	13265.94
639.121	13370.57
639.474	13154.53
639.828	13230.23
640.181	13273.17
640.534	13174.64
640.888	13205.37
641.241	13071.59
641.594	13207.63
641.947	13219.38
642.301	13152.95
642.654	13171.48
643.007	13165.83
643.36	13130.35
643.713	13072.5
644.066	13121.99
644.419	13039.95
644.771	13080.63
645.124	12885.38
645.477	12844.03
645.83	12833.63
646.182	12792.5
646.535	12701.21
646.888	12721.54
647.24	12671.15
647.593	12655.56
647.945	12694.2
648.298	12621.89
648.65	12590.47
649.002	12615.78
649.355	12726.06
649.707	12651.94
650.059	12786.63
650.411	12867.98
650.763	12903.01
651.115	12994.98
651.467	12938.49
651.819	12988.66
652.171	12963.35
652.523	12930.8
652.875	12878.6
653.227	12895.78
653.578	13012.38
653.93	13010.12
654.282	12871.6
654.633	12796.57
654.985	12906.62
655.337	12837.25
655.688	12915.21
656.039	12988.66
656.391	12862.11
656.742	12937.81
657.094	12898.49
657.445	12940.75
657.796	12961.09
658.147	12940.75
658.498	12936
658.849	12910.01
659.2	12994.53
659.551	12885.38
659.902	12976
660.253	12930.35
660.604	12942.78
660.955	13000.63
661.306	12993.85
661.656	12998.15
662.007	12936.45
662.358	12995.66
662.708	12869.79
663.059	12874.76
663.409	12963.12
663.76	13072.95
664.11	12940.75
664.461	13026.62
664.811	12973.97
665.161	13031.59
665.511	12934.65
665.862	12973.97
666.212	13044.93
666.562	12958.37
666.912	13014.87
667.262	12963.8
667.612	12894.19
667.962	12973.29
668.312	12983.68
668.662	13070.69
669.011	12986.62
669.361	12910.24
669.711	12937.13
670.06	12922.22
670.41	12898.71
670.76	12919.73
671.109	12972.84
671.459	12907.53
671.808	12870.24
672.157	12864.14
672.507	12872.95
672.856	12892.39
673.205	12764.25
673.554	12899.62
673.904	12832.5
674.253	12781.88
674.602	12832.95
674.951	12586.63
675.3	12592.28
675.649	12862.11
675.998	12791.15
676.346	12730.81
676.695	12838.38
677.044	12715.44
677.393	12710.47
677.741	12698.27
678.09	12682
678.438	12660.75
678.787	12737.36
679.135	12698.72
679.484	12628.21
679.832	12653.07
680.181	12594.77
680.529	12666.86
680.877	12536.24
681.225	12549.8
681.573	12669.34
681.922	12572.4
682.27	12510.7
682.618	12506.41
682.966	12479.97
683.314	12432.51
683.661	12412.17
684.009	12401.78
684.357	12415.34
684.705	12318.16
685.053	12315.23
685.4	12290.37
685.748	12232.97
686.095	12170.6
686.443	12150.49
686.79	12125.4
687.138	12182.35
687.485	12107.1
687.832	12039.98
688.18	12142.8
688.527	12050.15
688.874	12037.49
689.221	11965.63
689.568	11941.45
689.915	11910.94
690.262	11926.76
690.609	11841.79
690.956	11781
691.303	11829.59
691.65	11712.31
691.997	11791.4
692.344	11609.71
692.69	11664.17
693.037	11622.59
693.383	11513.21
693.73	11582.59
694.077	11570.61
694.423	11464.18
694.769	11423.05
695.116	11430.28
695.462	11375.14
695.808	11324.29
696.155	11355.25
696.501	11246.55
696.847	11244.07
697.193	11106.9
697.539	11166.78
697.885	11069.61
698.231	10998.43
698.577	11043.17
698.923	10983.74
699.269	10899.45
699.614	10904.64
699.96	10827.58
700.306	10870.52
700.651	10883.17
700.997	10673.46
701.342	10707.81
701.688	10613.58
702.033	10642.73
702.379	10651.99
702.724	10591.2
703.069	10583.3
703.415	10461.94
703.76	10448.16
704.105	10538.32
704.45	10422.62
704.795	10376.97
705.14	10318.67
705.485	10263.76
705.83	10299.46
706.175	10273.02
706.52	10254.72
706.865	10217.2
707.209	10121.61
707.554	10129.75
707.899	10101.05
708.243	10056.98
708.588	10070.31
708.932	9998
709.277	9940.37
709.621	9968.17
709.966	9873.03
710.31	9906.02
710.654	9791.23
710.998	9846.82
711.342	9788.06
711.687	9769.08
712.031	9784.22
712.375	9728.85
712.719	9769.31
713.063	9716.65
713.407	9777.67
713.75	9716.43
714.094	9665.35
714.438	9614.28
714.782	9639.59
715.125	9586.49
715.469	9584.9
715.812	9555.98
716.156	9547.16
716.499	9554.17
716.843	9553.27
717.186	9480.5
717.53	9553.94
717.873	9506.71
718.216	9471.23
718.559	9445.7
718.902	9390.56
719.246	9393.72
719.589	9361.41
719.932	9347.17
720.275	9391.24
720.617	9355.08
720.96	9357.56
721.303	9315.08
721.646	9291.35
721.989	9292.71
722.331	9310.56
722.674	9227.62
723.016	9240.05
723.359	9308.3
723.701	9254.52
724.044	9211.58
724.386	9195.31
724.729	9204.57
725.071	9190.11
725.413	9198.02
725.755	9219.49
726.097	9154.41
726.439	9165.93
726.782	9107.85
727.124	9205.48
727.465	9097.68
727.807	9166.16
728.149	9143.33
728.491	9051.13
728.833	9105.14
729.175	9136.1
729.516	9104.24
729.858	9123.45
730.199	9162.32
730.541	9081.64
730.882	9056.1
731.224	9097.01
731.565	9104.92
731.906	9093.16
732.248	9078.93
732.589	9035.99
732.93	8975.2
733.271	9057.91
733.612	9010.91
733.953	9107.63
734.294	9063.79
734.635	9029.89
734.976	9079.15
735.317	9052.49
735.658	9033.28
735.999	9028.53
736.339	9075.09
736.68	9122.09
737.021	8972.26
737.361	9070.79
737.702	9070.11
738.042	9090
738.383	9042.09
738.723	9068.08
739.063	9067.63
739.404	9051.58
739.744	9068.31
740.084	9054.97
740.424	9109.44
740.764	9128.64
741.104	9159.38
741.444	9138.81
741.784	9122.09
742.124	9195.31
742.464	9246.83
742.804	9234.63
743.143	9252.93
743.483	9272.6
743.823	9241.41
744.162	9251.13
744.502	9228.53
744.841	9308.53
745.181	9405.02
745.52	9392.14
745.86	9447.28
746.199	9407.96
746.538	9505.13
746.877	9558.69
747.216	9596.43
747.556	9617.9
747.895	9682.08
748.234	9664.68
748.573	9752.13
748.911	9796.88
749.25	9910.09
749.589	9905.12
749.928	9922.07
750.267	10040.48
750.605	10132.01
750.944	10226.24
751.283	10277.77
751.621	10352.79
751.96	10383.75
752.298	10454.26
752.636	10581.71
752.975	10686.34
753.313	10736.06
753.651	10957.3
753.989	10934.02
754.327	11070.29
754.666	11094.47
755.004	11245.2
755.342	11411.3
755.679	11555.47
756.017	11664.4
756.355	11817.16
756.693	11898.97
757.031	12056.48
757.368	12119.53
757.706	12309.13
758.044	12400.2
758.381	12657.36
758.719	12801.54
