Data from hue_310_FLMS001491_58.txt Node
Date: Mon Feb 06 15:49:53 GMT 2017
User: dcchb
Spectrometer: FLMS00149
Trigger mode: 0
Integration Time (sec): 2.000000E-2
Scans to average: 10
Electric dark correction enabled: true
Nonlinearity correction enabled: false
Boxcar width: 0
XAxis mode: Wavelengths
Number of Pixels in Spectrum: 2048
>>>>>Begin Spectral Data<<<<<
341.393	-6.48
341.776	-6.48
342.16	-6.48
342.543	-34.5
342.927	-51
343.31	-86.48
343.693	-70.44
344.077	-65.24
344.46	-60.49
344.843	-46.93
345.226	-38.57
345.61	-18.23
345.993	-9.19
346.376	-6.03
346.759	23.35
347.142	24.48
347.525	37.36
347.908	59.05
348.291	70.13
348.674	90.92
349.057	96.34
349.44	141.54
349.823	158.48
350.206	188.09
350.588	198.94
350.971	194.87
351.354	217.69
351.737	250.69
352.119	245.26
352.502	272.38
352.884	287.75
353.267	277.58
353.65	301.98
354.032	311.25
354.414	315.77
354.797	318.25
355.179	312.38
355.562	319.84
355.944	343.56
356.326	316.45
356.709	353.51
357.091	348.76
357.473	346.5
357.855	358.93
358.238	354.19
358.62	351.7
359.002	359.38
359.384	332.49
359.766	346.05
360.148	328.88
360.53	339.27
360.912	334.07
361.294	343.11
361.676	327.97
362.057	337.01
362.439	353.06
362.821	344.69
363.203	323.23
363.584	336.56
363.966	331.36
364.348	340.4
364.729	329.55
365.111	315.77
365.493	329.33
365.874	326.16
366.256	323.68
366.637	329.1
367.019	321.64
367.4	311.47
367.781	319.61
368.163	310.8
368.544	320.74
368.925	337.24
369.306	337.91
369.688	342.89
370.069	309.22
370.45	326.62
370.831	297.92
371.212	329.1
371.593	332.04
371.974	320.74
372.355	312.6
372.736	333.17
373.117	321.19
373.498	313.51
373.879	329.78
374.26	329.78
374.641	321.19
375.021	319.84
375.402	315.99
375.783	333.62
376.163	319.16
376.544	339.04
376.925	351.02
377.305	323.23
377.686	330.01
378.066	315.99
378.447	335.88
378.827	338.14
379.208	327.52
379.588	351.7
379.968	357.12
380.349	346.05
380.729	314.41
381.109	355.99
381.489	332.27
381.87	358.03
382.25	351.47
382.63	370.68
383.01	364.35
383.39	359.84
383.77	362.77
384.15	345.15
384.53	351.93
384.91	356.67
385.29	336.56
385.67	353.96
386.049	358.48
386.429	373.62
386.809	379.72
387.189	378.82
387.568	340.17
387.948	374.3
388.328	374.75
388.707	366.16
389.087	366.39
389.466	389.44
389.846	370.91
390.225	376.78
390.605	372.49
390.984	408.2
391.363	374.75
391.743	346.05
392.122	362.77
392.501	394.41
392.881	392.6
393.26	367.74
393.639	408.2
394.018	386.28
394.397	393.28
394.776	395.54
395.155	387.86
395.534	381.98
395.913	388.76
396.292	403.68
396.671	400.96
397.05	431.92
397.429	420.17
397.808	412.04
398.186	376.33
398.565	415.88
398.944	407.52
399.323	387.18
399.701	408.42
400.08	438.7
400.458	425.6
400.837	412.04
401.215	412.72
401.594	436.22
401.972	428.76
402.351	418.59
402.729	448.19
403.107	430.34
403.486	432.83
403.864	437.12
404.242	433.51
404.62	454.75
404.999	450.23
405.377	455.88
405.755	432.83
406.133	453.62
406.511	451.13
406.889	473.5
407.267	481.41
407.645	465.6
408.023	487.06
408.401	470.11
408.779	502.66
409.156	490.45
409.534	499.72
409.912	494.29
410.29	523.45
410.667	539.72
411.045	534.07
411.422	540.85
411.8	540.4
412.178	570.23
412.555	554.63
412.933	586.95
413.31	597.12
413.687	564.35
414.065	572.03
414.442	593.73
414.819	598.25
415.197	601.64
415.574	623.56
415.951	616.1
416.328	632.82
416.705	640.51
417.082	625.59
417.46	655.19
417.837	663.78
418.214	688.64
418.591	683.44
418.967	695.87
419.344	688.41
419.721	715.76
420.098	694.97
420.475	717.79
420.852	740.16
421.228	758.92
421.605	757.79
421.982	756.89
422.358	734.06
422.735	757.79
423.111	762.99
423.488	792.14
423.864	806.83
424.241	803.44
424.617	807.73
424.994	836.43
425.37	838.47
425.746	845.02
426.123	840.5
426.499	842.76
426.875	873.95
427.251	866.49
427.627	885.7
428.003	905.13
428.379	881.4
428.756	895.87
429.132	932.02
429.507	925.92
429.883	946.71
430.259	990.33
430.635	975.86
431.011	996.2
431.387	1001.4
431.763	1003.21
432.138	1029.87
432.514	1024.45
432.89	1033.94
433.265	1068.29
433.641	1061.96
434.016	1052.02
434.392	1088.4
434.767	1098.57
435.143	1113.71
435.518	1121.62
435.894	1140.38
436.269	1131.34
436.644	1146.71
437.02	1180.38
437.395	1185.8
437.77	1183.09
438.145	1183.54
438.52	1223.54
438.895	1254.95
439.271	1211.11
439.646	1264.9
440.021	1228.74
440.395	1272.13
440.77	1238
441.145	1289.08
441.52	1316.19
441.895	1267.83
442.27	1292.69
442.645	1305.57
443.019	1318.45
443.394	1300.6
443.769	1334.05
444.143	1325.01
444.518	1318.45
444.892	1335.4
445.267	1330.43
445.641	1359.81
446.016	1340.83
446.39	1364.55
446.764	1347.15
447.139	1374.95
447.513	1407.49
447.887	1417.66
448.262	1360.03
448.636	1397.55
449.01	1407.72
449.384	1412.24
449.758	1380.6
450.132	1425.12
450.506	1412.01
450.88	1405.01
451.254	1426.93
451.628	1475.51
452.002	1452.69
452.376	1459.24
452.75	1483.2
453.123	1481.16
453.497	1507.83
453.871	1513.03
454.244	1536.75
454.618	1531.56
454.992	1530.43
455.365	1529.3
455.739	1568.39
456.112	1577.88
456.486	1604.1
456.859	1611.78
457.232	1615.85
457.606	1635.51
457.979	1616.07
458.352	1640.03
458.725	1678.44
459.099	1639.35
459.472	1668.28
459.845	1700.14
460.218	1676.64
460.591	1703.3
460.964	1705.79
461.337	1762.74
461.71	1780.14
462.083	1769.52
462.456	1782.62
462.829	1822.62
463.201	1833.92
463.574	1812.23
463.947	1848.84
464.32	1862.62
464.692	1872.79
465.065	1860.81
465.438	1869.4
465.81	1923.41
466.183	1921.15
466.555	1987.14
466.928	1954.82
467.3	1964.99
467.672	1965.89
468.045	2008.15
468.417	2026.91
468.789	2062.16
469.161	2047.7
469.534	2057.19
469.906	2084.54
470.278	2098.09
470.65	2144.2
471.022	2140.13
471.394	2176.51
471.766	2194.14
472.138	2196.62
472.51	2255.6
472.882	2291.08
473.253	2276.85
473.625	2304.19
473.997	2317.3
474.369	2349.61
474.74	2373.57
475.112	2372.21
475.484	2414.92
475.855	2451.08
476.227	2476.39
476.598	2517.97
476.97	2501.25
477.341	2575.14
477.713	2567.23
478.084	2631.64
478.455	2618.53
478.827	2670.96
479.198	2722.71
479.569	2685.42
479.94	2758.64
480.311	2796.38
480.682	2832.09
481.053	2854.91
481.424	2908.24
481.795	2895.59
482.166	2950.5
482.537	2944.63
482.908	3013.1
483.279	3002.25
483.65	3075.92
484.021	3129.71
484.391	3174.9
484.762	3186.43
485.133	3229.36
485.503	3225.07
485.874	3253.32
486.244	3305.07
486.615	3321.11
486.985	3347.55
487.356	3393.2
487.726	3393.43
488.097	3445.4
488.467	3475.23
488.837	3542.8
489.207	3562.01
489.578	3619.64
489.948	3594.78
490.318	3699.18
490.688	3608.34
491.058	3726.98
491.428	3723.59
491.798	3786.86
492.168	3825.96
492.538	3828.22
492.908	3855.11
493.278	3910.7
493.648	3904.15
494.017	3946.63
494.387	3971.27
494.757	4037.25
495.126	4038.16
495.496	4031.15
495.866	4039.74
496.235	4070.7
496.605	4138.04
496.974	4128.1
497.344	4184.37
497.713	4194.54
498.082	4191.6
498.452	4166.51
498.821	4199.28
499.19	4227.98
499.559	4275.66
499.928	4263.01
500.298	4270.24
500.667	4294.87
501.036	4330.8
501.405	4380.29
501.774	4359.73
502.143	4400.63
502.512	4432.95
502.88	4423.68
503.249	4460.29
503.618	4482.89
503.987	4472.95
504.356	4511.14
504.724	4521.31
505.093	4510.91
505.462	4538.48
505.83	4528.77
506.199	4557.01
506.567	4703
506.936	4626.62
507.304	4662.32
507.672	4656.45
508.041	4703.22
508.409	4688.99
508.777	4764.92
509.145	4780.51
509.514	4741.87
509.882	4774.86
510.25	4799.27
510.618	4810.11
510.986	4763.56
511.354	4819.38
511.722	4878.36
512.09	4880.85
512.458	4883.33
512.826	4877.23
513.193	4936.44
513.561	4933.5
513.929	4952.48
514.297	5005.59
514.664	4982.54
515.032	5021.63
515.4	5040.84
515.767	5026.83
516.135	5029.32
516.502	5029.09
516.869	5098.69
517.237	5092.82
517.604	5092.37
517.972	5167.84
518.339	5116.55
518.706	5141.63
519.073	5101.41
519.44	5147.28
519.808	5192.7
520.175	5229.54
520.542	5176.66
520.909	5271.12
521.276	5238.8
521.643	5299.37
522.009	5278.35
522.376	5341.85
522.743	5354.73
523.11	5390.21
523.477	5409.65
523.843	5439.93
524.21	5468.4
524.577	5472.47
524.943	5500.94
525.31	5597.44
525.676	5527.16
526.043	5541.62
526.409	5606.93
526.776	5671.79
527.142	5697.55
527.508	5647.38
527.874	5736.42
528.241	5756.08
528.607	5813.7
528.973	5766.02
529.339	5816.64
529.705	5861.84
530.071	5897.77
530.437	5952.46
530.803	5964.43
531.169	5994.26
531.535	6008.05
531.901	6032.68
532.267	5984.09
532.632	6081.27
532.998	6032
533.364	6129.4
533.73	6112
534.095	6192.45
534.461	6188.83
534.826	6224.99
535.192	6227.7
535.557	6246.01
535.923	6330.3
536.288	6345.89
536.653	6347.93
537.019	6365.33
537.384	6427.02
537.749	6426.79
538.114	6402.84
538.479	6411.88
538.845	6408.94
539.21	6508.6
539.575	6441.03
539.94	6539.11
540.305	6587.69
540.67	6567.13
541.034	6584.98
541.399	6675.38
541.764	6630.4
542.129	6659.78
542.494	6749.95
542.858	6795.37
543.223	6750.18
543.587	6814.58
543.952	6850.06
544.316	6892.77
544.681	6858.42
545.045	6952.43
545.41	6979.1
545.774	6909.04
546.138	6992.88
546.503	7004.86
546.867	7032.43
547.231	7118.08
547.595	7096.16
547.959	7082.82
548.324	7113.56
548.688	7117.62
549.052	7172.54
549.416	7246.43
549.779	7213.44
550.143	7255.7
550.507	7328.69
550.871	7297.51
551.235	7318.3
551.599	7412.31
551.962	7380.22
552.326	7360.56
552.689	7488.24
553.053	7424.28
553.417	7453.89
553.78	7545.18
554.143	7485.75
554.507	7523.04
554.87	7516.71
555.234	7622.02
555.597	7578.18
555.96	7693.65
556.323	7662.69
556.686	7602.36
557.05	7694.56
557.413	7695.24
557.776	7743.14
558.139	7788.79
558.502	7767.55
558.865	7810.03
559.228	7862.69
559.59	7941.1
559.953	7885.06
560.316	7963.93
560.679	7935.23
561.041	7983.82
561.404	7984.72
561.767	8102
562.129	8031.5
562.492	8079.86
562.854	8138.16
563.217	8099.52
563.579	8112.4
563.941	8193.53
564.304	8231.72
564.666	8285.28
565.028	8291.83
565.39	8253.86
565.753	8362.56
566.115	8308.33
566.477	8421.09
566.839	8415.22
567.201	8432.62
567.563	8394.43
567.925	8497.02
568.287	8520.98
568.648	8548.09
569.01	8531.6
569.372	8617.7
569.734	8629.9
570.095	8682.1
570.457	8707.86
570.819	8789.9
571.18	8796.45
571.542	8823.79
571.903	8824.47
572.265	8907.18
572.626	8943.34
572.987	8992.6
573.349	9030.79
573.71	9090.91
574.071	9133.16
574.432	9166.84
574.794	9275.53
575.155	9257.68
575.516	9297.45
575.877	9449.77
576.238	9457.22
576.599	9574.06
576.96	9685.47
577.32	9718.69
577.681	9748.51
578.042	9915.29
578.403	9962.07
578.763	10046.81
579.124	10189.63
579.485	10259.91
579.845	10473.24
580.206	10434.6
580.566	10645.89
580.927	10788.49
581.287	10933.34
581.648	11030.97
582.008	11165.88
582.368	11308.25
582.728	11500.56
583.089	11681.8
583.449	11798.63
583.809	11968.8
584.169	12250.82
584.529	12336.02
584.889	12671.6
585.249	12774.65
585.609	12916.79
585.969	13258.71
586.329	13430.45
586.688	13614.18
587.048	13865.92
587.408	14001.51
587.768	14375.96
588.127	14596.3
588.487	14861.15
588.846	15269.5
589.206	15314.24
589.565	15608.25
589.925	15974.79
590.284	16152.19
590.643	16555.12
591.003	16801.21
591.362	17087.53
591.721	17410.69
592.08	17656.1
592.44	17988.75
592.799	18268.52
593.158	18534.27
593.517	18881.83
593.876	19209.96
594.235	19433.68
594.593	19854.01
594.952	20119.54
595.311	20377.61
595.67	20703.03
596.029	21099.18
596.387	21474.31
596.746	21832.72
597.104	22095.53
597.463	22227.28
597.822	22783.43
598.18	22983.87
598.538	23288.05
598.897	23582.5
599.255	23820.24
599.613	24404.4
599.972	24625.64
600.33	24881.22
600.688	25038.06
601.046	25445.73
601.404	25745.38
601.762	26150.34
602.12	26450
602.478	26741.06
602.836	26955.52
603.194	27021.06
603.552	27404.77
603.91	27509.63
604.268	28030.29
604.625	28277.07
604.983	28545.08
605.341	28667.34
605.698	29104.16
606.056	29271.39
606.413	29502.57
606.771	30027.76
607.128	30168.99
607.485	30302.55
607.843	30458.93
608.2	30953.61
608.557	31250.77
608.914	31502.75
609.272	31723.53
609.629	31986.12
609.986	32278.54
610.343	32422.27
610.7	32844.18
611.057	32898.87
611.414	32994.68
611.771	33243.94
612.127	33445.97
612.484	33691.39
612.841	33949.01
613.198	34038.27
613.554	34211.6
613.911	34551.48
614.267	34812.71
614.624	34888.42
614.98	34987.17
615.337	35338.35
615.693	35470.78
616.05	35493.83
616.406	35902.86
616.762	35926.58
617.118	35923.87
617.475	36167.26
617.831	36391.2
618.187	36636.85
618.543	36937.63
618.899	36946.22
619.255	37169.04
619.611	37138.3
619.967	37385.08
620.323	37512.53
620.678	37534.45
621.034	37595.69
621.39	37643.83
621.746	37865.74
622.101	38288.56
622.457	38141.21
622.812	38315.9
623.168	38399.06
623.523	38477.03
623.879	38657.59
624.234	38535.55
624.589	38820.07
624.945	38876.56
625.3	38914.3
625.655	39008.76
626.01	39116.56
626.365	39187.51
626.72	39431.8
627.075	39313.16
627.43	39378.92
627.785	39328.75
628.14	39331.47
628.495	39554.06
628.85	39540.73
629.205	39615.53
629.559	39765.8
629.914	39656.43
630.269	39733.49
630.623	39775.75
630.978	39761.06
631.332	40108.85
631.687	40136.42
632.041	40064.1
632.396	40119.69
632.75	39843.77
633.104	40079.02
633.459	40008.28
633.813	40019.81
634.167	40034.5
634.521	40043.76
634.875	40072.69
635.229	40133.93
635.583	40034.27
635.937	40020.49
636.291	39959.92
636.645	40109.3
636.999	40131.22
637.352	40257.77
637.706	39910.43
638.06	40018.91
638.413	40011.67
638.767	39877.67
639.121	40084.67
639.474	39718.8
639.828	39896.2
640.181	40036.53
640.534	40013.26
640.888	39872.47
641.241	39698.24
641.594	39815.75
641.947	40076.53
642.301	39855.52
642.654	40050.09
643.007	40020.26
643.36	39862.98
643.713	39757.9
644.066	39944.33
644.419	39756.77
644.771	39523.1
645.124	39147.06
645.477	39190.45
645.83	39012.15
646.182	38967.41
646.535	38766.28
646.888	38799.73
647.24	38560.41
647.593	38907.97
647.945	38714.76
648.298	38609
648.65	38529
649.002	38445.84
649.355	38642.67
649.707	38557.47
650.059	38771.48
650.411	39176.22
650.763	39261.19
651.115	39686.48
651.467	39648.52
651.819	39516.77
652.171	39463.89
652.523	39422.08
652.875	39523.1
653.227	39252.37
653.578	39675.64
653.93	39522.42
654.282	39319.94
654.633	39229.77
654.985	39456.89
655.337	39310.45
655.688	39353.61
656.039	39546.83
656.391	39013.96
656.742	39280.85
657.094	39234.97
657.445	39280.39
657.796	39207.85
658.147	39224.12
658.498	39152.49
658.849	39232.26
659.2	39148.87
659.551	39122.43
659.902	39235.42
660.253	39250.11
660.604	39247.4
660.955	39015.54
661.306	39289.88
661.656	39087.18
662.007	39099.83
662.358	39035.2
662.708	39104.58
663.059	39067.07
663.409	38900.29
663.76	39115.88
664.11	39103.68
664.461	39087.86
664.811	39124.47
665.161	39150
665.511	38921.31
665.862	39021.42
666.212	39099.16
666.562	39107.29
666.912	38955.2
667.262	38900.06
667.612	39022.77
667.962	39020.97
668.312	38959.72
668.662	39119.72
669.011	38993.4
669.361	38990.01
669.711	38936.22
670.06	38843.12
670.41	38982.77
670.76	38863.91
671.109	38969.22
671.459	38907.07
671.808	38936
672.157	39041.3
672.507	38698.26
672.856	38852.61
673.205	38814.64
673.554	39043.56
673.904	38707.08
674.253	38753.18
674.602	38756.34
674.951	38299.4
675.3	38057.83
675.649	38648.32
675.998	38725.38
676.346	38679.05
676.695	38691.93
677.044	38412.17
677.393	38545.5
677.741	38671.82
678.09	38665.27
678.438	38452.39
678.787	38625.5
679.135	38590.47
679.484	38307.09
679.832	38368.55
680.181	38159.97
680.529	38133.53
680.877	38259.63
681.225	38171.27
681.573	38459.62
681.922	38054.66
682.27	38024.61
682.618	38021.67
682.966	37999.3
683.314	38028.45
683.661	37903.93
684.009	37765.63
684.357	37714.56
684.705	37608.12
685.053	37721.79
685.4	37663.04
685.748	37498.75
686.095	37392.53
686.443	37311.86
686.79	37367.45
687.138	37312.76
687.485	37338.07
687.832	37312.76
688.18	37350.5
688.527	36983.05
688.874	37046.78
689.221	36902.83
689.568	36941.7
689.915	36870.74
690.262	36839.33
690.609	36702.61
690.956	36495.61
691.303	36559.79
691.65	36359.34
691.997	36482.05
692.344	36202.73
692.69	36181.27
693.037	36097.2
693.383	35861.73
693.73	36037.77
694.077	35804.78
694.423	35851.56
694.769	35668.96
695.116	35643.88
695.462	35577.44
695.808	35316.88
696.155	35477.33
696.501	35109.43
696.847	35201.63
697.193	35113.95
697.539	35174.96
697.885	34816.1
698.231	34823.11
698.577	34786.95
698.923	34777.69
699.269	34603.68
699.614	34377.02
699.96	34329.11
700.306	34422.22
700.651	34167.99
700.997	34198.27
701.342	34126.4
701.688	34024.49
702.033	33916.24
702.379	33953.53
702.724	33866.3
703.069	33932.96
703.415	33511.51
703.76	33471.51
704.105	33499.98
704.45	33388.12
704.795	33349.25
705.14	33131.4
705.485	33129.14
705.83	33025.87
706.175	33017.28
706.52	33092.99
706.865	32920.11
707.209	32730.96
707.554	32712.66
707.899	32784.97
708.243	32563.51
708.588	32604.19
708.932	32379.11
709.277	32370.52
709.621	32337.75
709.966	32213.23
710.31	32207.13
710.654	31949.51
710.998	31954.03
711.342	32084.42
711.687	31849.63
712.031	31762.85
712.375	31728.28
712.719	31812.79
713.063	31650.31
713.407	31730.99
713.75	31559.24
714.094	31532.8
714.438	31427.04
714.782	31438.57
715.125	31251.9
715.469	31295.97
715.812	31138.46
716.156	31092.59
716.499	31056.88
716.843	31099.82
717.186	30899.37
717.53	31005.36
717.873	30966.71
718.216	30946.6
718.559	30671.13
718.902	30480.4
719.246	30624.35
719.589	30525.82
719.932	30415.54
720.275	30324.47
720.617	30317.92
720.96	30248.31
721.303	30278.6
721.646	30285.83
721.989	30091.71
722.331	30231.14
722.674	30132.39
723.016	30028.66
723.359	30100.07
723.701	30018.04
724.044	29933.29
724.386	29662.34
724.729	29852.17
725.071	29722.68
725.413	29750.47
725.755	29636.13
726.097	29548.9
726.439	29493.53
726.782	29473.19
727.124	29556.13
727.465	29375.8
727.807	29390.71
728.149	29385.96
728.491	29252.18
728.833	29333.31
729.175	29112.98
729.516	29170.6
729.858	29099.87
730.199	29099.19
730.541	29019.19
730.882	29017.16
731.224	29156.82
731.565	28912.3
731.906	28916.15
732.248	28779.88
732.589	28757.28
732.93	28637.51
733.271	28623.95
733.612	28668.47
733.953	28680.22
734.294	28503.05
734.635	28473.9
734.976	28583.5
735.317	28387.8
735.658	28467.8
735.999	28309.61
736.339	28285.43
736.68	28389.38
737.021	28247.24
737.361	28154.58
737.702	28260.8
738.042	28139.9
738.383	28093.8
738.723	28075.94
739.063	28034.81
739.404	28046.11
739.744	27954.59
740.084	27871.88
740.424	27978.77
740.764	27831.2
741.104	27952.56
741.444	27717.99
741.784	27620.36
742.124	27813.35
742.464	27718.66
742.804	27666.24
743.143	27530.87
743.483	27481.83
743.823	27460.37
744.162	27316.19
744.502	27419.91
744.841	27286.81
745.181	27433.7
745.52	27300.82
745.86	27348.73
746.199	27174.95
746.538	27205.46
746.877	27297.66
747.216	27064.44
747.556	27135.85
747.895	27011.34
748.234	26872.13
748.573	26920.27
748.911	26757.33
749.25	26825.81
749.589	26717.56
749.928	26729.54
750.267	26839.82
750.605	26690.89
750.944	26593.72
751.283	26469.21
751.621	26606.83
751.96	26438.25
752.298	26341.98
752.636	26454.52
752.975	26188.53
753.313	26233.05
753.651	26326.84
753.989	26088.88
754.327	26176.11
754.666	26076
755.004	25976.79
755.342	26021.31
755.679	25924.59
756.017	25790.13
756.355	25974.98
756.693	25697.7
757.031	25673.29
757.368	25515.11
757.706	25562.79
758.044	25399.18
758.381	25622.67
758.719	25312.4
759.056	25424.49
759.394	25270.37
759.731	25111.95
760.068	25022.69
