Data from hue_24_FLMS001491_00052.txt Node
Date: Tue Feb 07 17:12:27 GMT 2017
User: dcchb
Spectrometer: FLMS00149
Trigger mode: 0
Integration Time (sec): 2.000000E-2
Scans to average: 10
Electric dark correction enabled: true
Nonlinearity correction enabled: false
Boxcar width: 0
XAxis mode: Wavelengths
Number of Pixels in Spectrum: 2048
>>>>>Begin Spectral Data<<<<<
341.393	-16.92
341.776	-16.92
342.16	-16.92
342.543	-51.95
342.927	-74.32
343.31	-79.52
343.693	-56.02
344.077	-52.85
344.46	-50.14
344.843	-67.31
345.226	-20.31
345.61	-32.06
345.993	-2.46
346.376	-2.23
346.759	13.36
347.142	16.3
347.525	35.73
347.908	44.55
348.291	59.46
348.674	88.39
349.057	105.11
349.44	113.47
349.823	143.08
350.206	152.11
350.588	179.01
350.971	197.09
351.354	223.07
351.737	235.5
352.119	244.32
352.502	284.31
352.884	266.46
353.267	268.72
353.65	301.72
354.032	303.52
354.414	295.16
354.797	301.26
355.179	325.44
355.562	324.99
355.944	313.47
356.326	332.45
356.709	336.74
357.091	334.93
357.473	350.53
357.855	341.26
358.238	343.75
358.62	332
359.002	337.42
359.384	343.52
359.766	343.3
360.148	335.16
360.53	356.18
360.912	343.52
361.294	328.61
361.676	315.73
362.057	332.22
362.439	318.44
362.821	320.02
363.203	326.57
363.584	325.44
363.966	330.19
364.348	316.18
364.729	337.19
365.111	327.93
365.493	343.52
365.874	351.88
366.256	335.61
366.637	327.7
367.019	313.47
367.4	318.21
367.781	322.28
368.163	313.47
368.544	303.07
368.925	288.61
369.306	303.75
369.688	309.17
370.069	330.87
370.45	316.63
370.831	302.39
371.212	323.18
371.593	306.46
371.974	303.3
372.355	311.43
372.736	322.51
373.117	304.43
373.498	314.82
373.879	312.79
374.26	322.28
374.641	322.51
375.021	312.56
375.402	317.99
375.783	320.92
376.163	335.61
376.544	319.79
376.925	342.62
377.305	317.31
377.686	323.64
378.066	326.8
378.447	324.09
378.827	316.4
379.208	337.42
379.588	310.75
379.968	353.47
380.349	343.75
380.729	327.48
381.109	336.74
381.489	345.78
381.87	311.88
382.25	353.47
382.63	325.9
383.01	341.49
383.39	344.88
383.77	340.36
384.15	358.89
384.53	336.06
384.91	338.32
385.29	342.84
385.67	339.45
386.049	340.81
386.429	374.03
386.809	356.4
387.189	348.27
387.568	344.88
387.948	340.81
388.328	345.56
388.707	357.31
389.087	355.95
389.466	355.95
389.846	341.71
390.225	359.34
390.605	371.32
390.984	369.06
391.363	364.31
391.743	369.51
392.122	355.5
392.501	349.4
392.881	376.97
393.26	395.05
393.639	370.64
394.018	363.41
394.397	377.42
394.776	354.14
395.155	375.16
395.534	398.21
395.913	361.15
396.292	367.48
396.671	390.75
397.05	376.97
397.429	408.61
397.808	379.45
398.186	389.62
398.565	403.18
398.944	374.03
399.323	384.65
399.701	403.86
400.08	384.88
400.458	402.96
400.837	410.19
401.215	390.98
401.594	401.83
401.972	384.42
402.351	388.94
402.729	388.04
403.107	405.44
403.486	402.05
403.864	399.34
404.242	438.89
404.62	402.96
404.999	409.96
405.377	403.86
405.755	400.24
406.133	403.86
406.511	416.06
406.889	449.96
407.267	412.45
407.645	431.43
408.023	437.53
408.401	430.07
408.779	443.86
409.156	435.95
409.534	438.89
409.912	456.51
410.29	442.73
410.667	441.6
411.045	456.51
411.422	461.03
411.8	450.86
412.178	469.39
412.555	477.08
412.933	455.84
413.31	458.77
413.687	471.43
414.065	453.12
414.442	492.67
414.819	462.61
415.197	479.79
415.574	464.42
415.951	481.6
416.328	465.1
416.705	486.12
417.082	458.77
417.46	515.27
417.837	478.21
418.214	495.61
418.591	506.91
418.967	492.9
419.344	478.43
419.721	496.74
420.098	510.3
420.475	506.68
420.852	475.95
421.228	496.51
421.605	502.61
421.982	532.9
422.358	541.26
422.735	523.18
423.111	540.58
423.488	543.97
423.864	503.52
424.241	553.46
424.617	541.03
424.994	542.61
425.37	531.99
425.746	541.26
426.123	531.54
426.499	558.21
426.875	550.97
427.251	541.48
427.627	548.49
428.003	579.45
428.379	569.05
428.756	585.32
429.132	571.54
429.507	589.84
429.883	563.4
430.259	590.07
430.635	604.08
431.011	585.78
431.387	612.22
431.763	602.27
432.138	606.57
432.514	600.69
432.89	626
433.265	627.81
433.641	639.56
434.016	635.49
434.392	639.11
434.767	655.15
435.143	651.76
435.518	654.7
435.894	654.47
436.269	680.46
436.644	654.7
437.02	666.23
437.395	662.16
437.77	681.37
438.145	685.66
438.52	691.31
438.895	695.15
439.271	691.99
439.646	696.28
440.021	687.24
440.395	710.29
440.77	710.07
441.145	709.16
441.52	721.14
441.895	746.45
442.27	727.47
442.645	740.57
443.019	724.98
443.394	722.04
443.769	755.71
444.143	736.28
444.518	747.58
444.892	740.57
445.267	748.26
445.641	743.06
446.016	779.89
446.39	761.82
446.764	757.97
447.139	777.86
447.513	772.21
447.887	765.43
448.262	796.39
448.636	792.32
449.01	786.45
449.384	809.05
449.758	813.34
450.132	834.81
450.506	815.37
450.88	811.08
451.254	821.7
451.628	832.32
452.002	823.96
452.376	846.33
452.75	850.18
453.123	850.63
453.497	874.58
453.871	845.43
454.244	869.38
454.618	878.42
454.992	895.6
455.365	902.6
455.739	892.89
456.112	918.42
456.486	896.5
456.859	933.79
457.232	958.2
457.606	945.77
457.979	952.77
458.352	972.88
458.725	957.97
459.099	1001.81
459.472	998.65
459.845	990.28
460.218	1005.2
460.591	1002.04
460.964	1038.19
461.337	1023.5
461.71	1044.07
462.083	1073.9
462.456	1086.1
462.829	1060.34
463.201	1079.55
463.574	1106.44
463.947	1092.2
464.32	1109.15
464.692	1117.29
465.065	1130.39
465.438	1118.42
465.81	1159.09
466.183	1178.53
466.555	1166.55
466.928	1208.81
467.3	1192.31
467.672	1219.21
468.045	1291.29
468.417	1255.59
468.789	1237.51
469.161	1267.57
469.534	1289.94
469.906	1311.86
470.278	1310.95
470.65	1330.61
471.022	1375.13
471.394	1380.33
471.766	1404.06
472.138	1396.15
472.51	1421.01
472.882	1487.22
473.253	1488.35
473.625	1500.55
473.997	1556.6
474.369	1547.56
474.74	1573.77
475.112	1606.99
475.484	1612.19
475.855	1650.61
476.227	1663.26
476.598	1736.25
476.97	1729.7
477.341	1747.78
477.713	1773.31
478.084	1793.88
478.455	1851.5
478.827	1906.19
479.198	1946.87
479.569	1933.08
479.94	1964.72
480.311	1995.46
480.682	2078.39
481.053	2133.98
481.424	2136.7
481.795	2176.02
482.166	2213.3
482.537	2247.43
482.908	2291.27
483.279	2325.39
483.65	2383.47
484.021	2445.84
484.391	2459.62
484.762	2493.07
485.133	2546.18
485.503	2562.9
485.874	2670.92
486.244	2651.03
486.615	2711.82
486.985	2727.87
487.356	2793.18
487.726	2831.59
488.097	2917.01
488.467	2935.09
488.837	2988.42
489.207	3017.35
489.578	3048.54
489.948	3126.95
490.318	3184.13
490.688	3198.36
491.058	3241.75
491.428	3292.37
491.798	3321.3
492.168	3397.68
492.538	3430.67
492.908	3453.5
493.278	3560.84
493.648	3519.03
494.017	3609.42
494.387	3611.91
494.757	3679.48
495.126	3698.24
495.496	3722.87
495.866	3759.25
496.235	3815.97
496.605	3835.63
496.974	3864.56
497.344	3904.78
497.713	3946.37
498.082	3986.82
498.452	4055.74
498.821	4077.66
499.19	4076.08
499.559	4110.65
499.928	4159.69
500.298	4150.65
500.667	4213.93
501.036	4225.91
501.405	4277.2
501.774	4272.91
502.143	4311.55
502.512	4335.96
502.88	4383.42
503.249	4394.94
503.618	4384.55
503.987	4419.8
504.356	4476.75
504.724	4474.94
505.093	4472.45
505.462	4488.05
505.83	4571.43
506.199	4580.7
506.567	4674.93
506.936	4659.79
507.304	4674.71
507.672	4695.5
508.041	4703.63
508.409	4767.13
508.777	4804.87
509.145	4794.93
509.514	4797.42
509.882	4826.12
510.25	4866.34
510.618	4913.57
510.986	4874.93
511.354	4944.53
511.722	4990.18
512.09	5026.79
512.458	5003.06
512.826	5022.04
513.193	5050.74
513.561	5089.84
513.929	5058.88
514.297	5141.59
514.664	5137.97
515.032	5162.38
515.4	5206.9
515.767	5233.34
516.135	5205.99
516.502	5212.55
516.869	5300.91
517.237	5288.25
517.604	5254.81
517.972	5316.27
518.339	5420.68
518.706	5407.12
519.073	5346.55
519.44	5450.05
519.808	5438.53
520.175	5451.86
520.542	5500
520.909	5512.2
521.276	5479.88
521.643	5576.15
522.009	5648.69
522.376	5619.54
522.743	5653.21
523.11	5672.87
523.477	5702.03
523.843	5789.93
524.21	5799.2
524.577	5837.16
524.943	5895.47
525.31	5892.98
525.676	5962.36
526.043	5936.37
526.409	6004.16
526.776	6066.54
527.142	5997.38
527.508	6117.61
527.874	6097.5
528.241	6134.78
528.607	6207.32
528.973	6243.25
529.339	6244.61
529.705	6257.04
530.071	6258.62
530.437	6349.92
530.803	6331.16
531.169	6389.01
531.535	6428.79
531.901	6410.26
532.267	6420.65
532.632	6502.23
532.998	6519.18
533.364	6556.69
533.73	6600.31
534.095	6622.23
534.461	6616.58
534.826	6728.44
535.192	6689.8
535.557	6733.18
535.923	6711.72
536.288	6763.47
536.653	6789.45
537.019	6807.98
537.384	6758.49
537.749	6837.59
538.114	6838.94
538.479	6862.9
538.845	6961.88
539.21	6940.86
539.575	6968.43
539.94	7014.31
540.305	7076.23
540.67	7071.93
541.034	7054.98
541.399	7134.98
541.764	7110.58
542.129	7163.91
542.494	7205.71
542.858	7216.11
543.223	7259.5
543.587	7346.5
543.952	7317.12
544.316	7371.36
544.681	7343.11
545.045	7447.29
545.41	7412.04
545.774	7436.22
546.138	7488.19
546.503	7483
546.867	7478.48
547.231	7491.36
547.595	7523.9
547.959	7606.83
548.324	7652.26
548.688	7621.75
549.052	7686.38
549.416	7657.91
549.779	7757.11
550.143	7708.53
550.507	7859.71
550.871	7835.3
551.235	7841.63
551.599	7824.91
551.962	7897.22
552.326	7936.99
552.689	7967.73
553.053	7895.64
553.417	7959.82
553.78	8054.28
554.143	8008.41
554.507	8091.79
554.87	8174.28
555.234	8168.18
555.597	8116.88
555.96	8197.55
556.323	8234.16
556.686	8248.4
557.05	8339.02
557.413	8369.53
557.776	8347.83
558.139	8378.79
558.502	8385.34
558.865	8394.61
559.228	8449.07
559.59	8459.24
559.953	8461.05
560.316	8543.31
560.679	8528.39
561.041	8598.22
561.404	8623.53
561.767	8666.92
562.129	8670.99
562.492	8764.77
562.854	8689.97
563.217	8752.79
563.579	8773.58
563.941	8850.87
564.304	8926.12
564.666	8960.02
565.028	8955.95
565.39	8976.06
565.753	8979.45
566.115	9002.05
566.477	9084.31
566.839	9118.43
567.201	9119.79
567.563	9123.4
567.925	9174.25
568.287	9210.18
568.648	9222.16
569.01	9350.74
569.372	9396.84
569.734	9294.7
570.095	9444.98
570.457	9494.02
570.819	9490.17
571.18	9457.63
571.542	9609.72
571.903	9640.23
572.265	9607.46
572.626	9668.93
572.987	9674.8
573.349	9841.13
573.71	9818.75
574.071	9934.91
574.432	9922.93
574.794	10068.46
575.155	10043.61
575.516	10097.84
575.877	10141.23
576.238	10235.47
576.599	10359.98
576.96	10361.79
577.32	10478.62
577.681	10548.45
578.042	10608.56
578.403	10647.66
578.763	10779.41
579.124	10865.51
579.485	10884.94
579.845	11061.21
580.206	11217.36
580.566	11303.46
580.927	11319.05
581.287	11550.23
581.648	11602.44
582.008	11785.03
582.368	11874.74
582.728	12022.76
583.089	12077.9
583.449	12343.43
583.809	12362.87
584.169	12662.75
584.529	12764.66
584.889	13030.87
585.249	13244.65
585.609	13264.99
585.969	13556.96
586.329	13765.77
586.688	13937.97
587.048	14147.45
587.408	14320.33
587.768	14534.34
588.127	14817.72
588.487	15044.83
588.846	15388.1
589.206	15473.52
589.565	15780.4
589.925	16120.51
590.284	16334.74
590.643	16581.51
591.003	16877.55
591.362	17219.69
591.721	17440.47
592.08	17596.63
592.44	18012.89
592.799	18267.34
593.158	18611.06
593.517	18868.91
593.876	19197.04
594.235	19397.26
594.593	19713.63
594.952	20098.48
595.311	20258.7
595.67	20648.52
596.029	21074.95
596.387	21368.28
596.746	21670.64
597.104	21911.54
597.463	22165.77
597.822	22547.23
598.18	22758.75
598.538	23050.72
598.897	23461.78
599.255	23572.97
599.613	24206.4
599.972	24385.15
600.33	24863.78
600.688	24958.47
601.046	25377.89
601.404	25800.25
601.762	25985.11
602.12	26341.03
602.478	26665.77
602.836	26944.86
603.194	27110.95
603.552	27400.44
603.91	27666.65
604.268	28122.45
604.625	28205.39
604.983	28669.33
605.341	28802.89
605.698	29272.93
606.056	29459.59
606.413	29621.62
606.771	30015.96
607.128	30352.22
607.485	30315.39
607.843	30549.06
608.2	31061.58
608.557	31386.1
608.914	31418.41
609.272	31700.21
609.629	32106.3
609.986	32345.17
610.343	32375.45
610.7	32734.99
611.057	32887.3
611.414	33214.97
611.771	33364.35
612.127	33478.24
612.484	33862.87
612.841	34135.63
613.198	34120.26
613.554	34387.15
613.911	34616.97
614.267	34704.2
614.624	34971.09
614.98	35211.98
615.337	35525.2
615.693	35544.86
616.05	35708.92
616.406	36018.74
616.762	36118.4
617.118	36282.69
617.475	36351.61
617.831	36689.23
618.187	36882
618.543	36886.52
618.899	37166.06
619.255	37398.82
619.611	37422.32
619.967	37646.04
620.323	37720.17
620.678	37914.96
621.034	37772.14
621.39	37872.25
621.746	38026.82
622.101	38575.96
622.457	38368.96
622.812	38533.25
623.168	38573.48
623.523	38704.55
623.879	38995.61
624.234	38729.18
624.589	38937.54
624.945	39097.76
625.3	39236.96
625.655	39282.84
626.01	39402.61
626.365	39451.65
626.72	39471.31
627.075	39521.25
627.43	39511.76
627.785	39611.87
628.14	39868.13
628.495	39795.82
628.85	39824.74
629.205	39778.87
629.559	40003.04
629.914	39918.53
630.269	40101.8
630.623	39931.18
630.978	39904.52
631.332	40234
631.687	40329.59
632.041	40127.33
632.396	40246.2
632.75	40226.99
633.104	40219.99
633.459	40179.54
633.813	40095.25
634.167	40212.08
634.521	40390.6
634.875	40265.18
635.229	40355.8
635.583	40208.46
635.937	40216.37
636.291	40156.26
636.645	40231.96
636.999	40193.77
637.352	40412.52
637.706	40137.28
638.06	40275.13
638.413	40281.68
638.767	40223.83
639.121	40338.4
639.474	40106.54
639.828	40209.82
640.181	40202.59
640.534	40161.01
640.888	40090.95
641.241	39988.58
641.594	40168.46
641.947	40310.38
642.301	40010.95
642.654	40167.33
643.007	40301.12
643.36	40130.72
643.713	40165.98
644.066	40254.34
644.419	39906.55
644.771	39812.54
645.124	39468.14
645.477	39463.85
645.83	39193.8
646.182	39076.51
646.535	38936.86
646.888	39186.12
647.24	38836.07
647.593	39070.41
647.945	38968.95
648.298	38923.3
648.65	38817.76
649.002	38740.7
649.355	38896.63
649.707	38897.99
650.059	39046.23
650.411	39509.5
650.763	39647.35
651.115	39853.67
651.467	39806.67
651.819	39896.83
652.171	39700.45
652.523	39756.95
652.875	39636.05
653.227	39567.35
653.578	39850.51
653.93	39655.48
654.282	39441.48
654.633	39429.27
654.985	39587.01
655.337	39666.78
655.688	39508.14
656.039	39889.37
656.391	39315.38
656.742	39550.85
657.094	39465.43
657.445	39701.58
657.796	39348.37
658.147	39439.67
658.498	39515.6
658.849	39382.95
659.2	39405.09
659.551	39332.55
659.902	39547.24
660.253	39436.51
660.604	39540.91
660.955	39273.57
661.306	39399.9
661.656	39433.34
662.007	39527.12
662.358	39409.84
662.708	39408.71
663.059	39310.63
663.409	39254.14
663.76	39514.7
664.11	39424.98
664.461	39512.66
664.811	39473.57
665.161	39428.14
665.511	39309.05
665.862	39345.66
666.212	39494.58
666.562	39369.39
666.912	39315.6
667.262	39185.66
667.612	39213.01
667.962	39331.88
668.312	39148.6
668.662	39542.49
669.011	39251.65
669.361	39168.94
669.711	39234.02
670.06	39153.12
670.41	39160.58
670.76	39173.46
671.109	39191.77
671.459	39265.89
671.808	39100.24
672.157	39270.18
672.507	38896.41
672.856	39080.36
673.205	39036.29
673.554	39129.62
673.904	38947.48
674.253	39222.05
674.602	38987.03
674.951	38537.77
675.3	38270.89
675.649	38998.1
675.998	38953.81
676.346	38876.97
676.695	38980.25
677.044	38763.53
677.393	38789.52
677.741	39029.74
678.09	38772.34
678.438	38570.09
678.787	38770.08
679.135	38711.55
679.484	38529.41
679.832	38634.49
680.181	38515.17
680.529	38500.94
680.877	38482.63
681.225	38500.94
681.573	38604.44
681.922	38313.37
682.27	38221.85
682.618	38284.67
682.966	38111.12
683.314	38276.08
683.661	38100.27
684.009	37997.45
684.357	37925.36
684.705	37835.19
685.053	37872.48
685.4	37892.82
685.748	37897.79
686.095	37688.53
686.443	37641.07
686.79	37544.35
687.138	37514.3
687.485	37570.34
687.832	37372.15
688.18	37518.82
688.527	37221.42
688.874	37206.73
689.221	37154.98
689.568	37126.28
689.915	36949.11
690.262	36996.12
690.609	36952.28
690.956	36740.08
691.303	36744.15
691.65	36545.51
691.997	36554.77
692.344	36428.45
692.69	36371.95
693.037	36336.02
693.383	36067.33
693.73	36265.97
694.077	35978.07
694.423	36081.57
694.769	35854.9
695.116	35909.59
695.462	35886.32
695.808	35674.34
696.155	35685.64
696.501	35518.87
696.847	35449.72
697.193	35123.62
697.539	35365.2
697.885	35003.85
698.231	35028.03
698.577	35015.6
698.923	34857.42
699.269	34701.26
699.614	34648.38
699.96	34554.15
700.306	34547.14
700.651	34302.63
700.997	34338.33
701.342	34186.7
701.688	34229.86
702.033	34123.42
702.379	34053.37
702.724	33936.76
703.069	34070.77
703.415	33664.68
703.76	33626.26
704.105	33739.03
704.45	33646.83
704.795	33488.41
705.14	33377.46
705.485	33318.02
705.83	33144.92
706.175	33344.24
706.52	33118.93
706.865	32995.09
707.209	33052.27
707.554	32870.35
707.899	32894.76
708.243	32664.25
708.588	32718.72
708.932	32441.21
709.277	32419.29
709.621	32353.08
709.966	32271.04
710.31	32363.92
710.654	32025.85
710.998	32117.38
711.342	32085.74
711.687	31897.27
712.031	31885.29
712.375	31908.57
712.719	31820.43
713.063	31723.04
713.407	31925.29
713.75	31602.81
714.094	31606.43
714.438	31543.15
714.782	31553.77
715.125	31442.14
715.469	31455.7
715.812	31338.41
716.156	31148.14
716.499	31185.2
716.843	31165.99
717.186	31017.74
717.53	31209.15
717.873	31147.68
718.216	31040.79
718.559	30791.76
718.902	30615.72
719.246	30749.95
719.589	30602.61
719.932	30397.2
720.275	30612.33
720.617	30540.92
720.96	30497.98
721.303	30355.39
721.646	30447.82
721.989	30293.92
722.331	30367.14
722.674	30319.23
723.016	30221.15
723.359	30169.18
723.701	30126.69
724.044	29959.92
724.386	29952.24
724.729	30067.49
725.071	29933.93
725.413	29892.12
725.755	29768.51
726.097	29809.87
726.439	29510.89
726.782	29701.85
727.124	29736.65
727.465	29546.82
727.807	29572.58
728.149	29403.1
728.491	29421.85
728.833	29409.88
729.175	29374.4
729.516	29201.07
729.858	29204.46
730.199	29213.72
730.541	29148.87
730.882	29146.61
731.224	29274.06
731.565	29091.92
731.906	28964.01
732.248	29022.77
732.589	28852.15
732.93	28860.51
733.271	28917.69
733.612	28851.25
733.953	28723.79
734.294	28720.63
734.635	28597.92
734.976	28769.44
735.317	28501.65
735.658	28647.64
735.999	28548.88
736.339	28491.71
736.68	28571.93
737.021	28466.62
737.361	28369.45
737.702	28467.53
738.042	28411.03
738.383	28319.51
738.723	28279.06
739.063	28243.58
739.404	28320.41
739.744	28211.94
740.084	28002
740.424	28123.81
740.764	27985.73
741.104	28147.76
741.444	27958.62
741.784	27887.43
742.124	27984.83
742.464	27872.52
742.804	27798.17
743.143	27787.55
743.483	27719.75
743.823	27678.62
744.162	27706.42
744.502	27713.42
744.841	27572.64
745.181	27639.75
745.52	27424.62
745.86	27669.36
746.199	27543.03
746.538	27395.01
746.877	27509.59
747.216	27544.61
747.556	27372.87
747.895	27402.92
748.234	27353.43
748.573	27188.01
748.911	27248.13
749.25	27316.82
749.589	27129.26
749.928	27244.06
750.267	27183.04
750.605	27035.7
750.944	26905.76
751.283	27023.05
751.621	27075.93
751.96	26814.01
752.298	26850.85
752.636	26832.32
752.975	26683.85
753.313	26637.75
753.651	26696.05
753.989	26520.91
754.327	26504.64
754.666	26389.39
755.004	26512.55
755.342	26439.79
755.679	26350.75
756.017	26174.48
756.355	26361.82
756.693	26125.67
757.031	26202.96
757.368	26052
757.706	25953.47
758.044	25994.15
758.381	25989.85
758.719	25931.32
759.056	25948.05
759.394	25896.97
759.731	25679.13
760.068	25596.42
