Data from hue_28_FLMS001491_00038.txt Node
Date: Tue Feb 07 17:17:12 GMT 2017
User: dcchb
Spectrometer: FLMS00149
Trigger mode: 0
Integration Time (sec): 2.000000E-2
Scans to average: 10
Electric dark correction enabled: true
Nonlinearity correction enabled: false
Boxcar width: 0
XAxis mode: Wavelengths
Number of Pixels in Spectrum: 2048
>>>>>Begin Spectral Data<<<<<
341.393	-20.65
341.776	-20.65
342.16	-20.65
342.543	-74.43
342.927	-85.28
343.31	-66.3
343.693	-50.03
344.077	-58.61
344.46	-55
344.843	-47.77
345.226	-56.13
345.61	-22.46
345.993	-45.73
346.376	-2.57
346.759	8.95
347.142	20.93
347.525	51.44
347.908	43.3
348.291	70.87
348.674	91.89
349.057	117.2
349.44	117.65
349.823	139.57
350.206	168.95
350.588	200.36
350.971	206.46
351.354	229.06
351.737	227.71
352.119	261.6
352.502	267.93
352.884	263.86
353.267	284.2
353.65	283.52
354.032	296.86
354.414	300.7
354.797	297.08
355.179	314.26
355.562	332.79
355.944	329.17
356.326	333.92
356.709	322.84
357.091	330.53
357.473	349.96
357.855	365.33
358.238	341.83
358.62	349.96
359.002	321.71
359.384	350.64
359.766	339.34
360.148	338.21
360.53	351.54
360.912	341.15
361.294	319.91
361.676	317.2
362.057	335.5
362.439	344.76
362.821	317.42
363.203	326.69
363.584	353.13
363.966	336.18
364.348	330.3
364.729	339.57
365.111	294.6
365.493	317.2
365.874	323.3
366.256	319.45
366.637	323.07
367.019	320.81
367.4	335.95
367.781	321.49
368.163	305.67
368.544	319.23
368.925	305.9
369.306	340.25
369.688	339.12
370.069	301.38
370.45	314.26
370.831	307.25
371.212	329.62
371.593	327.36
371.974	330.98
372.355	319.68
372.736	343.41
373.117	311.32
373.498	310.87
373.879	328.04
374.26	311.32
374.641	303.64
375.021	320.36
375.402	319.68
375.783	344.99
376.163	307.48
376.544	312.9
376.925	328.95
377.305	335.95
377.686	332.79
378.066	323.07
378.447	319.91
378.827	325.56
379.208	321.04
379.588	339.57
379.968	342.05
380.349	330.08
380.729	333.47
381.109	339.57
381.489	358.55
381.87	338.66
382.25	335.73
382.63	339.79
383.01	338.44
383.39	338.89
383.77	349.06
384.15	332.34
384.53	337.76
384.91	353.35
385.29	348.15
385.67	334.37
386.049	328.95
386.429	347.02
386.809	358.55
387.189	388.15
387.568	362.62
387.948	350.41
388.328	341.83
388.707	343.86
389.087	367.14
389.466	367.59
389.846	368.27
390.225	354.48
390.605	355.84
390.984	365.78
391.363	354.03
391.743	353.8
392.122	377.98
392.501	368.04
392.881	365.78
393.26	340.02
393.639	361.94
394.018	386.57
394.397	366.91
394.776	385.22
395.155	373.01
395.534	385.89
395.913	378.89
396.292	388.61
396.671	393.8
397.05	375.27
397.429	381.37
397.808	375.95
398.186	390.87
398.565	403.52
398.944	399
399.323	391.09
399.701	387.25
400.08	377.53
400.458	391.32
400.837	421.15
401.215	407.36
401.594	415.72
401.972	399.68
402.351	392.22
402.729	399.23
403.107	399.68
403.486	398.55
403.864	399
404.242	423.41
404.62	415.5
404.999	410.53
405.377	441.94
405.755	419.34
406.133	418.21
406.511	418.21
406.889	419.79
407.267	422.5
407.645	426.8
408.023	438.77
408.401	441.71
408.779	400.58
409.156	420.7
409.534	454.14
409.912	422.95
410.29	445.78
410.667	452.11
411.045	448.94
411.422	458.21
411.8	466.8
412.178	466.12
412.555	471.99
412.933	481.03
413.31	461.15
413.687	457.76
414.065	452.56
414.442	466.34
414.819	477.87
415.197	473.58
415.574	488.26
415.951	468.15
416.328	488.04
416.705	491.43
417.082	493.91
417.46	480.81
417.837	489.17
418.214	511.77
418.591	498.66
418.967	491.43
419.344	513.12
419.721	517.19
420.098	521.71
420.475	508.83
420.852	511.31
421.228	519.9
421.605	523.74
421.982	515.38
422.358	513.35
422.735	536.17
423.111	548.38
423.488	517.64
423.864	544.76
424.241	535.27
424.617	553.57
424.994	568.04
425.37	544.08
425.746	555.83
426.123	563.06
426.499	577.75
426.875	570.07
427.251	574.36
427.627	558.54
428.003	568.49
428.379	557.19
428.756	578.66
429.132	583.4
429.507	567.58
429.883	608.71
430.259	586.11
430.635	592.22
431.011	619.33
431.387	628.6
431.763	616.17
432.138	629.5
432.514	635.83
432.89	623.85
433.265	660.91
433.641	640.12
434.016	666.11
434.392	649.39
434.767	661.37
435.143	664.98
435.518	677.41
435.894	660.46
436.269	684.87
436.644	693.23
437.02	688.94
437.395	670.63
437.77	689.16
438.145	694.36
438.52	723.06
438.895	731.42
439.271	708.82
439.646	701.82
440.021	733.91
440.395	707.47
440.77	733
441.145	738.43
441.52	742.72
441.895	752.66
442.27	757.64
442.645	735.49
443.019	756.51
443.394	741.82
443.769	777.3
444.143	756.51
444.518	756.96
444.892	771.87
445.267	786.79
445.641	766.67
446.016	787.69
446.39	781.36
446.764	788.14
447.139	798.31
447.513	817.07
447.887	794.02
448.262	813.68
448.636	805.32
449.01	817.52
449.384	808.03
449.758	814.36
450.132	842.6
450.506	849.84
450.88	856.39
451.254	839.89
451.628	844.19
452.002	840.8
452.376	870.4
452.75	874.24
453.123	886.22
453.497	860.01
453.871	895.48
454.244	903.85
454.618	902.04
454.992	903.62
455.365	924.86
455.739	943.17
456.112	934.58
456.486	944.52
456.859	946.33
457.232	946.78
457.606	973.22
457.979	958.53
458.352	1004.41
458.725	1009.38
459.099	1023.17
459.472	1017.74
459.845	1035.14
460.218	1050.06
460.591	1009.38
460.964	1041.92
461.337	1055.48
461.71	1089.15
462.083	1101.81
462.456	1083.28
462.829	1124.41
463.201	1106.78
463.574	1123.73
463.947	1132.54
464.32	1162.14
464.692	1154.46
465.065	1180.45
465.438	1194.46
465.81	1210.5
466.183	1229.26
466.555	1254.35
466.928	1256.38
467.3	1253.67
467.672	1250.73
468.045	1279.43
468.417	1283.27
468.789	1304.97
469.161	1339.54
469.534	1357.17
469.906	1385.87
470.278	1407.56
470.65	1383.16
471.022	1420.44
471.394	1437.17
471.766	1472.64
472.138	1467.45
472.51	1507.45
472.882	1516.71
473.253	1554.68
473.625	1561.68
473.997	1595.35
474.369	1619.31
474.74	1639.42
475.112	1657.05
475.484	1681.23
475.855	1745.41
476.227	1742.69
476.598	1811.17
476.97	1810.49
477.341	1875.57
477.713	1892.52
478.084	1906.76
478.455	1949.02
478.827	2001.44
479.198	2034.89
479.569	2058.39
479.94	2097.04
480.311	2139.97
480.682	2193.08
481.053	2248.67
481.424	2309.01
481.795	2295.9
482.166	2338.84
482.537	2397.59
482.908	2428.78
483.279	2485.95
483.65	2534.99
484.021	2597.14
484.391	2641.43
484.762	2638.26
485.133	2709
485.503	2725.72
485.874	2849.11
486.244	2865.83
486.615	2950.12
486.985	2953.51
487.356	3004.81
487.726	3070.57
488.097	3151.7
488.467	3152.6
488.837	3246.84
489.207	3264.69
489.578	3338.13
489.948	3387.17
490.318	3446.38
490.688	3429.88
491.058	3532.48
491.428	3579.71
491.798	3643.21
492.168	3708.97
492.538	3720.5
492.908	3750.1
493.278	3809.76
493.648	3859.47
494.017	3948.51
494.387	4011.11
494.757	3991.45
495.126	3988.06
495.496	4129.3
495.866	4169.07
496.235	4193.93
496.605	4248.84
496.974	4253.36
497.344	4268.28
497.713	4374.26
498.082	4387.82
498.452	4482.51
498.821	4430.99
499.19	4483.64
499.559	4570.19
499.928	4576.97
500.298	4613.81
500.667	4675.27
501.036	4677.98
501.405	4706.23
501.774	4747.14
502.143	4735.61
502.512	4810.86
502.88	4808.38
503.249	4831.65
503.618	4903.52
503.987	4876.62
504.356	4972.21
504.724	4996.62
505.093	4963.63
505.462	5049.05
505.83	5129.05
506.199	5151.64
506.567	5152.77
506.936	5177.41
507.304	5226.9
507.672	5228.7
508.041	5289.27
508.409	5321.36
508.777	5332.88
509.145	5331.53
509.514	5355.03
509.882	5403.61
510.25	5428.7
510.618	5480.68
510.986	5496.49
511.354	5530.84
511.722	5558.19
512.09	5579.43
512.458	5609.71
512.826	5668.01
513.193	5656.04
513.561	5628.24
513.929	5712.31
514.297	5759.31
514.664	5815.13
515.032	5775.13
515.4	5817.39
515.767	5847.45
516.135	5871.63
516.502	5851.51
516.869	6014.45
517.237	5956.59
517.604	5950.72
517.972	5981
518.339	6011.51
518.706	6090.6
519.073	6062.81
519.44	6126.76
519.808	6161.34
520.175	6090.83
520.542	6188
520.909	6277.26
521.276	6182.58
521.643	6267.32
522.009	6319.3
522.376	6374.66
522.743	6371.95
523.11	6369.47
523.477	6411.27
523.843	6502.12
524.21	6523.81
524.577	6530.14
524.943	6549.57
525.31	6576.92
525.676	6626.86
526.043	6631.15
526.409	6690.13
526.776	6793.18
527.142	6776.23
527.508	6850.36
527.874	6862.33
528.241	6922.67
528.607	6950.47
528.973	6976.68
529.339	6998.6
529.705	7078.37
530.071	7105.27
530.437	7126.96
530.803	7193.62
531.169	7172.61
531.535	7167.18
531.901	7184.81
532.267	7235.21
532.632	7318.14
532.998	7343.9
533.364	7349.1
533.73	7404.01
534.095	7494.18
534.461	7483.33
534.826	7540.96
535.192	7559.04
535.557	7591.81
535.923	7664.35
536.288	7610.11
536.653	7669.54
537.019	7670.22
537.384	7687.85
537.749	7752.48
538.114	7796.09
538.479	7777.79
538.845	7858.69
539.21	7802.65
539.575	7876.77
539.94	7891.91
540.305	7923.55
540.67	7962.64
541.034	7941.4
541.399	8054.39
541.764	8113.15
542.129	8118.35
542.494	8151.11
542.858	8167.38
543.223	8189.76
543.587	8291.22
543.952	8272.24
544.316	8317.44
544.681	8368.96
545.045	8358.11
545.41	8428.62
545.774	8467.72
546.138	8515.62
546.503	8474.27
546.867	8545.68
547.231	8647.6
547.595	8587.26
547.959	8610.99
548.324	8616.41
548.688	8656.41
549.052	8700.93
549.416	8694.15
549.779	8699.8
550.143	8677.88
550.507	8792
550.871	8786.12
551.235	8821.38
551.599	8923.97
551.962	8904.09
552.326	8923.75
552.689	8948.83
553.053	9014.82
553.417	9013.46
553.78	9067.47
554.143	9086.91
554.507	9111.99
554.87	9096.4
555.234	9209.16
555.597	9122.84
555.96	9216.17
556.323	9284.64
556.686	9258.43
557.05	9309.95
557.413	9352.44
557.776	9405.32
558.139	9437.41
558.502	9463.4
558.865	9493.45
559.228	9538.42
559.59	9547.69
559.953	9545.88
560.316	9646.44
560.679	9657.06
561.041	9726.21
561.404	9747.23
561.767	9805.53
562.129	9803.73
562.492	9941.8
562.854	9929.6
563.217	9895.02
563.579	9971.63
563.941	9982.03
564.304	9949.48
564.666	10122.13
565.028	10052.31
565.39	10063.83
565.753	10103.6
566.115	10192.64
566.477	10203.26
566.839	10289.81
567.201	10247.1
567.563	10318.51
567.925	10389.7
568.287	10378.85
568.648	10458.85
569.01	10490.94
569.372	10545.17
569.734	10539.53
570.095	10658.39
570.457	10673.31
570.819	10738.39
571.18	10750.37
571.542	10796.92
571.903	10844.83
572.265	10878.95
572.626	10938.84
572.987	10903.81
573.349	10962.34
573.71	11115.1
574.071	11099.51
574.432	11149.68
574.794	11299.05
575.155	11350.8
575.516	11394.87
575.877	11484.81
576.238	11564.13
576.599	11608.42
576.96	11770.91
577.32	11732.94
577.681	11870.56
578.042	11928.42
578.403	12037.34
578.763	12045.25
579.124	12259.25
579.485	12403.88
579.845	12478.46
580.206	12578.79
580.566	12645.91
580.927	12790.77
581.287	12965.22
581.648	12974.04
582.008	13288.15
582.368	13390.52
582.728	13547.58
583.089	13642.49
583.449	13837.97
583.809	14042.03
584.169	14218.3
584.529	14274.57
584.889	14594.33
585.249	14749.58
585.609	14828.9
585.969	15117.03
586.329	15337.14
586.688	15552.27
587.048	15918.14
587.408	15961.08
587.768	16227.96
588.127	16443.32
588.487	16642.87
588.846	17075.17
589.206	17075.62
589.565	17456.18
589.925	17765.55
590.284	17952.44
590.643	18326.67
591.003	18572.08
591.362	18921
591.721	19086.87
592.08	19357.6
592.44	19642.79
592.799	19937.02
593.158	20271.7
593.517	20559.15
593.876	20790.56
594.235	21056.54
594.593	21380.82
594.952	21815.16
595.311	21922.28
595.67	22311.19
596.029	22595.48
596.387	23070.72
596.746	23306.65
597.104	23495.34
597.463	23772.62
597.822	24151.82
598.18	24411.48
598.538	24610.79
598.897	25003.78
599.255	25148.63
599.613	25806.69
599.972	25958.1
600.33	26190.41
600.688	26438.54
601.046	26842.83
601.404	27176.38
601.762	27424.96
602.12	27866.08
602.478	28078.27
602.836	28331.83
603.194	28457.7
603.552	28647.07
603.91	28892.49
604.268	29359.14
604.625	29471.46
604.983	29845.46
605.341	30014.04
605.698	30376.52
606.056	30673.91
606.413	30823.29
606.771	31120
607.128	31382.59
607.485	31490.61
607.843	31761.11
608.2	32125.62
608.557	32460.53
608.914	32508.66
609.272	32974.64
609.629	33060.97
609.986	33465.7
610.343	33440.17
610.7	33934.62
611.057	34007.61
611.414	34247.83
611.771	34364.44
612.127	34764.88
612.484	34898.43
612.841	35179.33
613.198	35116.73
613.554	35413
613.911	35713.78
614.267	35898.41
614.624	35931.17
614.98	36264.27
615.337	36517.6
615.693	36488.67
616.05	36611.83
616.406	37128.43
616.762	37170.46
617.118	37180.63
617.475	37367.75
617.831	37572.94
618.187	37707.85
618.543	37791.01
618.899	38214.5
619.255	38168.4
619.611	38200.49
619.967	38500.37
620.323	38692.46
620.678	38633.93
621.034	38649.52
621.39	38590.76
621.746	38857.88
622.101	39388.94
622.457	38993.01
622.812	39302.84
623.168	39424.42
623.523	39529.5
623.879	39584.86
624.234	39471.65
624.589	39727.46
624.945	39848.58
625.3	39940.33
625.655	40064.62
626.01	40105.3
626.365	40167.67
626.72	40290.61
627.075	40234.79
627.43	40280.44
627.785	40216.94
628.14	40389.59
628.495	40443.6
628.85	40510.49
629.205	40456.7
629.559	40732.63
629.914	40587.32
630.269	40745.06
630.623	40694.21
630.978	40777.37
631.332	40824.15
631.687	40993.19
632.041	40827.09
632.396	41054.65
632.75	40811.27
633.104	41039.74
633.459	40850.82
633.813	40801.1
634.167	40886.98
634.521	41036.12
634.875	41061.66
635.229	40960.42
635.583	40742.8
635.937	40973.53
636.291	40971.95
636.645	40883.13
636.999	40946.41
637.352	40888.56
637.706	40770.82
638.06	40933.53
638.413	40976.92
638.767	40950.48
639.121	40944.38
639.474	40584.38
639.828	40690.82
640.181	40953.41
640.534	40923.81
640.888	40834.32
641.241	40699.86
641.594	40788.22
641.947	40845.39
642.301	40717.04
642.654	40841.1
643.007	40795.9
643.36	40742.8
643.713	40748.22
644.066	40801.78
644.419	40559.98
644.771	40335.13
645.124	40021.69
645.477	40005.42
645.83	39788.93
646.182	39704.41
646.535	39574.24
646.888	39654.47
647.24	39396.62
647.593	39662.83
647.945	39593.9
648.298	39620.12
648.65	39503.74
649.002	39342.16
649.355	39559.55
649.707	39440.01
650.059	39633.22
650.411	40020.11
650.763	40089.93
651.115	40455.8
651.467	40330.38
651.819	40392.98
652.171	40195.69
652.523	40356.37
652.875	40301.23
653.227	40155.24
653.578	40484.5
653.93	40398.4
654.282	40183.72
654.633	40038.41
654.985	40115.92
655.337	40186.43
655.688	40114.11
656.039	40336.26
656.391	40057.17
656.742	40043.61
657.094	40050.39
657.445	40286.31
657.796	40129.93
658.147	40059.43
658.498	39946.89
658.849	40165.64
659.2	39926.78
659.551	40007.22
659.902	40174.9
660.253	40043.38
660.604	40161.57
660.955	40008.58
661.306	40102.14
661.656	39992.08
662.007	40112.76
662.358	40124.06
662.708	39969.94
663.059	40112.31
663.409	39665.99
663.76	40032.99
664.11	39974.01
664.461	40037.73
664.811	39956.15
665.161	40008.35
665.511	39884.52
665.862	39903.5
666.212	40061.23
666.562	40027.79
666.912	40003.16
667.262	39971.07
667.612	39821.92
667.962	40030.05
668.312	39989.6
668.662	39957.73
669.011	39971.29
669.361	39864.18
669.711	39821.47
670.06	39821.92
670.41	39739.44
670.76	39898.98
671.109	39838.19
671.459	39920.45
671.808	39749.83
672.157	39807
672.507	39549.61
672.856	39677.06
673.205	39723.16
673.554	39790.73
673.904	39583.51
674.253	39919.77
674.602	39645.2
674.951	39063.52
675.3	39015.61
675.649	39605.88
675.998	39556.84
676.346	39578.31
676.695	39616.5
677.044	39387.13
677.393	39422.38
677.741	39625.31
678.09	39452.89
678.438	39336.06
678.787	39404.98
679.135	39414.25
679.484	39121.15
679.832	39284.31
680.181	39093.8
680.529	39197.53
680.877	39053.58
681.225	38971.32
681.573	39302.84
681.922	39078.66
682.27	38883.86
682.618	38907.59
682.966	38781.04
683.314	38774.49
683.661	38864.2
684.009	38583.31
684.357	38586.25
684.705	38409.53
685.053	38599.13
685.4	38525.23
685.748	38375.63
686.095	38304.9
686.443	38206.14
686.79	38079.59
687.138	38280.72
687.485	38245.24
687.832	37993.04
688.18	38060.84
688.527	37793.05
688.874	37913.49
689.221	37713.27
689.568	37734.29
689.915	37613.16
690.262	37601.41
690.609	37374.53
690.956	37410.01
691.303	37313.74
691.65	37188.77
691.997	37204.59
692.344	36979.73
692.69	37021.77
693.037	36982.45
693.383	36591.95
693.73	36816.12
694.077	36640.31
694.423	36701.78
694.769	36598.05
695.116	36549.24
695.462	36356.25
695.808	36396.92
696.155	36443.93
696.501	35936.6
696.847	36019.76
697.193	35840.78
697.539	35952.64
697.885	35701.35
698.231	35634.23
698.577	35532.77
698.923	35490.73
699.269	35302.49
699.614	35229.95
699.96	35128.94
700.306	35221.81
700.651	34985.89
700.997	34910.64
701.342	34823.41
701.688	34943.63
702.033	34676.07
702.379	34647.82
702.724	34632.45
703.069	34749.96
703.415	34210.09
703.76	34335.74
704.105	34359.46
704.45	34207.6
704.795	33999.25
705.14	34040.38
705.485	33931.9
705.83	33821.4
706.175	33817.33
706.52	33670.89
706.865	33656.88
707.209	33594.06
707.554	33530.56
707.899	33508.41
708.243	33256.89
708.588	33381.18
708.932	33154.07
709.277	32992.72
709.621	33249.21
709.966	32886.96
710.31	32947.07
710.654	32610.81
710.998	32685.84
711.342	32849.9
711.687	32659.85
712.031	32506.41
712.375	32337.37
712.719	32492.17
713.063	32315.9
713.407	32374.88
713.75	32176.47
714.094	32305.28
714.438	32036.59
714.782	32126.98
715.125	31978.96
715.469	32007.44
715.812	31830.94
716.156	31779.64
716.499	31698.52
716.843	31815.8
717.186	31464.4
717.53	31703.94
717.873	31685.41
718.216	31593.89
718.559	31375.36
718.902	31168.36
719.246	31357.96
719.589	31252.88
719.932	31122.26
720.275	31110.51
720.617	31141.02
720.96	31077.97
721.303	30986.45
721.646	31088.14
721.989	30836.84
722.331	30899.67
722.674	30795.04
723.016	30902.83
723.359	30748.03
723.701	30852.44
724.044	30509.17
724.386	30407.48
724.729	30506.01
725.071	30602.5
725.413	30440.02
725.755	30352.34
726.097	30342.17
726.439	30250.42
726.782	30135.62
727.124	30376.07
727.465	30149.63
727.807	30143.98
728.149	29945.57
728.491	29961.61
728.833	30120.93
729.175	29917.77
729.516	29988.51
729.858	29822.86
730.199	29887.72
730.541	29874.84
730.882	29694.28
731.224	29759.58
731.565	29496.09
731.906	29552.36
732.248	29679.36
732.589	29488.18
732.93	29398.01
733.271	29385.36
733.612	29451.34
733.953	29445.69
734.294	29307.39
734.635	29199.6
734.976	29256.55
735.317	29146.49
735.658	29139.26
735.999	29091.58
736.339	29092.48
736.68	29068.76
737.021	28985.14
737.361	28856.78
737.702	28931.36
738.042	28780.4
738.383	28887.07
738.723	28847.74
739.063	28703.34
739.404	28716.45
739.744	28701.31
740.084	28515.55
740.424	28667.86
740.764	28549.9
741.104	28609.11
741.444	28580.63
741.784	28426.51
742.124	28477.81
742.464	28455.44
742.804	28411.82
743.143	28324.82
743.483	28346.29
743.823	28167.54
744.162	28090.48
744.502	28147.65
744.841	28046.41
745.181	28189.91
745.52	27970.25
745.86	28052.06
746.199	28082.34
746.538	27971.84
746.877	27965.51
747.216	27956.69
747.556	27804.16
747.895	27838.05
748.234	27776.36
748.573	27696.81
748.911	27676.48
749.25	27662.92
749.589	27536.59
749.928	27590.15
750.267	27607.1
750.605	27380.66
750.944	27476.48
751.283	27265.86
751.621	27467.89
751.96	27344.96
752.298	27274.68
752.636	27281.01
752.975	27161.91
753.313	27094.57
753.651	27225.41
753.989	26896.61
754.327	26941.35
754.666	26815.48
755.004	26999.43
755.342	26909.04
755.679	26854.35
756.017	26641.7
756.355	26817.97
756.693	26596.73
757.031	26747.46
757.368	26498.2
757.706	26454.13
758.044	26494.13
758.381	26407.58
758.719	26343.63
759.056	26431.76
759.394	26242.84
759.731	26182.96
760.068	26012.11
