Data from hue_200_FLMS001491_00011.txt Node
Date: Tue Feb 07 16:42:52 GMT 2017
User: dcchb
Spectrometer: FLMS00149
Trigger mode: 0
Integration Time (sec): 2.000000E-2
Scans to average: 10
Electric dark correction enabled: true
Nonlinearity correction enabled: false
Boxcar width: 0
XAxis mode: Wavelengths
Number of Pixels in Spectrum: 2048
>>>>>Begin Spectral Data<<<<<
341.393	-4.94
341.776	-4.94
342.16	-4.94
342.543	-60.31
342.927	-57.15
343.31	-72.74
343.693	-71.38
344.077	-69.35
344.46	-76.81
344.843	-49.91
345.226	-46.07
345.61	-28.67
345.993	-12.85
346.376	2.29
346.759	7.71
347.142	34.6
347.525	41.16
347.908	66.02
348.291	76.64
348.674	91.55
349.057	107.82
349.44	116.18
349.823	122.96
350.206	181.94
350.588	194.83
350.971	204.77
351.354	235.05
351.737	230.76
352.119	237.76
352.502	252.45
352.884	280.92
353.267	275.28
353.65	317.76
354.032	292.9
354.414	310.75
354.797	319.79
355.179	343.97
355.562	345.56
355.944	328.83
356.326	344.2
356.709	314.82
357.091	336.74
357.473	359.34
357.855	335.39
358.238	348.49
358.62	345.1
359.002	308.95
359.384	346.91
359.766	352.56
360.148	338.1
360.53	306.69
360.912	340.81
361.294	331.09
361.676	352.79
362.057	329.96
362.439	348.49
362.821	330.42
363.203	318.66
363.584	315.27
363.966	318.44
364.348	337.42
364.729	320.47
365.111	334.71
365.493	340.36
365.874	327.25
366.256	298.33
366.637	308.49
367.019	302.85
367.4	323.64
367.781	296.07
368.163	309.62
368.544	302.39
368.925	326.12
369.306	330.19
369.688	318.66
370.069	300.36
370.45	308.49
370.831	321.83
371.212	294.71
371.593	318.44
371.974	298.78
372.355	342.17
372.736	299.68
373.117	312.34
373.498	309.4
373.879	298.78
374.26	330.64
374.641	313.69
375.021	321.38
375.402	319.34
375.783	328.83
376.163	316.86
376.544	317.08
376.925	314.37
377.305	311.43
377.686	317.31
378.066	335.16
378.447	325.22
378.827	324.77
379.208	333.8
379.588	329.96
379.968	335.61
380.349	338.32
380.729	335.16
381.109	338.1
381.489	326.12
381.87	332.67
382.25	342.84
382.63	349.85
383.01	348.95
383.39	364.09
383.77	355.95
384.15	341.71
384.53	352.79
384.91	353.24
385.29	341.49
385.67	355.95
386.049	366.12
386.429	369.06
386.809	343.52
387.189	351.66
387.568	359.57
387.948	347.14
388.328	366.8
388.707	374.03
389.087	344.88
389.466	365.67
389.846	368.15
390.225	357.53
390.605	370.64
390.984	374.26
391.363	365.44
391.743	369.96
392.122	387.36
392.501	345.1
392.881	392.56
393.26	372.22
393.639	356.63
394.018	370.41
394.397	393.69
394.776	377.19
395.155	393.24
395.534	376.74
395.913	386.23
396.292	404.76
396.671	383.75
397.05	395.27
397.429	403.86
397.808	388.72
398.186	383.07
398.565	408.38
398.944	407.02
399.323	427.59
399.701	401.83
400.08	383.75
400.458	383.52
400.837	420.58
401.215	434.59
401.594	420.81
401.972	419
402.351	420.58
402.729	429.4
403.107	465.1
403.486	445.21
403.864	437.08
404.242	443.63
404.62	464.2
404.999	471.43
405.377	467.59
405.755	454.93
406.133	452.22
406.511	468.49
406.889	468.04
407.267	472.78
407.645	474.59
408.023	482.73
408.401	483.63
408.779	497.64
409.156	527.47
409.534	524.31
409.912	518.88
410.29	515.72
410.667	556.62
411.045	535.83
411.422	545.78
411.8	553.69
412.178	555.27
412.555	570.86
412.933	597.3
413.31	604.53
413.687	583.74
414.065	638.2
414.442	621.48
414.819	611.76
415.197	642.05
415.574	657.64
415.951	645.44
416.328	661.71
416.705	680.91
417.082	678.65
417.46	694.93
417.837	714.36
418.214	717.07
418.591	707.58
418.967	732.21
419.344	720.91
419.721	767.47
420.098	784.64
420.475	767.24
420.852	777.41
421.228	813.57
421.605	806.56
421.982	839.33
422.358	827.58
422.735	860.12
423.111	876.16
423.488	902.15
423.864	902.83
424.241	917.07
424.617	948.25
424.994	957.74
425.37	954.13
425.746	988.02
426.123	987.8
426.499	1025.31
426.875	1023.5
427.251	1035.93
427.627	1078.87
428.003	1082.94
428.379	1065.99
428.756	1087.01
429.132	1077.74
429.507	1121.58
429.883	1131.52
430.259	1155.93
430.635	1159.55
431.011	1158.87
431.387	1200.45
431.763	1215.59
432.138	1216.72
432.514	1252.88
432.89	1259.43
433.265	1283.61
433.641	1307.79
434.016	1348.02
434.392	1379.43
434.767	1377.17
435.143	1421.01
435.518	1425.08
435.894	1463.04
436.269	1464.4
436.644	1518.18
437.02	1558.18
437.395	1534.9
437.77	1583.04
438.145	1614.9
438.52	1628.69
438.895	1675.24
439.271	1652.41
439.646	1714.33
440.021	1733.54
440.395	1718.18
440.77	1799.53
441.145	1788.68
441.52	1836.14
441.895	1845.4
442.27	1897.61
442.645	1872.75
443.019	1872.52
443.394	1919.07
443.769	1938.28
444.143	1932.86
444.518	1987.09
444.892	1992.97
445.267	2018.05
445.641	2034.1
446.016	2081.33
446.39	2056.47
446.764	2091.72
447.139	2128.11
447.513	2086.98
447.887	2132.4
448.262	2134.44
448.636	2156.36
449.01	2194.77
449.384	2220.76
449.758	2221.66
450.132	2273.41
450.506	2255.56
450.88	2282.68
451.254	2326.97
451.628	2349.35
452.002	2387.54
452.376	2395.45
452.75	2418.04
453.123	2440.42
453.497	2435.22
453.871	2507.76
454.244	2535.55
454.618	2499.62
454.992	2578.94
455.365	2563.58
455.739	2678.83
456.112	2695.78
456.486	2661.43
456.859	2700.52
457.232	2808.32
457.606	2735.1
457.979	2758.37
458.352	2840.86
458.725	2896.45
459.099	2911.36
459.472	2915.21
459.845	2983
460.218	2998.14
460.591	3053.96
460.964	3042.43
461.337	3082.66
461.71	3176.67
462.083	3190.9
462.456	3211.24
462.829	3217.12
463.201	3293.5
463.574	3267.06
463.947	3313.84
464.32	3372.59
464.692	3418.24
465.065	3498.47
465.438	3488.98
465.81	3549.99
466.183	3554.51
466.555	3672.02
466.928	3717.22
467.3	3703.43
467.672	3737.33
468.045	3820.49
468.417	3836.54
468.789	3882.19
469.161	3931.22
469.534	3936.87
469.906	4073.59
470.278	4058.23
470.65	4131.45
471.022	4188.39
471.394	4327.82
471.766	4331.21
472.138	4354.49
472.51	4420.48
472.882	4522.4
473.253	4525.56
473.625	4627.7
473.997	4689.62
474.369	4693.92
474.74	4764.87
475.112	4846.23
475.484	4972.1
475.855	5037.18
476.227	5042.16
476.598	5173.23
476.97	5199.89
477.341	5264.75
477.713	5351.98
478.084	5428.13
478.455	5509.26
478.827	5570.5
479.198	5766.88
479.569	5698.41
479.94	5886.65
480.311	5904.05
480.682	6059.76
481.053	6193.99
481.424	6225.4
481.795	6232.18
482.166	6386.53
482.537	6441.44
482.908	6569.35
483.279	6668.78
483.65	6752.85
484.021	6840.53
484.391	6887.53
484.762	7008.88
485.133	7026.06
485.503	7171.82
485.874	7231.48
486.244	7280.06
486.615	7398.93
486.985	7449.78
487.356	7681.18
487.726	7639.6
488.097	7824.46
488.467	7868.75
488.837	7943.77
489.207	8049.31
489.578	8162.3
489.948	8175.18
490.318	8341.28
490.688	8337.21
491.058	8512.57
491.428	8519.13
491.798	8596.64
492.168	8712.34
492.538	8721.38
492.908	8804.32
493.278	8910.08
493.648	8983.52
494.017	8992.33
494.387	9084.31
494.757	9179.9
495.126	9307.13
495.496	9291.99
495.866	9353.45
496.235	9374.47
496.605	9491.08
496.974	9492.43
497.344	9609.72
497.713	9564.97
498.082	9614.46
498.452	9740.11
498.821	9684.97
499.19	9713.67
499.559	9842.03
499.928	9864.85
500.298	9886.1
500.667	10003.83
501.036	9931.97
501.405	10055.81
501.774	10046.09
502.143	10061.91
502.512	10088.8
502.88	10157.5
503.249	10162.47
503.618	10279.08
503.987	10254
504.356	10261.68
504.724	10265.07
505.093	10329.25
505.462	10318.4
505.83	10428.68
506.199	10427.55
506.567	10595
506.936	10527.66
507.304	10618.05
507.672	10538.96
508.041	10627.32
508.409	10602.69
508.777	10711.39
509.145	10792.51
509.514	10714.32
509.882	10809.24
510.25	10756.81
510.618	10790.48
510.986	10823.7
511.354	10908.22
511.722	10868.22
512.09	10998.16
512.458	10899.63
512.826	11021.89
513.193	10904.6
513.561	11004.03
513.929	11039.06
514.297	11037.48
514.664	11097.36
515.032	11056.23
515.4	11163.58
515.767	11133.52
516.135	11163.12
516.502	11071.6
516.869	11294.65
517.237	11223.69
517.604	11121.32
517.972	11248.09
518.339	11256.46
518.706	11181.2
519.073	11188.66
519.44	11279.05
519.808	11305.72
520.175	11271.82
520.542	11317.92
520.909	11343.23
521.276	11312.95
521.643	11427.75
522.009	11373.97
522.376	11404.7
522.743	11353.4
523.11	11444.02
523.477	11512.72
523.843	11449.44
524.21	11555.88
524.577	11489.9
524.943	11553.17
525.31	11495.09
525.676	11632.94
526.043	11614.41
526.409	11557.69
526.776	11676.56
527.142	11637.24
527.508	11604.92
527.874	11683.79
528.241	11670.91
528.607	11600.4
528.973	11620.29
529.339	11588.2
529.705	11594.98
530.071	11632.04
530.437	11620.29
530.803	11628.2
531.169	11610.34
531.535	11500.97
531.901	11514.75
532.267	11458.71
532.632	11471.82
532.998	11503
533.364	11449.67
533.73	11472.72
534.095	11497.13
534.461	11368.77
534.826	11432.5
535.192	11423.91
535.557	11474.98
535.923	11356.79
536.288	11284.25
536.653	11273.63
537.019	11228.21
537.384	11164.25
537.749	11220.75
538.114	11208.1
538.479	11067.99
538.845	11081.77
539.21	10995.22
539.575	11050.36
539.94	10933.3
540.305	11014.43
540.67	10919.97
541.034	10912.96
541.399	10827.99
541.764	10830.7
542.129	10739.41
542.494	10716.36
542.858	10692.4
543.223	10603.82
543.587	10649.47
543.952	10521.79
544.316	10566.76
544.681	10492.86
545.045	10465.74
545.41	10468
545.774	10389.13
546.138	10400.21
546.503	10263.49
546.867	10275.01
547.231	10260.78
547.595	10260.32
547.959	10211.74
548.324	10200.89
548.688	10091.06
549.052	9985.53
549.416	9982.59
549.779	9936.49
550.143	9957.05
550.507	9965.19
550.871	9943.95
551.235	9819.66
551.599	9904.17
551.962	9767.91
552.326	9689.94
552.689	9757.96
553.053	9609.04
553.417	9652.2
553.78	9656.72
554.143	9563.39
554.507	9587.12
554.87	9591.19
555.234	9534.24
555.597	9471.64
555.96	9483.39
556.323	9503.06
556.686	9436.16
557.05	9489.5
557.413	9397.52
557.776	9378.09
558.139	9393.91
558.502	9338.99
558.865	9308.26
559.228	9349.16
559.59	9343.29
559.953	9257.19
560.316	9313
560.679	9327.24
561.041	9362.49
561.404	9250.86
561.767	9322.95
562.129	9230.29
562.492	9259.22
562.854	9221.71
563.217	9188.04
563.579	9158.21
563.941	9179
564.304	9152.1
564.666	9197.98
565.028	9205.21
565.39	9239.11
565.753	9214.7
566.115	9216.51
566.477	9234.14
566.839	9206.11
567.201	9182.84
567.563	9223.74
567.925	9192.33
568.287	9272.78
568.648	9216.96
569.01	9264.64
569.372	9281.59
569.734	9204.31
570.095	9209.28
570.457	9271.65
570.819	9215.83
571.18	9237.3
571.542	9224.19
571.903	9226
572.265	9296.96
572.626	9384.87
572.987	9287.24
573.349	9188.04
573.71	9230.75
574.071	9301.7
574.432	9294.02
574.794	9318.88
575.155	9263.06
575.516	9243.4
575.877	9249.5
576.238	9242.05
576.599	9242.5
576.96	9315.72
577.32	9289.73
577.681	9248.82
578.042	9386.9
578.403	9223.97
578.763	9265.77
579.124	9311.2
579.485	9263.29
579.845	9336.28
580.206	9269.62
580.566	9273.91
580.927	9360.69
581.287	9333.79
581.648	9270.97
582.008	9293.57
582.368	9258.54
582.728	9307.58
583.089	9233.23
583.449	9255.6
583.809	9316.85
584.169	9275.72
584.529	9208.15
584.889	9329.05
585.249	9260.8
585.609	9164.76
585.969	9206.57
586.329	9169.5
586.688	9237.3
587.048	9190.75
587.408	9211.31
587.768	9136.29
588.127	9198.66
588.487	9147.36
588.846	9198.2
589.206	9129.05
589.565	9129.73
589.925	9129.28
590.284	9119.79
590.643	9176.51
591.003	9150.07
591.362	9188.04
591.721	9146.45
592.08	9145.32
592.44	9105.55
592.799	9128.6
593.158	9115.04
593.517	9148.94
593.876	9186.45
594.235	9122.73
594.593	9153.69
594.952	9082.95
595.311	9090.41
595.67	9107.13
596.029	9176.28
596.387	9118.88
596.746	9177.87
597.104	9032.79
597.463	8995.72
597.822	9093.12
598.18	9042.5
598.538	8992.33
598.897	9055.84
599.255	9010.19
599.613	9084.08
599.972	9085.44
600.33	9075.04
600.688	9051.09
601.046	8993.92
601.404	9105.55
601.762	9064.42
602.12	9101.94
602.478	9075.95
602.836	9079.79
603.194	8985.55
603.552	9100.58
603.91	8993.69
604.268	8954.6
604.625	8973.35
604.983	8991.88
605.341	8973.35
605.698	8957.98
606.056	9010.41
606.413	9015.38
606.771	9028.49
607.128	9060.13
607.485	8993.01
607.843	9046.57
608.2	8967.02
608.557	9125.44
608.914	9023.52
609.272	9052.9
609.629	9068.26
609.986	9116.4
610.343	9041.6
610.7	9073.01
611.057	9087.7
611.414	9124.76
611.771	9112.11
612.127	9137.42
612.484	9117.98
612.841	9143.97
613.198	9057.87
613.554	9079.34
613.911	9124.99
614.267	9173.8
614.624	9139.45
614.98	9131.31
615.337	9234.14
615.693	9170.63
616.05	9070.75
616.406	9197.3
616.762	9163.86
617.118	9153.91
617.475	9116.17
617.831	9223.29
618.187	9211.31
618.543	9227.36
618.899	9261.71
619.255	9198.2
619.611	9214.7
619.967	9244.76
620.323	9263.74
620.678	9207.47
621.034	9224.42
621.39	9169.96
621.746	9169.28
622.101	9271.2
622.457	9245.66
622.812	9229.84
623.168	9271.65
623.523	9171.99
623.879	9230.29
624.234	9173.57
624.589	9263.29
624.945	9244.76
625.3	9193.01
625.655	9243.18
626.01	9220.8
626.365	9235.72
626.72	9214.02
627.075	9199.11
627.43	9172.44
627.785	9169.96
628.14	9211.76
628.495	9193.68
628.85	9152.1
629.205	9047.93
629.559	9226.9
629.914	9133.35
630.269	9164.99
630.623	9168.37
630.978	9111.43
631.332	9128.15
631.687	9141.71
632.041	9051.32
632.396	9084.31
632.75	9112.33
633.104	9118.66
633.459	9001.83
633.813	8996.63
634.167	9023.52
634.521	9007.7
634.875	9026.01
635.229	9045.89
635.583	8976.52
635.937	8957.76
636.291	8930.19
636.645	8904.65
636.999	8952.11
637.352	8895.61
637.706	8919.12
638.06	8898.55
638.413	8907.82
638.767	8820.14
639.121	8944.43
639.474	8828.04
639.828	8800.02
640.181	8807.71
640.534	8891.32
640.888	8775.16
641.241	8753.24
641.594	8827.59
641.947	8772.68
642.301	8756.18
642.654	8761.15
643.007	8770.42
643.36	8769.29
643.713	8719.12
644.066	8722.28
644.419	8706.92
644.771	8650.2
645.124	8637.09
645.477	8625.56
645.83	8570.65
646.182	8497.21
646.535	8494.49
646.888	8543.98
647.24	8454.95
647.593	8542.18
647.945	8425.12
648.298	8442.07
648.65	8425.34
649.002	8337.44
649.355	8476.87
649.707	8462.18
650.059	8474.38
650.411	8552.35
650.763	8579.46
651.115	8717.31
651.467	8673.92
651.819	8657.88
652.171	8624.66
652.523	8678.22
652.875	8685.9
653.227	8597.09
653.578	8665.34
653.93	8680.93
654.282	8635.96
654.633	8617.43
654.985	8594.6
655.337	8659.24
655.688	8626.92
656.039	8695.39
656.391	8660.59
656.742	8588.5
657.094	8680.25
657.445	8649.74
657.796	8625.56
658.147	8566.81
658.498	8624.43
658.849	8675.51
659.2	8661.27
659.551	8596.86
659.902	8696.07
660.253	8651.1
660.604	8744.43
660.955	8647.26
661.306	8637.09
661.656	8663.53
662.007	8714.15
662.358	8678.9
662.708	8760.7
663.059	8702.17
663.409	8658.56
663.76	8702.85
664.11	8706.01
664.461	8739.46
664.811	8691.33
665.161	8709.63
665.511	8662.63
665.862	8741.72
666.212	8790.08
666.562	8743.3
666.912	8762.96
667.262	8735.84
667.612	8750.08
667.962	8737.88
668.312	8707.14
668.662	8760.7
669.011	8743.08
669.361	8726.35
669.711	8794.15
670.06	8693.58
670.41	8671.21
670.76	8672.34
671.109	8754.83
671.459	8689.74
671.808	8660.14
672.157	8777.88
672.507	8686.81
672.856	8650.87
673.205	8632.34
673.554	8715.28
673.904	8620.59
674.253	8732
674.602	8677.99
674.951	8501.27
675.3	8447.49
675.649	8578.33
675.998	8631.21
676.346	8618.11
676.695	8614.94
677.044	8601.38
677.393	8615.17
677.741	8629.86
678.09	8529.75
678.438	8507.83
678.787	8540.37
679.135	8538.33
679.484	8476.87
679.832	8484.55
680.181	8485.23
680.529	8466.7
680.877	8440.26
681.225	8386.93
681.573	8464.21
681.922	8375.85
682.27	8357.77
682.618	8421.28
682.966	8375.4
683.314	8378.57
683.661	8369.07
684.009	8262.86
684.357	8246.82
684.705	8248.62
685.053	8257.44
685.4	8226.93
685.748	8218.12
686.095	8229.42
686.443	8127.95
686.79	8178.57
687.138	8186.03
687.485	8179.7
687.832	8125.92
688.18	8082.53
688.527	8062.42
688.874	8043.21
689.221	8002.53
689.568	7974.51
689.915	8020.16
690.262	7975.64
690.609	7952.14
690.956	7915.07
691.303	7911.23
691.65	7817.45
691.997	7832.59
692.344	7799.6
692.69	7757.34
693.037	7782.2
693.383	7691.13
693.73	7710.79
694.077	7666.04
694.423	7632.82
694.769	7619.49
695.116	7606.61
695.462	7538.81
695.808	7526.38
696.155	7546.04
696.501	7452.26
696.847	7469.89
697.193	7419.49
697.539	7461.3
697.885	7340.85
698.231	7324.58
698.577	7306.5
698.923	7321.87
699.269	7236.67
699.614	7257.69
699.96	7229.89
700.306	7195.55
700.651	7150.57
700.997	7145.83
701.342	7114.19
701.688	7102.89
702.033	7101.54
702.379	7041.43
702.724	7009.11
703.069	7031.48
703.415	6956.46
703.76	6917.13
704.105	6944.03
704.45	6844.82
704.795	6871.49
705.14	6836.23
705.485	6893.86
705.83	6786.97
706.175	6826.52
706.52	6807.76
706.865	6778.16
707.209	6777.93
707.554	6714.43
707.899	6708.33
708.243	6618.39
708.588	6649.12
708.932	6643.24
709.277	6631.27
709.621	6593.53
709.966	6583.13
710.31	6592.85
710.654	6510.82
710.998	6565.96
711.342	6513.3
711.687	6475.79
712.031	6449.8
712.375	6471.95
712.719	6448.67
713.063	6476.24
713.407	6455.68
713.75	6388.11
714.094	6380.43
714.438	6367.77
714.782	6428.33
715.125	6338.84
715.469	6354.21
715.812	6303.82
716.156	6280.54
716.499	6275.34
716.843	6260.2
717.186	6292.52
717.53	6260.43
717.873	6259.98
718.216	6211.16
718.559	6232.41
718.902	6171.84
719.246	6146.76
719.589	6164.16
719.932	6197.38
720.275	6178.17
720.617	6191.5
720.96	6205.29
721.303	6143.82
721.646	6142.47
721.989	6138.17
722.331	6104.5
722.674	6162.8
723.016	6154.22
723.359	6147.66
723.701	6145.63
724.044	6103.82
724.386	6097.95
724.729	6110.6
725.071	6063.82
725.413	6077.16
725.755	6118.06
726.097	6056.59
726.439	6057.95
726.782	6069.02
727.124	6061.11
727.465	6066.31
727.807	6078.96
728.149	6039.64
728.491	6083.48
728.833	6045.74
729.175	6055.01
729.516	6042.81
729.858	6076.48
730.199	6075.57
730.541	6041
730.882	6009.81
731.224	6037.61
731.565	6028.34
731.906	6038.06
732.248	5999.87
732.589	6023.37
732.93	5988.35
733.271	6015.69
733.612	6033.54
733.953	6027.44
734.294	6041.45
734.635	6021.34
734.976	6058.17
735.317	6033.09
735.658	6057.72
735.999	6025.86
736.339	6005.75
736.68	6085.52
737.021	6026.31
737.361	6063.82
737.702	6126.87
738.042	6073.31
738.383	6102.47
738.723	6084.61
739.063	6056.14
739.404	6118.74
739.744	6106.53
740.084	6087.78
740.424	6177.27
740.764	6142.92
741.104	6080.77
741.444	6187.89
741.784	6175.01
742.124	6207.1
742.464	6249.58
742.804	6188.34
743.143	6222.24
743.483	6258.85
743.823	6293.2
744.162	6284.61
744.502	6323.25
744.841	6358.73
745.181	6349.69
745.52	6351.73
745.86	6441.89
746.199	6483.93
746.538	6541.1
746.877	6571.38
747.216	6631.72
747.556	6624.71
747.895	6641.66
748.234	6737.48
748.573	6733.41
748.911	6833.29
749.25	6845.72
749.589	6945.83
749.928	7008.21
750.267	7071.03
750.605	7167.3
750.944	7194.42
751.283	7236.67
751.621	7364.13
751.96	7395.09
752.298	7552.15
752.636	7641.64
752.975	7734.29
753.313	7838.69
753.651	7918.24
753.989	7995.52
754.327	8100.61
754.666	8217.89
755.004	8249.98
755.342	8520.93
755.679	8586.7
756.017	8697.2
756.355	8844.77
756.693	9000.47
757.031	9145.78
757.368	9205.44
757.706	9452.89
758.044	9544.41
758.381	9703.05
758.719	9871.86
759.056	10053.1
759.394	10157.73
759.731	10250.38
760.068	10465.06
760.405	10564.27
760.743	10772.4
761.08	10965.84
761.417	11074.77
761.754	11265.27
762.091	11455.32
762.428	11560.18
762.765	11709.32
763.102	11944.8
763.438	12073.38
763.775	12242.87
764.112	12460.72
764.449	12658.68
764.785	12750.2
765.122	12937.77
765.458	13043.53
765.795	13259.11
766.131	13422.73
766.467	13451.88
