Data from hue_30_FLMS001491_68.txt Node
Date: Mon Feb 06 15:05:46 GMT 2017
User: dcchb
Spectrometer: FLMS00149
Trigger mode: 0
Integration Time (sec): 2.000000E-2
Scans to average: 10
Electric dark correction enabled: true
Nonlinearity correction enabled: false
Boxcar width: 0
XAxis mode: Wavelengths
Number of Pixels in Spectrum: 2048
>>>>>Begin Spectral Data<<<<<
341.393	3.28
341.776	3.28
342.16	3.28
342.543	-63.61
342.927	-87.57
343.31	-74.91
343.693	-52.54
344.077	-49.38
344.46	-57.74
344.843	-49.83
345.226	-43.95
345.61	-13.45
345.993	-31.52
346.376	-7.8
346.759	7.57
347.142	19.32
347.525	33.11
347.908	44.63
348.291	60.68
348.674	100.45
349.057	115.36
349.44	113.1
349.823	135.7
350.206	173.67
350.588	168.02
350.971	222.71
351.354	221.8
351.737	231.29
352.119	260.45
352.502	251.86
352.884	271.97
353.267	286.43
353.65	290.95
354.032	301.8
354.414	304.29
354.797	311.74
355.179	334.12
355.562	325.98
355.944	339.54
356.326	360.56
356.709	333.21
357.091	330.27
357.473	365.75
357.855	328.92
358.238	356.94
358.62	337.05
359.002	339.99
359.384	357.62
359.766	364.85
360.148	330.73
360.53	337.28
360.912	340.44
361.294	339.77
361.676	350.84
362.057	334.57
362.439	317.17
362.821	330.5
363.203	295.92
363.584	330.5
363.966	324.4
364.348	330.05
364.729	330.05
365.111	299.99
365.493	307.9
365.874	318.75
366.256	311.97
366.637	318.07
367.019	316.94
367.4	330.05
367.781	327.34
368.163	329.14
368.544	299.77
368.925	326.21
369.306	316.26
369.688	337.05
370.069	323.95
370.45	311.29
370.831	327.11
371.212	326.66
371.593	327.34
371.974	307.45
372.355	325.53
372.736	317.39
373.117	333.89
373.498	310.84
373.879	333.89
374.26	331.18
374.641	321.91
375.021	324.62
375.402	335.25
375.783	313.55
376.163	346.32
376.544	330.73
376.925	339.77
377.305	331.4
377.686	326.88
378.066	322.36
378.447	336.15
378.827	335.25
379.208	341.57
379.588	338.41
379.968	331.86
380.349	325.53
380.729	334.12
381.109	354.68
381.489	344.06
381.87	352.65
382.25	361.23
382.63	342.93
383.01	341.35
383.39	354
383.77	357.84
384.15	348.58
384.53	342.93
384.91	344.28
385.29	350.61
385.67	376.83
386.049	338.64
386.429	351.29
386.809	361.69
387.189	363.49
387.568	352.19
387.948	376.37
388.328	355.81
388.707	361.69
389.087	367.11
389.466	369.82
389.846	390.84
390.225	369.14
390.605	380.22
390.984	389.71
391.363	379.54
391.743	380.89
392.122	387.67
392.501	375.47
392.881	385.19
393.26	372.31
393.639	382.02
394.018	369.59
394.397	380.67
394.776	391.97
395.155	408.69
395.534	396.71
395.913	390.84
396.292	408.24
396.671	408.01
397.05	385.87
397.429	388.8
397.808	373.21
398.186	397.39
398.565	397.39
398.944	394
399.323	426.32
399.701	386.77
400.08	414.11
400.458	413.21
400.837	404.85
401.215	406.88
401.594	399.42
401.972	443.49
402.351	418.63
402.729	411.85
403.107	409.82
403.486	419.54
403.864	421.34
404.242	435.36
404.62	444.62
404.999	438.75
405.377	405.75
405.755	417.96
406.133	423.83
406.511	415.92
406.889	431.06
407.267	451.85
407.645	459.99
408.023	447.56
408.401	425.41
408.779	457.73
409.156	431.06
409.534	453.21
409.912	452.98
410.29	460.21
410.667	479.42
411.045	466.54
411.422	464.73
411.8	479.87
412.178	464.51
412.555	485.07
412.933	482.36
413.31	494.56
413.687	495.02
414.065	499.76
414.442	494.79
414.819	467.9
415.197	504.73
415.574	511.06
415.951	509.48
416.328	507.67
416.705	507.22
417.082	508.8
417.46	514
417.837	524.84
418.214	521.68
418.591	513.09
418.967	519.2
419.344	513.32
419.721	549.93
420.098	529.59
420.475	545.64
420.852	549.93
421.228	552.87
421.605	536.14
421.982	547.22
422.358	558.74
422.735	580.89
423.111	572.53
423.488	561.68
423.864	557.16
424.241	568.01
424.617	593.09
424.994	597.16
425.37	589.93
425.746	568.91
426.123	571.62
426.499	583.15
426.875	603.26
427.251	597.16
427.627	592.19
428.003	625.18
428.379	619.98
428.756	614.79
429.132	624.96
429.507	632.41
429.883	643.94
430.259	638.51
430.635	646.2
431.011	648.91
431.387	651.62
431.763	678.97
432.138	660.43
432.514	681.9
432.89	675.35
433.265	679.87
433.641	685.29
434.016	681.68
434.392	726.42
434.767	701.34
435.143	712.18
435.518	711.96
435.894	736.59
436.269	733.65
436.644	742.24
437.02	746.08
437.395	765.74
437.77	748.12
438.145	726.42
438.52	765.06
438.895	741.79
439.271	782.24
439.646	762.8
440.021	783.37
440.395	785.63
440.77	784.95
441.145	806.65
441.52	789.02
441.895	830.37
442.27	810.71
442.645	811.17
443.019	833.99
443.394	822.24
443.769	819.3
444.143	826.98
444.518	846.64
444.892	829.24
445.267	823.37
445.641	840.09
446.016	849.58
446.39	863.82
446.764	846.64
447.139	863.59
447.513	863.82
447.887	862.69
448.262	871.73
448.636	881.9
449.01	858.17
449.384	925.74
449.758	909.47
450.132	904.95
450.506	891.61
450.88	889.36
451.254	924.16
451.628	943.82
452.002	937.72
452.376	951.05
452.75	975.68
453.123	952.18
453.497	971.16
453.871	967.32
454.244	986.08
454.618	995.34
454.992	1029.69
455.365	992.86
455.739	1033.53
456.112	1037.83
456.486	1040.76
456.859	1040.76
457.232	1053.87
457.606	1059.52
457.979	1048.9
458.352	1087.09
458.725	1092.97
459.099	1120.99
459.472	1111.95
459.845	1102
460.218	1160.08
460.591	1168.44
460.964	1158.95
461.337	1170.03
461.71	1174.32
462.083	1187.43
462.456	1195.79
462.829	1220.42
463.201	1234.2
463.574	1236.01
463.947	1262.45
464.32	1282.57
464.692	1305.62
465.065	1319.17
465.438	1341.09
465.81	1355.56
466.183	1350.36
466.555	1371.83
466.928	1391.94
467.3	1377.25
467.672	1418.61
468.045	1447.98
468.417	1438.27
468.789	1452.5
469.161	1480.07
469.534	1487.76
469.906	1537.93
470.278	1525.72
470.65	1558.26
471.022	1582.22
471.394	1605.49
471.766	1626.51
472.138	1650.92
472.51	1703.8
472.882	1718.26
473.253	1728.88
473.625	1784.02
473.997	1800.29
474.369	1822.21
474.74	1858.37
475.112	1902.44
475.484	1904.24
475.855	1960.29
476.227	1986.73
476.598	2050.45
476.97	2061.3
477.341	2112.83
477.713	2136.55
478.084	2163.45
478.455	2232.14
478.827	2238.02
479.198	2310.33
479.569	2343.1
479.94	2392.59
480.311	2454.51
480.682	2501.29
481.053	2570.21
481.424	2620.61
481.795	2646.37
482.166	2709.65
482.537	2725.47
482.908	2837.1
483.279	2866.25
483.65	2972.24
484.021	2971.33
484.391	3019.69
484.762	3092.01
485.133	3158.45
485.503	3206.13
485.874	3249.29
486.244	3303.75
486.615	3405.45
486.985	3441.38
487.356	3541.49
487.726	3581.04
488.097	3641.37
488.467	3698.32
488.837	3809.5
489.207	3847.92
489.578	3926.34
489.948	3985.32
490.318	4025.77
490.688	4065.77
491.058	4105.99
491.428	4220.12
491.798	4308.93
492.168	4373.11
492.538	4418.98
492.908	4489.26
493.278	4575.13
493.648	4616.49
494.017	4668.69
494.387	4750.27
494.757	4768.12
495.126	4836.37
495.496	4869.36
495.866	4959.53
496.235	5041.34
496.605	5090.83
496.974	5112.29
497.344	5173.99
497.713	5236.59
498.082	5275.23
498.452	5337.37
498.821	5391.61
499.19	5377.82
499.559	5464.6
499.928	5506.18
500.298	5593.41
500.667	5620.53
501.036	5650.81
501.405	5681.09
501.774	5712.28
502.143	5844.25
502.512	5825.5
502.88	5867.08
503.249	5906.17
503.618	5973.29
503.987	5972.39
504.356	6066.85
504.724	6088.31
505.093	6119.05
505.462	6155.88
505.83	6185.71
506.199	6263.45
506.567	6282.89
506.936	6260.06
507.304	6426.38
507.672	6440.62
508.041	6438.36
508.409	6537.57
508.777	6581.41
509.145	6580.05
509.514	6593.61
509.882	6632.93
510.25	6723.33
510.618	6742.08
510.986	6735.3
511.354	6826.83
511.722	6844
512.09	6894.62
512.458	6907.5
512.826	6980.72
513.193	7016.88
513.561	7089.42
513.929	7070.66
514.297	7125.8
514.664	7173.94
515.032	7196.76
515.4	7228.85
515.767	7279.7
516.135	7291.67
516.502	7267.04
516.869	7381.61
517.237	7416.42
517.604	7416.19
517.972	7465.45
518.339	7461.39
518.706	7508.62
519.073	7587.71
519.44	7555.39
519.808	7672.23
520.175	7615.28
520.542	7754.03
520.909	7784.32
521.276	7755.39
521.643	7815.5
522.009	7921.49
522.376	7936.85
522.743	7978.43
523.11	8059.34
523.477	8037.19
523.843	8073.35
524.21	8146.57
524.577	8290.52
524.943	8307.69
525.31	8325.09
525.676	8407.8
526.043	8455.48
526.409	8492.55
526.776	8540
527.142	8497.97
527.508	8593.56
527.874	8683.05
528.241	8711.97
528.607	8761.92
528.973	8782.03
529.339	8817.28
529.705	8871.97
530.071	8905.64
530.437	8953.55
530.803	8949.93
531.169	9036.49
531.535	9025.64
531.901	9107.9
532.267	9145.41
532.632	9226.54
532.998	9246.42
533.364	9315.35
533.73	9333.2
534.095	9373.65
534.461	9389.7
534.826	9463.37
535.192	9511.05
535.557	9570.48
535.923	9610.26
536.288	9640.54
536.653	9589.92
537.019	9687.32
537.384	9699.52
537.749	9733.19
538.114	9814.54
538.479	9811.38
538.845	9836.24
539.21	9904.94
539.575	9887.31
539.94	9970.02
540.305	9994.65
540.67	10069.9
541.034	10061.77
541.399	10130.24
541.764	10146.06
542.129	10167.98
542.494	10213.18
542.858	10304.7
543.223	10331.82
543.587	10406.85
543.952	10430.8
544.316	10392.61
544.681	10450.23
545.045	10530.91
545.41	10555.77
545.774	10605.71
546.138	10609.1
546.503	10699.94
546.867	10685.71
547.231	10740.85
547.595	10819.94
547.959	10856.1
548.324	10826.49
548.688	10858.36
549.052	10958.69
549.416	11017.9
549.779	10946.27
550.143	11022.42
550.507	11112.14
550.871	11131.8
551.235	11126.15
551.599	11258.57
551.962	11312.13
552.326	11250.89
552.689	11295.86
553.053	11279.82
553.417	11328.4
553.78	11487.49
554.143	11464.44
554.507	11523.65
554.87	11547.15
555.234	11659.02
555.597	11567.72
555.96	11673.7
556.323	11687.04
556.686	11768.62
557.05	11816.98
557.413	11799.58
557.776	11822.63
558.139	11953.47
558.502	11899.46
558.865	11976.75
559.228	12010.64
559.59	12069.17
559.953	11995.5
560.316	12147.36
560.679	12174.26
561.041	12270.98
561.404	12411.99
561.767	12367.92
562.129	12341.48
562.492	12482.72
562.854	12436.17
563.217	12503.74
563.579	12574.25
563.941	12579.9
564.304	12670.74
564.666	12680.46
565.028	12736.73
565.39	12717.29
565.753	12835.03
566.115	12836.61
566.477	12921.13
566.839	12983.5
567.201	13001.81
567.563	13003.16
567.925	13121.12
568.287	13124.74
568.648	13186.21
569.01	13282.93
569.372	13319.54
569.734	13211.07
570.095	13421
570.457	13487.67
570.819	13430.04
571.18	13514.11
571.542	13618.29
571.903	13620.77
572.265	13796.36
572.626	13791.16
572.987	13882.46
573.349	13905.51
573.71	14004.49
574.071	14053.75
574.432	14127.88
574.794	14320.64
575.155	14338.72
575.516	14316.12
575.877	14470.24
576.238	14520.18
576.599	14637.69
576.96	14697.35
577.32	14678.82
577.681	14943.67
578.042	14978.25
578.403	15097.8
578.763	15204.68
579.124	15354.06
579.485	15491.01
579.845	15670.89
580.206	15602.87
580.566	15834.27
580.927	15952.46
581.287	16197.65
581.648	16149.52
582.008	16448.27
582.368	16616.85
582.728	16717.41
583.089	16881.03
583.449	17045.99
583.809	17262.71
584.169	17588.35
584.529	17666.54
584.889	18030.83
585.249	18073.08
585.609	18302.23
585.969	18544.71
586.329	18732.5
586.688	18977.69
587.048	19129.55
587.408	19345.37
587.768	19546.72
588.127	19856.31
588.487	19960.72
588.846	20407.94
589.206	20487.03
589.565	20748.95
589.925	21080.91
590.284	21380.79
590.643	21489.72
591.003	21973.32
591.362	22192.07
591.721	22460.99
592.08	22662.79
592.44	23026.63
592.799	23253.74
593.158	23519.95
593.517	23847.62
593.876	24149.31
594.235	24269.53
594.593	24655.28
594.952	24896.41
595.311	25139.56
595.67	25429.73
596.029	25881.69
596.387	26095.25
596.746	26406.65
597.104	26647.1
597.463	26831.72
597.822	27154.88
598.18	27360.3
598.538	27701.31
598.897	28050.9
599.255	28122.99
599.613	28769.3
599.972	28884.33
600.33	29101.72
600.688	29305.33
601.046	29701.03
601.404	30033.67
601.762	30209.49
602.12	30435.47
602.478	30794.56
602.836	31108.67
603.194	31121.33
603.552	31443.81
603.91	31503.24
604.268	31843.8
604.625	32003.34
604.983	32304.35
605.341	32510.9
605.698	32830.44
606.056	33020.49
606.413	33277.66
606.771	33492.11
607.128	33716.29
607.485	33763.07
607.843	34022.95
608.2	34403.28
608.557	34697.28
608.914	34691.4
609.272	35062.92
609.629	35308.11
609.986	35509.91
610.343	35539.52
610.7	35939.51
611.057	36053.4
611.414	36242.32
611.771	36289.55
612.127	36546.04
612.484	36845.47
612.841	36903.1
613.198	36861.74
613.554	37117.56
613.911	37424.21
614.267	37576.98
614.624	37557.32
614.98	37752.79
615.337	38186.91
615.693	38098.09
616.05	38161.6
616.406	38553
616.762	38496.05
617.118	38657.18
617.475	38803.61
617.831	38929.94
618.187	39198.18
618.543	39113.89
618.899	39667.77
619.255	39595.23
619.611	39530.82
619.967	39733.08
620.323	40002.68
620.678	39985.05
621.034	39882.45
621.39	40091.49
621.746	40076.57
622.101	40644.02
622.457	40287.64
622.812	40503.23
623.168	40625.03
623.523	40659.38
623.879	40777.8
624.234	40665.03
624.589	40913.84
624.945	40968.53
625.3	41017.79
625.655	41036.1
626.01	41161.29
626.365	41369.42
626.72	41237.9
627.075	41380.72
627.43	41450.77
627.785	41305.69
628.14	41444.45
628.495	41493.03
628.85	41423.66
629.205	41479.7
629.559	41597.66
629.914	41432.47
630.269	41626.36
630.623	41545.91
630.978	41523.77
631.332	41681.73
631.687	41756.76
632.041	41585.46
632.396	41839.24
632.75	41609.19
633.104	41673.14
633.459	41584.56
633.813	41602.18
634.167	41748.39
634.521	41678.57
634.875	41797.43
635.229	41859.13
635.583	41479.93
635.937	41525.12
636.291	41519.93
636.645	41501.62
636.999	41554.5
637.352	41760.37
637.706	41542.52
638.06	41689.86
638.413	41591.34
638.767	41516.99
639.121	41582.75
639.474	41444
639.828	41358.12
640.181	41520.38
640.534	41435.41
640.888	41487.16
641.241	41314.28
641.594	41471.56
641.947	41521.73
642.301	41486.25
642.654	41501.62
643.007	41500.26
643.36	41436.76
643.713	41326.94
644.066	41544.78
644.419	41183.89
644.771	41103.44
645.124	40647.41
645.477	40588.42
645.83	40391.82
646.182	40351.82
646.535	40318.15
646.888	40364.48
647.24	39976.24
647.593	40277.92
647.945	40166.97
648.298	40006.97
648.65	40002.68
649.002	39944.6
649.355	39983.02
649.707	40002.23
650.059	40062.79
650.411	40664.35
650.763	40638.14
651.115	41053.04
651.467	41095.08
651.819	40879.04
652.171	40756.1
652.523	40851.92
652.875	40624.13
653.227	40719.49
653.578	41025.93
653.93	40810.11
654.282	40640.17
654.633	40639.5
654.985	40623.9
655.337	40683.11
655.688	40613.51
656.039	40815.09
656.391	40451.25
656.742	40557.92
657.094	40503.68
657.445	40683.11
657.796	40597.92
658.147	40587.52
658.498	40567.41
658.849	40469.78
659.2	40516.79
659.551	40408.77
659.902	40438.15
660.253	40501.42
660.604	40448.54
660.955	40364.48
661.306	40479.73
661.656	40406.73
662.007	40522.44
662.358	40368.54
662.708	40380.75
663.059	40398.37
663.409	40213.74
663.76	40477.01
664.11	40419.62
664.461	40539.84
664.811	40369.9
665.161	40358.6
665.511	40197.93
665.862	40240.86
666.212	40444.02
666.562	40306.85
666.912	40276.12
667.262	40342.33
667.612	40327.41
667.962	40409.22
668.312	40274.53
668.662	40429.11
669.011	40333.74
669.361	40286.51
669.711	40277.02
670.06	40236.57
670.41	40123.35
670.76	40067.76
671.109	40234.54
671.459	40139.4
671.808	40181.43
672.157	40131.49
672.507	39935.56
672.856	39969.91
673.205	39942.11
673.554	40039.74
673.904	39902.11
674.253	40165.16
674.602	40047.2
674.951	39404.95
675.3	39251.96
675.649	39942.11
675.998	39763.36
676.346	39687.43
676.695	40034.54
677.044	39791.61
677.393	39888.78
677.741	39850.14
678.09	39763.81
678.438	39690.59
678.787	39786.19
679.135	39860.76
679.484	39417.38
679.832	39541.9
680.181	39491.73
680.529	39576.25
680.877	39441.56
681.225	39541.67
681.573	39563.59
681.922	39264.17
682.27	39305.29
682.618	39157.28
682.966	39002.48
683.314	39234.79
683.661	39093.1
684.009	38861.01
684.357	38872.31
684.705	38808.13
685.053	38809.49
685.4	38716.61
685.748	38533.34
686.095	38568.14
686.443	38415.37
686.79	38468.71
687.138	38332.21
687.485	38512.09
687.832	38226.9
688.18	38306.9
688.527	38145.32
688.874	38055.16
689.221	38029.62
689.568	37884.77
689.915	37812.68
690.262	37776.52
690.609	37847.48
690.956	37732.68
691.303	37584.44
691.65	37469.64
691.997	37530.65
692.344	37238.91
692.69	37233.26
693.037	37211.34
693.383	37004.56
693.73	37132.02
694.077	36852.48
694.423	36895.64
694.769	36874.85
695.116	36702.2
695.462	36541.75
695.808	36365.03
696.155	36621.52
696.501	36245.71
696.847	36286.16
697.193	35925.04
697.539	35982.44
697.885	35887.76
698.231	35743.35
698.577	35731.38
698.923	35711.04
699.269	35691.6
699.614	35310.15
699.96	35317.15
700.306	35324.61
700.651	35248
700.997	35052.3
701.342	35055.24
701.688	35126.2
702.033	34916.94
702.379	34848.24
702.724	34815.47
703.069	34802.14
703.415	34562.59
703.76	34361.7
704.105	34450.05
704.45	34409.15
704.795	34169.38
705.14	34077.86
705.485	34100.91
705.83	33946.57
706.175	34002.83
706.52	33909.05
706.865	33901.14
707.209	33699.34
707.554	33509.74
707.899	33672.22
708.243	33504.32
708.588	33462.06
708.932	33305.68
709.277	33202.86
709.621	33133.71
709.966	32879.93
710.31	33130.09
710.654	32787.73
710.998	32854.62
711.342	32742.53
711.687	32693.72
712.031	32641.06
712.375	32607.17
712.719	32544.34
713.063	32439.26
713.407	32488.52
713.75	32313.16
714.094	32351.8
714.438	32195.42
714.782	32260.51
715.125	32110.46
715.469	32133.96
715.812	31961.31
716.156	31752.05
716.499	31806.06
716.843	31842.21
717.186	31658.04
717.53	31767.64
717.873	31862.1
718.216	31662.56
718.559	31506.86
718.902	31286.07
719.246	31449
719.589	31381.43
719.932	31228.22
720.275	31193.87
720.617	31140.54
720.96	31201.55
721.303	31037.04
721.646	31187.54
721.989	30841.79
722.331	30993.2
722.674	30852.86
723.016	30977.6
723.359	30778.74
723.701	30771.96
724.044	30542.13
724.386	30509.59
724.729	30690.15
725.071	30513.89
725.413	30440.22
725.755	30587.56
726.097	30271.63
726.439	30188.25
726.782	30307.11
727.124	30355.47
727.465	30176.72
727.807	30202.26
728.149	29994.58
728.491	30009.49
728.833	30096.72
729.175	30000.45
729.516	29890.63
729.858	29851.31
730.199	29857.41
730.541	29903.96
730.882	29689.28
731.224	29768.14
731.565	29564.08
731.906	29642.27
732.248	29513.24
732.589	29349.85
732.93	29468.26
733.271	29414.71
733.612	29330.19
733.953	29425.33
734.294	29297.42
734.635	29333.13
734.976	29360.7
735.317	29112.34
735.658	29151.89
735.999	29115.96
736.339	29050.2
736.68	29188.27
737.021	29039.12
737.361	28872.8
737.702	29085
738.042	28953.02
738.383	28724.33
738.723	28826.93
739.063	28697.89
739.404	28768.4
739.744	28745.8
740.084	28638.23
740.424	28609.3
740.764	28580.38
741.104	28638.46
741.444	28409.99
741.784	28481.62
742.124	28517.78
742.464	28351.68
742.804	28376.32
743.143	28296.09
743.483	28281.4
743.823	28146.72
744.162	28183.78
744.502	28246.83
744.841	28073.05
745.181	28205.02
745.52	27936.55
745.86	28089.77
746.199	28052.03
746.538	27879.15
746.877	27946.5
747.216	28009.77
747.556	27919.6
747.895	27842.32
748.234	27674.19
748.573	27683.45
748.911	27606.84
749.25	27574.53
749.589	27519.62
749.928	27640.74
750.267	27477.13
750.605	27580.4
750.944	27422.22
751.283	27265.61
751.621	27460.18
751.96	27131.6
752.298	27253.41
752.636	27247.98
752.975	27141.09
753.313	27060.42
753.651	27154.65
753.989	26997.6
754.327	26914.43
754.666	26768.67
755.004	26935.45
755.342	26831.05
755.679	26792.63
756.017	26672.41
756.355	26772.52
756.693	26568.91
757.031	26535.46
757.368	26500.89
757.706	26475.8
758.044	26418.4
758.381	26338.86
758.719	26228.35
