Data from hue_330_FLMS001491_1.txt Node
Date: Mon Feb 06 15:44:47 GMT 2017
User: dcchb
Spectrometer: FLMS00149
Trigger mode: 0
Integration Time (sec): 2.000000E-2
Scans to average: 10
Electric dark correction enabled: true
Nonlinearity correction enabled: false
Boxcar width: 0
XAxis mode: Wavelengths
Number of Pixels in Spectrum: 2048
>>>>>Begin Spectral Data<<<<<
341.393	-11.47
341.776	-11.47
342.16	-11.47
342.543	-63.67
342.927	-69.55
343.31	-70.9
343.693	-90.79
344.077	-55.76
344.46	-78.59
344.843	-54.86
345.226	-48.76
345.61	-46.95
345.993	-11.47
346.376	-10.79
346.759	7.74
347.142	36.44
347.525	50.9
347.908	68.3
348.291	80.96
348.674	110.34
349.057	114.18
349.44	118.92
349.823	148.3
350.206	160.28
350.588	200.73
350.971	208.19
351.354	232.59
351.737	228.07
352.119	243.67
352.502	268.3
352.884	266.26
353.267	289.99
353.65	290.9
354.032	295.64
354.414	314.62
354.797	312.36
355.179	335.87
355.562	313.72
355.944	318.01
356.326	335.87
356.709	320.27
357.091	317.11
357.473	343.32
357.855	347.62
358.238	341.29
358.62	351.69
359.002	350.78
359.384	342.87
359.766	337.22
360.148	331.12
360.53	333.38
360.912	338.58
361.294	338.35
361.676	332.93
362.057	332.25
362.439	325.92
362.821	318.92
363.203	332.03
363.584	326.83
363.966	336.77
364.348	310.33
364.729	316.43
365.111	325.7
365.493	298.81
365.874	318.01
366.256	329.77
366.637	299.94
367.019	307.62
367.4	329.54
367.781	295.87
368.163	309.65
368.544	321.18
368.925	309.2
369.306	326.83
369.688	291.57
370.069	312.36
370.45	320.5
370.831	325.7
371.212	320.05
371.593	308.97
371.974	302.42
372.355	304.91
372.736	315.53
373.117	319.6
373.498	318.92
373.879	308.07
374.26	300.39
374.641	310.56
375.021	330.67
375.402	331.35
375.783	318.01
376.163	309.65
376.544	333.38
376.925	341.97
377.305	339.26
377.686	327.28
378.066	308.97
378.447	329.09
378.827	321.4
379.208	326.6
379.588	328.64
379.968	331.57
380.349	313.49
380.729	335.64
381.109	343.78
381.489	336.32
381.87	339.48
382.25	335.64
382.63	326.6
383.01	354.62
383.39	342.65
383.77	341.06
384.15	369.54
384.53	344.23
384.91	348.75
385.29	329.09
385.67	369.54
386.049	360.05
386.429	375.64
386.809	357.34
387.189	351.23
387.568	348.52
387.948	355.3
388.328	357.79
388.707	344.91
389.087	346.94
389.466	356.66
389.846	371.35
390.225	340.16
390.605	355.75
390.984	358.69
391.363	362.31
391.743	366.37
392.122	366.15
392.501	404.11
392.881	363.66
393.26	371.12
393.639	397.56
394.018	365.7
394.397	393.72
394.776	377.45
395.155	384.23
395.534	360.05
395.913	372.48
396.292	402.98
396.671	367.28
397.05	388.75
397.429	392.59
397.808	385.81
398.186	380.39
398.565	390.55
398.944	390.1
399.323	420.38
399.701	382.87
400.08	393.94
400.458	407.5
400.837	402.08
401.215	407.28
401.594	390.55
401.972	408.41
402.351	390.78
402.729	410.44
403.107	413.38
403.486	394.17
403.864	415.64
404.242	419.48
404.62	437.79
404.999	434.85
405.377	448.86
405.755	421.74
406.133	425.81
406.511	430.1
406.889	448.63
407.267	472.59
407.645	449.08
408.023	456.54
408.401	476.2
408.779	488.86
409.156	455.86
409.534	452.25
409.912	472.59
410.29	500.38
410.667	495.64
411.045	487.73
411.422	478.69
411.8	479.37
412.178	501.51
412.555	493.38
412.933	506.94
413.31	514.62
413.687	506.71
414.065	537.67
414.442	548.29
414.819	553.04
415.197	546.71
415.574	553.49
415.951	548.74
416.328	552.58
416.705	566.82
417.082	567.27
417.46	569.76
417.837	576.31
418.214	602.07
418.591	586.48
418.967	606.14
419.344	607.72
419.721	604.33
420.098	596.2
420.475	614.96
420.852	635.75
421.228	633.26
421.605	640.49
421.982	659.7
422.358	649.08
422.735	642.07
423.111	655.63
423.488	661.28
423.864	676.87
424.241	658.34
424.617	654.95
424.994	693.6
425.37	677.55
425.746	676.2
426.123	718.68
426.499	701.51
426.875	728.17
427.251	695.63
427.627	735.63
428.003	743.77
428.379	756.19
428.756	745.35
429.132	750.55
429.507	792.35
429.883	765.01
430.259	789.19
430.635	785.57
431.011	759.58
431.387	801.84
431.763	839.36
432.138	837.1
432.514	818.11
432.89	834.38
433.265	855.18
433.641	863.08
434.016	862.41
434.392	880.71
434.767	889.07
435.143	863.31
435.518	894.95
435.894	893.82
436.269	925.91
436.644	899.92
437.02	904.67
437.395	927.04
437.77	936.53
438.145	940.82
438.52	937.21
438.895	952.8
439.271	960.03
439.646	1010.65
440.021	1003.87
440.395	1000.48
440.77	991.22
441.145	990.76
441.52	1017.88
441.895	1014.49
442.27	1011.1
442.645	1004.1
443.019	1028.96
443.394	1030.09
443.769	1052.01
444.143	1042.97
444.518	1053.81
444.892	1035.51
445.267	1060.82
445.641	1074.15
446.016	1084.77
446.39	1061.27
446.764	1098.56
447.139	1081.16
447.513	1093.14
447.887	1090.88
448.262	1097.88
448.636	1089.52
449.01	1120.03
449.384	1125.45
449.758	1112.57
450.132	1118.9
450.506	1143.53
450.88	1135.17
451.254	1113.7
451.628	1173.36
452.002	1153.92
452.376	1154.83
452.75	1181.72
453.123	1184.43
453.497	1186.24
453.871	1189.18
454.244	1201.83
454.618	1205
454.992	1236.63
455.365	1214.49
455.739	1243.64
456.112	1230.76
456.486	1249.29
456.859	1281.83
457.232	1282.51
457.606	1274.15
457.979	1295.84
458.352	1348.04
458.725	1326.58
459.099	1305.33
459.472	1341.72
459.845	1363.18
460.218	1335.39
460.591	1353.24
460.964	1357.53
461.337	1388.27
461.71	1401.83
462.083	1430.75
462.456	1409.96
462.829	1445.67
463.201	1446.35
463.574	1460.81
463.947	1475.5
464.32	1502.39
464.692	1477.08
465.065	1508.04
465.438	1534.25
465.81	1544.42
466.183	1555.27
466.555	1576.06
466.928	1575.61
467.3	1556.63
467.672	1584.2
468.045	1597.75
468.417	1635.95
468.789	1626.91
469.161	1671.2
469.534	1685.44
469.906	1696.51
470.278	1715.27
470.65	1710.75
471.022	1747.81
471.394	1771.99
471.766	1763.4
472.138	1815.15
472.51	1842.27
472.882	1850.86
473.253	1877.07
473.625	1903.51
473.997	1919.1
474.369	1923.85
474.74	1949.61
475.112	1981.02
475.484	2010.85
475.855	2040.23
476.227	2041.58
476.598	2044.97
476.97	2108.25
477.341	2136.27
477.713	2175.14
478.084	2128.81
478.455	2204.52
478.827	2216.04
479.198	2276.38
479.569	2282.71
479.94	2293.56
480.311	2357.51
480.682	2401.58
481.053	2381.69
481.424	2451.52
481.795	2480.22
482.166	2532.42
482.537	2533.1
482.908	2592.98
483.279	2621.46
483.65	2639.31
484.021	2669.14
484.391	2706.88
484.762	2712.98
485.133	2755.46
485.503	2765.86
485.874	2834.33
486.244	2816.93
486.615	2866.87
486.985	2929.92
487.356	2970.15
487.726	2953.2
488.097	3046.98
488.467	3017.6
488.837	3043.59
489.207	3098.28
489.578	3186.87
489.948	3155.68
490.318	3195.68
490.688	3227.32
491.058	3193.42
491.428	3269.12
491.798	3280.42
492.168	3351.15
492.538	3360.42
492.908	3421.44
493.278	3425.96
493.648	3433.86
494.017	3501.66
494.387	3463.47
494.757	3523.35
495.126	3573.07
495.496	3565.61
495.866	3604.48
496.235	3618.04
496.605	3632.5
496.974	3677.7
497.344	3719.05
497.713	3733.07
498.082	3734.65
498.452	3809.45
498.821	3787.75
499.19	3765.61
499.559	3805.83
499.928	3860.07
500.298	3833.18
500.667	3869.79
501.036	3877.02
501.405	3917.02
501.774	3890.35
502.143	3957.24
502.512	3983.68
502.88	3966.05
503.249	3976.9
503.618	3981.87
503.987	4056.22
504.356	4028.2
504.724	4038.37
505.093	4052.38
505.462	4108.65
505.83	4088.31
506.199	4098.03
506.567	4158.59
506.936	4183
507.304	4167.4
507.672	4218.25
508.041	4240.85
508.409	4210.79
508.777	4232.49
509.145	4265.03
509.514	4310.23
509.882	4307.51
510.25	4290.34
510.618	4329.66
510.986	4356.78
511.354	4390.68
511.722	4371.02
512.09	4420.05
512.458	4432.71
512.826	4508.41
513.193	4463.89
513.561	4487.17
513.929	4467.06
514.297	4474.06
514.664	4489.66
515.032	4532.59
515.4	4546.6
515.767	4541.86
516.135	4573.5
516.502	4499.37
516.869	4586.38
517.237	4575.53
517.604	4619.6
517.972	4616.43
518.339	4698.24
518.706	4656.21
519.073	4655.3
519.44	4692.81
519.808	4699.82
520.175	4721.29
520.542	4780.5
520.909	4769.2
521.276	4727.16
521.643	4814.17
522.009	4806.03
522.376	4822.75
522.743	4848.97
523.11	4889.42
523.477	4919.02
523.843	4898.23
524.21	4977.33
524.577	4995.86
524.943	5000.83
525.31	5023.88
525.676	5030.88
526.043	5084.44
526.409	5107.94
526.776	5119.02
527.142	5168.28
527.508	5142.07
527.874	5205.57
528.241	5236.98
528.607	5260.03
528.973	5263.42
529.339	5281.73
529.705	5308.62
530.071	5368.28
530.437	5343.87
530.803	5420.93
531.169	5403.53
531.535	5445.34
531.901	5448.5
532.267	5499.8
532.632	5515.84
532.998	5506.8
533.364	5587.25
533.73	5604.65
534.095	5628.38
534.461	5626.12
534.826	5690.75
535.192	5710.41
535.557	5677.42
535.923	5702.28
536.288	5747.25
536.653	5749.51
537.019	5763.52
537.384	5748.61
537.749	5811.66
538.114	5794.71
538.479	5819.34
538.845	5868.6
539.21	5916.29
539.575	5884.42
539.94	5945.66
540.305	5938.43
540.67	5971.88
541.034	6058.65
541.399	6037.64
541.764	6064.3
542.129	6111.53
542.494	6119.67
542.858	6144.3
543.223	6142.95
543.587	6187.69
543.952	6228.82
544.316	6253.23
544.681	6237.86
545.045	6234.24
545.41	6250.74
545.774	6371.19
546.138	6354.69
546.503	6320.57
546.867	6383.62
547.231	6453.22
547.595	6451.41
547.959	6472.88
548.324	6498.42
548.688	6513.11
549.052	6496.16
549.416	6539.77
549.779	6556.95
550.143	6601.92
550.507	6623.84
550.871	6624.06
551.235	6577.28
551.599	6704.29
551.962	6707.68
552.326	6706.77
552.689	6735.7
553.053	6765.08
553.417	6740.44
553.78	6856.37
554.143	6848.01
554.507	6805.08
554.87	6894.56
555.234	6936.82
555.597	6856.6
555.96	6928.91
556.323	6921.46
556.686	6992.19
557.05	7002.13
557.413	6983.15
557.776	6972.08
558.139	7028.57
558.502	7054.79
558.865	7058.63
559.228	7087.55
559.59	7156.93
559.953	7168.23
560.316	7235.8
560.679	7205.52
561.041	7252.75
561.404	7305.85
561.767	7336.36
562.129	7271.96
562.492	7390.14
562.854	7356.47
563.217	7435.57
563.579	7354.44
563.941	7434.44
564.304	7511.72
564.666	7506.3
565.028	7518.95
565.39	7517.37
565.753	7594.21
566.115	7600.08
566.477	7649.8
566.839	7627.2
567.201	7685.05
567.563	7701.55
567.925	7777.71
568.287	7743.13
568.648	7769.57
569.01	7825.84
569.372	7851.6
569.734	7805.27
570.095	7967.08
570.457	7935.44
570.819	7996.46
571.18	7989.45
571.542	8020.18
571.903	8047.08
572.265	8151.93
572.626	8206.85
572.987	8157.13
573.349	8264.47
573.71	8305.15
574.071	8302.44
574.432	8418.82
574.794	8495.65
575.155	8458.59
575.516	8475.09
575.877	8650.68
576.238	8645.03
576.599	8687.06
576.96	8763.44
577.32	8890.67
577.681	8900.61
578.042	9039.14
578.403	9125.92
578.763	9142.41
579.124	9254.28
579.485	9294.95
579.845	9500.37
580.206	9532.24
580.566	9622.85
580.927	9762.74
581.287	9856.52
581.648	10028.49
582.008	10129.73
582.368	10270.75
582.728	10438.43
583.089	10569.95
583.449	10691.53
583.809	10864.86
584.169	11030.05
584.529	11137.84
584.889	11466.65
585.249	11519.53
585.609	11714.78
585.969	11903.02
586.329	12097.14
586.688	12383.01
587.048	12650.57
587.408	12713.85
587.768	12975.08
588.127	13166.72
588.487	13429.08
588.846	13721.05
589.206	13843.08
589.565	14092.12
589.925	14401.94
590.284	14716.28
590.643	14919.44
591.003	15283.72
591.362	15511.06
591.721	15800.09
592.08	16036.25
592.44	16349.68
592.799	16624.93
593.158	16815.89
593.517	17082.32
593.876	17457
594.235	17647.95
594.593	17993.03
594.952	18328.16
595.311	18631.66
595.67	18868.71
596.029	19278.19
596.387	19628.24
596.746	19962.24
597.104	20135.35
597.463	20385.06
597.822	20736.91
598.18	20935.55
598.538	21277.46
598.897	21664.12
599.255	21855.98
599.613	22327.83
599.972	22492.57
600.33	22831.77
600.688	23025.89
601.046	23358.09
601.404	23672.2
601.762	23929.82
602.12	24233.09
602.478	24532.74
602.836	24874.66
603.194	24940.64
603.552	25246.17
603.91	25399.16
604.268	25773.84
604.625	26029.43
604.983	26315.52
605.341	26609.75
605.698	26847.71
606.056	27106.01
606.413	27287.7
606.771	27657.41
607.128	27858.08
607.485	27940.11
607.843	28214
608.2	28611.28
608.557	28878.62
608.914	28964.72
609.272	29375.33
609.629	29454.65
609.986	29750.69
610.343	29846.05
610.7	30279.71
611.057	30555.86
611.414	30545.92
611.771	30843.31
612.127	31039.47
612.484	31298.67
612.841	31568.72
613.198	31693.91
613.554	31773.46
613.911	31968.03
614.267	32264.52
614.624	32368.7
614.98	32588.13
615.337	32789.48
615.693	32868.12
616.05	32958.96
616.406	33231.5
616.762	33315.79
617.118	33442.57
617.475	33478.72
617.831	33872.16
618.187	33933.85
618.543	34068.99
618.899	34536.78
619.255	34481.64
619.611	34676.21
619.967	34744.91
620.323	35099.47
620.678	35052.24
621.034	35031.9
621.39	35080.94
621.746	35301.05
622.101	35761.15
622.457	35376.75
622.812	35704.88
623.168	35760.7
623.523	35967.47
623.879	35938.77
624.234	36012.22
624.589	36027.81
624.945	36305.09
625.3	36262.61
625.655	36371.08
626.01	36443.84
626.365	36469.61
626.72	36543.95
627.075	36573.11
627.43	36577.4
627.785	36661.47
628.14	36866.43
628.495	37041.79
628.85	36891.29
629.205	36851.06
629.559	37141.9
629.914	36986.43
630.269	37144.16
630.623	37100.32
630.978	37209.47
631.332	37242.47
631.687	37374.22
632.041	37259.87
632.396	37414.89
632.75	37335.35
633.104	37458.96
633.459	37273.88
633.813	37411.05
634.167	37344.16
634.521	37424.38
634.875	37419.19
635.229	37372.41
635.583	37195.46
635.937	37308.45
636.291	37396.81
636.645	37379.64
636.999	37382.58
637.352	37569.92
637.706	37159.98
638.06	37493.53
638.413	37437.26
638.767	37284.73
639.121	37312.75
639.474	37173.32
639.828	37323.14
640.181	37428
640.534	37393.42
640.888	37278.85
641.241	37124.05
641.594	37239.53
641.947	37308.91
642.301	37338.28
642.654	37199.98
643.007	37306.42
643.36	37360.2
643.713	37172.41
644.066	37470.26
644.419	37101.23
644.771	36916.6
645.124	36609.72
645.477	36566.78
645.83	36377.63
646.182	36162.5
646.535	36187.58
646.888	36169.5
647.24	35964.76
647.593	36274.36
647.945	36205.21
648.298	36028.49
648.65	36137.41
649.002	35937.42
649.355	36162.04
649.707	35990.75
650.059	36166.34
650.411	36502.37
650.763	36647.91
651.115	36963.83
651.467	36919.76
651.819	36909.59
652.171	36795.02
652.523	36903.04
652.875	36791.86
653.227	36698.53
653.578	36850.39
653.93	36783.95
654.282	36671.63
654.633	36550.73
654.985	36688.13
655.337	36704.18
655.688	36711.86
656.039	36926.09
656.391	36621.01
656.742	36679.54
657.094	36571.07
657.445	36680.9
657.796	36594.12
658.147	36559.1
658.498	36611.07
658.849	36616.27
659.2	36520.9
659.551	36618.3
659.902	36630.28
660.253	36581.24
660.604	36714.35
660.955	36503.73
661.306	36558.42
661.656	36569.26
662.007	36523.62
662.358	36511.64
662.708	36442.49
663.059	36498.98
663.409	36230.29
663.76	36492.43
664.11	36622.37
664.461	36554.8
664.811	36538.53
665.161	36558.87
665.511	36448.82
665.862	36432.32
666.212	36566.55
666.562	36611.98
666.912	36440.45
667.262	36493.11
667.612	36452.43
667.962	36420.12
668.312	36345.09
668.662	36527.46
669.011	36378.99
669.361	36411.75
669.711	36376.05
670.06	36282.72
670.41	36314.36
670.76	36298.54
671.109	36323.4
671.459	36278.2
671.808	36224.19
672.157	36487.68
672.507	36091.31
672.856	36280.91
673.205	36111.42
673.554	36335.82
673.904	36109.39
674.253	36305.09
674.602	36161.37
674.951	35814.48
675.3	35511.89
675.649	36165.89
675.998	36090.63
676.346	36065.1
676.695	36275.26
677.044	35922.95
677.393	36012.22
677.741	36162.72
678.09	35999.34
678.438	36022.39
678.787	36075.94
679.135	35926.8
679.484	35653.13
679.832	35854.71
680.181	35677.54
680.529	35864.65
680.877	35695.16
681.225	35732
681.573	35872.79
681.922	35643.64
682.27	35534.49
682.618	35562.74
682.966	35503.3
683.314	35489.74
683.661	35509.18
684.009	35244.78
684.357	35196.42
684.705	35101.51
685.053	35084.33
685.4	35119.13
685.748	34955.97
686.095	34929.99
686.443	34872.36
686.79	34872.59
687.138	34833.49
687.485	34917.33
687.832	34545.36
688.18	34836.65
688.527	34678.01
688.874	34405.25
689.221	34608.86
689.568	34450.22
689.915	34395.99
690.262	34385.59
690.609	34304.47
690.956	34177.24
691.303	34129.55
691.65	33997.81
691.997	33821.99
692.344	33880.3
692.69	33791.71
693.037	33807.08
693.383	33402.57
693.73	33558.27
694.077	33340.65
694.423	33439.4
694.769	33273.08
695.116	33215.68
695.462	33157.6
695.808	33034.67
696.155	33179.07
696.501	32843.03
696.847	32930.26
697.193	32551.07
697.539	32659.76
697.885	32505.87
698.231	32417.51
698.577	32448.92
698.923	32409.83
699.269	32210.51
699.614	32217.97
699.96	31933.91
700.306	31966.22
700.651	31964.41
700.997	31834.25
701.342	31827.24
701.688	31805.32
702.033	31683.07
702.379	31570.3
702.724	31489.17
703.069	31603.07
703.415	31236.07
703.76	31246.69
704.105	31253.92
704.45	31144.55
704.795	31080.6
705.14	30995.17
705.485	30981.84
705.83	30850.54
706.175	30847.38
706.52	30660.72
706.865	30521.74
707.209	30670.44
707.554	30418.24
707.899	30623.21
708.243	30340.05
708.588	30300.05
708.932	30206.49
709.277	30117.23
709.621	30095.76
709.966	29960.17
710.31	29989.55
710.654	29786.39
710.998	29832.72
711.342	29804.24
711.687	29676.79
712.031	29596.34
712.375	29547.98
712.719	29542.1
713.063	29439.73
713.407	29572.16
713.75	29487.64
714.094	29324.71
714.438	29250.13
714.782	29227.08
715.125	28988.9
715.469	28950.03
715.812	28988.67
716.156	28806.3
716.499	28879.3
716.843	28948.45
717.186	28791.16
717.53	28900.09
717.873	28844.27
718.216	28838.85
718.559	28732.41
718.902	28420.1
719.246	28589.81
719.589	28422.36
719.932	28372.64
720.275	28400.67
720.617	28268.92
720.96	28171.29
721.303	28282.02
721.646	28216.04
721.989	28057.4
722.331	28176.72
722.674	28038.19
723.016	28054.46
723.359	27927.68
723.701	27930.17
724.044	27753.23
724.386	27728.59
724.729	27786.22
725.071	27716.39
725.413	27773.11
725.755	27608.6
726.097	27540.58
726.439	27382.61
726.782	27458.32
727.124	27564.08
727.465	27373.35
727.807	27398.88
728.149	27257.87
728.491	27247.02
728.833	27286.8
729.175	27145.11
729.516	27073.69
729.858	27087.25
730.199	27157.99
730.541	27049.51
730.882	27136.07
731.224	27052.45
731.565	26803.19
731.906	26938.33
732.248	26824.44
732.589	26777.43
732.93	26673.03
733.271	26777.21
733.612	26696.76
733.953	26734.72
734.294	26622.41
734.635	26480.72
734.976	26568.62
735.317	26364.79
735.658	26476.42
735.999	26443.43
736.339	26400.72
736.68	26316.88
737.021	26321.85
737.361	26211.57
737.702	26437.55
738.042	26245.02
738.383	26115.53
738.723	26217.9
739.063	26058.13
739.404	26102.2
739.744	25954.85
740.084	25918.92
740.424	25890.45
740.764	25936.78
741.104	25974.29
741.444	25841.41
741.784	25765.03
742.124	25821.75
742.464	25704.92
742.804	25626.05
743.143	25616.33
743.483	25683
743.823	25611.36
744.162	25595.77
744.502	25478.71
744.841	25443.68
745.181	25513.96
745.52	25358.03
745.86	25327.98
746.199	25394.64
746.538	25332.05
746.877	25282.78
747.216	25337.24
747.556	25183.12
747.895	25202.33
748.234	25039.85
748.573	25097.93
748.911	24994.88
749.25	24887.09
749.589	24770.25
749.928	24903.81
750.267	24950.59
750.605	24748.56
750.944	24782.46
751.283	24665.85
751.621	24829.01
751.96	24712.18
752.298	24652.52
752.636	24533.65
752.975	24478.96
753.313	24461.33
753.651	24422.92
753.989	24321.45
754.327	24328.46
754.666	24153.55
755.004	24133.89
755.342	24299.53
755.679	24201.45
756.017	24013.66
756.355	24078.97
756.693	23997.17
757.031	24010.27
757.368	23799.88
757.706	23812.09
758.044	23682.6
758.381	23723.05
758.719	23598.08
759.056	23617.97
759.394	23521.02
759.731	23432.89
