Data from hue_22_FLMS001491_00052.txt Node
Date: Tue Feb 07 17:10:19 GMT 2017
User: dcchb
Spectrometer: FLMS00149
Trigger mode: 0
Integration Time (sec): 2.000000E-2
Scans to average: 10
Electric dark correction enabled: true
Nonlinearity correction enabled: false
Boxcar width: 0
XAxis mode: Wavelengths
Number of Pixels in Spectrum: 2048
>>>>>Begin Spectral Data<<<<<
341.393	5.52
341.776	5.52
342.16	5.52
342.543	-62.5
342.927	-69.5
343.31	-60.24
343.693	-66.11
344.077	-57.07
344.46	-55.27
344.843	-65.66
345.226	-43.06
345.61	-12.33
345.993	-25.21
346.376	-5.55
346.759	5.97
347.142	29.25
347.525	25.41
347.908	36.03
348.291	68.12
348.674	102.24
349.057	123.49
349.44	143.6
349.823	139.3
350.206	171.39
350.588	194.9
350.971	211.17
351.354	210.26
351.737	255.23
352.119	257.95
352.502	242.35
352.884	256.59
353.267	289.58
353.65	303.14
354.032	297.27
354.414	314.67
354.797	321.67
355.179	327.32
355.562	338.62
355.944	323.71
356.326	317.38
356.709	321.22
357.091	335.23
357.473	343.59
357.855	349.69
358.238	336.59
358.62	363.25
359.002	354.44
359.384	346.53
359.766	328
360.148	334.55
360.53	355.34
360.912	335.23
361.294	341.56
361.676	336.59
362.057	334.55
362.439	320.32
362.821	317.83
363.203	326.19
363.584	322.35
363.966	318.96
364.348	333.65
364.729	318.51
365.111	328.68
365.493	308.79
365.874	311.28
366.256	311.73
366.637	282.35
367.019	311.5
367.4	306.08
367.781	296.36
368.163	312.63
368.544	305.4
368.925	305.63
369.306	322.12
369.688	315.57
370.069	305.18
370.45	310.15
370.831	310.37
371.212	297.94
371.593	314.21
371.974	320.54
372.355	330.49
372.736	318.73
373.117	316.02
373.498	325.06
373.879	320.32
374.26	309.47
374.641	306.98
375.021	334.55
375.402	329.58
375.783	330.03
376.163	349.24
376.544	335.46
376.925	353.54
377.305	341.78
377.686	340.2
378.066	333.2
378.447	300.88
378.827	336.36
379.208	325.51
379.588	332.52
379.968	349.24
380.349	339.07
380.729	332.07
381.109	338.4
381.489	333.88
381.87	362.35
382.25	346.3
382.63	341.78
383.01	349.69
383.39	358.06
383.77	326.87
384.15	343.82
384.53	339.07
384.91	351.5
385.29	366.42
385.67	348.56
386.049	366.19
386.429	351.05
386.809	355.34
387.189	362.58
387.568	344.72
387.948	324.84
388.328	362.58
388.707	366.42
389.087	347.43
389.466	351.5
389.846	340.43
390.225	373.65
390.605	367.55
390.984	349.47
391.363	385.4
391.743	376.81
392.122	375
392.501	355.57
392.881	360.09
393.26	370.71
393.639	383.14
394.018	365.96
394.397	357.6
394.776	388.11
395.155	393.99
395.534	387.66
395.913	384.5
396.292	396.47
396.671	376.81
397.05	383.14
397.429	393.99
397.808	367.09
398.186	396.92
398.565	389.02
398.944	372.97
399.323	396.7
399.701	383.59
400.08	406.87
400.458	381.56
400.837	412.52
401.215	392.18
401.594	405.96
401.972	405.29
402.351	433.31
402.729	417.49
403.107	392.63
403.486	412.97
403.864	391.95
404.242	412.07
404.62	429.01
404.999	416.13
405.377	399.86
405.755	421.78
406.133	415.91
406.511	425.85
406.889	425.62
407.267	432.86
407.645	433.53
408.023	437.38
408.401	432.86
408.779	448.45
409.156	434.66
409.534	437.6
409.912	462.69
410.29	463.14
410.667	445.51
411.045	447.09
411.422	456.81
411.8	457.71
412.178	476.92
412.555	464.04
412.933	469.69
413.31	483.7
413.687	464.49
414.065	474.89
414.442	488.22
414.819	506.3
415.197	490.48
415.574	467.88
415.951	478.05
416.328	516.92
416.705	499.75
417.082	507.43
417.46	496.13
417.837	494.1
418.214	517.15
418.591	509.69
418.967	504.49
419.344	527.54
419.721	520.99
420.098	496.13
420.475	518.28
420.852	545.4
421.228	540.2
421.605	542.23
421.982	523.7
422.358	527.09
422.735	544.04
423.111	555.56
423.488	542.46
423.864	546.3
424.241	571.84
424.617	567.32
424.994	559.18
425.37	564.38
425.746	546.75
426.123	563.25
426.499	558.73
426.875	555.79
427.251	587.88
427.627	590.59
428.003	599.63
428.379	605.28
428.756	618.84
429.132	603.25
429.507	617.94
429.883	615.45
430.259	632.62
430.635	616.81
431.011	601.44
431.387	635.56
431.763	643.92
432.138	640.31
432.514	647.09
432.89	637.14
433.265	667.2
433.641	675.79
434.016	661.32
434.392	684.6
434.767	675.79
435.143	685.5
435.518	692.06
435.894	700.19
436.269	691.38
436.644	706.07
437.02	706.07
437.395	718.5
437.77	704.04
438.145	711.04
438.52	760.98
438.895	742.68
439.271	764.15
439.646	750.36
440.021	752.4
440.395	763.24
440.77	742.23
441.145	761.89
441.52	768.89
441.895	795.11
442.27	763.92
442.645	783.36
443.019	804.82
443.394	800.98
443.769	791.04
444.143	789
444.518	840.98
444.892	810.25
445.267	806.18
445.641	804.37
446.016	837.59
446.39	825.61
446.764	825.61
447.139	839.4
447.513	832.17
447.887	831.26
448.262	823.58
448.636	838.27
449.01	870.36
449.384	853.18
449.758	847.99
450.132	873.97
450.506	871.49
450.88	883.92
451.254	865.61
451.628	886.63
452.002	890.24
452.376	903.8
452.75	902.67
453.123	937.02
453.497	889.34
453.871	906.97
454.244	939.28
454.618	940.87
454.992	966.18
455.365	947.64
455.739	994.42
456.112	998.04
456.486	981.99
456.859	1026.96
457.232	1020.64
457.606	1015.21
457.979	1035.1
458.352	1043.01
458.725	1030.13
459.099	1057.25
459.472	1079.39
459.845	1081.2
460.218	1092.27
460.591	1115.1
460.964	1134.53
461.337	1113.74
461.71	1111.71
462.083	1173.85
462.456	1170.01
462.829	1137.47
463.201	1188.09
463.574	1192.38
463.947	1191.48
464.32	1224.02
464.692	1225.15
465.065	1251.82
465.438	1246.39
465.81	1252.5
466.183	1288.88
466.555	1332.04
466.928	1288.43
467.3	1317.8
467.672	1344.24
468.045	1374.75
468.417	1361.42
468.789	1375.2
469.161	1393.28
469.534	1419.72
469.906	1459.5
470.278	1475.54
470.65	1488.42
471.022	1470.57
471.394	1524.13
471.766	1535.43
472.138	1557.57
472.51	1566.61
472.882	1621.75
473.253	1628.98
473.625	1658.81
473.997	1701.3
474.369	1718.7
474.74	1723.9
475.112	1737
475.484	1800.05
475.855	1816.77
476.227	1821.75
476.598	1896.55
476.97	1906.94
477.341	1937.9
477.713	1965.92
478.084	2016.77
478.455	2054.96
478.827	2073.49
479.198	2158.23
479.569	2145.13
479.94	2201.4
480.311	2245.92
480.682	2258.34
481.053	2345.57
481.424	2384.89
481.795	2407.49
482.166	2450.88
482.537	2500.37
482.908	2560.26
483.279	2569.75
483.65	2632.57
484.021	2667.15
484.391	2703.3
484.762	2743.08
485.133	2780.59
485.503	2820.14
485.874	2894.94
486.244	2915.05
486.615	2959.8
486.985	3025.78
487.356	3055.16
487.726	3122.28
488.097	3165.44
488.467	3229.17
488.837	3248.83
489.207	3303.29
489.578	3369.95
489.948	3400.01
490.318	3493.11
490.688	3499.67
491.058	3551.87
491.428	3610.17
491.798	3677.74
492.168	3733.33
492.538	3732.43
492.908	3796.61
493.278	3824.86
493.648	3858.98
494.017	3911.63
494.387	3920.45
494.757	3957.28
495.126	4047.9
495.496	4035.92
495.866	4114.79
496.235	4142.14
496.605	4246.09
496.974	4214.45
497.344	4253.77
497.713	4270.27
498.082	4381.9
498.452	4357.27
498.821	4397.05
499.19	4403.82
499.559	4455.35
499.928	4472.98
500.298	4540.09
500.667	4542.8
501.036	4560.2
501.405	4590.71
501.774	4625.29
502.143	4638.17
502.512	4691.95
502.88	4754.32
503.249	4744.38
503.618	4782.8
503.987	4832.06
504.356	4828.9
504.724	4841.33
505.093	4867.32
505.462	4884.26
505.83	4884.49
506.199	4931.04
506.567	5027.99
506.936	5029.12
507.304	5092.85
507.672	5127.42
508.041	5134.65
508.409	5130.36
508.777	5159.29
509.145	5193.41
509.514	5188.44
509.882	5252.84
510.25	5288.1
510.618	5309.11
510.986	5303.91
511.354	5332.61
511.722	5404.93
512.09	5420.3
512.458	5410.35
512.826	5462.55
513.193	5485.83
513.561	5539.84
513.929	5564.25
514.297	5552.72
514.664	5641.31
515.032	5613.74
515.4	5652.15
515.767	5685.15
516.135	5720.63
516.502	5674.3
516.869	5738.71
517.237	5779.16
517.604	5729.21
517.972	5790
518.339	5824.13
518.706	5837.46
519.073	5848.31
519.44	5878.81
519.808	5907.51
520.175	5920.85
520.542	5975.31
520.909	6025.25
521.276	5973.95
521.643	6035.65
522.009	6095.98
522.376	6094.18
522.743	6174.85
523.11	6227.73
523.477	6241.97
523.843	6260.95
524.21	6316.32
524.577	6348.18
524.943	6409.42
525.31	6391.8
525.676	6449.65
526.043	6501.17
526.409	6488.52
526.776	6590.66
527.142	6579.13
527.508	6595.41
527.874	6658.23
528.241	6714.95
528.607	6684.22
528.973	6800.37
529.339	6789.52
529.705	6822.97
530.071	6887.6
530.437	6905.91
530.803	6938.9
531.169	6969.86
531.535	6967.83
531.901	6974.83
532.267	7102.06
532.632	7091.66
532.998	7114.04
533.364	7132.34
533.73	7158.78
534.095	7224.09
534.461	7320.36
534.826	7281.94
535.192	7364.43
535.557	7352.67
535.923	7326.91
536.288	7419.11
536.653	7463.41
537.019	7385.22
537.384	7506.57
537.749	7469.06
538.114	7493.91
538.479	7606.23
538.845	7570.07
539.21	7621.37
539.575	7621.37
539.94	7655.94
540.305	7735.49
540.67	7708.14
541.034	7755.6
541.399	7853.68
541.764	7828.59
542.129	7891.87
542.494	7881.25
542.858	7886.9
543.223	7932.09
543.587	7957.4
543.952	7975.03
544.316	8014.58
544.681	8071.53
545.045	8090.96
545.41	8163.95
545.774	8126.44
546.138	8188.81
546.503	8205.98
546.867	8215.48
547.231	8311.07
547.595	8306.77
547.959	8344.51
548.324	8316.26
548.688	8402.82
549.052	8452.76
549.416	8458.63
549.779	8490.72
550.143	8527.78
550.507	8545.18
550.871	8570.95
551.235	8565.98
551.599	8656.14
551.962	8672.19
552.326	8738.85
552.689	8754.67
553.053	8684.62
553.417	8794.9
553.78	8846.87
554.143	8777.27
554.507	8921.67
554.87	8887.32
555.234	8985.63
555.597	8902.69
555.96	8958.51
556.323	9022.69
556.686	8977.49
557.05	9052.52
557.413	9124.6
557.776	9175
558.139	9105.17
558.502	9151.95
558.865	9222.46
559.228	9251.83
559.59	9250.48
559.953	9294.09
560.316	9468.78
560.679	9391.72
561.041	9462.45
561.404	9452.28
561.767	9483.92
562.129	9605.04
562.492	9599.85
562.854	9560.07
563.217	9667.42
563.579	9701.76
563.941	9654.99
564.304	9748.32
564.666	9870.57
565.028	9798.94
565.39	9821.76
565.753	9939.95
566.115	9892.27
566.477	9965.94
566.839	9977.92
567.201	10007.07
567.563	10082.77
567.925	10133.17
568.287	10081.87
568.648	10150.34
569.01	10234.86
569.372	10298.13
569.734	10329.09
570.095	10306.27
570.457	10374.52
570.819	10439.6
571.18	10438.02
571.542	10489.77
571.903	10531.57
572.265	10584
572.626	10640.72
572.987	10645.69
573.349	10716.2
573.71	10766.37
574.071	10837.78
574.432	10865.12
574.794	11005.69
575.155	11028.28
575.516	11063.76
575.877	11122.52
576.238	11146.47
576.599	11309.63
576.96	11307.15
577.32	11393.7
577.681	11572.22
578.042	11634.82
578.403	11646.57
578.763	11793.69
579.124	11860.13
579.485	12017.18
579.845	12098.76
580.206	12176.73
580.566	12284.3
580.927	12415.59
581.287	12561.12
581.648	12675.25
582.008	12835.69
582.368	12978.29
582.728	13089.02
583.089	13273.42
583.449	13419.86
583.809	13612.85
584.169	13724.94
584.529	13851.71
584.889	14162.89
585.249	14290.12
585.609	14441.08
585.969	14709.99
586.329	14861.18
586.688	15103.66
587.048	15391.78
587.408	15577.77
587.768	15762.17
588.127	16088.26
588.487	16309.05
588.846	16631.3
589.206	16729.6
589.565	17038.97
589.925	17377.72
590.284	17527.1
590.643	17843.7
591.003	18043.92
591.362	18470.8
591.721	18594.64
592.08	18957.11
592.44	19296.31
592.799	19561.84
593.158	19862.63
593.517	20119.57
593.876	20461.03
594.235	20717.29
594.593	21056.04
594.952	21389.37
595.311	21623.03
595.67	22095.11
596.029	22520.86
596.387	22866.16
596.746	23208.3
597.104	23194.29
597.463	23633.15
597.822	24003.99
598.18	24146.36
598.538	24516.97
598.897	24995.37
599.255	25037.41
599.613	25692.98
599.972	25845.75
600.33	26183.37
600.688	26389.24
601.046	26624.03
601.404	27235.99
601.762	27326.39
602.12	27875.75
602.478	28187.15
602.836	28416.75
603.194	28535.62
603.552	28914.37
603.91	29093.57
604.268	29542.37
604.625	29680.45
604.983	30049.7
605.341	30232.3
605.698	30588.22
606.056	31013.07
606.413	31086.74
606.771	31682.88
607.128	31933.72
607.485	31864.35
607.843	32089.2
608.2	32517.66
608.557	32869.74
608.914	33087.36
609.272	33347.7
609.629	33726.22
609.986	33930.05
610.343	34114.46
610.7	34414.56
611.057	34547.67
611.414	34651.62
611.771	34866.98
612.127	35276.46
612.484	35399.62
612.841	35779.05
613.198	35755.99
613.554	35982.88
613.911	36295.19
614.267	36488.63
614.624	36516.43
614.98	36828.74
615.337	37236.63
615.693	37277.99
616.05	37525.21
616.406	37761.82
616.762	37812.89
617.118	37927.69
617.475	38063.5
617.831	38357.06
618.187	38435.25
618.543	38603.15
618.899	38837.95
619.255	38991.62
619.611	39075.91
619.967	39355.9
620.323	39582.11
620.678	39516.57
621.034	39610.13
621.39	39649.68
621.746	39673.41
622.101	40336.89
622.457	40068.65
622.812	40183.45
623.168	40420.5
623.523	40466.61
623.879	40660.95
624.234	40524.01
624.589	40663.89
624.945	40832.92
625.3	40933.71
625.655	40965.12
626.01	41202.41
626.365	41116.08
626.72	41158.11
627.075	41303.65
627.43	41397.65
627.785	41285.12
628.14	41421.83
628.495	41471.32
628.85	41645.11
629.205	41559.68
629.559	41863.63
629.914	41643.07
630.269	41862.27
630.623	41660.02
630.978	41775.95
631.332	41980.46
631.687	42058.65
632.041	41914.7
632.396	42098.43
632.75	42009.84
633.104	42148.6
633.459	41918.54
633.813	42013.91
634.167	42072.66
634.521	42079.67
634.875	42172.32
635.229	42181.81
635.583	42056.62
635.937	42082.61
636.291	42155.6
636.645	42144.98
636.999	42124.41
637.352	42102.72
637.706	42035.6
638.06	42129.16
638.413	42115.15
638.767	41995.15
639.121	42175.26
639.474	41881.71
639.828	41921.93
640.181	42034.02
640.534	42051.65
640.888	41987.24
641.241	41862.27
641.594	41958.54
641.947	42068.82
642.301	41990.86
642.654	41943.4
643.007	42061.37
643.36	41964.42
643.713	41962.39
644.066	42081.93
644.419	41850.3
644.771	41620.7
645.124	41287.37
645.477	41253.93
645.83	41090.09
646.182	40983.43
646.535	40889.42
646.888	40884.22
647.24	40670.67
647.593	40906.37
647.945	40906.14
648.298	40698.92
648.65	40664.79
649.002	40531.24
649.355	40844.9
649.707	40654.4
650.059	40911.57
650.411	41387.03
650.763	41220.71
651.115	41723.3
651.467	41653.01
651.819	41621.6
652.171	41476.07
652.523	41505.67
652.875	41530.08
653.227	41281.73
653.578	41589.74
653.93	41718.78
654.282	41439.91
654.633	41334.61
654.985	41280.6
655.337	41421.38
655.688	41519.91
656.039	41697.99
656.391	41286.24
656.742	41453.92
657.094	41449.63
657.445	41548.16
657.796	41434.49
658.147	41275.85
658.498	41194.27
658.849	41478.56
659.2	41370.76
659.551	41100.71
659.902	41329.41
660.253	41305.45
660.604	41369.86
660.955	41215.96
661.306	41268.39
661.656	41266.81
662.007	41302.29
662.358	41302.52
662.708	41235.62
663.059	41343.42
663.409	41074.95
663.76	41360.37
664.11	41290.09
664.461	41347.03
664.811	41353.14
665.161	41318.33
665.511	41103.42
665.862	41302.97
666.212	41241.73
666.562	41278.11
666.912	41104.78
667.262	41126.93
667.612	41150.88
667.962	41087.83
668.312	41194.5
668.662	41319.46
669.011	41053.26
669.361	40891.91
669.711	41078.57
670.06	41089.19
670.41	41065.46
670.76	40959.7
671.109	41123.09
671.459	41014.84
671.808	40900.49
672.157	41159.02
672.507	40803.77
672.856	40859.14
673.205	40947.04
673.554	41209.64
673.904	40761.06
674.253	41017.33
674.602	40965.35
674.951	40482.88
675.3	40277.46
675.649	40874.5
675.998	40906.14
676.346	40678.58
676.695	41009.19
677.044	40577.56
677.393	40559.26
677.741	40750.67
678.09	40650.56
678.438	40520.84
678.787	40638.35
679.135	40581.4
679.484	40373.05
679.832	40484.91
680.181	40156.56
680.529	40426.61
680.877	40300.73
681.225	40296.67
681.573	40456.21
681.922	40318.13
682.27	40014.41
682.618	40338.93
682.966	40066.62
683.314	40192.71
683.661	40040.63
684.009	39906.39
684.357	39729
684.705	39573.52
685.053	39812.61
685.4	39752.95
685.748	39535.78
686.095	39537.82
686.443	39388.44
686.79	39322.68
687.138	39375.56
687.485	39453.07
687.832	39259.86
688.18	39306.18
688.527	39021.45
688.874	39046.08
689.221	38920.66
689.568	38891.73
689.915	38952.3
690.262	38863.26
690.609	38813.99
690.956	38611.96
691.303	38619.87
691.65	38436.6
691.997	38470.27
692.344	38137.85
692.69	38171.75
693.037	38072.09
693.383	37869.39
693.73	38017.4
694.077	37812.44
694.423	37821.48
694.769	37583.97
695.116	37678.43
695.462	37427.14
695.808	37553.46
696.155	37502.16
696.501	37094.04
696.847	37207.93
697.193	36957.09
697.539	37010.2
697.885	36821.05
698.231	36677.78
698.577	36651.11
698.923	36673.03
699.269	36498.35
699.614	36400.5
699.96	36336.77
700.306	36336.54
700.651	36155.76
700.997	36121.86
701.342	35999.6
701.688	35994.18
702.033	35840.74
702.379	35754.41
702.724	35731.14
703.069	35789.89
703.415	35355.1
703.76	35437.13
704.105	35470.58
704.45	35264.71
704.795	35126.18
705.14	35139.97
705.485	34975.22
705.83	34946.75
706.175	34782.91
706.52	34884.61
706.865	34727.1
707.209	34721.45
707.554	34464.5
707.899	34637.61
708.243	34372.53
708.588	34508.57
708.932	34159.2
709.277	34212.08
709.621	34094.34
709.966	33897.06
710.31	33908.59
710.654	33735.71
710.998	33808.93
711.342	33925.99
711.687	33632.66
712.031	33481.03
712.375	33470.63
712.719	33511.53
713.063	33493
713.407	33567.8
713.75	33319.22
714.094	33292.33
714.438	33151.54
714.782	33330.52
715.125	33133.24
715.469	33083.3
715.812	32938.22
716.156	32822.29
716.499	32866.58
716.843	32815.28
717.186	32541.16
717.53	32860.48
717.873	32879.69
718.216	32702.52
718.559	32537.77
718.902	32322.41
719.246	32252.58
719.589	32258.69
719.932	32081.52
720.275	32154.96
720.617	32046.71
720.96	31972.82
721.303	32128.97
721.646	31957.45
721.989	31771.24
722.331	31877
722.674	31825.02
723.016	31852.59
723.359	31834.97
723.701	31751.81
724.044	31510.68
724.386	31463
724.729	31575.99
725.071	31517.01
725.413	31519.27
725.755	31475.2
726.097	31274.53
726.439	31145.72
726.782	31198.37
727.124	31331.25
727.465	31133.97
727.807	31061.2
728.149	31054.88
728.491	30948.89
728.833	31042.45
729.175	30874.77
729.516	30882.68
729.858	30763.13
730.199	30887.65
730.541	30716.81
730.882	30754.32
731.224	30691.04
731.565	30505.06
731.906	30560.43
732.248	30504.38
732.589	30354.33
732.93	30202.69
733.271	30329.02
733.612	30276.82
733.953	30177.84
734.294	30164.73
734.635	30180.1
734.976	30318.17
735.317	30056.26
735.658	30108.23
735.999	29978.07
736.339	30079.31
736.68	29983.49
737.021	29982.14
737.361	29901.46
737.702	29901.23
738.042	29746.89
738.383	29755.25
738.723	29814.68
739.063	29720.45
739.404	29792.08
739.744	29655.14
740.084	29545.99
740.424	29721.35
740.764	29475.71
741.104	29626.44
741.444	29440.45
741.784	29429.38
742.124	29393.9
742.464	29492.2
742.804	29416.5
743.143	29389.83
743.483	29275.71
743.823	29076.17
744.162	29081.14
744.502	29065.32
744.841	28993.23
745.181	29090.18
745.52	29080.01
745.86	29038.88
746.199	28968.83
746.538	29003.18
746.877	28983.74
747.216	28905.33
747.556	28896.29
747.895	28871.2
748.234	28673.92
748.573	28654.49
748.911	28560.25
749.25	28619.01
749.589	28582.4
749.928	28533.13
750.267	28638.89
750.605	28545.11
750.944	28471.44
751.283	28278
751.621	28340.82
751.96	28266.47
752.298	28226.7
752.636	28252.24
752.975	28090.66
753.313	27940.83
753.651	28055.86
753.989	27981.06
754.327	27906.94
754.666	27846.15
755.004	27766.6
755.342	27739.71
755.679	27846.37
756.017	27712.14
756.355	27609.99
756.693	27620.62
757.031	27537.91
757.368	27434.63
757.706	27528.64
758.044	27176.33
758.381	27212.94
758.719	27131.59
759.056	27265.14
759.394	27195.32
759.731	26983.34
760.068	27007.07
760.405	26814.08
