Data from hue_310_FLMS001491_8.txt Node
Date: Mon Feb 06 15:48:23 GMT 2017
User: dcchb
Spectrometer: FLMS00149
Trigger mode: 0
Integration Time (sec): 2.000000E-2
Scans to average: 10
Electric dark correction enabled: true
Nonlinearity correction enabled: false
Boxcar width: 0
XAxis mode: Wavelengths
Number of Pixels in Spectrum: 2048
>>>>>Begin Spectral Data<<<<<
341.393	-17.92
341.776	-17.92
342.16	-17.92
342.543	-50.01
342.927	-69.45
343.31	-64.7
343.693	-82.55
344.077	-82.33
344.46	-37.81
344.843	-50.01
345.226	-39.62
345.61	-4.14
345.993	-18.83
346.376	0.83
346.759	-10.47
347.142	19.59
347.525	34.05
347.908	61.17
348.291	76.76
348.674	80.38
349.057	117.67
349.44	118.12
349.823	150.21
350.206	153.82
350.588	189.3
350.971	202.41
351.354	218.45
351.737	227.72
352.119	237.66
352.502	243.31
352.884	256.42
353.267	275.63
353.65	298.45
354.032	285.8
354.414	318.11
354.797	313.82
355.179	320.37
355.562	314.95
355.944	320.6
356.326	326.02
356.709	333.71
357.091	332.35
357.473	324.44
357.855	324.21
358.238	309.3
358.62	345.68
359.002	335.06
359.384	341.84
359.766	335.74
360.148	341.62
360.53	337.1
360.912	346.59
361.294	325.12
361.676	325.8
362.057	330.32
362.439	325.8
362.821	303.2
363.203	308.62
363.584	316.08
363.966	322.63
364.348	330.77
364.729	340.94
365.111	322.86
365.493	323.08
365.874	313.37
366.256	309.98
366.637	294.16
367.019	308.62
367.4	292.8
367.781	298.68
368.163	304.1
368.544	298.45
368.925	299.36
369.306	308.62
369.688	302.52
370.069	302.75
370.45	296.87
370.831	297.55
371.212	307.27
371.593	300.03
371.974	316.08
372.355	306.36
372.736	328.51
373.117	314.5
373.498	299.81
373.879	316.31
374.26	309.53
374.641	311.11
375.021	302.75
375.402	308.4
375.783	330.32
376.163	311.33
376.544	300.94
376.925	314.72
377.305	323.76
377.686	319.92
378.066	338.9
378.447	326.02
378.827	323.08
379.208	331.22
379.588	310.43
379.968	327.15
380.349	327.6
380.729	323.99
381.109	348.85
381.489	335.97
381.87	331.45
382.25	327.15
382.63	340.71
383.01	350.65
383.39	349.75
383.77	353.14
384.15	349.98
384.53	352.01
384.91	345.01
385.29	346.36
385.67	358.56
386.049	343.42
386.429	334.16
386.809	330.77
387.189	337.1
387.568	357.43
387.948	350.88
388.328	367.38
388.707	346.59
389.087	365.57
389.466	352.91
389.846	369.41
390.225	366.25
390.605	351.56
390.984	355.4
391.363	370.77
391.743	388.17
392.122	369.86
392.501	378
392.881	377.32
393.26	379.58
393.639	378.22
394.018	376.64
394.397	374.83
394.776	354.27
395.155	396.53
395.534	386.81
395.913	390.65
396.292	402.4
396.671	389.98
397.05	385
397.429	406.47
397.808	376.87
398.186	387.04
398.565	396.08
398.944	406.25
399.323	395.4
399.701	399.92
400.08	381.39
400.458	401.73
400.837	402.18
401.215	405.79
401.594	391.11
401.972	413.25
402.351	432.23
402.729	393.37
403.107	437.43
403.486	436.53
403.864	441.73
404.242	424.1
404.62	413.93
404.999	423.87
405.377	439.47
405.755	427.94
406.133	442.4
406.511	411.9
406.889	446.47
407.267	483.08
407.645	472.46
408.023	459.35
408.401	484.44
408.779	466.81
409.156	482.63
409.534	490.76
409.912	490.99
410.29	503.19
410.667	504.1
411.045	524.66
411.422	506.36
411.8	519.46
412.178	527.37
412.555	525.79
412.933	528.73
413.31	536.64
413.687	551.33
414.065	555.4
414.442	567.6
414.819	582.96
415.197	566.69
415.574	570.76
415.951	590.2
416.328	596.75
416.705	601.5
417.082	617.09
417.46	637.88
417.837	646.24
418.214	651.44
418.591	662.28
418.967	666.8
419.344	646.47
419.721	683.3
420.098	663.41
420.475	674.71
420.852	690.08
421.228	697.09
421.605	694.83
421.982	740.02
422.358	744.77
422.735	723.3
423.111	728.95
423.488	771.89
423.864	770.98
424.241	778.67
424.617	781.6
424.994	808.95
425.37	779.34
425.746	788.61
426.123	811.66
426.499	789.06
426.875	814.37
427.251	838.1
427.627	858.21
428.003	864.77
428.379	862.51
428.756	860.25
429.132	874.93
429.507	875.16
429.883	890.08
430.259	925.78
430.635	917.19
431.011	936.85
431.387	934.37
431.763	965.78
432.138	961.49
432.514	979.34
432.89	958.32
433.265	1024.54
433.641	1018.43
434.016	1026.57
434.392	1040.81
434.767	1034.25
435.143	1066.57
435.518	1045.1
435.894	1081.93
436.269	1072.22
436.644	1095.95
437.02	1104.31
437.395	1106.11
437.77	1117.64
438.145	1171.88
438.52	1140.92
438.895	1156.06
439.271	1174.36
439.646	1190.86
440.021	1192.89
440.395	1180.24
440.77	1173.01
441.145	1209.16
441.52	1229.5
441.895	1222.72
442.27	1216.62
442.645	1225.66
443.019	1231.99
443.394	1225.43
443.769	1257.07
444.143	1243.06
444.518	1291.87
444.892	1257.52
445.267	1273.34
445.641	1284.87
446.016	1309.73
446.39	1293.23
446.764	1288.94
447.139	1295.71
447.513	1280.57
447.887	1287.35
448.262	1279.22
448.636	1308.37
449.01	1324.87
449.384	1344.53
449.758	1296.17
450.132	1331.42
450.506	1348.37
450.88	1359.22
451.254	1326.67
451.628	1361.93
452.002	1377.75
452.376	1382.72
452.75	1370.74
453.123	1376.62
453.497	1398.76
453.871	1433.34
454.244	1429.72
454.618	1464.3
454.992	1447.57
455.365	1440.34
455.739	1487.8
456.112	1480.34
456.486	1483.05
456.859	1509.72
457.232	1521.7
457.606	1496.16
457.979	1525.31
458.352	1544.52
458.725	1563.05
459.099	1561.24
459.472	1573.9
459.845	1586.78
460.218	1580
460.591	1597.63
460.964	1605.99
461.337	1638.98
461.71	1647.12
462.083	1669.72
462.456	1667
462.829	1647.8
463.201	1722.6
463.574	1698.19
463.947	1719.21
464.32	1686.89
464.692	1709.49
465.065	1742.48
465.438	1763.27
465.81	1778.87
466.183	1799.43
466.555	1800.79
466.928	1835.36
467.3	1794.46
467.672	1850.73
468.045	1885.3
468.417	1853.67
468.789	1875.36
469.161	1888.92
469.534	1896.15
469.906	1928.69
470.278	1943.83
470.65	1958.3
471.022	2002.36
471.394	1994
471.766	2018.41
472.138	2055.92
472.51	2092.98
472.882	2106.09
473.253	2123.94
473.625	2130.95
473.997	2158.74
474.369	2185.18
474.74	2200.1
475.112	2206.88
475.484	2262.02
475.855	2287.1
476.227	2264.95
476.598	2328.46
476.97	2355.35
477.341	2366.87
477.713	2391.28
478.084	2414.33
478.455	2429.02
478.827	2426.76
479.198	2497.49
479.569	2487.1
479.94	2516.02
480.311	2571.84
480.682	2564.38
481.053	2616.81
481.424	2649.13
481.795	2655.23
482.166	2727.77
482.537	2717.82
482.908	2775.9
483.279	2799.18
483.65	2817.03
484.021	2868.33
484.391	2881.89
484.762	2886.63
485.133	2878.95
485.503	2919.4
485.874	3015.9
486.244	3014.77
486.615	3066.29
486.985	3073.52
487.356	3080.53
487.726	3132.73
488.097	3137.25
488.467	3135.89
488.837	3244.59
489.207	3197.13
489.578	3279.39
489.948	3329.56
490.318	3306.28
490.688	3345.83
491.058	3419.95
491.428	3404.13
491.798	3401.65
492.168	3516.45
492.538	3464.25
492.908	3545.15
493.278	3546.73
493.648	3591.7
494.017	3557.8
494.387	3600.06
494.757	3634.18
495.126	3631.7
495.496	3669.66
495.866	3680.28
496.235	3670.79
496.605	3744.24
496.974	3751.02
497.344	3740.62
497.713	3782.2
498.082	3789.66
498.452	3849.55
498.821	3836.66
499.19	3870.11
499.559	3888.87
499.928	3887.06
500.298	3930
500.667	3941.97
501.036	3899.26
501.405	3910.34
501.774	3946.04
502.143	3930.67
502.512	3976.32
502.88	4027.39
503.249	4064.23
503.618	4048.64
503.987	4058.58
504.356	4112.59
504.724	4101.06
505.093	4083.66
505.462	4111.69
505.83	4113.27
506.199	4155.98
506.567	4178.8
506.936	4175.41
507.304	4203.21
507.672	4219.03
508.041	4228.74
508.409	4207.95
508.777	4266.26
509.145	4289.99
509.514	4256.77
509.882	4296.31
510.25	4297.9
510.618	4321.62
510.986	4299.93
511.354	4354.84
511.722	4362.3
512.09	4376.76
512.458	4358.23
512.826	4385.35
513.193	4415.86
513.561	4433.71
513.929	4426.48
514.297	4507.83
514.664	4508.06
515.032	4527.49
515.4	4497.66
515.767	4509.64
516.135	4519.13
516.502	4522.97
516.869	4580.37
517.237	4593.48
517.604	4540.37
517.972	4588.96
518.339	4588.06
518.706	4591.67
519.073	4565.23
519.44	4605.91
519.808	4700.37
520.175	4619.02
520.542	4700.14
520.909	4741.5
521.276	4667.6
521.643	4769.97
522.009	4741.05
522.376	4790.99
522.743	4764.32
523.11	4831.21
523.477	4789.63
523.843	4885.45
524.21	4949.18
524.577	4917.77
524.943	4927.94
525.31	4943.3
525.676	5016.97
526.043	4982.85
526.409	5006.8
526.776	5076.63
527.142	5106.91
527.508	5080.7
527.874	5147.59
528.241	5129.74
528.607	5156.63
528.973	5203.86
529.339	5193.69
529.705	5190.08
530.071	5231.88
530.437	5252.67
530.803	5266.91
531.169	5301.71
531.535	5309.62
531.901	5341.71
532.267	5358.88
532.632	5359.11
532.998	5433.01
533.364	5444.31
533.73	5449.05
534.095	5511.87
534.461	5492.44
534.826	5571.31
535.192	5529.5
535.557	5644.75
535.923	5613.79
536.288	5611.31
536.653	5626
537.019	5661.02
537.384	5747.35
537.749	5688.82
538.114	5718.65
538.479	5774.47
538.845	5743.51
539.21	5759.1
539.575	5767.91
539.94	5786.22
540.305	5877.51
540.67	5868.02
541.034	5874.58
541.399	5939.66
541.764	5944.63
542.129	5966.55
542.494	6021.24
542.858	5985.53
543.223	6087.45
543.587	6067.11
543.952	6085.19
544.316	6079.77
544.681	6158.64
545.045	6156.38
545.41	6148.02
545.774	6222.14
546.138	6198.86
546.503	6294
546.867	6237.51
547.231	6279.76
547.595	6286.54
547.959	6356.6
548.324	6372.19
548.688	6372.87
549.052	6384.17
549.416	6450.61
549.779	6420.78
550.143	6499.42
550.507	6519.76
550.871	6519.76
551.235	6531.51
551.599	6540.1
551.962	6602.92
552.326	6627.55
552.689	6648.12
553.053	6599.76
553.417	6584.62
553.78	6659.42
554.143	6642.92
554.507	6746.87
554.87	6725.18
555.234	6811.5
555.597	6726.31
555.96	6798.62
556.323	6850.6
556.686	6817.38
557.05	6875.23
557.413	6893.99
557.776	6863.48
558.139	6939.41
558.502	6971.95
558.865	6952.06
559.228	6987.32
559.59	6948
559.953	6998.62
560.316	7107.77
560.679	7121.1
561.041	7083.58
561.404	7129.23
561.767	7178.95
562.129	7133.08
562.492	7125.62
562.854	7214.43
563.217	7225.95
563.579	7228.89
563.941	7247.87
564.304	7268.66
564.666	7353.63
565.028	7319.74
565.39	7412.16
565.753	7414.42
566.115	7425.72
566.477	7469.34
566.839	7520.18
567.201	7465.95
567.563	7554.08
567.925	7543.69
568.287	7592.27
568.648	7589.33
569.01	7644.93
569.372	7707.52
569.734	7649.9
570.095	7730.12
570.457	7785.04
570.819	7829.55
571.18	7816.9
571.542	7839.5
571.903	7921.53
572.265	7927.18
572.626	7914.3
572.987	7991.58
573.349	8087.17
573.71	8120.17
574.071	8105.25
574.432	8197.91
574.794	8307.96
575.155	8321.52
575.516	8300.5
575.877	8373.95
576.238	8424.34
576.599	8534.39
576.96	8625.24
577.32	8662.3
577.681	8804.22
578.042	8852.8
578.403	8926.02
578.763	9029.07
579.124	9016.64
579.485	9186.35
579.845	9338.67
580.206	9446.01
580.566	9517.65
580.927	9615.5
581.287	9794.93
581.648	9821.37
582.008	10162.15
582.368	10192.66
582.728	10361.01
583.089	10463.61
583.449	10595.81
583.809	10823.6
584.169	10952.18
584.529	11128.9
584.889	11362.34
585.249	11553.3
585.609	11767.76
585.969	11962.33
586.329	12247.52
586.688	12379.04
587.048	12637.56
587.408	12800.04
587.768	13093.37
588.127	13293.14
588.487	13574.26
588.846	13855.16
589.206	14020.8
589.565	14329.04
589.925	14699.88
590.284	14841.12
590.643	15310.71
591.003	15560.2
591.362	15722.45
591.721	16047.64
592.08	16365.15
592.44	16642.88
592.799	16973.49
593.158	17286.25
593.517	17584.78
593.876	17864.09
594.235	18180.24
594.593	18524.87
594.952	18767.8
595.311	19117.39
595.67	19457.72
596.029	19730.71
596.387	20087.54
596.746	20446.62
597.104	20679.16
597.463	20849.1
597.822	21458.35
598.18	21606.14
598.538	21870.09
598.897	22437.98
599.255	22499.22
599.613	23028.7
599.972	23148.25
600.33	23590.04
600.688	23643.38
601.046	24181.89
601.404	24552.5
601.762	24650.81
602.12	25159.95
602.478	25456.44
602.836	25741.4
603.194	25788.4
603.552	26284.44
603.91	26386.35
604.268	26797.19
604.625	27005.32
604.983	27295.71
605.341	27624.06
605.698	27947.44
606.056	28202.13
606.413	28366.64
606.771	28727.54
607.128	29099.73
607.485	29137.92
607.843	29448.87
608.2	29867.39
608.557	30055.64
608.914	30132.02
609.272	30563.87
609.629	30769.74
609.986	30995.27
610.343	31166.12
610.7	31646.55
611.057	31717.29
611.414	31912.31
611.771	32163.6
612.127	32371.51
612.484	32590.26
612.841	32817.6
613.198	32891.95
613.554	33051.94
613.911	33437.92
614.267	33580.06
614.624	33777.57
614.98	33944.35
615.337	34174.62
615.693	34289.2
616.05	34422.75
616.406	34822.74
616.762	34698.45
617.118	34935.06
617.475	35087.82
617.831	35292.11
618.187	35578.43
618.543	35639.22
618.899	35958.08
619.255	36110.17
619.611	36124.18
619.967	36320.56
620.323	36350.61
620.678	36482.59
621.034	36571.85
621.39	36636.03
621.746	36754.9
622.101	37180.19
622.457	37001.67
622.812	37298.16
623.168	37404.82
623.523	37467.42
623.879	37829.67
624.234	37446.63
624.589	37739.73
624.945	37773.63
625.3	38038.48
625.655	38114.86
626.01	38163.67
626.365	38293.61
626.72	38084.58
627.075	38290.67
627.43	38303.1
627.785	38371.35
628.14	38539.03
628.495	38654.28
628.85	38704.45
629.205	38609.76
629.559	38907.15
629.914	38664.22
630.269	38857.66
630.623	38766.37
630.978	38779.47
631.332	39038.68
631.687	38984.67
632.041	38903.09
632.396	39048.17
632.75	39006.81
633.104	39075.74
633.459	38783.54
633.813	39007.72
634.167	38934.27
634.521	39071.9
634.875	39197.09
635.229	39059.24
635.583	38911.22
635.937	39022.41
636.291	39163.19
636.645	39183.53
636.999	38995.74
637.352	39179.24
637.706	39130.2
638.06	39122.74
638.413	39129.07
638.767	39075.51
639.121	39114.16
639.474	38987.38
639.828	38962.29
640.181	38974.27
640.534	39157.32
640.888	39025.34
641.241	38979.47
641.594	39028.51
641.947	39222.4
642.301	38942.18
642.654	39060.6
643.007	38996.64
643.36	39126.81
643.713	38950.09
644.066	39138.79
644.419	38897.66
644.771	38728.4
645.124	38379.26
645.477	38179.72
645.83	38070.34
646.182	37937.01
646.535	37759.39
646.888	37920.74
647.24	37755.55
647.593	37949.89
647.945	37855.43
648.298	37853.85
648.65	37736.11
649.002	37571.6
649.355	37753.96
649.707	37708.77
650.059	37893.4
650.411	38267.85
650.763	38364.34
651.115	38774.28
651.467	38767.95
651.819	38674.39
652.171	38620.83
652.523	38428.52
652.875	38569.54
653.227	38361.18
653.578	38718.91
653.93	38555.53
654.282	38359.6
654.633	38370.9
654.985	38359.82
655.337	38376.1
655.688	38423.1
656.039	38747.61
656.391	38240.73
656.742	38389.88
657.094	38268.3
657.445	38536.09
657.796	38308.53
658.147	38416.55
658.498	38246.83
658.849	38294.06
659.2	38295.65
659.551	38191.47
659.902	38254.06
660.253	38405.7
660.604	38403.44
660.955	38086.84
661.306	38245.48
661.656	38187.4
662.007	38281.18
662.358	38115.09
662.708	38219.94
663.059	38159.15
663.409	38035.31
663.76	38328.87
664.11	38211.13
664.461	38425.81
664.811	38252.26
665.161	38075.99
665.511	38120.96
665.862	38191.47
666.212	38305.81
666.562	38308.53
666.912	38349.43
667.262	38085.48
667.612	38180.85
667.962	38184.46
668.312	38162.09
668.662	38241.64
669.011	38150.11
669.361	38153.95
669.711	37948.31
670.06	37948.99
670.41	38131.36
670.76	37964.13
671.109	38231.92
671.459	38169.77
671.808	37932.04
672.157	38068.98
672.507	37822.89
672.856	37927.52
673.205	37944.02
673.554	38078.7
673.904	37828.31
674.253	38029.66
674.602	38019.49
674.951	37449.57
675.3	37147.65
675.649	37872.38
675.998	37863.11
676.346	37792.16
676.695	37972.26
677.044	37575.44
677.393	37699.28
677.741	37765.72
678.09	37599.39
678.438	37651.82
678.787	37674.42
679.135	37568.21
679.484	37414.09
679.832	37536.8
680.181	37353.3
680.529	37595.78
680.877	37353.75
681.225	37359.85
681.573	37505.61
681.922	37212.74
682.27	37148.33
682.618	37046.64
682.966	37100.2
683.314	37106.07
683.661	37099.07
684.009	36907.43
684.357	36882.58
684.705	36725.52
685.053	36681.22
685.4	36827.44
685.748	36498.86
686.095	36675.58
686.443	36504.73
686.79	36488.91
687.138	36545.86
687.485	36521.68
687.832	36424.96
688.18	36426.99
688.527	36139.09
688.874	36219.32
689.221	36141.58
689.568	35842.6
689.915	35957.85
690.262	35992.43
690.609	35828.59
690.956	35608.71
691.303	35637.86
691.65	35508.83
691.997	35538.66
692.344	35257.08
692.69	35284.65
693.037	35372.11
693.383	35028.39
693.73	35044.66
694.077	34895.74
694.423	34949.07
694.769	34741.61
695.116	34717.89
695.462	34688.96
695.808	34626.36
696.155	34584.56
696.501	34213.27
696.847	34365.35
697.193	34216.43
697.539	34234.74
697.885	34098.02
698.231	34113.38
698.577	33931.92
698.923	33810.79
699.269	33757.46
699.614	33550.23
699.96	33517.47
700.306	33623
700.651	33540.06
700.997	33266.85
701.342	33201.77
701.688	33252.84
702.033	33145.5
702.379	33225.95
702.724	32990.93
703.069	33004.94
703.415	32816.24
703.76	32766.98
704.105	32929.01
704.45	32644.27
704.795	32462.13
705.14	32374.9
705.485	32381.22
705.83	32282.92
706.175	32294.22
706.52	32229.36
706.865	32013.32
707.209	32071.18
707.554	32008.58
707.899	32203.6
708.243	31826.66
708.588	31784.63
708.932	31523.17
709.277	31569.95
709.621	31637.74
709.966	31388.26
710.31	31531.08
710.654	31170.64
710.998	31373.79
711.342	31186.68
711.687	31068.94
712.031	31066.46
712.375	30896.07
712.719	30978.55
713.063	30855.16
713.407	30870.3
713.75	30865.33
714.094	30747.6
714.438	30619.01
714.782	30691.78
715.125	30443.2
715.469	30618.33
715.812	30234.61
716.156	30181.96
716.499	30269.19
716.843	30272.13
717.186	30099.48
717.53	30200.94
717.873	30215.18
718.216	30091.12
718.559	29968.86
718.902	29789.43
719.246	29967.5
719.589	29919.59
719.932	29660.17
720.275	29637.57
720.617	29730
720.96	29585.14
721.303	29592.6
721.646	29517.8
721.989	29424.24
722.331	29417.46
722.674	29384.69
723.016	29458.36
723.359	29294.75
723.701	29316.67
724.044	29153.29
724.386	28988.55
724.729	29136.11
725.071	28952.39
725.413	28997.13
725.755	28965.27
726.097	28898.38
726.439	28768.44
726.782	28688.21
727.124	28886.4
727.465	28697.03
727.807	28698.38
728.149	28543.13
728.491	28550.14
728.833	28516.47
729.175	28437.37
729.516	28343.14
729.858	28247.1
730.199	28347.43
730.541	28288.23
730.882	28257.04
731.224	28434.21
731.565	28029.93
731.906	28117.38
732.248	28203.26
732.589	28048.23
732.93	27829.25
733.271	27949.03
733.612	27899.08
733.953	27954
734.294	27816.6
734.635	27798.75
734.976	27828.8
735.317	27714.68
735.658	27689.82
735.999	27669.71
736.339	27543.84
736.68	27729.37
737.021	27475.37
737.361	27556.72
737.702	27581.58
738.042	27438.98
738.383	27423.84
738.723	27424.75
739.063	27244.64
739.404	27383.16
739.744	27234.92
740.084	27236.95
740.424	27260
740.764	27151.98
741.104	27120.57
741.444	26920.8
741.784	26960.58
742.124	26970.97
742.464	26929.39
742.804	26895.72
743.143	26856.17
743.483	26832.22
743.823	26682.62
744.162	26697.76
744.502	26826.79
744.841	26660.7
745.181	26702.05
745.52	26498.89
745.86	26592.22
746.199	26464.32
746.538	26465.67
746.877	26491.44
747.216	26450.76
747.556	26301.61
747.895	26487.14
748.234	26217.77
748.573	26171.22
748.911	26095.29
749.25	26193.82
749.589	26098.68
749.928	26002.41
750.267	26124.67
750.605	25993.82
750.944	25955.41
751.283	25843.54
751.621	25886.48
751.96	25698.69
752.298	25784.34
752.636	25752.7
752.975	25567.84
753.313	25412.82
753.651	25728.97
753.989	25396.55
754.327	25383.22
754.666	25322.2
755.004	25253.95
755.342	25271.81
755.679	25284.01
756.017	25143
756.355	25193.84
756.693	25080.85
757.031	25101.87
757.368	24957.24
757.706	24849.9
758.044	24951.59
758.381	24745.49
758.719	24632.05
759.056	24760.63
759.394	24577.36
759.731	24535.78
760.068	24510.47
