Data from hue_30_FLMS001491_55.txt Node
Date: Mon Feb 06 15:05:35 GMT 2017
User: dcchb
Spectrometer: FLMS00149
Trigger mode: 0
Integration Time (sec): 2.000000E-2
Scans to average: 10
Electric dark correction enabled: true
Nonlinearity correction enabled: false
Boxcar width: 0
XAxis mode: Wavelengths
Number of Pixels in Spectrum: 2048
>>>>>Begin Spectral Data<<<<<
341.393	-6.06
341.776	-6.06
342.16	-6.06
342.543	-67.3
342.927	-51.48
343.31	-56.91
343.693	-63.23
344.077	-67.53
344.46	-72.72
344.843	-32.5
345.226	-55.32
345.61	-39.73
345.993	-16.68
346.376	-1.99
346.759	9.76
347.142	40.95
347.525	40.95
347.908	42.3
348.291	72.58
348.674	92.02
349.057	108.06
349.44	128.17
349.823	171.11
350.206	152.81
350.588	195.29
350.971	220.83
351.354	217.89
351.737	247.95
352.119	256.76
352.502	266.93
352.884	268.06
353.267	293.82
353.65	296.08
354.032	321.84
354.414	315.51
354.797	307.38
355.179	325.68
355.562	322.07
355.944	322.29
356.326	331.33
356.709	340.82
357.091	337.21
357.473	336.53
357.855	332.69
358.238	353.03
358.62	356.19
359.002	343.31
359.384	351.22
359.766	329.98
360.148	330.66
360.53	353.71
360.912	330.66
361.294	332.01
361.676	340.37
362.057	331.11
362.439	332.69
362.821	322.75
363.203	343.54
363.584	337.89
363.966	312.12
364.348	330.88
364.729	304.44
365.111	312.58
365.493	322.29
365.874	321.62
366.256	341.73
366.637	303.76
367.019	314.84
367.4	323.88
367.781	317.77
368.163	328.62
368.544	311.9
368.925	305.8
369.306	328.4
369.688	313.71
370.069	308.06
370.45	303.76
370.831	314.84
371.212	311.9
371.593	321.62
371.974	314.84
372.355	323.42
372.736	329.53
373.117	321.84
373.498	309.64
373.879	316.42
374.26	320.03
374.641	326.14
375.021	305.57
375.402	306.93
375.783	313.93
376.163	302.41
376.544	325.68
376.925	329.75
377.305	302.63
377.686	321.16
378.066	335.85
378.447	331.79
378.827	341.5
379.208	342.41
379.588	309.86
379.968	346.93
380.349	325.01
380.729	342.86
381.109	327.04
381.489	338.79
381.87	344.21
382.25	353.03
382.63	351.67
383.01	330.2
383.39	339.47
383.77	339.47
384.15	352.58
384.53	326.81
384.91	347.83
385.29	358
385.67	367.72
386.049	348.51
386.429	359.58
386.809	329.75
387.189	333.14
387.568	345.57
387.948	355.97
388.328	354.38
388.707	358.68
389.087	374.72
389.466	350.77
389.846	349.64
390.225	366.13
390.605	370.43
390.984	374.5
391.363	363.87
391.743	347.6
392.122	351.67
392.501	378.11
392.881	383.76
393.26	355.51
393.639	370.2
394.018	370.43
394.397	355.06
394.776	379.02
395.155	362.52
395.534	377.89
395.913	385.57
396.292	377.89
396.671	390.09
397.05	384.67
397.429	379.47
397.808	400.48
398.186	379.24
398.565	393.25
398.944	379.02
399.323	394.16
399.701	422.18
400.08	391.67
400.458	397.09
400.837	397.09
401.215	441.16
401.594	387.15
401.972	398.45
402.351	387.6
402.729	400.48
403.107	416.08
403.486	398.9
403.864	397.55
404.242	419.69
404.62	409.07
404.999	451.1
405.377	434.83
405.755	422.86
406.133	430.31
406.511	419.47
406.889	433.25
407.267	419.69
407.645	405.46
408.023	438
408.401	414.04
408.779	444.1
409.156	443.19
409.534	426.92
409.912	438.9
410.29	463.76
410.667	451.78
411.045	471.22
411.422	466.02
411.8	443.87
412.178	459.92
412.555	475.51
412.933	459.01
413.31	445
413.687	459.47
414.065	456.75
414.442	477.77
414.819	463.76
415.197	470.09
415.574	478.9
415.951	505.34
416.328	495.17
416.705	506.47
417.082	466.7
417.46	492.46
417.837	488.84
418.214	497.43
418.591	507.37
418.967	489.52
419.344	499.69
419.721	504.89
420.098	499.69
420.475	504.89
420.852	513.48
421.228	521.38
421.605	525.68
421.982	516.86
422.358	508.96
422.735	514.61
423.111	506.47
423.488	530.42
423.864	507.83
424.241	542.85
424.617	548.95
424.994	564.55
425.37	539.46
425.746	533.81
426.123	537.43
426.499	537.43
426.875	576.75
427.251	548.95
427.627	548.28
428.003	595.96
428.379	589.63
428.756	576.52
429.132	583.53
429.507	590.76
429.883	574.49
430.259	608.16
430.635	605
431.011	612.68
431.387	610.2
431.763	613.59
432.138	610.2
432.514	610.42
432.89	612.46
433.265	636.64
433.641	643.42
434.016	620.37
434.392	667.6
434.767	647.93
435.143	654.49
435.518	656.07
435.894	670.31
436.269	657.88
436.644	677.54
437.02	660.59
437.395	683.19
437.77	681.83
438.145	703.98
438.52	687.71
438.895	707.59
439.271	696.3
439.646	716.18
440.021	711.44
440.395	743.3
440.77	714.83
441.145	713.92
441.52	743.3
441.895	754.82
442.27	735.62
442.645	732.9
443.019	741.27
443.394	755.05
443.769	754.15
444.143	753.69
444.518	762.73
444.892	748.72
445.267	752.34
445.641	765.67
446.016	790.3
446.39	798.21
446.764	798.67
447.139	784.2
447.513	801.83
447.887	791.89
448.262	781.26
448.636	823.98
449.01	818.55
449.384	804.32
449.758	841.6
450.132	805.22
450.506	834.37
450.88	821.72
451.254	846.57
451.628	857.87
452.002	857.87
452.376	869.4
452.75	878.66
453.123	849.74
453.497	881.83
453.871	887.48
454.244	917.98
454.618	903.75
454.992	910.3
455.365	919.11
455.739	930.19
456.112	918.89
456.486	958.89
456.859	952.79
457.232	958.66
457.606	942.39
457.979	968.15
458.352	1006.8
458.725	1010.86
459.099	999.79
459.472	1031.2
459.845	1021.48
460.218	1039.11
460.591	1036.63
460.964	1040.92
461.337	1090.64
461.71	1120.69
462.083	1089.51
462.456	1093.8
462.829	1111.2
463.201	1123.85
463.574	1123.85
463.947	1136.51
464.32	1176.51
464.692	1164.76
465.065	1175.6
465.438	1163.85
465.81	1188.94
466.183	1204.53
466.555	1242.27
466.928	1255.83
467.3	1263.29
467.672	1240.69
468.045	1323.62
468.417	1314.36
468.789	1320.69
469.161	1349.16
469.534	1371.76
469.906	1359.1
470.278	1390.06
470.65	1411.98
471.022	1434.58
471.394	1446.78
471.766	1454.69
472.138	1489.27
472.51	1549.15
472.882	1546.44
473.253	1564.52
473.625	1568.81
473.997	1632.32
474.369	1631.64
474.74	1658.08
475.112	1699.43
475.484	1726.1
475.855	1741.69
476.227	1777.62
476.598	1844.06
476.97	1853.1
477.341	1917.05
477.713	1912.31
478.084	1957.51
478.455	1982.59
478.827	2037.95
479.198	2086.32
479.569	2117.73
479.94	2153.88
480.311	2210.61
480.682	2242.02
481.053	2302.81
481.424	2358.17
481.795	2403.82
482.166	2450.6
482.537	2500.54
482.908	2554.78
483.279	2546.19
483.65	2659.41
484.021	2729.46
484.391	2727.65
484.762	2760.65
485.133	2811.49
485.503	2913.19
485.874	2946.41
486.244	2987.53
486.615	3061.66
486.985	3141.65
487.356	3202.22
487.726	3232.95
488.097	3296.9
488.467	3321.99
488.837	3441.76
489.207	3441.08
489.578	3526.96
489.948	3591.36
490.318	3673.17
490.688	3684.92
491.058	3747.74
491.428	3822.99
491.798	3910.67
492.168	3984.8
492.538	4044.91
492.908	4054.17
493.278	4135.3
493.648	4196.77
494.017	4201.51
494.387	4264.11
494.757	4346.37
495.126	4362.41
495.496	4440.6
495.866	4460.49
496.235	4539.81
496.605	4600.15
496.974	4647.15
497.344	4715.85
497.713	4720.14
498.082	4792.23
498.452	4787.04
498.821	4908.16
499.19	4869.97
499.559	4958.78
499.928	4993.58
500.298	5014.83
500.667	5138.44
501.036	5083.98
501.405	5182.28
501.774	5189.51
502.143	5268.6
502.512	5305.67
502.88	5348.15
503.249	5361.71
503.618	5392.22
503.987	5454.14
504.356	5465.89
504.724	5509.95
505.093	5519.45
505.462	5578.88
505.83	5618.2
506.199	5677.63
506.567	5772.77
506.936	5754.02
507.304	5801.47
507.672	5772.09
508.041	5833.11
508.409	5942.26
508.777	5954.46
509.145	5941.13
509.514	5953.56
509.882	6024.74
510.25	6149.26
510.618	6102.48
510.986	6098.41
511.354	6175.25
511.722	6217.05
512.09	6285.75
512.458	6290.27
512.826	6364.85
513.193	6322.36
513.561	6365.52
513.929	6422.25
514.297	6463.6
514.664	6557.61
515.032	6489.14
515.4	6556.71
515.767	6593.54
516.135	6624.95
516.502	6587.21
516.869	6675.8
517.237	6662.92
517.604	6714.89
517.972	6751.28
518.339	6769.81
518.706	6833.08
519.073	6831.5
519.44	6857.04
519.808	6935.68
520.175	6884.16
520.542	6995.34
520.909	7018.61
521.276	7015
521.643	7097.03
522.009	7100.42
522.376	7172.96
522.743	7179.97
523.11	7277.14
523.477	7309.23
523.843	7306.74
524.21	7377.25
524.577	7426.06
524.943	7490.92
525.31	7464.25
525.676	7528.21
526.043	7621.08
526.409	7661.99
526.776	7721.65
527.142	7725.71
527.508	7722.78
527.874	7820.4
528.241	7781.31
528.607	7838.93
528.973	7935.88
529.339	7972.04
529.705	8040.51
530.071	8049.1
530.437	8154.18
530.803	8106.72
531.169	8188.3
531.535	8208.41
531.901	8237.79
532.267	8256.77
532.632	8370.67
532.998	8337.68
533.364	8380.61
533.73	8419.71
534.095	8460.38
534.461	8530.67
534.826	8572.02
535.192	8584.9
535.557	8649.08
535.923	8621.96
536.288	8668.29
536.653	8703.54
537.019	8675.75
537.384	8747.83
537.749	8815.63
538.114	8811.79
538.479	8882.97
538.845	8890.88
539.21	8922.75
539.575	8944.44
539.94	9052.46
540.305	9093.81
540.67	9057.43
541.034	9053.82
541.399	9162.29
541.764	9175.62
542.129	9211.78
542.494	9297.88
542.858	9284.32
543.223	9290.87
543.587	9301.04
543.952	9393.02
544.316	9421.94
544.681	9435.5
545.045	9483.63
545.41	9526.12
545.774	9630.07
546.138	9632.33
546.503	9635.95
546.867	9553.46
547.231	9715.27
547.595	9765.21
547.959	9731.54
548.324	9783.51
548.688	9870.07
549.052	9888.14
549.416	9879.33
549.779	9881.59
550.143	9983.73
550.507	10013.34
550.871	10047.91
551.235	10073
551.599	10150.74
551.962	10131.08
552.326	10218.98
552.689	10280.22
553.053	10183.96
553.417	10291.07
553.78	10353.44
554.143	10262.82
554.507	10366.32
554.87	10381.46
555.234	10500.78
555.597	10493.78
555.96	10497.85
556.323	10542.59
556.686	10552.08
557.05	10570.39
557.413	10659.65
557.776	10625.07
558.139	10784.17
558.502	10690.16
558.865	10786.65
559.228	10816.26
559.59	10825.07
559.953	10836.82
560.316	10992.75
560.679	10959.53
561.041	11061.45
561.404	11120.88
561.767	11189.35
562.129	11141.22
562.492	11282.68
562.854	11250.82
563.217	11193.65
563.579	11254.44
563.941	11268.22
564.304	11372.17
564.666	11409.46
565.028	11451.27
565.39	11499.4
565.753	11529.91
566.115	11497.14
566.477	11643.35
566.839	11590.92
567.201	11703.24
567.563	11727.87
567.925	11714.08
568.287	11770.35
568.648	11789.79
569.01	11854.19
569.372	12001.76
569.734	12033.4
570.095	12066.39
570.457	12098.71
570.819	12164.24
571.18	12173.73
571.542	12260.28
571.903	12321.75
572.265	12368.98
572.626	12429.09
572.987	12394.29
573.349	12523.78
573.71	12515.65
574.071	12678.35
574.432	12685.58
574.794	12860.72
575.155	12868.4
575.516	12966.03
575.877	12940.95
576.238	12982.53
576.599	13211.45
576.96	13183.42
577.32	13293.25
577.681	13436.53
578.042	13494.15
578.403	13600.81
578.763	13776.63
579.124	13812.79
579.485	14005.78
579.845	14110.63
580.206	14099.56
580.566	14309.95
580.927	14415.26
581.287	14639.43
581.648	14567.57
582.008	14888.46
582.368	14977.28
582.728	15121.23
583.089	15260.88
583.449	15461.56
583.809	15690.7
584.169	15824.49
584.529	15991.03
584.889	16294.98
585.249	16344.25
585.609	16494.52
585.969	16790.34
586.329	16983.32
586.688	17232.81
587.048	17532.69
587.408	17578.34
587.768	17747.37
588.127	17987.14
588.487	18290.18
588.846	18527.01
589.206	18574.24
589.565	18910.28
589.925	19288.12
590.284	19371.51
590.643	19580.09
591.003	19907.32
591.362	20279.06
591.721	20418.94
592.08	20611.93
592.44	20868.87
592.799	21240.61
593.158	21512.7
593.517	21730.54
593.876	21951.1
594.235	22171.66
594.593	22538.43
594.952	22693.46
595.311	23029.72
595.67	23222.26
596.029	23640.32
596.387	23924.39
596.746	24161.67
597.104	24264.26
597.463	24610.02
597.822	24875.77
598.18	25015.43
598.538	25199.83
598.897	25621.06
599.255	25573.61
599.613	26159.35
599.972	26220.37
600.33	26543.98
600.688	26758.66
601.046	27041.59
601.404	27324.3
601.762	27520.67
602.12	27830.27
602.478	27995.01
602.836	28320.43
603.194	28417.15
603.552	28508.22
603.91	28760.87
604.268	29120.41
604.625	29274.53
604.983	29561.07
605.341	29661.18
605.698	29993.83
606.056	30093.71
606.413	30297.55
606.771	30590.42
607.128	30729.63
607.485	30753.58
607.843	30907.7
608.2	31385.43
608.557	31615.03
608.914	31579.78
609.272	31793.33
609.629	32171.85
609.986	32354.9
610.343	32335.92
610.7	32661.1
611.057	32852.74
611.414	32877.6
611.771	33057.93
612.127	33348.77
612.484	33513.51
612.841	33693.85
613.198	33802.77
613.554	33987.62
613.911	34081.18
614.267	34335.41
614.624	34339.03
614.98	34446.59
615.337	34757.55
615.693	34786.47
616.05	34811.33
616.406	35115.96
616.762	35150.3
617.118	35225.56
617.475	35423.29
617.831	35557.53
618.187	35738.54
618.543	35786.9
618.899	36132.2
619.255	36133.1
619.611	36184.4
619.967	36463.49
620.323	36462.36
620.678	36334.91
621.034	36404.73
621.39	36519.31
621.746	36606.54
622.101	37038.39
622.457	36886.98
622.812	37020.76
623.168	37139.4
623.523	37040.88
623.879	37196.35
624.234	37100.54
624.589	37280.42
624.945	37313.19
625.3	37526.74
625.655	37550.24
626.01	37452.62
626.365	37624.59
626.72	37487.64
627.075	37712.5
627.43	37604.25
627.785	37728.32
628.14	37937.35
628.495	37948.42
628.85	37847.18
629.205	37876.11
629.559	38056.89
629.914	37966.95
630.269	38044.01
630.623	37949.55
630.978	37848.31
631.332	38076.56
631.687	38093.73
632.041	38065.48
632.396	38147.74
632.75	38039.04
633.104	38139.15
633.459	38021.64
633.813	38081.98
634.167	38067.52
634.521	37926.5
634.875	38105.71
635.229	38188.87
635.583	37928.31
635.937	38051.7
636.291	37920.18
636.645	38000.4
636.999	37808.99
637.352	38129.66
637.706	37900.51
638.06	38048.53
638.413	38050.34
638.767	38014.18
639.121	37892.38
639.474	37753.63
639.828	37781.42
640.181	37839.73
640.534	37964.69
640.888	37804.7
641.241	37649.22
641.594	37725.15
641.947	37880.4
642.301	37713.63
642.654	37893.96
643.007	37839.27
643.36	37762.67
643.713	37716.79
644.066	37959.04
644.419	37690.12
644.771	37424.14
645.124	37153.64
645.477	37071.16
645.83	36770.6
646.182	36693.99
646.535	36510.04
646.888	36639.76
647.24	36406.54
647.593	36693.31
647.945	36636.59
648.298	36507.56
648.65	36414.68
649.002	36267.34
649.355	36559.53
649.707	36338.75
650.059	36610.83
650.411	37102.12
650.763	37118.61
651.115	37468.66
651.467	37271.83
651.819	37240.19
652.171	37202.91
652.523	37070.48
652.875	37165.62
653.227	37074.1
653.578	37183.25
653.93	37169.23
654.282	37028
654.633	37093.53
654.985	37052.63
655.337	37013.08
655.688	36950.48
656.039	37221.89
656.391	36942.12
656.742	36960.88
657.094	37003.36
657.445	37118.61
657.796	37065.28
658.147	36877.49
658.498	36866.64
658.849	36830.26
659.2	36963.36
659.551	36796.81
659.902	37125.39
660.253	36904.16
660.604	36895.34
660.955	36812.63
661.306	36932.63
661.656	36822.58
662.007	36937.83
662.358	36764.05
662.708	36648.12
663.059	36812.18
663.409	36617.61
663.76	36816.48
664.11	36699.19
664.461	36828.9
664.811	36808.34
665.161	36868.9
665.511	36823.93
665.862	36718.4
666.212	36812.41
666.562	36853.31
666.912	36743.48
667.262	36810.6
667.612	36747.55
667.962	36817.15
668.312	36714.11
668.662	36982.57
669.011	36777.83
669.361	36694.67
669.711	36624.62
670.06	36596.14
670.41	36561.79
670.76	36528.35
671.109	36630.04
671.459	36493.77
671.808	36511.62
672.157	36632.07
672.507	36424.4
672.856	36339.2
673.205	36520.21
673.554	36608.35
673.904	36483.6
674.253	36625.97
674.602	36397.05
674.951	35997.74
675.3	35711.19
675.649	36301.91
675.998	36328.35
676.346	36409.48
676.695	36508.91
677.044	36199.32
677.393	36293.78
677.741	36195.25
678.09	36216.49
678.438	36128.81
678.787	36115.25
679.135	36136.72
679.484	35987.8
679.832	36082.48
680.181	35774.69
680.529	36063.95
680.877	35880
681.225	36019.89
681.573	36122.71
681.922	35834.13
682.27	35745.77
682.618	35882.04
682.966	35707.13
683.314	35853.34
683.661	35789.61
684.009	35507.36
684.357	35520.92
684.705	35477.3
685.053	35386.23
685.4	35405.67
685.748	35204.54
686.095	35238.89
686.443	35127.25
686.79	35040.25
687.138	35098.78
687.485	35010.87
687.832	34807.71
688.18	34978.78
688.527	34852.01
688.874	34742.41
689.221	34565.01
689.568	34527.72
689.915	34680.49
690.262	34515.07
690.609	34305.13
690.956	34259.93
691.303	34184.23
691.65	34112.59
691.997	34145.36
692.344	33906.95
692.69	33825.59
693.037	34022.2
693.383	33698.82
693.73	33721.19
694.077	33520.52
694.423	33501.76
694.769	33446.85
695.116	33323.69
695.462	33292.95
695.808	33198.04
696.155	33415.89
696.501	32991.94
696.847	32989.68
697.193	32801.67
697.539	32969.12
697.885	32640.31
698.231	32636.25
698.577	32578.85
698.923	32642.35
699.269	32226.54
699.614	32168.01
699.96	32149.48
700.306	32106.32
700.651	32013.89
700.997	31989.03
701.342	31894.8
701.688	31907.45
702.033	31748.81
702.379	31721.24
702.724	31682.15
703.069	31713.56
703.415	31397.86
703.76	31486.22
704.105	31353.79
704.45	31287.81
704.795	31268.37
705.14	30985.22
705.485	31071.32
705.83	30885.56
706.175	30955.39
706.52	30874.94
706.865	30644.89
707.209	30683.08
707.554	30575.74
707.899	30607.15
708.243	30403.76
708.588	30389.75
708.932	30170.1
709.277	30220.04
709.621	30150.44
709.966	29971.23
710.31	30194.73
710.654	29794.51
710.998	29738.24
711.342	29857.11
711.687	29843.78
712.031	29617.57
712.375	29511.13
712.719	29519.49
713.063	29520.17
713.407	29590.68
713.75	29353.85
714.094	29465.71
714.438	29288.09
714.782	29351.81
715.125	29175.77
715.469	29307.52
715.812	29067.3
716.156	29065.27
716.499	28973.74
716.843	28980.3
717.186	28834.76
717.53	28973.74
717.873	28914.54
718.216	28683.36
718.559	28609.69
718.902	28573.75
719.246	28614.88
719.589	28451.27
719.932	28336.25
720.275	28292.86
720.617	28455.11
720.96	28304.38
721.303	28305.96
721.646	28300.54
721.989	28004.96
722.331	28046.54
722.674	28024.84
723.016	28039.53
723.359	27968.35
723.701	28079.53
724.044	27876.15
724.386	27797.05
724.729	27865.07
725.071	27734.91
725.413	27811.51
725.755	27675.25
726.097	27541.69
726.439	27560.45
726.782	27533.1
727.124	27590.96
727.465	27533.56
727.807	27488.36
728.149	27339.21
728.491	27306.67
728.833	27399.55
729.175	27241.81
729.516	27275.94
729.858	27190.29
730.199	27240.91
730.541	27124.07
730.882	27059.22
731.224	27104.41
731.565	26894.93
731.906	26897.87
732.248	26921.14
732.589	26854.7
732.93	26773.58
733.271	26820.58
733.612	26776.97
733.953	26757.53
734.294	26762.5
734.635	26628.49
734.976	26649.06
735.317	26613.13
735.658	26420.59
735.999	26491.55
736.339	26480.48
736.68	26482.74
737.021	26416.07
737.361	26223.53
737.702	26411.1
738.042	26290.42
738.383	26239.35
738.723	26222.63
739.063	26161.16
739.404	26167.49
739.744	26095.4
740.084	25965.91
740.424	26049.98
740.764	26088.17
741.104	25971.34
741.444	25861.28
741.784	25783.55
742.124	25949.42
742.464	25813.6
742.804	25754.62
743.143	25746.71
743.483	25664.68
743.823	25633.49
744.162	25595.53
744.502	25643.66
744.841	25532.7
745.181	25532.7
745.52	25509.88
745.86	25419.04
746.199	25343.1
746.538	25451.12
746.877	25518.47
747.216	25428.3
747.556	25381.07
747.895	25264.46
748.234	25297.91
748.573	25144.69
748.911	25204.13
749.25	25170
749.589	25046.84
749.928	25145.37
750.267	25104.47
750.605	24892.72
750.944	24991.7
751.283	24966.17
751.621	24833.97
751.96	24795.55
752.298	24735.66
752.636	24702.67
752.975	24676.46
753.313	24525.27
753.651	24687.08
753.989	24459.51
754.327	24450.02
754.666	24466.07
755.004	24465.84
755.342	24356.92
755.679	24387.88
756.017	24227.65
756.355	24384.26
756.693	24168.45
757.031	24215.22
757.368	24083.93
757.706	24011.61
758.044	23859.3
758.381	23912.18
758.719	23697.5
759.056	23903.14
