Data from hue_30_FLMS001491_76.txt Node
Date: Mon Feb 06 15:05:56 GMT 2017
User: dcchb
Spectrometer: FLMS00149
Trigger mode: 0
Integration Time (sec): 2.000000E-2
Scans to average: 10
Electric dark correction enabled: true
Nonlinearity correction enabled: false
Boxcar width: 0
XAxis mode: Wavelengths
Number of Pixels in Spectrum: 2048
>>>>>Begin Spectral Data<<<<<
341.393	-9.91
341.776	-9.91
342.16	-9.91
342.543	-57.82
342.927	-65.73
343.31	-68.22
343.693	-64.6
344.077	-60.54
344.46	-46.3
344.843	-53.76
345.226	-29.12
345.61	-22.12
345.993	-7.43
346.376	7.49
346.759	-8.79
347.142	14.49
347.525	31.89
347.908	44.09
348.291	63.53
348.674	101.04
349.057	98.33
349.44	106.47
349.823	125.9
350.206	154.37
350.588	204.77
350.971	226.01
351.354	223.3
351.737	240.47
352.119	248.61
352.502	245.67
352.884	276.41
353.267	292.45
353.65	304.43
354.032	302.62
354.414	305.78
354.797	344.88
355.179	301.26
355.562	309.85
355.944	330.42
356.326	343.52
356.709	346.91
357.091	343.97
357.473	362.5
357.855	348.49
358.238	347.59
358.62	346.23
359.002	342.39
359.384	327.03
359.766	347.82
360.148	343.07
360.53	334.93
360.912	345.1
361.294	343.75
361.676	324.09
362.057	325.9
362.439	313.24
362.821	316.18
363.203	332.9
363.584	338.1
363.966	334.93
364.348	339.45
364.729	313.47
365.111	328.16
365.493	310.08
365.874	334.48
366.256	334.26
366.637	310.53
367.019	301.94
367.4	310.75
367.781	289.51
368.163	315.27
368.544	305.78
368.925	301.26
369.306	339.91
369.688	308.95
370.069	326.35
370.45	309.4
370.831	308.04
371.212	331.54
371.593	310.3
371.974	311.43
372.355	327.48
372.736	308.04
373.117	309.4
373.498	301.04
373.879	334.93
374.26	328.83
374.641	321.6
375.021	324.09
375.402	324.54
375.783	338.1
376.163	333.35
376.544	331.54
376.925	325.9
377.305	331.77
377.686	307.14
378.066	331.77
378.447	351.43
378.827	349.62
379.208	334.93
379.588	329.74
379.968	317.76
380.349	338.32
380.729	347.59
381.109	334.48
381.489	337.87
381.87	342.39
382.25	327.03
382.63	358.89
383.01	349.17
383.39	344.43
383.77	347.36
384.15	342.84
384.53	362.28
384.91	359.11
385.29	350.75
385.67	359.57
386.049	359.79
386.429	355.27
386.809	366.35
387.189	360.7
387.568	370.19
387.948	348.49
388.328	380.81
388.707	351.88
389.087	365.89
389.466	366.12
389.846	384.65
390.225	358.21
390.605	367.25
390.984	381.71
391.363	385.55
391.743	362.73
392.122	363.63
392.501	372.9
392.881	361.83
393.26	367.02
393.639	382.62
394.018	400.92
394.397	393.46
394.776	380.58
395.155	394.14
395.534	372.9
395.913	391.43
396.292	378.1
396.671	388.94
397.05	390.75
397.429	403.41
397.808	390.75
398.186	388.49
398.565	395.95
398.944	370.87
399.323	376.74
399.701	413.35
400.08	388.27
400.458	413.12
400.837	385.1
401.215	395.95
401.594	406.12
401.972	392.11
402.351	387.59
402.729	413.35
403.107	417.42
403.486	443.86
403.864	431.43
404.242	428.49
404.62	432.79
404.999	440.47
405.377	442.28
405.755	404.99
406.133	407.7
406.511	419
406.889	422.39
407.267	426.23
407.645	447.02
408.023	426.91
408.401	442.73
408.779	459
409.156	435.5
409.534	431.2
409.912	459.45
410.29	444.54
410.667	446.34
411.045	465.55
411.422	477.3
411.8	461.26
412.178	475.95
412.555	452.22
412.933	467.59
413.31	474.14
413.687	481.15
414.065	468.04
414.442	481.15
414.819	487.02
415.197	485.21
415.574	497.64
415.951	489.51
416.328	509.39
416.705	517.3
417.082	517.75
417.46	492.22
417.837	525.89
418.214	512.11
418.591	517.08
418.967	503.29
419.344	510.07
419.721	511.43
420.098	519.34
420.475	527.02
420.852	534.48
421.228	548.26
421.605	539.68
421.982	521.14
422.358	554.59
422.735	551.2
423.111	550.07
423.488	543.74
423.864	567.47
424.241	553.46
424.617	579.67
424.994	560.24
425.37	551.2
425.746	574.48
426.123	573.12
426.499	561.14
426.875	613.8
427.251	587.58
427.627	615.83
428.003	595.94
428.379	609.05
428.756	615.38
429.132	611.54
429.507	616.06
429.883	625.55
430.259	644.76
430.635	638.2
431.011	617.19
431.387	638.66
431.763	641.82
432.138	648.15
432.514	642.95
432.89	667.36
433.265	662.16
433.641	690.63
434.016	674.59
434.392	666.9
434.767	702.83
435.143	708.71
435.518	723.17
435.894	714.59
436.269	739.67
436.644	721.14
437.02	721.82
437.395	711.2
437.77	737.41
438.145	746.9
438.52	739.22
438.895	744.87
439.271	766.34
439.646	756.39
440.021	762.49
440.395	752.32
440.77	788.03
441.145	793
441.52	781.93
441.895	798.43
442.27	800.91
442.645	807.46
443.019	792.32
443.394	805.66
443.769	826.9
444.143	820.8
444.518	822.38
444.892	817.86
445.267	821.25
445.641	829.38
446.016	817.18
446.39	816.05
446.764	841.14
447.139	836.39
447.513	854.7
447.887	879.55
448.262	849.72
448.636	849.72
449.01	867.35
449.384	872.1
449.758	882.04
450.132	882.72
450.506	887.46
450.88	895.6
451.254	924.52
451.628	914.13
452.002	899.44
452.376	902.15
452.75	913
453.123	924.75
453.497	944.64
453.871	945.77
454.244	974.69
454.618	974.69
454.992	985.31
455.365	1001.81
455.739	995.03
456.112	990.28
456.486	1010.85
456.859	1014.24
457.232	1022.37
457.606	1050.62
457.979	1075.03
458.352	1063.5
458.725	1106.44
459.099	1082.49
459.472	1103.05
459.845	1148.02
460.218	1145.53
460.591	1137.85
460.964	1125.65
461.337	1135.37
461.71	1169.26
462.083	1165.87
462.456	1204.74
462.829	1169.04
463.201	1177.62
463.574	1231.18
463.947	1243.39
464.32	1275.47
464.692	1255.59
465.065	1304.17
465.438	1273.22
465.81	1331.07
466.183	1338.07
466.555	1315.7
466.928	1369.26
467.3	1373.78
467.672	1412.19
468.045	1397.51
468.417	1421.69
468.789	1427.79
469.161	1425.75
469.534	1451.52
469.906	1533.32
470.278	1525.86
470.65	1559.54
471.022	1558.63
471.394	1621.68
471.766	1618.74
472.138	1638.63
472.51	1627.33
472.882	1689.02
473.253	1713.66
473.625	1718.85
473.997	1779.42
474.369	1797.95
474.74	1809.25
475.112	1856.48
475.484	1884.72
475.855	1875.46
476.227	1955.46
476.598	2012.18
476.97	1998.85
477.341	2078.39
477.713	2124.27
478.084	2122.68
478.455	2199.52
478.827	2183.47
479.198	2257.14
479.569	2293.3
479.94	2382.34
480.311	2416.69
480.682	2479.74
481.053	2524.93
481.424	2554.99
481.795	2591.82
482.166	2669.79
482.537	2726.96
482.908	2765.15
483.279	2824.13
483.65	2878.14
484.021	2954.75
484.391	2978.93
484.762	3048.54
485.133	3095.09
485.503	3139.83
485.874	3228.42
486.244	3302.99
486.615	3337.79
486.985	3415.98
487.356	3476.77
487.726	3562.19
488.097	3641.97
488.467	3671.8
488.837	3706.82
489.207	3808.52
489.578	3863.43
489.948	3914.05
490.318	3973.03
490.688	4081.5
491.058	4152.46
491.428	4195.85
491.798	4224.32
492.168	4322.4
492.538	4395.17
492.908	4406.69
493.278	4470.65
493.648	4505.67
494.017	4625.9
494.387	4675.16
494.757	4738.89
495.126	4809.39
495.496	4829.05
495.866	4886.91
496.235	4966.23
496.605	4986.79
496.974	5071.99
497.344	5137.75
497.713	5203.06
498.082	5229.04
498.452	5309.27
498.821	5400.79
499.19	5356.95
499.559	5359.44
499.928	5439.43
500.298	5478.3
500.667	5547
501.036	5582.03
501.405	5616.6
501.774	5700.44
502.143	5710.16
502.512	5716.71
502.88	5806.43
503.249	5830.84
503.618	5870.83
503.987	5930.49
504.356	5932.53
504.724	5995.8
505.093	6050.72
505.462	6036.25
505.83	6147.89
506.199	6194.44
506.567	6193.54
506.936	6221.11
507.304	6326.64
507.672	6301.78
508.041	6393.76
508.409	6420.42
508.777	6469.91
509.145	6492.74
509.514	6586.52
509.882	6611.15
510.25	6578.61
510.618	6634.2
510.986	6624.26
511.354	6727.08
511.722	6753.3
512.09	6812.73
512.458	6836.01
512.826	6872.84
513.193	6919.62
513.561	6906.29
513.929	6944.25
514.297	7042.55
514.664	7049.79
515.032	7080.97
515.4	7174.3
515.767	7167.98
516.135	7150.57
516.502	7171.59
516.869	7271.7
517.237	7240.06
517.604	7247.07
517.972	7337.01
518.339	7466.05
518.706	7398.48
519.073	7432.6
519.44	7466.27
519.808	7511.47
520.175	7547.4
520.542	7644.57
520.909	7623.1
521.276	7569.32
521.643	7701.29
522.009	7739.03
522.376	7825.36
522.743	7871.23
523.11	7837.79
523.477	7962.53
523.843	7926.37
524.21	8035.07
524.577	8078.91
524.943	8128.4
525.31	8168.85
525.676	8208.63
526.043	8259.47
526.409	8336.98
526.776	8407.94
527.142	8418.11
527.508	8412.24
527.874	8519.13
528.241	8502.86
528.607	8560.03
528.973	8598.67
529.339	8604.32
529.705	8700.14
530.071	8787.82
530.437	8801.83
530.803	8873.92
531.169	8907.14
531.535	8941.04
531.901	8949.85
532.267	8980.81
532.632	9019.23
532.998	9075.5
533.364	9123.4
533.73	9117.08
534.095	9170.86
534.461	9285.21
534.826	9240.01
535.192	9290.63
535.557	9460.8
535.923	9394.58
536.288	9426.45
536.653	9523.39
537.019	9514.81
537.384	9529.04
537.749	9541.02
538.114	9637.06
538.479	9673.45
538.845	9680
539.21	9734.91
539.575	9750.28
539.94	9767.46
540.305	9817.17
540.67	9810.39
541.034	9932.87
541.399	9934.91
541.764	10009.03
542.129	10011.52
542.494	10063.04
542.858	10082.93
543.223	10106.43
543.587	10180.33
543.952	10234.34
544.316	10258.52
544.681	10197.95
545.045	10306.2
545.41	10371.28
545.774	10413.77
546.138	10374.67
546.503	10540.54
546.867	10498.96
547.231	10566.3
547.595	10590.03
547.959	10662.57
548.324	10614.44
548.688	10698.96
549.052	10824.15
549.416	10754.32
549.779	10766.52
550.143	10838.16
550.507	10867.31
550.871	10933.75
551.235	10900.08
551.599	10981.21
551.962	11019.85
552.326	11086.52
552.689	11153.63
553.053	11071.83
553.417	11107.31
553.78	11310.69
554.143	11236.57
554.507	11242.9
554.87	11294.87
555.234	11399.05
555.597	11390.24
555.96	11397.69
556.323	11448.54
556.686	11507.52
557.05	11594.98
557.413	11584.58
557.776	11545.71
558.139	11702.32
558.502	11658.48
558.865	11749.32
559.228	11821.64
559.59	11796.33
559.953	11797.01
560.316	11976.89
560.679	11864.8
561.041	11982.99
561.404	12041.29
561.767	12160.84
562.129	12019.37
562.492	12169.2
562.854	12205.81
563.217	12197.9
563.579	12255.53
563.941	12257.56
564.304	12356.99
564.666	12372.81
565.028	12417.55
565.39	12508.63
565.753	12511.56
566.115	12522.86
566.477	12705.46
566.839	12622.3
567.201	12776.19
567.563	12758.56
567.925	12881.72
568.287	12929.63
568.648	12874.94
569.01	12948.16
569.372	12997.88
569.734	12981.83
570.095	13177.31
570.457	13193.81
570.819	13212.11
571.18	13240.36
571.542	13323.07
571.903	13349.51
572.265	13478.09
572.626	13474.7
572.987	13513.8
573.349	13616.17
573.71	13708.14
574.071	13792.21
574.432	13803.28
574.794	14005.08
575.155	14003.95
575.516	14049.15
575.877	14100.9
576.238	14197.4
576.599	14345.19
576.96	14370.27
577.32	14527.56
577.681	14553.09
578.042	14653.65
578.403	14834.21
578.763	14919.64
579.124	15025.85
579.485	15142.68
579.845	15357.82
580.206	15368.66
580.566	15486.4
580.927	15667.64
581.287	15868.76
581.648	15995.31
582.008	16213.39
582.368	16243.67
582.728	16480.05
583.089	16713.49
583.449	16888.62
583.809	17030.99
584.169	17338.33
584.529	17425.11
584.889	17744.19
585.249	17866.45
585.609	18088.14
585.969	18343.95
586.329	18467.57
586.688	18742.59
587.048	19052.41
587.408	19292.85
587.768	19518.39
588.127	19750.24
588.487	20011.48
588.846	20397.46
589.206	20490.56
589.565	20745.25
589.925	20975.52
590.284	21256.19
590.643	21563.08
591.003	21790.42
591.362	22168.94
591.721	22342.49
592.08	22685.76
592.44	23019.99
592.799	23239.19
593.158	23407.1
593.517	23867.88
593.876	24040.53
594.235	24376.79
594.593	24662.43
594.952	24866.95
595.311	25302.41
595.67	25614.04
596.029	25941.95
596.387	26207.7
596.746	26486.11
597.104	26701.25
597.463	26854.69
597.822	27393.21
598.18	27485.86
598.538	27793.87
598.897	28279.06
599.255	28291.94
599.613	28871.36
599.972	28925.82
600.33	29283.78
600.688	29539.14
601.046	29784.56
601.404	30236.52
601.762	30422.28
602.12	30684.65
602.478	30980.46
602.836	31208.47
603.194	31327.11
603.552	31705.64
603.91	31824.5
604.268	32235.56
604.625	32287.77
604.983	32651.37
605.341	32668.32
605.698	33156.22
606.056	33352.37
606.413	33527.28
606.771	33875.75
607.128	34060.83
607.485	34089.08
607.843	34313.7
608.2	34640.25
608.557	34951.65
608.914	35027.36
609.272	35454.46
609.629	35585.99
609.986	35745.3
610.343	35799.31
610.7	36277.72
611.057	36350.94
611.414	36371.73
611.771	36742.11
612.127	36891.26
612.484	37126.28
612.841	37213.74
613.198	37268.88
613.554	37555.42
613.911	37713.39
614.267	37787.74
614.624	38016.2
614.98	38161.96
615.337	38473.14
615.693	38520.6
616.05	38547.26
616.406	38985.44
616.762	38823.41
617.118	38975.95
617.475	39049.17
617.831	39358.77
618.187	39551.53
618.543	39688.25
618.899	40038.75
619.255	39949.03
619.611	39959.43
619.967	40218.86
620.323	40312.87
620.678	40419.53
621.034	40318.29
621.39	40440.32
621.746	40436.71
622.101	40997.82
622.457	40676.7
622.812	40868.78
623.168	41026.07
623.523	40983.81
623.879	41204.14
624.234	41039.18
624.589	41309.68
624.945	41343.35
625.3	41502.67
625.655	41530.91
626.01	41567.97
626.365	41510.8
626.72	41504.25
627.075	41585.15
627.43	41737.69
627.785	41697.69
628.14	41723.22
628.495	41814.52
628.85	41866.95
629.205	41903.11
629.559	42108.75
629.914	41894.75
630.269	41923.9
630.623	41948.3
630.978	41987.85
631.332	42089.09
631.687	42140.39
632.041	42021.07
632.396	42047.28
632.75	41980.39
633.104	42064.68
633.459	41932.26
633.813	41992.6
634.167	41991.24
634.521	42021.97
634.875	42162.08
635.229	42035.99
635.583	41970.45
635.937	41857.68
636.291	42057.68
636.645	42016.32
636.999	41808.65
637.352	41991.24
637.706	41818.82
638.06	42021.97
638.413	41952.82
638.767	41825.82
639.121	41876.22
639.474	41805.03
639.828	41795.31
640.181	41755.54
640.534	41824.01
640.888	41706.73
641.241	41628.09
641.594	41820.4
641.947	41783.56
642.301	41721.19
642.654	41692.04
643.007	41731.81
643.36	41531.14
643.713	41671.93
644.066	41778.36
644.419	41509.67
644.771	41298.6
645.124	40848.22
645.477	40991.49
645.83	40718.05
646.182	40468.12
646.535	40536.14
646.888	40570.49
647.24	40359.19
647.593	40560.54
647.945	40439.19
648.298	40218.63
648.65	40179.76
649.002	40248.46
649.355	40262.02
649.707	40298.18
650.059	40547.21
650.411	40848.22
650.763	40927.99
651.115	41405.72
651.467	41262.45
651.819	41163.69
652.171	40998.05
652.523	41036.24
652.875	41092.73
653.227	40922.57
653.578	41231.26
653.93	41070.59
654.282	40848.45
654.633	40902.68
654.985	40850.03
655.337	40804.38
655.688	40842.12
656.039	41061.55
656.391	40690.26
656.742	40786.3
657.094	40747.43
657.445	40846.41
657.796	40805.28
658.147	40812.97
658.498	40637.83
658.849	40719.64
659.2	40612.07
659.551	40633.76
659.902	40897.48
660.253	40592.63
660.604	40810.25
660.955	40693.2
661.306	40810.03
661.656	40595.57
662.007	40732.06
662.358	40741.1
662.708	40723.48
663.059	40496.36
663.409	40345.18
663.76	40616.36
664.11	40802.8
664.461	40695.68
664.811	40620.43
665.161	40547.89
665.511	40506.99
665.862	40446.87
666.212	40704.27
666.562	40748.56
666.912	40540.21
667.262	40456.82
667.612	40503.14
667.962	40568
668.312	40459.76
668.662	40609.13
669.011	40553.09
669.361	40474.44
669.711	40476.25
670.06	40341.34
670.41	40300.44
670.76	40241
671.109	40364.16
671.459	40437.38
671.808	40337.95
672.157	40332.3
672.507	40124.17
672.856	40217.73
673.205	40141.12
673.554	40339.76
673.904	40080.33
674.253	40424.95
674.602	40280.33
674.951	39680.57
675.3	39510.4
675.649	40160.1
675.998	40105.41
676.346	40102.7
676.695	40329.36
677.044	39887.57
677.393	40176.6
677.741	40118.52
678.09	40056.38
678.438	39908.36
678.787	40018.19
679.135	39881.92
679.484	39695.48
679.832	39842.82
680.181	39582.26
680.529	39815.48
680.877	39608.93
681.225	39641.47
681.573	39768.02
681.922	39418.65
682.27	39332.1
682.618	39371.87
682.966	39312.21
683.314	39278.09
683.661	39113.12
684.009	38996.29
684.357	39008.49
684.705	39116.74
685.053	38955.16
685.4	38980.92
685.748	38848.05
686.095	38740.48
686.443	38781.83
686.79	38596.53
687.138	38680.14
687.485	38672.91
687.832	38369.64
688.18	38617.09
688.527	38322.86
688.874	38414.39
689.221	38192.47
689.568	38203.77
689.915	38194.96
690.262	38046.26
690.609	37822.08
690.956	37775.53
691.303	37794.97
691.65	37552.49
691.997	37650.79
692.344	37336.45
692.69	37378.48
693.037	37479.27
693.383	37041.09
693.73	37219.39
694.077	37015.33
694.423	37089
694.769	36881.09
695.116	36879.51
695.462	36736.69
695.808	36684.04
696.155	36756.35
696.501	36372.86
696.847	36441.78
697.193	36176.03
697.539	36322.91
697.885	36038.63
698.231	35983.49
698.577	35944.39
698.923	35817.84
699.269	35694.68
699.614	35466.67
699.96	35543.27
700.306	35476.61
700.651	35378.31
700.997	35196.62
701.342	35161.14
701.688	35170.85
702.033	35011.54
702.379	34916.4
702.724	34858.55
703.069	34954.82
703.415	34454.26
703.76	34629.85
704.105	34600.25
704.45	34494.04
704.795	34283.42
705.14	34209.52
705.485	34221.05
705.83	34081.84
706.175	34153.48
706.52	33970.89
706.865	33940.83
707.209	33902.41
707.554	33694.28
707.899	33853.38
708.243	33695.19
708.588	33570.67
708.932	33459.49
709.277	33347.85
709.621	33381.07
709.966	33087.29
710.31	33197.35
710.654	32925.04
710.998	33030.35
711.342	33068.99
711.687	32799.39
712.031	32810.46
712.375	32521.43
712.719	32680.98
713.063	32584.48
713.407	32733.63
713.75	32469.68
714.094	32431.94
714.438	32314.21
714.782	32338.39
715.125	32132.52
715.469	32349.23
715.812	32106.08
716.156	31856.14
716.499	31967.32
716.843	32030.6
717.186	31702.02
717.53	31974.55
717.873	31861.34
718.216	31774.11
718.559	31652.08
718.902	31458.18
719.246	31556.71
719.589	31503.61
719.932	31342.25
720.275	31332.54
720.617	31232.2
720.96	31143.84
721.303	31111.3
721.646	31223.84
721.989	31049.16
722.331	31083.73
722.674	30923.28
723.016	30915.6
723.359	30934.81
723.701	30902.49
724.044	30773.46
724.386	30585.44
724.729	30705.66
725.071	30609.39
725.413	30673.8
725.755	30573.46
726.097	30403.97
726.439	30319.23
726.782	30315.16
727.124	30481.71
727.465	30246.69
727.807	30302.06
728.149	30150.42
728.491	30033.59
728.833	30206.01
729.175	30090.31
729.516	29980.48
729.858	29988.39
730.199	29916.53
730.541	29968.73
730.882	29834.05
731.224	29983.87
731.565	29717.44
731.906	29706.82
732.248	29571.91
732.589	29582.53
732.93	29488.74
733.271	29518.12
733.612	29503.21
733.953	29467.05
734.294	29298.47
734.635	29244.46
734.976	29369.43
735.317	29097.57
735.658	29294.63
735.999	29180.5
736.339	29255.53
736.68	29267.96
737.021	29035.42
737.361	29014.18
737.702	29162.88
738.042	29049.66
738.383	28964.01
738.723	29016.21
739.063	28843.11
739.404	28893.51
739.744	28813.51
740.084	28631.37
740.424	28838.37
740.764	28666.85
741.104	28835.2
741.444	28601.31
741.784	28361.77
742.124	28622.78
742.464	28467.08
742.804	28358.83
743.143	28387.98
743.483	28315.22
743.823	28169.91
744.162	28220.76
744.502	28307.08
744.841	28097.37
745.181	28155.9
745.52	27957.94
745.86	28140.76
746.199	28007.2
746.538	27978.05
746.877	27995.22
747.216	27978.28
747.556	27961.55
747.895	28002
748.234	27727.89
748.573	27710.03
748.911	27797.04
749.25	27774.21
749.589	27610.15
749.928	27591.62
750.267	27645.18
750.605	27478.85
750.944	27399.08
751.283	27371.51
751.621	27435.69
751.96	27379.2
752.298	27208.58
752.636	27249.71
752.975	27104.17
753.313	27098.98
753.651	27148.24
753.989	27036.38
754.327	27042.93
754.666	26888.36
755.004	26867.34
755.342	26864.41
755.679	26832.32
756.017	26677.52
756.355	26640.91
756.693	26569.05
757.031	26568.37
757.368	26678.87
757.706	26452.44
758.044	26329.51
758.381	26305.78
758.719	26297.42
